SpectraSuite Data File
++++++++++++++++++++++++++++++++++++
Date: Fri Feb 01 15:58:41 EST 2013
User: group
Dark Spectrum Present: No
Reference Spectrum Present: No
Number of Sampled Component Spectra: 1
Spectrometers: USB2E7196
Integration Time (usec): 35000 (USB2E7196)
Spectra Averaged: 100 (USB2E7196)
Boxcar Smoothing: 10 (USB2E7196)
Correct for Electrical Dark: No (USB2E7196)
Strobe/Lamp Enabled: No (USB2E7196)
Correct for Detector Non-linearity: No (USB2E7196)
Correct for Stray Light: No (USB2E7196)
Number of Pixels in Processed Spectrum: 2048
>>>>>Begin Processed Spectral Data<<<<<
339.09	0.00
339.48	214.82
339.86	216.34
340.24	217.98
340.63	219.67
341.01	221.93
341.39	221.61
341.78	223.49
342.16	224.29
342.54	225.06
342.93	213.37
343.31	224.15
343.69	224.69
344.07	225.18
344.46	225.60
344.84	225.96
345.22	226.21
345.60	226.48
345.99	226.66
346.37	226.79
346.75	226.91
347.13	226.99
347.52	226.98
347.90	226.99
348.28	227.01
348.66	227.05
349.05	227.04
349.43	227.08
349.81	227.12
350.19	227.20
350.57	227.24
350.96	227.31
351.34	227.40
351.72	227.49
352.10	227.54
352.48	227.59
352.87	227.64
353.25	227.69
353.63	227.73
354.01	227.79
354.39	227.87
354.77	227.93
355.15	228.00
355.54	228.07
355.92	228.12
356.30	228.18
356.68	228.28
357.06	228.34
357.44	228.37
357.82	228.42
358.20	228.48
358.58	228.51
358.97	228.53
359.35	228.58
359.73	228.63
360.11	228.70
360.49	228.75
360.87	228.77
361.25	228.84
361.63	228.92
362.01	228.97
362.39	228.96
362.77	228.98
363.15	228.99
363.53	229.03
363.91	229.06
364.29	229.09
364.67	229.02
365.05	229.04
365.43	229.06
365.81	229.06
366.19	229.08
366.57	229.12
366.95	229.13
367.33	229.10
367.71	229.07
368.09	229.06
368.47	229.05
368.85	229.04
369.23	228.98
369.61	228.92
369.99	228.91
370.37	228.92
370.75	228.92
371.13	228.88
371.51	228.79
371.89	228.75
372.27	228.73
372.65	228.70
373.03	228.64
373.41	228.56
373.78	228.54
374.16	228.45
374.54	228.36
374.92	228.28
375.30	228.24
375.68	228.21
376.06	228.16
376.44	228.08
376.82	228.01
377.19	227.96
377.57	227.88
377.95	227.78
378.33	227.68
378.71	227.54
379.09	227.49
379.47	227.51
379.84	227.39
380.22	227.28
380.60	227.20
380.98	227.14
381.36	227.07
381.73	226.98
382.11	226.96
382.49	226.89
382.87	226.80
383.25	226.71
383.62	226.72
384.00	226.64
384.38	226.57
384.76	226.53
385.13	226.49
385.51	226.43
385.89	226.37
386.27	226.29
386.64	226.28
387.02	226.23
387.40	226.14
387.78	226.15
388.15	226.14
388.53	226.10
388.91	226.07
389.29	226.07
389.66	226.05
390.04	226.01
390.42	226.04
390.79	226.02
391.17	226.04
391.55	225.91
391.92	225.91
392.30	225.91
392.68	225.92
393.05	225.91
393.43	225.92
393.81	225.93
394.18	225.96
394.56	226.00
394.94	226.05
395.31	226.06
395.69	226.08
396.06	226.11
396.44	226.14
396.82	226.15
397.19	226.21
397.57	226.24
397.95	226.29
398.32	226.30
398.70	226.40
399.07	226.49
399.45	226.57
399.82	226.64
400.20	226.74
400.58	226.79
400.95	226.85
401.33	226.95
401.70	227.08
402.08	227.19
402.45	227.29
402.83	227.39
403.20	227.51
403.58	227.62
403.95	227.73
404.33	227.86
404.71	227.98
405.08	228.16
405.46	228.31
405.83	228.46
406.21	228.62
406.58	228.80
406.96	228.91
407.33	229.11
407.70	229.28
408.08	229.55
408.45	229.78
408.83	230.02
409.20	230.24
409.58	230.46
409.95	230.73
410.33	230.98
410.70	231.23
411.08	231.54
411.45	231.88
411.82	232.21
412.20	232.57
412.57	233.02
412.95	233.31
413.32	233.71
413.69	234.14
414.07	234.55
414.44	234.99
414.82	235.49
415.19	236.03
415.56	236.60
415.94	237.16
416.31	237.78
416.68	238.43
417.06	239.14
417.43	239.80
417.81	240.56
418.18	241.35
418.55	242.20
418.93	243.05
419.30	243.91
419.67	244.84
420.04	245.79
420.42	246.72
420.79	247.94
421.16	249.09
421.54	250.24
421.91	251.48
422.28	252.70
422.66	254.06
423.03	255.34
423.40	256.67
423.77	258.04
424.15	259.47
424.52	260.93
424.89	262.57
425.26	264.13
425.64	265.60
426.01	267.17
426.38	268.83
426.75	270.51
427.13	272.23
427.50	274.06
427.87	275.92
428.24	277.84
428.61	279.59
428.99	281.54
429.36	283.68
429.73	285.76
430.10	287.82
430.47	289.88
430.85	292.00
431.22	294.23
431.59	296.59
431.96	298.81
432.33	301.31
432.70	303.66
433.08	306.50
433.45	309.15
433.82	311.75
434.19	314.68
434.56	317.52
434.93	320.16
435.30	322.79
435.68	325.70
436.05	328.49
436.42	331.23
436.79	333.76
437.16	336.43
437.53	339.28
437.90	342.10
438.27	344.81
438.64	347.66
439.01	350.24
439.38	352.51
439.75	354.67
440.13	357.13
440.50	359.47
440.87	361.24
441.24	363.18
441.61	365.36
441.98	366.84
442.35	368.61
442.72	370.45
443.09	372.20
443.46	373.18
443.83	373.76
444.20	374.27
444.57	375.08
444.94	375.35
445.31	375.65
445.68	375.99
446.05	376.06
446.42	375.67
446.79	375.24
447.16	374.80
447.53	374.52
447.90	373.32
448.27	372.17
448.64	370.62
449.01	369.50
449.37	367.48
449.74	365.52
450.11	363.31
450.48	360.90
450.85	358.38
451.22	356.25
451.59	354.24
451.96	352.30
452.33	349.73
452.70	347.40
453.07	344.56
453.43	341.64
453.80	338.88
454.17	336.20
454.54	333.67
454.91	330.94
455.28	328.28
455.65	325.85
456.02	323.39
456.38	321.24
456.75	318.54
457.12	316.34
457.49	314.18
457.86	311.97
458.23	310.10
458.59	308.06
458.96	305.97
459.33	304.11
459.70	302.30
460.07	300.76
460.43	299.04
460.80	297.41
461.17	296.00
461.54	294.53
461.91	293.07
462.27	291.62
462.64	290.42
463.01	289.07
463.38	287.78
463.74	286.39
464.11	285.23
464.48	284.19
464.85	283.07
465.21	282.20
465.58	281.28
465.95	280.22
466.32	279.32
466.68	278.40
467.05	277.51
467.42	276.57
467.78	275.66
468.15	274.79
468.52	274.15
468.88	273.33
469.25	272.53
469.62	271.94
469.98	271.25
470.35	270.59
470.72	269.96
471.08	269.32
471.45	268.79
471.82	268.29
472.18	267.70
472.55	267.25
472.92	266.69
473.28	266.23
473.65	265.78
474.02	265.35
474.38	265.03
474.75	264.69
475.11	264.37
475.48	264.08
475.85	263.86
476.21	263.63
476.58	263.41
476.94	263.26
477.31	263.10
477.67	262.96
478.04	262.84
478.41	262.83
478.77	262.85
479.14	262.79
479.50	262.80
479.87	262.91
480.23	263.02
480.60	263.08
480.96	263.20
481.33	263.39
481.69	263.60
482.06	263.79
482.42	264.03
482.79	264.29
483.15	264.63
483.52	264.99
483.88	265.35
484.25	265.74
484.61	266.19
484.98	266.62
485.34	267.21
485.71	267.78
486.07	268.36
486.44	268.98
486.80	269.70
487.17	270.43
487.53	271.25
487.90	272.06
488.26	273.04
488.62	274.02
488.99	274.98
489.35	276.05
489.72	277.17
490.08	278.42
490.44	279.69
490.81	281.02
491.17	282.36
491.54	283.85
491.90	285.42
492.26	287.08
492.63	288.81
492.99	290.60
493.36	292.53
493.72	294.57
494.08	296.67
494.45	298.94
494.81	301.31
495.17	303.70
495.54	306.33
495.90	309.00
496.26	311.79
496.63	314.75
496.99	317.83
497.35	321.09
497.72	324.45
498.08	327.96
498.44	331.62
498.80	335.55
499.17	339.58
499.53	343.75
499.89	348.16
500.26	352.65
500.62	357.33
500.98	362.32
501.34	367.42
501.71	372.71
502.07	378.15
502.43	383.77
502.79	389.57
503.16	395.61
503.52	401.90
503.88	408.36
504.24	415.08
504.60	421.98
504.97	429.10
505.33	436.41
505.69	444.08
506.05	451.84
506.41	459.75
506.78	467.91
507.14	476.39
507.50	485.06
507.86	494.13
508.22	503.35
508.59	512.48
508.95	522.09
509.31	531.90
509.67	542.01
510.03	552.29
510.39	562.92
510.75	573.72
511.12	584.64
511.48	595.92
511.84	607.34
512.20	618.81
512.56	630.75
512.92	643.02
513.28	655.35
513.64	667.87
514.00	680.57
514.37	693.50
514.73	706.48
515.09	719.50
515.45	732.73
515.81	746.27
516.17	760.34
516.53	774.36
516.89	788.49
517.25	802.61
517.61	817.02
517.97	831.43
518.33	845.88
518.69	860.63
519.05	875.56
519.41	890.66
519.77	906.23
520.13	921.66
520.49	936.93
520.85	952.35
521.21	968.16
521.57	984.29
521.93	999.96
522.29	1016.43
522.65	1032.65
523.01	1048.86
523.37	1064.91
523.73	1081.09
524.09	1097.20
524.45	1113.57
524.81	1130.16
525.17	1147.02
525.53	1163.97
525.89	1180.92
526.25	1197.74
526.61	1214.08
526.97	1230.86
527.33	1247.23
527.68	1263.80
528.04	1280.33
528.40	1296.91
528.76	1313.94
529.12	1330.60
529.48	1347.52
529.84	1363.46
530.20	1380.09
530.56	1397.21
530.91	1414.66
531.27	1431.25
531.63	1447.71
531.99	1464.16
532.35	1480.07
532.71	1495.83
533.07	1511.98
533.42	1527.63
533.78	1543.62
534.14	1559.98
534.50	1575.29
534.86	1591.31
535.21	1606.46
535.57	1622.31
535.93	1637.85
536.29	1652.44
536.65	1667.44
537.00	1682.15
537.36	1697.36
537.72	1711.88
538.08	1726.23
538.44	1739.88
538.79	1753.70
539.15	1767.35
539.51	1781.14
539.87	1795.54
540.22	1809.41
540.58	1823.10
540.94	1836.47
541.29	1849.42
541.65	1861.85
542.01	1874.94
542.37	1887.14
542.72	1899.56
543.08	1911.31
543.44	1923.62
543.79	1935.03
544.15	1945.96
544.51	1957.62
544.87	1968.67
545.22	1979.43
545.58	1989.52
545.94	1999.29
546.29	2009.33
546.65	2019.13
547.01	2028.27
547.36	2036.96
547.72	2045.16
548.07	2053.08
548.43	2061.36
548.79	2069.39
549.14	2077.01
549.50	2084.31
549.86	2091.94
550.21	2099.23
550.57	2106.36
550.92	2112.84
551.28	2119.79
551.64	2126.92
551.99	2133.36
552.35	2139.54
552.70	2145.63
553.06	2151.66
553.41	2157.94
553.77	2163.91
554.13	2170.06
554.48	2176.27
554.84	2181.56
555.19	2186.95
555.55	2191.96
555.90	2196.33
556.26	2200.94
556.61	2205.76
556.97	2210.21
557.32	2214.39
557.68	2218.50
558.03	2222.89
558.39	2226.67
558.74	2231.25
559.10	2235.10
559.45	2238.69
559.81	2242.87
560.16	2246.77
560.52	2250.01
560.87	2253.36
561.23	2256.03
561.58	2258.88
561.94	2261.34
562.29	2263.87
562.64	2266.48
563.00	2269.09
563.35	2272.50
563.71	2275.86
564.06	2279.03
564.42	2281.76
564.77	2284.25
565.12	2286.47
565.48	2288.38
565.83	2290.22
566.19	2291.48
566.54	2292.38
566.89	2293.58
567.25	2294.15
567.60	2295.40
567.96	2297.11
568.31	2298.00
568.66	2299.05
569.02	2299.66
569.37	2300.02
569.72	2300.92
570.08	2301.09
570.43	2301.25
570.78	2300.71
571.14	2299.05
571.49	2297.76
571.84	2297.44
572.20	2296.21
572.55	2295.41
572.90	2293.83
573.26	2292.47
573.61	2290.83
573.96	2289.11
574.31	2286.10
574.67	2283.12
575.02	2279.40
575.37	2276.09
575.72	2272.33
576.08	2269.04
576.43	2265.69
576.78	2262.01
577.13	2258.84
577.49	2255.83
577.84	2252.24
578.19	2248.60
578.54	2245.05
578.90	2240.73
579.25	2235.35
579.60	2230.48
579.95	2225.35
580.30	2220.29
580.66	2215.24
581.01	2210.30
581.36	2205.36
581.71	2201.28
582.06	2196.79
582.42	2192.56
582.77	2187.18
583.12	2182.59
583.47	2177.76
583.82	2172.72
584.17	2167.52
584.53	2161.85
584.88	2156.17
585.23	2150.48
585.58	2144.99
585.93	2139.61
586.28	2134.89
586.63	2129.68
586.98	2124.59
587.34	2119.81
587.69	2114.98
588.04	2109.56
588.39	2103.87
588.74	2097.36
589.09	2091.18
589.44	2084.47
589.79	2078.49
590.14	2072.86
590.49	2066.39
590.84	2060.13
591.19	2054.09
591.54	2047.60
591.89	2040.36
592.25	2033.53
592.60	2026.37
592.95	2018.74
593.30	2011.23
593.65	2003.65
594.00	1996.64
594.35	1989.47
594.70	1981.62
595.05	1974.29
595.40	1967.07
595.75	1959.56
596.10	1953.38
596.45	1946.54
596.80	1940.34
597.15	1933.56
597.50	1926.49
597.85	1920.08
598.19	1913.34
598.54	1906.28
598.89	1899.71
599.24	1893.75
599.59	1887.07
599.94	1880.87
600.29	1874.53
600.64	1868.09
600.99	1860.75
601.34	1853.97
601.69	1847.07
602.04	1840.05
602.39	1832.76
602.74	1825.91
603.08	1819.24
603.43	1812.62
603.78	1805.42
604.13	1798.23
604.48	1790.97
604.83	1784.16
605.18	1777.02
605.53	1769.05
605.87	1761.11
606.22	1753.92
606.57	1745.99
606.92	1738.77
607.27	1731.52
607.62	1724.65
607.96	1717.33
608.31	1710.64
608.66	1703.07
609.01	1695.37
609.36	1687.83
609.70	1679.83
610.05	1671.77
610.40	1664.00
610.75	1655.55
611.10	1647.87
611.44	1639.53
611.79	1631.64
612.14	1622.84
612.49	1613.73
612.83	1605.47
613.18	1597.31
613.53	1589.14
613.88	1580.66
614.22	1572.33
614.57	1563.73
614.92	1555.63
615.27	1548.11
615.61	1539.70
615.96	1531.54
616.31	1523.93
616.65	1516.50
617.00	1508.88
617.35	1501.29
617.70	1492.92
618.04	1484.47
618.39	1476.26
618.74	1468.53
619.08	1460.17
619.43	1452.79
619.78	1445.80
620.12	1438.50
620.47	1431.00
620.82	1422.98
621.16	1415.59
621.51	1408.04
621.85	1400.41
622.20	1391.88
622.55	1383.46
622.89	1375.65
623.24	1368.12
623.59	1360.88
623.93	1353.41
624.28	1346.28
624.62	1338.72
624.97	1331.64
625.32	1324.87
625.66	1317.88
626.01	1310.85
626.35	1303.37
626.70	1295.55
627.04	1287.94
627.39	1280.22
627.73	1272.76
628.08	1265.76
628.43	1258.39
628.77	1251.01
629.12	1243.59
629.46	1236.56
629.81	1229.17
630.15	1222.04
630.50	1214.62
630.84	1206.32
631.19	1198.32
631.53	1190.76
631.88	1183.26
632.22	1175.61
632.57	1168.37
632.91	1160.82
633.26	1153.27
633.60	1145.93
633.95	1138.77
634.29	1131.77
634.64	1125.19
634.98	1117.92
635.32	1110.66
635.67	1104.17
636.01	1097.50
636.36	1090.67
636.70	1084.08
637.05	1077.54
637.39	1071.04
637.73	1064.48
638.08	1058.60
638.42	1052.64
638.77	1046.18
639.11	1039.50
639.45	1033.07
639.80	1026.33
640.14	1019.79
640.49	1013.23
640.83	1006.91
641.17	1000.64
641.52	994.23
641.86	987.71
642.20	981.77
642.55	975.53
642.89	968.96
643.23	962.43
643.58	956.62
643.92	950.42
644.26	944.29
644.61	938.18
644.95	932.12
645.29	925.47
645.64	918.78
645.98	912.48
646.32	906.59
646.66	900.48
647.01	894.70
647.35	889.09
647.69	883.27
648.04	877.79
648.38	872.00
648.72	865.99
649.06	859.93
649.41	854.06
649.75	848.07
650.09	842.16
650.43	836.38
650.78	830.15
651.12	824.20
651.46	818.49
651.80	812.71
652.14	807.36
652.49	802.02
652.83	796.83
653.17	791.05
653.51	785.37
653.85	780.07
654.20	774.38
654.54	768.38
654.88	762.70
655.22	756.76
655.56	751.10
655.90	745.70
656.25	740.49
656.59	735.08
656.93	730.05
657.27	724.86
657.61	719.40
657.95	714.37
658.29	709.26
658.64	703.99
658.98	698.69
659.32	693.23
659.66	688.02
660.00	682.72
660.34	677.85
660.68	672.94
661.02	667.86
661.36	663.20
661.70	658.66
662.05	654.28
662.39	649.96
662.73	645.54
663.07	641.12
663.41	636.63
663.75	632.15
664.09	627.58
664.43	623.18
664.77	619.01
665.11	614.76
665.45	610.68
665.79	606.59
666.13	602.57
666.47	598.53
666.81	594.39
667.15	590.29
667.49	586.35
667.83	582.53
668.17	578.66
668.51	574.55
668.85	570.56
669.19	566.77
669.53	562.91
669.87	558.99
670.21	555.31
670.55	551.66
670.89	548.33
671.23	544.87
671.57	541.38
671.91	537.88
672.25	534.38
672.58	530.85
672.92	527.53
673.26	524.35
673.60	521.16
673.94	518.05
674.28	515.15
674.62	512.22
674.96	509.13
675.30	506.23
675.64	503.34
675.97	500.59
676.31	497.69
676.65	494.77
676.99	492.12
677.33	489.27
677.67	486.48
678.01	483.34
678.34	480.43
678.68	477.57
679.02	474.75
679.36	472.02
679.70	469.25
680.04	466.45
680.37	463.55
680.71	460.78
681.05	458.17
681.39	455.45
681.73	452.78
682.06	450.27
682.40	447.67
682.74	445.12
683.08	442.56
683.42	439.97
683.75	437.50
684.09	434.93
684.43	432.44
684.77	429.93
685.10	427.63
685.44	425.28
685.78	422.98
686.12	420.71
686.45	418.39
686.79	416.11
687.13	413.96
687.46	411.77
687.80	409.57
688.14	407.33
688.48	405.28
688.81	403.01
689.15	400.88
689.49	398.76
689.82	396.68
690.16	394.59
690.50	392.63
690.83	390.66
691.17	388.68
691.51	386.76
691.84	384.94
692.18	382.97
692.52	380.98
692.85	379.04
693.19	377.16
693.52	375.35
693.86	373.51
694.20	371.65
694.53	369.86
694.87	368.09
695.21	366.30
695.54	364.48
695.88	362.73
696.21	360.98
696.55	359.30
696.88	357.66
697.22	356.01
697.56	354.41
697.89	352.76
698.23	351.13
698.56	349.51
698.90	347.91
699.23	346.31
699.57	344.76
699.90	343.24
700.24	341.72
700.58	340.16
700.91	338.68
701.25	337.25
701.58	335.92
701.92	334.48
702.25	333.11
702.59	331.69
702.92	330.41
703.26	329.12
703.59	327.86
703.93	326.64
704.26	325.37
704.60	324.04
704.93	322.73
705.26	321.50
705.60	320.30
705.93	319.12
706.27	318.04
706.60	316.97
706.94	315.88
707.27	314.76
707.61	313.71
707.94	312.66
708.27	311.59
708.61	310.54
708.94	309.58
709.28	308.58
709.61	307.66
709.94	306.75
710.28	305.74
710.61	304.74
710.95	303.68
711.28	302.80
711.61	301.86
711.95	300.95
712.28	300.03
712.61	299.10
712.95	298.18
713.28	297.35
713.61	296.47
713.95	295.57
714.28	294.73
714.61	293.86
714.95	293.07
715.28	292.22
715.61	291.32
715.95	290.43
716.28	289.61
716.61	288.76
716.95	287.94
717.28	287.20
717.61	286.44
717.94	285.68
718.28	284.86
718.61	284.15
718.94	283.44
719.27	282.79
719.61	282.10
719.94	281.41
720.27	280.65
720.60	279.96
720.94	279.32
721.27	278.73
721.60	278.13
721.93	277.49
722.27	276.92
722.60	276.35
722.93	275.76
723.26	275.18
723.59	274.63
723.93	274.07
724.26	273.48
724.59	272.88
724.92	272.36
725.25	271.85
725.59	271.31
725.92	270.82
726.25	270.28
726.58	269.80
726.91	269.31
727.24	268.90
727.57	268.42
727.91	267.91
728.24	267.42
728.57	266.92
728.90	266.48
729.23	265.97
729.56	265.54
729.89	265.06
730.22	264.61
730.55	264.15
730.89	263.69
731.22	263.25
731.55	262.82
731.88	262.44
732.21	262.02
732.54	261.57
732.87	261.17
733.20	260.75
733.53	260.39
733.86	260.02
734.19	259.56
734.52	259.23
734.85	258.94
735.18	258.53
735.51	258.18
735.84	257.82
736.17	257.50
736.50	257.09
736.83	256.90
737.16	256.60
737.49	256.24
737.82	255.89
738.15	255.58
738.48	255.27
738.81	254.92
739.14	254.60
739.47	254.27
739.80	253.95
740.13	253.66
740.46	253.29
740.79	252.98
741.12	252.68
741.45	252.33
741.78	252.00
742.11	251.73
742.44	251.41
742.77	251.13
743.10	250.78
743.43	250.50
743.75	250.09
744.08	249.91
744.41	249.67
744.74	249.40
745.07	249.11
745.40	248.85
745.73	248.62
746.06	248.34
746.39	248.11
746.71	247.85
747.04	247.60
747.37	247.35
747.70	247.09
748.03	246.84
748.36	246.65
748.68	246.41
749.01	246.15
749.34	245.93
749.67	245.70
750.00	245.48
750.33	245.32
750.65	245.15
750.98	244.81
751.31	244.57
751.64	244.35
751.97	244.20
752.29	244.02
752.62	243.75
752.95	243.57
753.28	243.33
753.60	243.12
753.93	242.96
754.26	242.76
754.59	242.54
754.91	242.34
755.24	242.11
755.57	241.93
755.90	241.71
756.22	241.52
756.55	241.31
756.88	241.14
757.20	240.89
757.53	240.69
757.86	240.52
758.19	240.36
758.51	240.21
758.84	240.01
759.17	239.81
759.49	239.62
759.82	239.48
760.15	239.35
760.47	239.20
760.80	238.98
761.13	238.85
761.45	238.69
761.78	238.55
762.11	238.44
762.43	238.25
762.76	238.11
763.08	237.99
763.41	237.85
763.74	237.68
764.06	237.56
764.39	237.40
764.71	237.27
765.04	237.13
765.37	236.97
765.69	236.81
766.02	236.68
766.34	236.57
766.67	236.40
767.00	236.28
767.32	236.21
767.65	236.18
767.97	236.05
768.30	235.94
768.62	235.85
768.95	235.68
769.27	235.58
769.60	235.52
769.92	235.35
770.25	235.23
770.57	235.15
770.90	235.03
771.22	234.90
771.55	234.82
771.87	234.74
772.20	234.65
772.52	234.63
772.85	234.67
773.17	234.56
773.50	234.47
773.82	234.36
774.15	234.23
774.47	234.06
774.80	233.96
775.12	233.89
775.45	233.79
775.77	233.71
776.09	233.64
776.42	233.54
776.74	233.54
777.07	233.46
777.39	233.41
777.72	233.32
778.04	233.28
778.36	233.18
778.69	233.10
779.01	233.05
779.33	232.91
779.66	232.73
779.98	232.67
780.31	232.63
780.63	232.65
780.95	232.61
781.28	232.57
781.60	232.53
781.92	232.48
782.25	232.41
782.57	232.37
782.89	232.29
783.22	232.24
783.54	232.14
783.86	232.10
784.19	232.04
784.51	232.05
784.83	231.99
785.16	231.95
785.48	231.93
785.80	231.90
786.12	231.89
786.45	231.84
786.77	231.81
787.09	231.79
