SpectraSuite Data File
++++++++++++++++++++++++++++++++++++
Date: Fri Feb 01 16:06:16 EST 2013
User: group
Dark Spectrum Present: No
Reference Spectrum Present: No
Number of Sampled Component Spectra: 1
Spectrometers: USB2E7196
Integration Time (usec): 35000 (USB2E7196)
Spectra Averaged: 100 (USB2E7196)
Boxcar Smoothing: 10 (USB2E7196)
Correct for Electrical Dark: No (USB2E7196)
Strobe/Lamp Enabled: No (USB2E7196)
Correct for Detector Non-linearity: No (USB2E7196)
Correct for Stray Light: No (USB2E7196)
Number of Pixels in Processed Spectrum: 2048
>>>>>Begin Processed Spectral Data<<<<<
339.09	0.00
339.48	215.02
339.86	216.56
340.24	217.96
340.63	218.73
341.01	221.33
341.39	222.24
341.78	222.86
342.16	224.47
342.54	224.67
342.93	213.16
343.31	223.93
343.69	224.44
344.07	224.89
344.46	225.28
344.84	225.68
345.22	225.96
345.60	226.18
345.99	226.37
346.37	226.48
346.75	226.57
347.13	226.66
347.52	226.69
347.90	226.75
348.28	226.77
348.66	226.81
349.05	226.79
349.43	226.83
349.81	226.84
350.19	226.91
350.57	226.97
350.96	227.03
351.34	227.11
351.72	227.22
352.10	227.30
352.48	227.40
352.87	227.43
353.25	227.46
353.63	227.52
354.01	227.59
354.39	227.66
354.77	227.72
355.15	227.81
355.54	227.87
355.92	227.90
356.30	227.99
356.68	228.12
357.06	228.17
357.44	228.26
357.82	228.31
358.20	228.38
358.58	228.44
358.97	228.49
359.35	228.56
359.73	228.64
360.11	228.68
360.49	228.75
360.87	228.78
361.25	228.85
361.63	228.92
362.01	228.95
362.39	228.97
362.77	229.06
363.15	229.08
363.53	229.16
363.91	229.21
364.29	229.23
364.67	229.18
365.05	229.21
365.43	229.19
365.81	229.23
366.19	229.27
366.57	229.32
366.95	229.31
367.33	229.29
367.71	229.29
368.09	229.33
368.47	229.28
368.85	229.27
369.23	229.26
369.61	229.20
369.99	229.20
370.37	229.19
370.75	229.17
371.13	229.14
371.51	229.06
371.89	229.01
372.27	228.98
372.65	228.91
373.03	228.87
373.41	228.84
373.78	228.80
374.16	228.67
374.54	228.58
374.92	228.51
375.30	228.43
375.68	228.33
376.06	228.25
376.44	228.20
376.82	228.14
377.19	228.07
377.57	228.01
377.95	227.91
378.33	227.85
378.71	227.76
379.09	227.66
379.47	227.58
379.84	227.51
380.22	227.41
380.60	227.32
380.98	227.27
381.36	227.19
381.73	227.08
382.11	227.06
382.49	226.96
382.87	226.88
383.25	226.83
383.62	226.89
384.00	226.81
384.38	226.75
384.76	226.73
385.13	226.74
385.51	226.68
385.89	226.62
386.27	226.58
386.64	226.55
387.02	226.53
387.40	226.50
387.78	226.45
388.15	226.42
388.53	226.44
388.91	226.39
389.29	226.32
389.66	226.32
390.04	226.27
390.42	226.30
390.79	226.33
391.17	226.28
391.55	226.15
391.92	226.14
392.30	226.13
392.68	226.10
393.05	226.10
393.43	226.11
393.81	226.12
394.18	226.13
394.56	226.12
394.94	226.12
395.31	226.13
395.69	226.18
396.06	226.22
396.44	226.20
396.82	226.23
397.19	226.32
397.57	226.34
397.95	226.38
398.32	226.37
398.70	226.40
399.07	226.51
399.45	226.57
399.82	226.65
400.20	226.72
400.58	226.80
400.95	226.79
401.33	226.89
401.70	227.02
402.08	227.12
402.45	227.19
402.83	227.31
403.20	227.43
403.58	227.52
403.95	227.61
404.33	227.74
404.71	227.89
405.08	228.08
405.46	228.24
405.83	228.40
406.21	228.56
406.58	228.70
406.96	228.83
407.33	228.98
407.70	229.18
408.08	229.42
408.45	229.64
408.83	229.89
409.20	230.08
409.58	230.27
409.95	230.48
410.33	230.76
410.70	231.01
411.08	231.31
411.45	231.59
411.82	231.93
412.20	232.29
412.57	232.69
412.95	232.97
413.32	233.33
413.69	233.75
414.07	234.20
414.44	234.71
414.82	235.21
415.19	235.75
415.56	236.26
415.94	236.83
416.31	237.44
416.68	238.07
417.06	238.81
417.43	239.48
417.81	240.28
418.18	241.05
418.55	241.89
418.93	242.77
419.30	243.69
419.67	244.61
420.04	245.58
420.42	246.57
420.79	247.75
421.16	248.94
421.54	250.10
421.91	251.30
422.28	252.55
422.66	253.89
423.03	255.23
423.40	256.62
423.77	258.00
424.15	259.44
424.52	260.93
424.89	262.52
425.26	264.10
425.64	265.55
426.01	267.16
426.38	268.83
426.75	270.49
427.13	272.22
427.50	274.04
427.87	275.90
428.24	277.74
428.61	279.48
428.99	281.44
429.36	283.58
429.73	285.64
430.10	287.69
430.47	289.73
430.85	291.83
431.22	294.08
431.59	296.46
431.96	298.69
432.33	301.19
432.70	303.58
433.08	306.39
433.45	309.04
433.82	311.66
434.19	314.58
434.56	317.40
434.93	320.07
435.30	322.71
435.68	325.61
436.05	328.47
436.42	331.24
436.79	333.73
437.16	336.43
437.53	339.28
437.90	342.07
438.27	344.82
438.64	347.68
439.01	350.23
439.38	352.47
439.75	354.67
440.13	357.09
440.50	359.44
440.87	361.29
441.24	363.21
441.61	365.32
441.98	366.79
442.35	368.56
442.72	370.41
443.09	372.20
443.46	373.15
443.83	373.72
444.20	374.25
444.57	375.06
444.94	375.34
445.31	375.69
445.68	376.03
446.05	376.09
446.42	375.69
446.79	375.28
447.16	374.82
447.53	374.46
447.90	373.34
448.27	372.16
448.64	370.54
449.01	369.43
449.37	367.49
449.74	365.58
450.11	363.35
450.48	360.83
450.85	358.30
451.22	356.20
451.59	354.19
451.96	352.24
452.33	349.62
452.70	347.25
453.07	344.41
453.43	341.52
453.80	338.75
454.17	336.07
454.54	333.51
454.91	330.84
455.28	328.15
455.65	325.69
456.02	323.25
456.38	321.11
456.75	318.43
457.12	316.17
457.49	313.97
457.86	311.81
458.23	309.96
458.59	307.90
458.96	305.82
459.33	303.98
459.70	302.11
460.07	300.65
460.43	298.93
460.80	297.28
461.17	295.81
461.54	294.34
461.91	292.91
462.27	291.49
462.64	290.16
463.01	288.78
463.38	287.46
463.74	286.09
464.11	284.94
464.48	283.93
464.85	282.84
465.21	281.96
465.58	281.02
465.95	279.95
466.32	279.06
466.68	278.15
467.05	277.25
467.42	276.38
467.78	275.42
468.15	274.56
468.52	273.93
468.88	273.12
469.25	272.35
469.62	271.73
469.98	271.06
470.35	270.48
470.72	269.95
471.08	269.31
471.45	268.78
471.82	268.23
472.18	267.64
472.55	267.20
472.92	266.69
473.28	266.24
473.65	265.76
474.02	265.31
474.38	264.94
474.75	264.66
475.11	264.34
475.48	264.10
475.85	263.90
476.21	263.68
476.58	263.49
476.94	263.35
477.31	263.20
477.67	263.06
478.04	262.97
478.41	262.93
478.77	262.98
479.14	262.95
479.50	262.96
479.87	263.04
480.23	263.11
480.60	263.17
480.96	263.30
481.33	263.52
481.69	263.74
482.06	263.94
482.42	264.12
482.79	264.34
483.15	264.66
483.52	265.04
483.88	265.38
484.25	265.77
484.61	266.19
484.98	266.67
485.34	267.26
485.71	267.83
486.07	268.40
486.44	268.94
486.80	269.64
487.17	270.39
487.53	271.17
487.90	272.00
488.26	272.93
488.62	273.92
488.99	274.90
489.35	275.96
489.72	277.08
490.08	278.28
490.44	279.56
490.81	280.87
491.17	282.20
491.54	283.66
491.90	285.22
492.26	286.88
492.63	288.56
492.99	290.31
493.36	292.18
493.72	294.27
494.08	296.37
494.45	298.61
494.81	300.98
495.17	303.43
495.54	306.02
495.90	308.70
496.26	311.52
496.63	314.52
496.99	317.63
497.35	320.87
497.72	324.31
498.08	327.81
498.44	331.47
498.80	335.44
499.17	339.47
499.53	343.65
499.89	348.01
500.26	352.55
500.62	357.23
500.98	362.25
501.34	367.34
501.71	372.69
502.07	378.17
502.43	383.81
502.79	389.63
503.16	395.72
503.52	402.05
503.88	408.50
504.24	415.16
504.60	422.02
504.97	429.18
505.33	436.49
505.69	444.22
506.05	452.03
506.41	459.89
506.78	468.10
507.14	476.51
507.50	485.29
507.86	494.39
508.22	503.62
508.59	512.82
508.95	522.40
509.31	532.25
509.67	542.36
510.03	552.67
510.39	563.25
510.75	574.04
511.12	584.97
511.48	596.27
511.84	607.65
512.20	619.20
512.56	631.22
512.92	643.35
513.28	655.75
513.64	668.24
514.00	680.91
514.37	693.81
514.73	706.89
515.09	719.90
515.45	733.11
515.81	746.62
516.17	760.61
516.53	774.74
516.89	788.92
517.25	803.08
517.61	817.44
517.97	831.89
518.33	846.32
518.69	861.04
519.05	876.00
519.41	891.21
519.77	906.70
520.13	922.11
520.49	937.54
520.85	952.87
521.21	968.49
521.57	984.78
521.93	1000.63
522.29	1016.96
522.65	1033.18
523.01	1049.54
523.37	1065.64
523.73	1081.80
524.09	1097.91
524.45	1114.14
524.81	1130.71
525.17	1147.52
525.53	1164.38
525.89	1181.22
526.25	1198.01
526.61	1214.35
526.97	1231.04
527.33	1247.50
527.68	1264.12
528.04	1280.53
528.40	1297.03
528.76	1314.13
529.12	1330.74
529.48	1347.47
529.84	1363.50
530.20	1380.07
530.56	1396.83
530.91	1414.22
531.27	1430.95
531.63	1447.33
531.99	1463.97
532.35	1479.90
532.71	1495.77
533.07	1512.05
533.42	1527.85
533.78	1543.91
534.14	1560.17
534.50	1575.43
534.86	1591.24
535.21	1606.36
535.57	1622.19
535.93	1637.85
536.29	1652.66
536.65	1667.54
537.00	1682.38
537.36	1697.59
537.72	1712.21
538.08	1726.71
538.44	1740.40
538.79	1754.17
539.15	1767.78
539.51	1781.40
539.87	1795.69
540.22	1809.26
540.58	1822.83
540.94	1836.16
541.29	1849.06
541.65	1861.61
542.01	1874.89
542.37	1887.16
542.72	1899.48
543.08	1911.16
543.44	1923.42
543.79	1934.59
544.15	1945.64
544.51	1957.02
544.87	1967.99
545.22	1978.73
545.58	1988.89
545.94	1998.62
546.29	2008.46
546.65	2018.30
547.01	2027.56
547.36	2036.31
547.72	2044.92
548.07	2052.73
548.43	2060.94
548.79	2068.85
549.14	2076.46
549.50	2083.71
549.86	2091.40
550.21	2098.65
550.57	2105.97
550.92	2112.49
551.28	2119.49
551.64	2126.49
551.99	2133.08
552.35	2139.30
552.70	2145.31
553.06	2151.21
553.41	2157.62
553.77	2163.68
554.13	2169.87
554.48	2175.99
554.84	2181.49
555.19	2186.70
555.55	2191.92
555.90	2196.36
556.26	2201.20
556.61	2205.94
556.97	2210.20
557.32	2214.33
557.68	2218.41
558.03	2222.62
558.39	2226.19
558.74	2230.85
559.10	2234.82
559.45	2238.41
559.81	2242.65
560.16	2246.58
560.52	2249.93
560.87	2253.24
561.23	2255.93
561.58	2258.77
561.94	2261.21
562.29	2263.49
562.64	2266.11
563.00	2268.73
563.35	2272.22
563.71	2275.47
564.06	2278.63
564.42	2281.55
564.77	2284.19
565.12	2286.57
565.48	2288.63
565.83	2290.67
566.19	2291.90
566.54	2292.76
566.89	2293.97
567.25	2294.69
567.60	2295.97
567.96	2297.60
568.31	2298.43
568.66	2299.50
569.02	2300.00
569.37	2300.50
569.72	2301.45
570.08	2301.63
570.43	2301.77
570.78	2301.28
571.14	2299.72
571.49	2298.42
571.84	2297.98
572.20	2296.87
572.55	2295.82
572.90	2294.18
573.26	2292.81
573.61	2291.24
573.96	2289.46
574.31	2286.60
574.67	2283.43
575.02	2279.84
575.37	2276.38
575.72	2272.58
576.08	2269.30
576.43	2265.98
576.78	2262.09
577.13	2258.86
577.49	2255.87
577.84	2252.27
578.19	2248.57
578.54	2244.90
578.90	2240.70
579.25	2235.32
579.60	2230.19
579.95	2225.26
580.30	2220.24
580.66	2215.15
581.01	2210.14
581.36	2205.35
581.71	2201.14
582.06	2196.74
582.42	2192.31
582.77	2187.24
583.12	2182.85
583.47	2178.17
583.82	2173.23
584.17	2168.26
584.53	2162.71
584.88	2157.08
585.23	2151.44
585.58	2145.83
585.93	2140.44
586.28	2135.74
586.63	2130.70
586.98	2125.76
587.34	2121.04
587.69	2116.19
588.04	2110.79
588.39	2105.22
588.74	2098.70
589.09	2092.53
589.44	2085.89
589.79	2079.91
590.14	2074.32
590.49	2067.68
590.84	2061.30
591.19	2055.24
591.54	2048.75
591.89	2041.47
592.25	2034.65
592.60	2027.40
592.95	2019.97
593.30	2012.57
593.65	2004.89
594.00	1997.76
594.35	1990.44
594.70	1982.30
595.05	1975.16
595.40	1968.05
595.75	1960.49
596.10	1954.40
596.45	1947.66
596.80	1941.45
597.15	1934.77
597.50	1927.63
597.85	1921.15
598.19	1914.47
598.54	1907.44
598.89	1900.76
599.24	1894.88
599.59	1888.15
599.94	1881.87
600.29	1875.52
600.64	1868.98
600.99	1861.56
601.34	1854.83
601.69	1847.87
602.04	1841.13
602.39	1833.78
602.74	1827.03
603.08	1820.29
603.43	1813.51
603.78	1806.25
604.13	1799.08
604.48	1791.76
604.83	1784.89
605.18	1777.85
605.53	1769.78
605.87	1761.74
606.22	1754.43
606.57	1746.47
606.92	1739.24
607.27	1732.17
607.62	1725.33
607.96	1718.07
608.31	1711.44
608.66	1703.87
609.01	1696.46
609.36	1688.83
609.70	1680.79
610.05	1672.53
610.40	1664.81
610.75	1656.35
611.10	1648.63
611.44	1640.14
611.79	1632.12
612.14	1623.32
612.49	1614.25
612.83	1606.01
613.18	1597.95
613.53	1589.93
613.88	1581.35
614.22	1573.14
614.57	1564.45
614.92	1556.36
615.27	1548.93
615.61	1540.53
615.96	1532.42
616.31	1524.76
616.65	1517.41
617.00	1509.86
617.35	1502.14
617.70	1493.93
618.04	1485.47
618.39	1477.28
618.74	1469.74
619.08	1461.45
619.43	1454.02
619.78	1447.17
620.12	1439.96
620.47	1432.48
620.82	1424.32
621.16	1417.03
621.51	1409.40
621.85	1401.80
622.20	1393.23
622.55	1384.71
622.89	1376.91
623.24	1369.31
623.59	1361.80
623.93	1354.25
624.28	1347.03
624.62	1339.59
624.97	1332.31
625.32	1325.57
625.66	1318.54
626.01	1311.29
626.35	1303.87
626.70	1296.12
627.04	1288.34
627.39	1280.42
627.73	1272.95
628.08	1266.02
628.43	1258.70
628.77	1251.21
629.12	1243.61
629.46	1236.43
629.81	1228.99
630.15	1221.71
630.50	1214.24
630.84	1206.07
631.19	1198.16
631.53	1190.66
631.88	1183.10
632.22	1175.53
632.57	1168.15
632.91	1160.46
633.26	1152.98
633.60	1145.61
633.95	1138.50
634.29	1131.47
634.64	1124.85
634.98	1117.53
635.32	1110.35
635.67	1103.67
636.01	1097.11
636.36	1090.28
636.70	1083.76
637.05	1077.27
637.39	1070.87
637.73	1064.40
638.08	1058.52
638.42	1052.49
638.77	1046.03
639.11	1039.49
639.45	1033.05
639.80	1026.36
640.14	1020.10
640.49	1013.56
640.83	1007.28
641.17	1001.04
641.52	994.65
641.86	988.16
642.20	982.24
642.55	975.92
642.89	969.41
643.23	962.87
643.58	957.21
643.92	950.90
644.26	944.78
644.61	938.73
644.95	932.74
645.29	926.09
645.64	919.42
645.98	913.07
646.32	907.27
646.66	901.27
647.01	895.51
647.35	889.77
647.69	884.01
648.04	878.47
648.38	872.65
648.72	866.70
649.06	860.68
649.41	854.83
649.75	848.91
650.09	843.03
650.43	837.22
650.78	831.04
651.12	825.21
651.46	819.49
651.80	813.83
652.14	808.42
652.49	803.07
652.83	797.81
653.17	792.16
653.51	786.40
653.85	780.97
654.20	775.37
654.54	769.33
654.88	763.49
655.22	757.56
655.56	751.87
655.90	746.37
656.25	741.15
656.59	735.73
656.93	730.60
657.27	725.39
657.61	719.92
657.95	714.86
658.29	709.78
658.64	704.54
658.98	699.18
659.32	693.69
659.66	688.53
660.00	683.21
660.34	678.24
660.68	673.30
661.02	668.28
661.36	663.48
661.70	659.04
662.05	654.72
662.39	650.41
662.73	645.96
663.07	641.63
663.41	637.11
663.75	632.67
664.09	628.16
664.43	623.78
664.77	619.62
665.11	615.32
665.45	611.15
665.79	607.09
666.13	602.96
666.47	598.82
666.81	594.67
667.15	590.62
667.49	586.67
667.83	582.83
668.17	578.89
668.51	574.88
668.85	570.81
669.19	566.94
669.53	563.11
669.87	559.20
670.21	555.47
670.55	551.85
670.89	548.42
671.23	544.93
671.57	541.41
671.91	537.94
672.25	534.42
672.58	530.93
672.92	527.52
673.26	524.29
673.60	521.19
673.94	518.10
674.28	515.12
674.62	512.21
674.96	509.12
675.30	506.18
675.64	503.21
675.97	500.48
676.31	497.70
676.65	494.81
676.99	492.09
677.33	489.20
677.67	486.47
678.01	483.42
678.34	480.42
678.68	477.53
679.02	474.67
679.36	471.95
679.70	469.21
680.04	466.40
680.37	463.55
680.71	460.74
681.05	458.08
681.39	455.41
681.73	452.72
682.06	450.18
682.40	447.65
682.74	445.15
683.08	442.57
683.42	439.92
683.75	437.40
684.09	434.90
684.43	432.45
684.77	429.95
685.10	427.60
685.44	425.36
685.78	423.04
686.12	420.77
686.45	418.50
686.79	416.21
687.13	414.04
687.46	411.86
687.80	409.73
688.14	407.51
688.48	405.44
688.81	403.19
689.15	401.01
689.49	398.88
689.82	396.79
690.16	394.71
690.50	392.74
690.83	390.78
691.17	388.75
691.51	386.89
691.84	384.99
692.18	383.06
692.52	381.06
692.85	379.15
693.19	377.29
693.52	375.41
693.86	373.58
694.20	371.78
694.53	369.97
694.87	368.10
695.21	366.34
695.54	364.52
695.88	362.82
696.21	361.09
696.55	359.43
696.88	357.75
697.22	356.05
697.56	354.41
697.89	352.75
698.23	351.13
698.56	349.47
698.90	347.91
699.23	346.26
699.57	344.74
699.90	343.25
700.24	341.70
700.58	340.16
700.91	338.64
701.25	337.18
701.58	335.81
701.92	334.46
702.25	333.07
702.59	331.67
702.92	330.34
703.26	329.08
703.59	327.74
703.93	326.59
704.26	325.38
704.60	324.11
704.93	322.82
705.26	321.59
705.60	320.46
705.93	319.29
706.27	318.26
706.60	317.14
706.94	316.05
707.27	314.90
707.61	313.86
707.94	312.85
708.27	311.77
708.61	310.73
708.94	309.74
709.28	308.75
709.61	307.79
709.94	306.85
710.28	305.78
710.61	304.79
710.95	303.68
711.28	302.76
711.61	301.81
711.95	300.87
712.28	299.91
712.61	298.91
712.95	298.00
713.28	297.08
713.61	296.20
713.95	295.29
714.28	294.44
714.61	293.58
714.95	292.72
715.28	291.86
715.61	290.93
715.95	290.05
716.28	289.19
716.61	288.40
716.95	287.55
717.28	286.82
717.61	286.10
717.94	285.37
718.28	284.57
718.61	283.83
718.94	283.15
719.27	282.51
719.61	281.85
719.94	281.19
720.27	280.52
720.60	279.85
720.94	279.25
721.27	278.64
721.60	278.05
721.93	277.46
722.27	276.94
722.60	276.39
722.93	275.85
723.26	275.30
723.59	274.71
723.93	274.19
724.26	273.63
724.59	273.05
724.92	272.51
725.25	271.99
725.59	271.49
725.92	270.98
726.25	270.46
726.58	269.94
726.91	269.45
727.24	268.95
727.57	268.48
727.91	267.97
728.24	267.51
728.57	267.03
728.90	266.58
729.23	266.10
729.56	265.68
729.89	265.16
730.22	264.68
730.55	264.25
730.89	263.79
731.22	263.35
731.55	262.91
731.88	262.49
732.21	262.10
732.54	261.68
732.87	261.25
733.20	260.84
733.53	260.44
733.86	260.08
734.19	259.69
734.52	259.33
734.85	259.02
735.18	258.63
735.51	258.25
735.84	257.87
736.17	257.47
736.50	257.05
736.83	256.84
737.16	256.49
737.49	256.13
737.82	255.75
738.15	255.43
738.48	255.11
738.81	254.76
739.14	254.45
739.47	254.11
739.80	253.81
740.13	253.51
740.46	253.23
740.79	252.88
741.12	252.55
741.45	252.22
741.78	251.89
742.11	251.58
742.44	251.24
742.77	250.94
743.10	250.67
743.43	250.40
743.75	250.03
744.08	249.88
744.41	249.61
744.74	249.36
745.07	249.10
745.40	248.83
745.73	248.62
746.06	248.31
746.39	248.07
746.71	247.75
747.04	247.45
747.37	247.14
747.70	246.92
748.03	246.67
748.36	246.42
748.68	246.15
749.01	245.91
749.34	245.74
749.67	245.55
750.00	245.34
750.33	245.15
750.65	244.96
750.98	244.63
751.31	244.39
751.64	244.17
751.97	244.00
752.29	243.78
752.62	243.49
752.95	243.30
753.28	243.10
753.60	242.93
753.93	242.78
754.26	242.57
754.59	242.35
754.91	242.15
755.24	241.97
755.57	241.75
755.90	241.59
756.22	241.35
756.55	241.15
756.88	240.95
757.20	240.70
757.53	240.49
757.86	240.36
758.19	240.19
758.51	240.01
758.84	239.80
759.17	239.63
759.49	239.51
759.82	239.39
760.15	239.20
760.47	239.03
760.80	238.83
761.13	238.70
761.45	238.51
761.78	238.35
762.11	238.18
762.43	238.08
762.76	237.90
763.08	237.81
763.41	237.67
763.74	237.54
764.06	237.41
764.39	237.27
764.71	237.11
765.04	236.99
765.37	236.84
765.69	236.71
766.02	236.57
766.34	236.39
766.67	236.23
767.00	236.14
767.32	236.08
767.65	236.03
767.97	235.94
768.30	235.84
768.62	235.75
768.95	235.68
769.27	235.55
769.60	235.48
769.92	235.34
770.25	235.20
770.57	235.06
770.90	234.94
771.22	234.84
771.55	234.69
771.87	234.60
772.20	234.48
772.52	234.46
772.85	234.49
773.17	234.41
773.50	234.32
773.82	234.21
774.15	234.09
774.47	233.95
774.80	233.84
775.12	233.75
775.45	233.65
775.77	233.54
776.09	233.42
776.42	233.34
776.74	233.27
777.07	233.21
777.39	233.15
777.72	233.10
778.04	233.02
778.36	232.95
778.69	232.89
779.01	232.85
779.33	232.70
779.66	232.53
779.98	232.48
780.31	232.42
780.63	232.42
780.95	232.36
781.28	232.31
781.60	232.26
781.92	232.20
782.25	232.16
782.57	232.12
782.89	232.12
783.22	232.04
783.54	232.00
783.86	231.95
784.19	231.91
784.51	231.87
784.83	231.79
785.16	231.78
785.48	231.76
785.80	231.73
786.12	231.71
786.45	231.68
786.77	231.65
787.09	231.58
