SpectraSuite Data File
++++++++++++++++++++++++++++++++++++
Date: Fri Feb 01 16:35:32 EST 2013
User: group
Dark Spectrum Present: No
Reference Spectrum Present: No
Number of Sampled Component Spectra: 1
Spectrometers: USB2E7196
Integration Time (usec): 35000 (USB2E7196)
Spectra Averaged: 100 (USB2E7196)
Boxcar Smoothing: 10 (USB2E7196)
Correct for Electrical Dark: No (USB2E7196)
Strobe/Lamp Enabled: No (USB2E7196)
Correct for Detector Non-linearity: No (USB2E7196)
Correct for Stray Light: No (USB2E7196)
Number of Pixels in Processed Spectrum: 2048
>>>>>Begin Processed Spectral Data<<<<<
339.09	0.00
339.48	213.91
339.86	215.65
340.24	217.00
340.63	218.48
341.01	220.53
341.39	220.90
341.78	222.18
342.16	222.89
342.54	223.71
342.93	212.21
343.31	222.93
343.69	223.43
344.07	223.85
344.46	224.25
344.84	224.61
345.22	224.86
345.60	225.07
345.99	225.25
346.37	225.40
346.75	225.50
347.13	225.53
347.52	225.60
347.90	225.70
348.28	225.71
348.66	225.74
349.05	225.74
349.43	225.74
349.81	225.78
350.19	225.83
350.57	225.90
350.96	225.97
351.34	226.03
351.72	226.13
352.10	226.24
352.48	226.29
352.87	226.37
353.25	226.40
353.63	226.51
354.01	226.55
354.39	226.62
354.77	226.70
355.15	226.83
355.54	226.87
355.92	226.88
356.30	226.97
356.68	227.10
357.06	227.14
357.44	227.21
357.82	227.26
358.20	227.33
358.58	227.35
358.97	227.43
359.35	227.53
359.73	227.62
360.11	227.69
360.49	227.77
360.87	227.75
361.25	227.85
361.63	227.92
362.01	228.00
362.39	228.04
362.77	228.07
363.15	228.09
363.53	228.16
363.91	228.24
364.29	228.25
364.67	228.20
365.05	228.23
365.43	228.27
365.81	228.30
366.19	228.32
366.57	228.37
366.95	228.37
367.33	228.36
367.71	228.32
368.09	228.34
368.47	228.33
368.85	228.33
369.23	228.35
369.61	228.29
369.99	228.27
370.37	228.26
370.75	228.28
371.13	228.27
371.51	228.19
371.89	228.12
372.27	228.09
372.65	228.09
373.03	228.08
373.41	228.04
373.78	228.02
374.16	227.96
374.54	227.92
374.92	227.86
375.30	227.83
375.68	227.82
376.06	227.78
376.44	227.69
376.82	227.68
377.19	227.62
377.57	227.55
377.95	227.47
378.33	227.41
378.71	227.31
379.09	227.22
379.47	227.20
379.84	227.17
380.22	227.10
380.60	227.01
380.98	226.93
381.36	226.87
381.73	226.75
382.11	226.70
382.49	226.62
382.87	226.53
383.25	226.48
383.62	226.51
384.00	226.40
384.38	226.38
384.76	226.32
385.13	226.28
385.51	226.25
385.89	226.22
386.27	226.17
386.64	226.15
387.02	226.10
387.40	226.04
387.78	225.96
388.15	225.94
388.53	225.92
388.91	225.88
389.29	225.87
389.66	225.87
390.04	225.81
390.42	225.78
390.79	225.75
391.17	225.68
391.55	225.54
391.92	225.54
392.30	225.53
392.68	225.50
393.05	225.49
393.43	225.49
393.81	225.49
394.18	225.47
394.56	225.44
394.94	225.49
395.31	225.50
395.69	225.57
396.06	225.59
396.44	225.59
396.82	225.63
397.19	225.70
397.57	225.66
397.95	225.69
398.32	225.73
398.70	225.79
399.07	225.85
399.45	225.90
399.82	225.95
400.20	226.01
400.58	226.08
400.95	226.08
401.33	226.15
401.70	226.28
402.08	226.36
402.45	226.44
402.83	226.51
403.20	226.63
403.58	226.70
403.95	226.79
404.33	226.92
404.71	227.03
405.08	227.17
405.46	227.35
405.83	227.49
406.21	227.65
406.58	227.80
406.96	227.97
407.33	228.15
407.70	228.32
408.08	228.56
408.45	228.79
408.83	229.03
409.20	229.25
409.58	229.40
409.95	229.66
410.33	229.93
410.70	230.18
411.08	230.43
411.45	230.74
411.82	231.06
412.20	231.41
412.57	231.82
412.95	232.09
413.32	232.51
413.69	232.92
414.07	233.34
414.44	233.79
414.82	234.27
415.19	234.81
415.56	235.36
415.94	235.87
416.31	236.49
416.68	237.13
417.06	237.82
417.43	238.50
417.81	239.25
418.18	240.02
418.55	240.86
418.93	241.72
419.30	242.61
419.67	243.54
420.04	244.48
420.42	245.45
420.79	246.68
421.16	247.79
421.54	248.97
421.91	250.22
422.28	251.50
422.66	252.81
423.03	254.12
423.40	255.47
423.77	256.90
424.15	258.30
424.52	259.80
424.89	261.43
425.26	262.94
425.64	264.41
426.01	266.05
426.38	267.71
426.75	269.40
427.13	271.10
427.50	272.95
427.87	274.85
428.24	276.71
428.61	278.41
428.99	280.39
429.36	282.53
429.73	284.54
430.10	286.58
430.47	288.66
430.85	290.75
431.22	293.00
431.59	295.34
431.96	297.57
432.33	299.97
432.70	302.29
433.08	305.10
433.45	307.73
433.82	310.26
434.19	313.09
434.56	315.89
434.93	318.54
435.30	321.09
435.68	323.92
436.05	326.77
436.42	329.55
436.79	332.04
437.16	334.70
437.53	337.54
437.90	340.26
438.27	343.00
438.64	345.82
439.01	348.36
439.38	350.63
439.75	352.82
440.13	355.31
440.50	357.65
440.87	359.49
441.24	361.42
441.61	363.56
441.98	365.06
442.35	366.84
442.72	368.68
443.09	370.45
443.46	371.42
443.83	371.92
444.20	372.43
444.57	373.23
444.94	373.48
445.31	373.77
445.68	374.09
446.05	374.14
446.42	373.74
446.79	373.33
447.16	372.90
447.53	372.55
447.90	371.41
448.27	370.25
448.64	368.71
449.01	367.53
449.37	365.56
449.74	363.64
450.11	361.38
450.48	358.89
450.85	356.40
451.22	354.27
451.59	352.32
451.96	350.36
452.33	347.76
452.70	345.41
453.07	342.61
453.43	339.77
453.80	336.98
454.17	334.31
454.54	331.74
454.91	328.99
455.28	326.33
455.65	323.84
456.02	321.39
456.38	319.27
456.75	316.63
457.12	314.39
457.49	312.19
457.86	310.06
458.23	308.22
458.59	306.20
458.96	304.14
459.33	302.26
459.70	300.43
460.07	298.97
460.43	297.29
460.80	295.69
461.17	294.28
461.54	292.79
461.91	291.38
462.27	289.99
462.64	288.76
463.01	287.40
463.38	286.12
463.74	284.76
464.11	283.57
464.48	282.58
464.85	281.47
465.21	280.65
465.58	279.73
465.95	278.67
466.32	277.76
466.68	276.89
467.05	276.02
467.42	275.18
467.78	274.24
468.15	273.36
468.52	272.72
468.88	271.89
469.25	271.15
469.62	270.54
469.98	269.86
470.35	269.24
470.72	268.69
471.08	268.08
471.45	267.56
471.82	267.02
472.18	266.44
472.55	266.07
472.92	265.57
473.28	265.14
473.65	264.70
474.02	264.31
474.38	264.01
474.75	263.72
475.11	263.36
475.48	263.15
475.85	262.94
476.21	262.76
476.58	262.61
476.94	262.53
477.31	262.39
477.67	262.28
478.04	262.19
478.41	262.16
478.77	262.21
479.14	262.18
479.50	262.20
479.87	262.26
480.23	262.34
480.60	262.35
480.96	262.45
481.33	262.67
481.69	262.86
482.06	263.01
482.42	263.20
482.79	263.45
483.15	263.77
483.52	264.13
483.88	264.43
484.25	264.77
484.61	265.13
484.98	265.59
485.34	266.11
485.71	266.69
486.07	267.29
486.44	267.84
486.80	268.53
487.17	269.28
487.53	270.10
487.90	270.93
488.26	271.92
488.62	272.89
488.99	273.87
489.35	274.92
489.72	276.04
490.08	277.21
490.44	278.43
490.81	279.71
491.17	281.08
491.54	282.60
491.90	284.16
492.26	285.80
492.63	287.49
492.99	289.27
493.36	291.21
493.72	293.22
494.08	295.33
494.45	297.59
494.81	299.94
495.17	302.38
495.54	304.97
495.90	307.65
496.26	310.48
496.63	313.44
496.99	316.51
497.35	319.73
497.72	323.12
498.08	326.64
498.44	330.32
498.80	334.23
499.17	338.22
499.53	342.38
499.89	346.79
500.26	351.37
500.62	356.07
500.98	361.02
501.34	366.14
501.71	371.49
502.07	376.89
502.43	382.51
502.79	388.34
503.16	394.47
503.52	400.76
503.88	407.18
504.24	413.83
504.60	420.80
504.97	428.01
505.33	435.39
505.69	443.13
506.05	450.94
506.41	458.88
506.78	467.06
507.14	475.50
507.50	484.20
507.86	493.22
508.22	502.36
508.59	511.53
508.95	521.07
509.31	530.89
509.67	541.04
510.03	551.30
510.39	561.84
510.75	572.59
511.12	583.46
511.48	594.67
511.84	606.13
512.20	617.53
512.56	629.40
512.92	641.55
513.28	653.93
513.64	666.35
514.00	678.97
514.37	691.91
514.73	705.01
515.09	718.04
515.45	731.34
515.81	744.91
516.17	758.87
516.53	772.94
516.89	787.14
517.25	801.31
517.61	815.76
517.97	830.25
518.33	844.66
518.69	859.42
519.05	874.34
519.41	889.42
519.77	904.98
520.13	920.38
520.49	935.69
520.85	951.02
521.21	966.66
521.57	982.85
521.93	998.50
522.29	1014.70
522.65	1030.94
523.01	1046.94
523.37	1063.03
523.73	1079.11
524.09	1095.30
524.45	1111.46
524.81	1127.92
525.17	1144.47
525.53	1161.23
525.89	1178.08
526.25	1194.86
526.61	1211.17
526.97	1227.90
527.33	1244.31
527.68	1260.87
528.04	1277.21
528.40	1293.61
528.76	1310.59
529.12	1327.08
529.48	1343.88
529.84	1359.90
530.20	1376.24
530.56	1393.09
530.91	1410.26
531.27	1426.99
531.63	1443.27
531.99	1459.75
532.35	1475.61
532.71	1491.50
533.07	1507.66
533.42	1523.43
533.78	1539.42
534.14	1555.60
534.50	1570.80
534.86	1586.52
535.21	1601.49
535.57	1617.31
535.93	1632.67
536.29	1647.30
536.65	1662.23
537.00	1676.86
537.36	1692.03
537.72	1706.47
538.08	1720.90
538.44	1734.61
538.79	1748.26
539.15	1761.62
539.51	1775.14
539.87	1789.30
540.22	1802.72
540.58	1816.19
540.94	1829.06
541.29	1841.48
541.65	1853.91
542.01	1866.87
542.37	1879.10
542.72	1891.28
543.08	1902.86
543.44	1915.05
543.79	1926.31
544.15	1937.11
544.51	1948.62
544.87	1959.41
545.22	1970.13
545.58	1980.11
545.94	1989.75
546.29	1999.53
546.65	2009.40
547.01	2018.58
547.36	2027.23
547.72	2035.79
548.07	2043.71
548.43	2052.01
548.79	2060.12
549.14	2067.77
549.50	2075.13
549.86	2082.52
550.21	2089.84
550.57	2097.06
550.92	2103.78
551.28	2110.74
551.64	2117.81
551.99	2124.13
552.35	2130.34
552.70	2136.51
553.06	2142.57
553.41	2148.96
553.77	2154.96
554.13	2160.92
554.48	2167.19
554.84	2172.78
555.19	2178.10
555.55	2183.25
555.90	2187.65
556.26	2192.60
556.61	2197.27
556.97	2201.61
557.32	2205.97
557.68	2210.30
558.03	2214.60
558.39	2218.27
558.74	2222.86
559.10	2226.74
559.45	2230.45
559.81	2234.73
560.16	2238.63
560.52	2241.99
560.87	2245.40
561.23	2248.10
561.58	2251.09
561.94	2253.58
562.29	2255.80
562.64	2258.61
563.00	2261.19
563.35	2264.73
563.71	2267.79
564.06	2271.03
564.42	2274.03
564.77	2276.54
565.12	2278.96
565.48	2281.00
565.83	2282.90
566.19	2284.30
566.54	2285.26
566.89	2286.53
567.25	2287.24
567.60	2288.49
567.96	2290.14
568.31	2290.97
568.66	2292.14
569.02	2292.83
569.37	2293.22
569.72	2294.33
570.08	2294.54
570.43	2294.68
570.78	2294.36
571.14	2293.02
571.49	2291.70
571.84	2291.43
572.20	2290.51
572.55	2289.39
572.90	2287.69
573.26	2286.46
573.61	2284.71
573.96	2283.13
574.31	2280.30
574.67	2277.26
575.02	2273.79
575.37	2270.40
575.72	2266.67
576.08	2263.24
576.43	2259.86
576.78	2256.26
577.13	2252.89
577.49	2249.59
577.84	2246.15
578.19	2242.30
578.54	2238.59
578.90	2234.48
579.25	2228.87
579.60	2223.97
579.95	2219.13
580.30	2214.26
580.66	2209.06
581.01	2204.15
581.36	2199.21
581.71	2195.07
582.06	2190.70
582.42	2186.40
582.77	2181.32
583.12	2176.87
583.47	2172.44
583.82	2167.73
584.17	2162.71
584.53	2157.41
584.88	2151.96
585.23	2146.35
585.58	2140.89
585.93	2135.67
586.28	2130.87
586.63	2125.78
586.98	2120.57
587.34	2115.67
587.69	2110.76
588.04	2105.66
588.39	2100.11
588.74	2093.59
589.09	2087.50
589.44	2080.84
589.79	2074.57
590.14	2068.93
590.49	2062.44
590.84	2055.90
591.19	2049.92
591.54	2043.32
591.89	2036.11
592.25	2029.46
592.60	2022.22
592.95	2014.85
593.30	2007.50
593.65	1999.95
594.00	1993.03
594.35	1985.90
594.70	1977.91
595.05	1970.93
595.40	1963.60
595.75	1956.20
596.10	1950.26
596.45	1943.70
596.80	1937.58
597.15	1931.12
597.50	1924.32
597.85	1917.73
598.19	1911.30
598.54	1904.37
598.89	1897.83
599.24	1891.92
599.59	1885.46
599.94	1879.24
600.29	1872.96
600.64	1866.33
600.99	1859.06
601.34	1852.32
601.69	1845.36
602.04	1838.78
602.39	1831.47
602.74	1824.73
603.08	1818.08
603.43	1811.26
603.78	1803.78
604.13	1796.56
604.48	1789.47
604.83	1782.49
605.18	1775.86
605.53	1767.87
605.87	1759.63
606.22	1752.37
606.57	1744.43
606.92	1736.80
607.27	1729.69
607.62	1722.77
607.96	1715.51
608.31	1709.03
608.66	1701.41
609.01	1693.88
609.36	1686.23
609.70	1678.18
610.05	1670.17
610.40	1662.45
610.75	1654.33
611.10	1646.74
611.44	1638.22
611.79	1630.06
612.14	1621.40
612.49	1612.15
612.83	1603.74
613.18	1595.59
613.53	1587.48
613.88	1578.89
614.22	1570.73
614.57	1562.14
614.92	1554.19
615.27	1546.88
615.61	1538.51
615.96	1530.51
616.31	1522.97
616.65	1515.66
617.00	1508.15
617.35	1500.42
617.70	1492.17
618.04	1483.61
618.39	1475.35
618.74	1467.97
619.08	1459.74
619.43	1452.14
619.78	1445.22
620.12	1438.16
620.47	1430.78
620.82	1422.71
621.16	1415.29
621.51	1407.73
621.85	1400.04
622.20	1391.51
622.55	1383.05
622.89	1375.13
623.24	1367.44
623.59	1359.98
623.93	1352.50
624.28	1345.28
624.62	1337.93
624.97	1330.69
625.32	1323.90
625.66	1316.91
626.01	1309.75
626.35	1302.44
626.70	1294.69
627.04	1286.98
627.39	1279.20
627.73	1271.76
628.08	1264.77
628.43	1257.68
628.77	1250.35
629.12	1242.91
629.46	1235.70
629.81	1228.13
630.15	1220.92
630.50	1213.58
630.84	1205.43
631.19	1197.38
631.53	1189.88
631.88	1182.11
632.22	1174.57
632.57	1167.32
632.91	1159.74
633.26	1152.26
633.60	1144.69
633.95	1137.45
634.29	1130.40
634.64	1123.59
634.98	1116.25
635.32	1109.15
635.67	1102.37
636.01	1095.71
636.36	1088.98
636.70	1082.42
637.05	1075.98
637.39	1069.58
637.73	1063.01
638.08	1057.10
638.42	1051.10
638.77	1044.62
639.11	1038.20
639.45	1031.74
639.80	1024.99
640.14	1018.56
640.49	1012.06
640.83	1005.84
641.17	999.78
641.52	993.47
641.86	987.07
642.20	981.26
642.55	974.85
642.89	968.49
643.23	961.88
643.58	956.01
643.92	949.93
644.26	943.94
644.61	937.89
644.95	931.98
645.29	925.42
645.64	918.69
645.98	912.37
646.32	906.47
646.66	900.44
647.01	894.66
647.35	889.13
647.69	883.24
648.04	877.69
648.38	871.82
648.72	865.88
649.06	859.82
649.41	853.94
649.75	848.02
650.09	841.98
650.43	836.19
650.78	829.99
651.12	824.03
651.46	818.21
651.80	812.49
652.14	807.06
652.49	801.74
652.83	796.65
653.17	790.98
653.51	785.29
653.85	779.85
654.20	774.24
654.54	768.13
654.88	762.33
655.22	756.46
655.56	750.74
655.90	745.17
656.25	739.98
656.59	734.64
656.93	729.58
657.27	724.53
657.61	719.04
657.95	713.94
658.29	708.86
658.64	703.55
658.98	698.15
659.32	692.63
659.66	687.43
660.00	682.08
660.34	677.15
660.68	672.19
661.02	667.24
661.36	662.56
661.70	658.12
662.05	653.90
662.39	649.53
662.73	645.16
663.07	640.76
663.41	636.28
663.75	631.79
664.09	627.23
664.43	622.83
664.77	618.81
665.11	614.60
665.45	610.41
665.79	606.45
666.13	602.37
666.47	598.36
666.81	594.16
667.15	590.00
667.49	586.10
667.83	582.27
668.17	578.28
668.51	574.18
668.85	570.12
669.19	566.21
669.53	562.38
669.87	558.52
670.21	554.92
670.55	551.28
670.89	547.81
671.23	544.30
671.57	540.72
671.91	537.13
672.25	533.67
672.58	530.17
672.92	526.69
673.26	523.49
673.60	520.31
673.94	517.24
674.28	514.32
674.62	511.32
674.96	508.25
675.30	505.44
675.64	502.51
675.97	499.68
676.31	496.82
676.65	493.89
676.99	491.16
677.33	488.24
677.67	485.43
678.01	482.45
678.34	479.53
678.68	476.66
679.02	473.91
679.36	471.08
679.70	468.36
680.04	465.61
680.37	462.77
680.71	459.95
681.05	457.25
681.39	454.54
681.73	451.88
682.06	449.31
682.40	446.70
682.74	444.17
683.08	441.59
683.42	438.95
683.75	436.45
684.09	433.82
684.43	431.37
684.77	428.90
685.10	426.52
685.44	424.20
685.78	421.96
686.12	419.66
686.45	417.43
686.79	415.09
687.13	412.93
687.46	410.76
687.80	408.61
688.14	406.42
688.48	404.44
688.81	402.21
689.15	400.04
689.49	397.91
689.82	395.83
690.16	393.78
690.50	391.84
690.83	389.97
691.17	388.08
691.51	386.11
691.84	384.26
692.18	382.32
692.52	380.35
692.85	378.39
693.19	376.52
693.52	374.66
693.86	372.86
694.20	371.06
694.53	369.27
694.87	367.44
695.21	365.62
695.54	363.69
695.88	362.00
696.21	360.29
696.55	358.59
696.88	356.90
697.22	355.21
697.56	353.57
697.89	351.89
698.23	350.23
698.56	348.64
698.90	347.04
699.23	345.43
699.57	343.90
699.90	342.36
700.24	340.82
700.58	339.31
700.91	337.88
701.25	336.42
701.58	335.05
701.92	333.65
702.25	332.30
702.59	330.98
702.92	329.64
703.26	328.32
703.59	327.05
703.93	325.88
704.26	324.68
704.60	323.40
704.93	322.11
705.26	320.84
705.60	319.60
705.93	318.44
706.27	317.39
706.60	316.31
706.94	315.23
707.27	314.07
707.61	312.98
707.94	311.89
708.27	310.81
708.61	309.72
708.94	308.71
709.28	307.72
709.61	306.76
709.94	305.79
710.28	304.78
710.61	303.76
710.95	302.62
711.28	301.67
711.61	300.73
711.95	299.82
712.28	298.90
712.61	297.98
712.95	297.00
713.28	296.09
713.61	295.21
713.95	294.32
714.28	293.48
714.61	292.63
714.95	291.77
715.28	290.93
715.61	290.07
715.95	289.23
716.28	288.34
716.61	287.53
716.95	286.73
717.28	285.98
717.61	285.21
717.94	284.51
718.28	283.71
718.61	282.98
718.94	282.32
719.27	281.67
719.61	281.02
719.94	280.39
720.27	279.69
720.60	279.02
720.94	278.37
721.27	277.79
721.60	277.20
721.93	276.63
722.27	276.04
722.60	275.50
722.93	274.93
723.26	274.39
723.59	273.80
723.93	273.20
724.26	272.61
724.59	272.04
724.92	271.52
725.25	271.04
725.59	270.51
725.92	269.94
726.25	269.42
726.58	268.93
726.91	268.47
727.24	268.00
727.57	267.53
727.91	267.02
728.24	266.54
728.57	266.06
728.90	265.60
729.23	265.10
729.56	264.67
729.89	264.17
730.22	263.71
730.55	263.26
730.89	262.83
731.22	262.44
731.55	262.05
731.88	261.62
732.21	261.19
732.54	260.77
732.87	260.39
733.20	259.99
733.53	259.59
733.86	259.20
734.19	258.80
734.52	258.45
734.85	258.16
735.18	257.76
735.51	257.38
735.84	257.01
736.17	256.70
736.50	256.29
736.83	256.07
737.16	255.76
737.49	255.47
737.82	255.16
738.15	254.83
738.48	254.49
738.81	254.19
739.14	253.87
739.47	253.57
739.80	253.26
740.13	252.92
740.46	252.61
740.79	252.28
741.12	251.96
741.45	251.63
741.78	251.28
742.11	251.00
742.44	250.68
742.77	250.40
743.10	250.09
743.43	249.78
743.75	249.42
744.08	249.26
744.41	248.93
744.74	248.64
745.07	248.36
745.40	248.15
745.73	247.88
746.06	247.59
746.39	247.31
746.71	247.03
747.04	246.79
747.37	246.55
747.70	246.27
748.03	246.03
748.36	245.81
748.68	245.58
749.01	245.32
749.34	245.13
749.67	244.86
750.00	244.61
750.33	244.44
750.65	244.21
750.98	243.86
751.31	243.66
751.64	243.46
751.97	243.27
752.29	243.02
752.62	242.79
752.95	242.56
753.28	242.37
753.60	242.14
753.93	241.95
754.26	241.73
754.59	241.54
754.91	241.30
755.24	241.07
755.57	240.87
755.90	240.67
756.22	240.45
756.55	240.28
756.88	240.11
757.20	239.88
757.53	239.70
757.86	239.51
758.19	239.35
758.51	239.17
758.84	238.92
759.17	238.74
759.49	238.55
759.82	238.46
760.15	238.32
760.47	238.19
760.80	238.01
761.13	237.87
761.45	237.71
761.78	237.59
762.11	237.46
762.43	237.31
762.76	237.16
763.08	237.03
763.41	236.91
763.74	236.75
764.06	236.60
764.39	236.44
764.71	236.31
765.04	236.14
765.37	236.00
765.69	235.91
766.02	235.79
766.34	235.63
766.67	235.45
767.00	235.32
767.32	235.24
767.65	235.20
767.97	235.07
768.30	234.94
768.62	234.83
768.95	234.70
769.27	234.61
769.60	234.53
769.92	234.39
770.25	234.27
770.57	234.19
770.90	234.09
771.22	233.97
771.55	233.86
771.87	233.75
772.20	233.67
772.52	233.66
772.85	233.67
773.17	233.60
773.50	233.53
773.82	233.44
774.15	233.26
774.47	233.12
774.80	233.04
775.12	232.97
775.45	232.90
775.77	232.84
776.09	232.73
776.42	232.65
776.74	232.61
777.07	232.54
777.39	232.45
777.72	232.38
778.04	232.34
778.36	232.34
778.69	232.31
779.01	232.26
779.33	232.08
779.66	231.91
779.98	231.80
780.31	231.73
780.63	231.69
780.95	231.69
781.28	231.63
781.60	231.56
781.92	231.51
782.25	231.44
782.57	231.37
782.89	231.33
783.22	231.24
783.54	231.19
783.86	231.12
784.19	231.07
784.51	231.08
784.83	231.02
785.16	230.90
785.48	230.88
785.80	230.80
786.12	230.79
786.45	230.75
786.77	230.76
787.09	230.70
