SpectraSuite Data File
++++++++++++++++++++++++++++++++++++
Date: Fri Feb 01 16:30:26 EST 2013
User: group
Dark Spectrum Present: No
Reference Spectrum Present: No
Number of Sampled Component Spectra: 1
Spectrometers: USB2E7196
Integration Time (usec): 35000 (USB2E7196)
Spectra Averaged: 100 (USB2E7196)
Boxcar Smoothing: 10 (USB2E7196)
Correct for Electrical Dark: No (USB2E7196)
Strobe/Lamp Enabled: No (USB2E7196)
Correct for Detector Non-linearity: No (USB2E7196)
Correct for Stray Light: No (USB2E7196)
Number of Pixels in Processed Spectrum: 2048
>>>>>Begin Processed Spectral Data<<<<<
339.09	0.00
339.48	213.97
339.86	215.45
340.24	216.45
340.63	217.92
341.01	220.80
341.39	221.21
341.78	221.97
342.16	223.60
342.54	223.95
342.93	212.34
343.31	223.09
343.69	223.64
344.07	224.12
344.46	224.57
344.84	224.95
345.22	225.19
345.60	225.41
345.99	225.63
346.37	225.77
346.75	225.88
347.13	225.95
347.52	225.98
347.90	226.07
348.28	226.11
348.66	226.19
349.05	226.20
349.43	226.29
349.81	226.38
350.19	226.43
350.57	226.50
350.96	226.62
351.34	226.69
351.72	226.75
352.10	226.83
352.48	226.90
352.87	226.97
353.25	227.07
353.63	227.14
354.01	227.22
354.39	227.30
354.77	227.35
355.15	227.45
355.54	227.58
355.92	227.60
356.30	227.67
356.68	227.83
357.06	227.87
357.44	227.91
357.82	227.93
358.20	228.00
358.58	228.05
358.97	228.10
359.35	228.17
359.73	228.29
360.11	228.36
360.49	228.45
360.87	228.48
361.25	228.53
361.63	228.61
362.01	228.64
362.39	228.66
362.77	228.71
363.15	228.72
363.53	228.71
363.91	228.75
364.29	228.77
364.67	228.65
365.05	228.68
365.43	228.72
365.81	228.74
366.19	228.78
366.57	228.79
366.95	228.76
367.33	228.72
367.71	228.66
368.09	228.63
368.47	228.59
368.85	228.58
369.23	228.54
369.61	228.48
369.99	228.51
370.37	228.50
370.75	228.49
371.13	228.40
371.51	228.35
371.89	228.29
372.27	228.22
372.65	228.21
373.03	228.13
373.41	228.06
373.78	227.97
374.16	227.88
374.54	227.80
374.92	227.77
375.30	227.68
375.68	227.60
376.06	227.55
376.44	227.47
376.82	227.41
377.19	227.36
377.57	227.28
377.95	227.17
378.33	227.09
378.71	226.96
379.09	226.94
379.47	226.86
379.84	226.81
380.22	226.74
380.60	226.66
380.98	226.55
381.36	226.48
381.73	226.40
382.11	226.35
382.49	226.28
382.87	226.19
383.25	226.19
383.62	226.23
384.00	226.16
384.38	226.10
384.76	226.07
385.13	226.03
385.51	226.01
385.89	225.95
386.27	225.92
386.64	225.90
387.02	225.82
387.40	225.81
387.78	225.76
388.15	225.77
388.53	225.70
388.91	225.67
389.29	225.64
389.66	225.62
390.04	225.58
390.42	225.58
390.79	225.56
391.17	225.54
391.55	225.47
391.92	225.47
392.30	225.48
392.68	225.45
393.05	225.44
393.43	225.46
393.81	225.45
394.18	225.41
394.56	225.45
394.94	225.52
395.31	225.51
395.69	225.51
396.06	225.50
396.44	225.58
396.82	225.64
397.19	225.72
397.57	225.77
397.95	225.83
398.32	225.86
398.70	225.92
399.07	225.99
399.45	226.03
399.82	226.10
400.20	226.19
400.58	226.26
400.95	226.28
401.33	226.35
401.70	226.52
402.08	226.61
402.45	226.70
402.83	226.79
403.20	226.92
403.58	227.06
403.95	227.22
404.33	227.34
404.71	227.47
405.08	227.64
405.46	227.82
405.83	227.98
406.21	228.16
406.58	228.33
406.96	228.48
407.33	228.66
407.70	228.86
408.08	229.12
408.45	229.35
408.83	229.62
409.20	229.86
409.58	229.99
409.95	230.27
410.33	230.55
410.70	230.79
411.08	231.10
411.45	231.39
411.82	231.68
412.20	232.02
412.57	232.42
412.95	232.69
413.32	233.04
413.69	233.45
414.07	233.88
414.44	234.32
414.82	234.77
415.19	235.32
415.56	235.86
415.94	236.38
416.31	236.99
416.68	237.60
417.06	238.30
417.43	239.00
417.81	239.80
418.18	240.58
418.55	241.46
418.93	242.32
419.30	243.20
419.67	244.12
420.04	245.07
420.42	246.03
420.79	247.21
421.16	248.37
421.54	249.52
421.91	250.72
422.28	251.97
422.66	253.33
423.03	254.61
423.40	255.90
423.77	257.26
424.15	258.66
424.52	260.18
424.89	261.75
425.26	263.25
425.64	264.62
426.01	266.22
426.38	267.85
426.75	269.51
427.13	271.21
427.50	272.99
427.87	274.87
428.24	276.72
428.61	278.44
428.99	280.38
429.36	282.48
429.73	284.51
430.10	286.49
430.47	288.54
430.85	290.66
431.22	292.90
431.59	295.30
431.96	297.55
432.33	300.00
432.70	302.37
433.08	305.21
433.45	307.85
433.82	310.39
434.19	313.24
434.56	316.04
434.93	318.63
435.30	321.27
435.68	324.15
436.05	327.00
436.42	329.80
436.79	332.30
437.16	335.01
437.53	337.82
437.90	340.67
438.27	343.39
438.64	346.20
439.01	348.77
439.38	351.05
439.75	353.20
440.13	355.64
440.50	357.96
440.87	359.79
441.24	361.70
441.61	363.81
441.98	365.30
442.35	367.10
442.72	369.05
443.09	370.81
443.46	371.82
443.83	372.41
444.20	372.95
444.57	373.80
444.94	374.05
445.31	374.41
445.68	374.74
446.05	374.78
446.42	374.37
446.79	373.97
447.16	373.48
447.53	373.16
447.90	372.08
448.27	370.90
448.64	369.33
449.01	368.23
449.37	366.31
449.74	364.44
450.11	362.20
450.48	359.71
450.85	357.21
451.22	355.05
451.59	353.02
451.96	351.06
452.33	348.51
452.70	346.20
453.07	343.43
453.43	340.55
453.80	337.82
454.17	335.20
454.54	332.68
454.91	329.96
455.28	327.34
455.65	324.83
456.02	322.45
456.38	320.31
456.75	317.70
457.12	315.46
457.49	313.22
457.86	311.08
458.23	309.22
458.59	307.21
458.96	305.14
459.33	303.28
459.70	301.40
460.07	299.85
460.43	298.10
460.80	296.46
461.17	295.04
461.54	293.57
461.91	292.11
462.27	290.67
462.64	289.41
463.01	288.07
463.38	286.76
463.74	285.40
464.11	284.23
464.48	283.17
464.85	282.07
465.21	281.23
465.58	280.29
465.95	279.20
466.32	278.27
466.68	277.35
467.05	276.50
467.42	275.63
467.78	274.70
468.15	273.86
468.52	273.21
468.88	272.32
469.25	271.53
469.62	270.94
469.98	270.29
470.35	269.68
470.72	269.08
471.08	268.45
471.45	267.90
471.82	267.36
472.18	266.77
472.55	266.34
472.92	265.79
473.28	265.34
473.65	264.90
474.02	264.46
474.38	264.07
474.75	263.76
475.11	263.42
475.48	263.20
475.85	262.96
476.21	262.71
476.58	262.53
476.94	262.40
477.31	262.25
477.67	262.09
478.04	262.01
478.41	261.98
478.77	262.02
479.14	261.95
479.50	261.96
479.87	262.06
480.23	262.15
480.60	262.25
480.96	262.33
481.33	262.58
481.69	262.81
482.06	263.03
482.42	263.22
482.79	263.47
483.15	263.76
483.52	264.16
483.88	264.52
484.25	264.94
484.61	265.39
484.98	265.85
485.34	266.41
485.71	266.97
486.07	267.57
486.44	268.15
486.80	268.86
487.17	269.61
487.53	270.41
487.90	271.26
488.26	272.20
488.62	273.23
488.99	274.18
489.35	275.24
489.72	276.41
490.08	277.61
490.44	278.83
490.81	280.18
491.17	281.52
491.54	283.01
491.90	284.56
492.26	286.20
492.63	287.96
492.99	289.75
493.36	291.65
493.72	293.67
494.08	295.79
494.45	298.06
494.81	300.40
495.17	302.89
495.54	305.43
495.90	308.13
496.26	310.96
496.63	313.96
496.99	317.08
497.35	320.31
497.72	323.74
498.08	327.29
498.44	330.98
498.80	334.91
499.17	338.97
499.53	343.19
499.89	347.55
500.26	352.03
500.62	356.71
500.98	361.72
501.34	366.82
501.71	372.12
502.07	377.58
502.43	383.25
502.79	389.04
503.16	395.11
503.52	401.38
503.88	407.75
504.24	414.42
504.60	421.35
504.97	428.52
505.33	435.88
505.69	443.58
506.05	451.38
506.41	459.30
506.78	467.47
507.14	475.89
507.50	484.63
507.86	493.64
508.22	502.88
508.59	512.08
508.95	521.67
509.31	531.50
509.67	541.59
510.03	551.87
510.39	562.45
510.75	573.30
511.12	584.23
511.48	595.55
511.84	606.98
512.20	618.38
512.56	630.33
512.92	642.44
513.28	654.77
513.64	667.28
514.00	679.90
514.37	692.77
514.73	705.79
515.09	718.82
515.45	732.05
515.81	745.51
516.17	759.47
516.53	773.58
516.89	787.75
517.25	801.83
517.61	816.23
517.97	830.69
518.33	845.07
518.69	859.74
519.05	874.66
519.41	889.75
519.77	905.32
520.13	920.79
520.49	936.12
520.85	951.47
521.21	967.07
521.57	983.30
521.93	999.00
522.29	1015.32
522.65	1031.49
523.01	1047.71
523.37	1063.69
523.73	1079.82
524.09	1095.69
524.45	1111.90
524.81	1128.52
525.17	1145.25
525.53	1161.92
525.89	1178.84
526.25	1195.69
526.61	1211.99
526.97	1228.58
527.33	1244.97
527.68	1261.37
528.04	1277.77
528.40	1294.29
528.76	1311.28
529.12	1327.77
529.48	1344.63
529.84	1360.60
530.20	1377.15
530.56	1394.17
530.91	1411.59
531.27	1428.25
531.63	1444.85
531.99	1461.25
532.35	1477.17
532.71	1492.96
533.07	1509.27
533.42	1524.87
533.78	1540.88
534.14	1557.10
534.50	1572.43
534.86	1588.27
535.21	1603.43
535.57	1619.27
535.93	1634.57
536.29	1649.16
536.65	1664.08
537.00	1678.63
537.36	1693.68
537.72	1708.04
538.08	1722.29
538.44	1735.90
538.79	1749.56
539.15	1763.01
539.51	1776.65
539.87	1790.89
540.22	1804.52
540.58	1818.19
540.94	1831.46
541.29	1844.13
541.65	1856.61
542.01	1869.68
542.37	1881.71
542.72	1893.95
543.08	1905.74
543.44	1918.13
543.79	1929.36
544.15	1940.27
544.51	1951.87
544.87	1962.88
545.22	1973.68
545.58	1983.75
545.94	1993.58
546.29	2003.48
546.65	2013.36
547.01	2022.62
547.36	2031.25
547.72	2039.61
548.07	2047.32
548.43	2055.54
548.79	2063.60
549.14	2071.16
549.50	2078.43
549.86	2086.21
550.21	2093.53
550.57	2100.49
550.92	2107.01
551.28	2114.06
551.64	2121.07
551.99	2127.41
552.35	2133.56
552.70	2139.56
553.06	2145.43
553.41	2151.67
553.77	2157.59
554.13	2163.61
554.48	2169.79
554.84	2175.08
555.19	2180.25
555.55	2185.37
555.90	2189.79
556.26	2194.55
556.61	2199.32
556.97	2203.64
557.32	2207.73
557.68	2211.92
558.03	2216.43
558.39	2220.19
558.74	2224.83
559.10	2228.80
559.45	2232.58
559.81	2236.93
560.16	2240.92
560.52	2244.35
560.87	2247.69
561.23	2250.37
561.58	2253.35
561.94	2255.88
562.29	2258.41
562.64	2261.16
563.00	2263.80
563.35	2267.40
563.71	2270.69
564.06	2273.82
564.42	2276.74
564.77	2279.18
565.12	2281.35
565.48	2283.16
565.83	2284.98
566.19	2286.19
566.54	2287.08
566.89	2288.15
567.25	2288.70
567.60	2289.92
567.96	2291.56
568.31	2292.51
568.66	2293.78
569.02	2294.44
569.37	2294.69
569.72	2295.68
570.08	2296.18
570.43	2296.33
570.78	2295.63
571.14	2294.11
571.49	2292.81
571.84	2292.56
572.20	2291.66
572.55	2290.67
572.90	2289.21
573.26	2287.93
573.61	2286.44
573.96	2284.73
574.31	2281.79
574.67	2278.87
575.02	2275.50
575.37	2272.17
575.72	2268.44
576.08	2265.17
576.43	2261.83
576.78	2258.29
577.13	2255.07
577.49	2251.85
577.84	2248.37
578.19	2244.88
578.54	2241.32
578.90	2237.33
579.25	2231.66
579.60	2226.66
579.95	2221.76
580.30	2216.71
580.66	2211.71
581.01	2206.72
581.36	2201.98
581.71	2198.00
582.06	2193.51
582.42	2189.02
582.77	2184.00
583.12	2179.48
583.47	2174.62
583.82	2169.54
584.17	2164.34
584.53	2158.91
584.88	2153.38
585.23	2147.71
585.58	2142.12
585.93	2136.67
586.28	2131.81
586.63	2126.93
586.98	2122.08
587.34	2117.36
587.69	2112.53
588.04	2107.24
588.39	2101.75
588.74	2095.42
589.09	2089.28
589.44	2082.61
589.79	2076.72
590.14	2071.14
590.49	2064.56
590.84	2058.34
591.19	2052.54
591.54	2046.20
591.89	2038.91
592.25	2032.05
592.60	2024.84
592.95	2017.36
593.30	2010.08
593.65	2002.56
594.00	1995.67
594.35	1988.41
594.70	1980.48
595.05	1973.46
595.40	1966.24
595.75	1958.71
596.10	1952.43
596.45	1945.82
596.80	1939.71
597.15	1933.01
597.50	1925.82
597.85	1919.47
598.19	1912.92
598.54	1905.76
598.89	1899.14
599.24	1893.38
599.59	1886.72
599.94	1880.68
600.29	1874.44
600.64	1867.88
600.99	1860.54
601.34	1853.69
601.69	1846.75
602.04	1840.02
602.39	1832.68
602.74	1825.91
603.08	1819.22
603.43	1812.56
603.78	1805.19
604.13	1798.03
604.48	1790.76
604.83	1783.95
605.18	1777.07
605.53	1769.13
605.87	1761.22
606.22	1753.98
606.57	1745.95
606.92	1738.65
607.27	1731.36
607.62	1724.43
607.96	1717.17
608.31	1710.56
608.66	1703.05
609.01	1695.57
609.36	1687.96
609.70	1679.85
610.05	1671.85
610.40	1664.19
610.75	1655.66
611.10	1648.06
611.44	1639.65
611.79	1631.69
612.14	1623.05
612.49	1613.88
612.83	1605.51
613.18	1597.36
613.53	1589.26
613.88	1580.71
614.22	1572.49
614.57	1563.98
614.92	1555.92
615.27	1548.44
615.61	1540.07
615.96	1531.98
616.31	1524.34
616.65	1516.90
617.00	1509.44
617.35	1501.77
617.70	1493.31
618.04	1485.07
618.39	1476.87
618.74	1469.29
619.08	1461.00
619.43	1453.34
619.78	1446.40
620.12	1439.17
620.47	1431.68
620.82	1423.52
621.16	1416.17
621.51	1408.57
621.85	1400.91
622.20	1392.39
622.55	1384.01
622.89	1376.17
623.24	1368.49
623.59	1361.11
623.93	1353.64
624.28	1346.32
624.62	1338.64
624.97	1331.58
625.32	1324.68
625.66	1317.70
626.01	1310.58
626.35	1303.16
626.70	1295.54
627.04	1287.69
627.39	1279.91
627.73	1272.54
628.08	1265.67
628.43	1258.30
628.77	1250.88
629.12	1243.37
629.46	1236.14
629.81	1228.66
630.15	1221.47
630.50	1214.08
630.84	1205.79
631.19	1197.82
631.53	1190.34
631.88	1182.79
632.22	1175.15
632.57	1167.86
632.91	1160.19
633.26	1152.75
633.60	1145.39
633.95	1138.22
634.29	1131.37
634.64	1124.79
634.98	1117.35
635.32	1110.03
635.67	1103.42
636.01	1096.86
636.36	1090.01
636.70	1083.49
637.05	1076.96
637.39	1070.49
637.73	1064.02
638.08	1058.11
638.42	1052.14
638.77	1045.75
639.11	1039.19
639.45	1032.78
639.80	1026.13
640.14	1019.81
640.49	1013.20
640.83	1006.86
641.17	1000.52
641.52	994.09
641.86	987.43
642.20	981.62
642.55	975.41
642.89	968.98
643.23	962.48
643.58	956.80
643.92	950.67
644.26	944.57
644.61	938.43
644.95	932.36
645.29	925.84
645.64	919.14
645.98	912.88
646.32	907.09
646.66	901.08
647.01	895.31
647.35	889.55
647.69	883.69
648.04	878.19
648.38	872.42
648.72	866.47
649.06	860.49
649.41	854.65
649.75	848.65
650.09	842.72
650.43	836.87
650.78	830.60
651.12	824.68
651.46	818.97
651.80	813.25
652.14	807.94
652.49	802.51
652.83	797.35
653.17	791.58
653.51	785.85
653.85	780.42
654.20	774.70
654.54	768.68
654.88	762.99
655.22	757.01
655.56	751.34
655.90	745.88
656.25	740.63
656.59	735.23
656.93	730.16
657.27	725.00
657.61	719.56
657.95	714.49
658.29	709.40
658.64	704.09
658.98	698.78
659.32	693.26
659.66	688.06
660.00	682.64
660.34	677.67
660.68	672.74
661.02	667.75
661.36	663.06
661.70	658.55
662.05	654.20
662.39	649.93
662.73	645.52
663.07	641.14
663.41	636.69
663.75	632.12
664.09	627.56
664.43	623.14
664.77	619.00
665.11	614.71
665.45	610.55
665.79	606.55
666.13	602.47
666.47	598.38
666.81	594.21
667.15	590.11
667.49	586.14
667.83	582.28
668.17	578.29
668.51	574.21
668.85	570.25
669.19	566.42
669.53	562.61
669.87	558.69
670.21	554.92
670.55	551.33
670.89	547.94
671.23	544.50
671.57	541.00
671.91	537.45
672.25	533.98
672.58	530.46
672.92	527.03
673.26	523.85
673.60	520.62
673.94	517.48
674.28	514.61
674.62	511.72
674.96	508.67
675.30	505.82
675.64	502.86
675.97	500.01
676.31	497.07
676.65	494.10
676.99	491.43
677.33	488.57
677.67	485.73
678.01	482.72
678.34	479.76
678.68	476.87
679.02	474.05
679.36	471.26
679.70	468.52
680.04	465.74
680.37	462.83
680.71	460.11
681.05	457.49
681.39	454.75
681.73	452.08
682.06	449.52
682.40	446.96
682.74	444.46
683.08	441.94
683.42	439.36
683.75	436.87
684.09	434.25
684.43	431.81
684.77	429.29
685.10	426.95
685.44	424.58
685.78	422.28
686.12	420.01
686.45	417.74
686.79	415.40
687.13	413.20
687.46	411.06
687.80	408.86
688.14	406.62
688.48	404.52
688.81	402.27
689.15	400.06
689.49	397.85
689.82	395.76
690.16	393.64
690.50	391.66
690.83	389.67
691.17	387.75
691.51	385.82
691.84	384.00
692.18	382.01
692.52	380.06
692.85	378.15
693.19	376.29
693.52	374.49
693.86	372.74
694.20	370.93
694.53	369.12
694.87	367.30
695.21	365.55
695.54	363.70
695.88	362.00
696.21	360.28
696.55	358.66
696.88	356.99
697.22	355.36
697.56	353.79
697.89	352.15
698.23	350.51
698.56	348.88
698.90	347.32
699.23	345.69
699.57	344.13
699.90	342.58
700.24	341.02
700.58	339.44
700.91	337.90
701.25	336.47
701.58	335.10
701.92	333.67
702.25	332.26
702.59	330.90
702.92	329.56
703.26	328.28
703.59	326.93
703.93	325.77
704.26	324.53
704.60	323.18
704.93	321.94
705.26	320.71
705.60	319.55
705.93	318.39
706.27	317.33
706.60	316.27
706.94	315.18
707.27	314.05
707.61	312.99
707.94	311.98
708.27	310.84
708.61	309.77
708.94	308.82
709.28	307.85
709.61	306.93
709.94	305.96
710.28	304.94
710.61	303.99
710.95	302.90
711.28	301.98
711.61	301.04
711.95	300.10
712.28	299.15
712.61	298.16
712.95	297.20
713.28	296.35
713.61	295.43
713.95	294.53
714.28	293.71
714.61	292.85
714.95	291.99
715.28	291.20
715.61	290.29
715.95	289.39
716.28	288.57
716.61	287.71
716.95	286.86
717.28	286.10
717.61	285.35
717.94	284.62
718.28	283.79
718.61	283.08
718.94	282.39
719.27	281.73
719.61	281.07
719.94	280.45
720.27	279.71
720.60	279.09
720.94	278.46
721.27	277.88
721.60	277.33
721.93	276.74
722.27	276.18
722.60	275.66
722.93	275.10
723.26	274.54
723.59	273.98
723.93	273.47
724.26	272.91
724.59	272.30
724.92	271.74
725.25	271.28
725.59	270.74
725.92	270.24
726.25	269.70
726.58	269.24
726.91	268.73
727.24	268.29
727.57	267.83
727.91	267.35
728.24	266.87
728.57	266.37
728.90	265.92
729.23	265.43
729.56	265.00
729.89	264.56
730.22	264.10
730.55	263.65
730.89	263.20
731.22	262.77
731.55	262.39
731.88	262.00
732.21	261.58
732.54	261.17
732.87	260.74
733.20	260.37
733.53	259.96
733.86	259.56
734.19	259.15
734.52	258.76
734.85	258.42
735.18	257.98
735.51	257.62
735.84	257.22
736.17	256.86
736.50	256.43
736.83	256.20
737.16	255.87
737.49	255.51
737.82	255.16
738.15	254.84
738.48	254.47
738.81	254.13
739.14	253.78
739.47	253.43
739.80	253.16
740.13	252.87
740.46	252.55
740.79	252.22
741.12	251.88
741.45	251.56
741.78	251.20
742.11	250.90
742.44	250.57
742.77	250.28
743.10	249.98
743.43	249.68
743.75	249.29
744.08	249.12
744.41	248.87
744.74	248.61
745.07	248.31
745.40	248.09
745.73	247.89
746.06	247.63
746.39	247.40
746.71	247.13
747.04	246.82
747.37	246.58
747.70	246.31
748.03	246.08
748.36	245.86
748.68	245.65
749.01	245.41
749.34	245.19
749.67	244.95
750.00	244.74
750.33	244.60
750.65	244.35
750.98	244.01
751.31	243.78
751.64	243.58
751.97	243.45
752.29	243.22
752.62	242.92
752.95	242.69
753.28	242.49
753.60	242.32
753.93	242.11
754.26	241.93
754.59	241.72
754.91	241.51
755.24	241.31
755.57	241.10
755.90	240.92
756.22	240.71
756.55	240.54
756.88	240.36
757.20	240.12
757.53	239.91
757.86	239.73
758.19	239.57
758.51	239.42
758.84	239.20
759.17	239.00
759.49	238.87
759.82	238.77
760.15	238.61
760.47	238.41
760.80	238.27
761.13	238.09
761.45	237.96
761.78	237.82
762.11	237.66
762.43	237.48
762.76	237.32
763.08	237.21
763.41	237.07
763.74	236.92
764.06	236.81
764.39	236.72
764.71	236.59
765.04	236.46
765.37	236.29
765.69	236.14
766.02	236.01
766.34	235.86
766.67	235.67
767.00	235.56
767.32	235.50
767.65	235.44
767.97	235.31
768.30	235.19
768.62	235.08
768.95	234.95
769.27	234.86
769.60	234.79
769.92	234.68
770.25	234.59
770.57	234.47
770.90	234.35
771.22	234.23
771.55	234.16
771.87	234.08
772.20	234.01
772.52	234.00
772.85	234.05
773.17	233.97
773.50	233.90
773.82	233.76
774.15	233.62
774.47	233.49
774.80	233.39
775.12	233.31
775.45	233.24
775.77	233.18
776.09	233.11
776.42	233.05
776.74	233.00
777.07	232.91
777.39	232.82
777.72	232.76
778.04	232.69
778.36	232.60
778.69	232.52
779.01	232.44
779.33	232.32
779.66	232.15
779.98	232.07
780.31	232.01
780.63	232.02
780.95	231.95
781.28	231.89
781.60	231.86
781.92	231.79
782.25	231.74
782.57	231.68
782.89	231.62
783.22	231.54
783.54	231.43
783.86	231.39
784.19	231.36
784.51	231.33
784.83	231.28
785.16	231.24
785.48	231.20
785.80	231.15
786.12	231.12
786.45	231.06
786.77	230.99
787.09	230.97
