SpectraSuite Data File
++++++++++++++++++++++++++++++++++++
Date: Fri Feb 01 16:25:22 EST 2013
User: group
Dark Spectrum Present: No
Reference Spectrum Present: No
Number of Sampled Component Spectra: 1
Spectrometers: USB2E7196
Integration Time (usec): 35000 (USB2E7196)
Spectra Averaged: 100 (USB2E7196)
Boxcar Smoothing: 10 (USB2E7196)
Correct for Electrical Dark: No (USB2E7196)
Strobe/Lamp Enabled: No (USB2E7196)
Correct for Detector Non-linearity: No (USB2E7196)
Correct for Stray Light: No (USB2E7196)
Number of Pixels in Processed Spectrum: 2048
>>>>>Begin Processed Spectral Data<<<<<
339.09	0.00
339.48	213.80
339.86	216.16
340.24	217.06
340.63	218.19
341.01	220.89
341.39	220.93
341.78	222.14
342.16	223.77
342.54	223.93
342.93	212.40
343.31	223.13
343.69	223.71
344.07	224.12
344.46	224.54
344.84	224.92
345.22	225.17
345.60	225.42
345.99	225.60
346.37	225.70
346.75	225.82
347.13	225.88
347.52	225.94
347.90	226.00
348.28	226.00
348.66	226.05
349.05	226.02
349.43	226.06
349.81	226.13
350.19	226.18
350.57	226.28
350.96	226.37
351.34	226.44
351.72	226.48
352.10	226.59
352.48	226.64
352.87	226.69
353.25	226.75
353.63	226.81
354.01	226.88
354.39	226.99
354.77	227.05
355.15	227.12
355.54	227.18
355.92	227.21
356.30	227.31
356.68	227.42
357.06	227.49
357.44	227.52
357.82	227.61
358.20	227.66
358.58	227.71
358.97	227.77
359.35	227.83
359.73	227.90
360.11	227.96
360.49	228.03
360.87	228.09
361.25	228.16
361.63	228.25
362.01	228.28
362.39	228.28
362.77	228.32
363.15	228.37
363.53	228.38
363.91	228.45
364.29	228.46
364.67	228.41
365.05	228.45
365.43	228.47
365.81	228.46
366.19	228.52
366.57	228.54
366.95	228.51
367.33	228.50
367.71	228.49
368.09	228.51
368.47	228.48
368.85	228.47
369.23	228.45
369.61	228.37
369.99	228.39
370.37	228.38
370.75	228.37
371.13	228.33
371.51	228.30
371.89	228.24
372.27	228.18
372.65	228.15
373.03	228.08
373.41	228.03
373.78	227.98
374.16	227.87
374.54	227.80
374.92	227.73
375.30	227.66
375.68	227.59
376.06	227.52
376.44	227.45
376.82	227.39
377.19	227.33
377.57	227.25
377.95	227.17
378.33	227.11
378.71	227.01
379.09	226.96
379.47	226.89
379.84	226.79
380.22	226.74
380.60	226.64
380.98	226.57
381.36	226.53
381.73	226.46
382.11	226.45
382.49	226.42
382.87	226.41
383.25	226.36
383.62	226.46
384.00	226.39
384.38	226.33
384.76	226.27
385.13	226.26
385.51	226.23
385.89	226.14
386.27	226.08
386.64	226.05
387.02	226.00
387.40	225.98
387.78	225.98
388.15	225.96
388.53	225.93
388.91	225.89
389.29	225.87
389.66	225.84
390.04	225.77
390.42	225.76
390.79	225.71
391.17	225.69
391.55	225.53
391.92	225.53
392.30	225.54
392.68	225.52
393.05	225.51
393.43	225.53
393.81	225.59
394.18	225.59
394.56	225.60
394.94	225.66
395.31	225.65
395.69	225.69
396.06	225.73
396.44	225.76
396.82	225.76
397.19	225.85
397.57	225.86
397.95	225.91
398.32	225.92
398.70	225.97
399.07	226.06
399.45	226.15
399.82	226.20
400.20	226.25
400.58	226.32
400.95	226.36
401.33	226.41
401.70	226.54
402.08	226.63
402.45	226.69
402.83	226.78
403.20	226.85
403.58	226.93
403.95	227.02
404.33	227.13
404.71	227.28
405.08	227.43
405.46	227.57
405.83	227.73
406.21	227.86
406.58	228.03
406.96	228.17
407.33	228.32
407.70	228.50
408.08	228.76
408.45	228.98
408.83	229.20
409.20	229.42
409.58	229.58
409.95	229.81
410.33	230.07
410.70	230.30
411.08	230.60
411.45	230.91
411.82	231.21
412.20	231.59
412.57	231.98
412.95	232.24
413.32	232.63
413.69	233.02
414.07	233.45
414.44	233.90
414.82	234.37
415.19	234.89
415.56	235.45
415.94	235.98
416.31	236.62
416.68	237.23
417.06	237.92
417.43	238.60
417.81	239.36
418.18	240.17
418.55	241.00
418.93	241.87
419.30	242.79
419.67	243.75
420.04	244.68
420.42	245.67
420.79	246.87
421.16	248.03
421.54	249.23
421.91	250.44
422.28	251.72
422.66	253.06
423.03	254.37
423.40	255.69
423.77	257.09
424.15	258.51
424.52	260.03
424.89	261.65
425.26	263.20
425.64	264.67
426.01	266.26
426.38	267.93
426.75	269.56
427.13	271.29
427.50	273.11
427.87	275.05
428.24	276.94
428.61	278.69
428.99	280.66
429.36	282.76
429.73	284.84
430.10	286.84
430.47	288.93
430.85	291.07
431.22	293.35
431.59	295.72
431.96	297.99
432.33	300.45
432.70	302.84
433.08	305.70
433.45	308.33
433.82	310.95
434.19	313.83
434.56	316.69
434.93	319.32
435.30	321.87
435.68	324.71
436.05	327.54
436.42	330.30
436.79	332.82
437.16	335.49
437.53	338.30
437.90	341.10
438.27	343.78
438.64	346.60
439.01	349.13
439.38	351.37
439.75	353.54
440.13	356.02
440.50	358.30
440.87	360.09
441.24	362.04
441.61	364.17
441.98	365.69
442.35	367.43
442.72	369.20
443.09	371.08
443.46	372.09
443.83	372.66
444.20	373.17
444.57	373.98
444.94	374.27
445.31	374.61
445.68	374.94
446.05	375.04
446.42	374.63
446.79	374.23
447.16	373.84
447.53	373.46
447.90	372.33
448.27	371.19
448.64	369.67
449.01	368.53
449.37	366.53
449.74	364.59
450.11	362.36
450.48	359.94
450.85	357.38
451.22	355.22
451.59	353.20
451.96	351.27
452.33	348.67
452.70	346.33
453.07	343.51
453.43	340.63
453.80	337.85
454.17	335.16
454.54	332.65
454.91	329.87
455.28	327.22
455.65	324.72
456.02	322.28
456.38	320.10
456.75	317.42
457.12	315.19
457.49	312.98
457.86	310.80
458.23	308.97
458.59	306.93
458.96	304.85
459.33	302.97
459.70	301.12
460.07	299.64
460.43	297.86
460.80	296.26
461.17	294.83
461.54	293.34
461.91	291.97
462.27	290.48
462.64	289.28
463.01	287.91
463.38	286.62
463.74	285.22
464.11	284.09
464.48	283.11
464.85	282.02
465.21	281.17
465.58	280.28
465.95	279.20
466.32	278.30
466.68	277.42
467.05	276.54
467.42	275.69
467.78	274.75
468.15	273.94
468.52	273.27
468.88	272.44
469.25	271.68
469.62	271.04
469.98	270.42
470.35	269.80
470.72	269.24
471.08	268.60
471.45	268.12
471.82	267.59
472.18	266.97
472.55	266.57
472.92	266.05
473.28	265.60
473.65	265.17
474.02	264.77
474.38	264.43
474.75	264.13
475.11	263.78
475.48	263.57
475.85	263.34
476.21	263.09
476.58	262.92
476.94	262.82
477.31	262.67
477.67	262.53
478.04	262.41
478.41	262.36
478.77	262.40
479.14	262.34
479.50	262.38
479.87	262.50
480.23	262.53
480.60	262.61
480.96	262.71
481.33	262.94
481.69	263.13
482.06	263.31
482.42	263.52
482.79	263.76
483.15	264.06
483.52	264.47
483.88	264.86
484.25	265.23
484.61	265.63
484.98	266.12
485.34	266.64
485.71	267.26
486.07	267.87
486.44	268.44
486.80	269.12
487.17	269.86
487.53	270.63
487.90	271.52
488.26	272.44
488.62	273.43
488.99	274.38
489.35	275.44
489.72	276.56
490.08	277.76
490.44	278.99
490.81	280.30
491.17	281.63
491.54	283.12
491.90	284.68
492.26	286.34
492.63	288.08
492.99	289.90
493.36	291.79
493.72	293.84
494.08	295.97
494.45	298.22
494.81	300.54
495.17	302.98
495.54	305.57
495.90	308.24
496.26	311.05
496.63	314.02
496.99	317.10
497.35	320.39
497.72	323.80
498.08	327.32
498.44	331.01
498.80	334.93
499.17	338.91
499.53	343.16
499.89	347.52
500.26	351.97
500.62	356.61
500.98	361.53
501.34	366.54
501.71	371.86
502.07	377.30
502.43	382.89
502.79	388.73
503.16	394.79
503.52	401.05
503.88	407.39
504.24	414.05
504.60	420.94
504.97	428.04
505.33	435.37
505.69	443.10
506.05	450.88
506.41	458.77
506.78	466.94
507.14	475.32
507.50	484.00
507.86	493.07
508.22	502.31
508.59	511.54
508.95	521.15
509.31	530.95
509.67	541.03
510.03	551.35
510.39	561.95
510.75	572.74
511.12	583.69
511.48	595.05
511.84	606.47
512.20	618.01
512.56	629.94
512.92	642.11
513.28	654.46
513.64	667.00
514.00	679.66
514.37	692.62
514.73	705.67
515.09	718.68
515.45	732.00
515.81	745.56
516.17	759.50
516.53	773.64
516.89	787.79
517.25	801.91
517.61	816.37
517.97	830.77
518.33	845.21
518.69	859.95
519.05	874.96
519.41	890.14
519.77	905.61
520.13	920.97
520.49	936.24
520.85	951.65
521.21	967.27
521.57	983.46
521.93	999.15
522.29	1015.51
522.65	1031.64
523.01	1047.71
523.37	1063.65
523.73	1079.84
524.09	1095.87
524.45	1112.14
524.81	1128.72
525.17	1145.55
525.53	1162.42
525.89	1179.24
526.25	1196.04
526.61	1212.22
526.97	1228.76
527.33	1245.29
527.68	1261.89
528.04	1278.31
528.40	1294.77
528.76	1311.72
529.12	1328.31
529.48	1345.06
529.84	1361.09
530.20	1377.81
530.56	1394.78
530.91	1412.19
531.27	1428.73
531.63	1445.22
531.99	1461.77
532.35	1477.71
532.71	1493.41
533.07	1509.52
533.42	1525.33
533.78	1541.37
534.14	1557.72
534.50	1573.04
534.86	1588.75
535.21	1603.94
535.57	1619.88
535.93	1635.34
536.29	1650.06
536.65	1665.00
537.00	1679.77
537.36	1694.92
537.72	1709.45
538.08	1723.70
538.44	1737.38
538.79	1751.26
539.15	1764.75
539.51	1778.33
539.87	1792.68
540.22	1806.33
540.58	1819.99
540.94	1833.23
541.29	1845.99
541.65	1858.48
542.01	1871.53
542.37	1883.75
542.72	1895.90
543.08	1907.56
543.44	1919.76
543.79	1930.96
544.15	1941.87
544.51	1953.40
544.87	1964.26
545.22	1974.85
545.58	1985.09
545.94	1994.74
546.29	2004.64
546.65	2014.42
547.01	2023.74
547.36	2032.25
547.72	2040.61
548.07	2048.36
548.43	2056.28
548.79	2064.18
549.14	2071.67
549.50	2078.94
549.86	2086.54
550.21	2093.95
550.57	2100.92
550.92	2107.52
551.28	2114.52
551.64	2121.50
551.99	2127.94
552.35	2133.99
552.70	2140.10
553.06	2146.10
553.41	2152.37
553.77	2158.27
554.13	2164.30
554.48	2170.33
554.84	2175.87
555.19	2181.00
555.55	2186.23
555.90	2190.92
556.26	2195.75
556.61	2200.45
556.97	2204.91
557.32	2209.07
557.68	2213.26
558.03	2217.75
558.39	2221.52
558.74	2226.17
559.10	2230.08
559.45	2233.79
559.81	2238.05
560.16	2241.87
560.52	2245.03
560.87	2248.45
561.23	2251.15
561.58	2254.18
561.94	2256.62
562.29	2258.87
562.64	2261.66
563.00	2264.28
563.35	2267.79
563.71	2270.98
564.06	2274.33
564.42	2277.13
564.77	2279.75
565.12	2281.90
565.48	2283.77
565.83	2285.70
566.19	2286.99
566.54	2287.89
566.89	2288.98
567.25	2289.69
567.60	2290.98
567.96	2292.62
568.31	2293.52
568.66	2294.73
569.02	2295.23
569.37	2295.66
569.72	2296.69
570.08	2296.86
570.43	2296.82
570.78	2296.23
571.14	2294.82
571.49	2293.44
571.84	2293.31
572.20	2292.27
572.55	2291.39
572.90	2289.89
573.26	2288.42
573.61	2286.76
573.96	2284.97
574.31	2282.09
574.67	2279.07
575.02	2275.61
575.37	2272.39
575.72	2268.74
576.08	2265.38
576.43	2262.21
576.78	2258.61
577.13	2255.40
577.49	2252.40
577.84	2249.02
578.19	2245.36
578.54	2241.75
578.90	2237.61
579.25	2232.01
579.60	2226.86
579.95	2221.85
580.30	2216.93
580.66	2211.80
581.01	2207.00
581.36	2202.23
581.71	2198.09
582.06	2193.84
582.42	2189.54
582.77	2184.40
583.12	2179.96
583.47	2175.32
583.82	2170.36
584.17	2165.19
584.53	2159.92
584.88	2154.37
585.23	2148.76
585.58	2143.28
585.93	2137.97
586.28	2133.29
586.63	2128.36
586.98	2123.42
587.34	2118.73
587.69	2113.81
588.04	2108.71
588.39	2102.94
588.74	2096.57
589.09	2090.38
589.44	2083.56
589.79	2077.49
590.14	2071.97
590.49	2065.36
590.84	2059.03
591.19	2053.09
591.54	2046.65
591.89	2039.14
592.25	2032.34
592.60	2025.16
592.95	2017.72
593.30	2010.30
593.65	2002.77
594.00	1995.75
594.35	1988.61
594.70	1980.59
595.05	1973.58
595.40	1966.29
595.75	1958.87
596.10	1952.70
596.45	1946.16
596.80	1940.04
597.15	1933.47
597.50	1926.47
597.85	1920.05
598.19	1913.36
598.54	1906.18
598.89	1899.52
599.24	1893.81
599.59	1887.22
599.94	1880.93
600.29	1874.60
600.64	1868.09
600.99	1860.67
601.34	1853.79
601.69	1846.90
602.04	1840.18
602.39	1832.83
602.74	1826.00
603.08	1819.35
603.43	1812.62
603.78	1805.23
604.13	1798.02
604.48	1790.64
604.83	1783.82
605.18	1776.90
605.53	1768.89
605.87	1761.00
606.22	1753.91
606.57	1745.87
606.92	1738.55
607.27	1731.63
607.62	1724.71
607.96	1717.39
608.31	1710.70
608.66	1703.19
609.01	1695.55
609.36	1687.99
609.70	1679.99
610.05	1671.98
610.40	1664.20
610.75	1655.94
611.10	1648.38
611.44	1639.96
611.79	1632.09
612.14	1623.21
612.49	1614.06
612.83	1605.88
613.18	1597.71
613.53	1589.56
613.88	1581.07
614.22	1572.86
614.57	1564.03
614.92	1555.99
615.27	1548.36
615.61	1540.14
615.96	1532.09
616.31	1524.48
616.65	1516.95
617.00	1509.30
617.35	1501.69
617.70	1493.45
618.04	1484.94
618.39	1476.64
618.74	1469.12
619.08	1460.77
619.43	1453.28
619.78	1446.35
620.12	1439.06
620.47	1431.52
620.82	1423.30
621.16	1415.87
621.51	1408.24
621.85	1400.77
622.20	1392.14
622.55	1383.91
622.89	1376.00
623.24	1368.34
623.59	1360.92
623.93	1353.46
624.28	1346.29
624.62	1338.63
624.97	1331.48
625.32	1324.61
625.66	1317.67
626.01	1310.46
626.35	1303.08
626.70	1295.36
627.04	1287.65
627.39	1279.78
627.73	1272.37
628.08	1265.59
628.43	1258.25
628.77	1250.83
629.12	1243.22
629.46	1236.16
629.81	1228.67
630.15	1221.53
630.50	1214.08
630.84	1205.85
631.19	1197.93
631.53	1190.34
631.88	1182.87
632.22	1175.22
632.57	1167.99
632.91	1160.44
633.26	1152.95
633.60	1145.48
633.95	1138.30
634.29	1131.28
634.64	1124.72
634.98	1117.45
635.32	1110.15
635.67	1103.55
636.01	1096.91
636.36	1090.07
636.70	1083.46
637.05	1076.91
637.39	1070.37
637.73	1063.89
638.08	1058.08
638.42	1052.12
638.77	1045.71
639.11	1039.20
639.45	1032.84
639.80	1026.14
640.14	1019.70
640.49	1013.17
640.83	1006.93
641.17	1000.65
641.52	994.27
641.86	987.73
642.20	981.85
642.55	975.58
642.89	969.13
643.23	962.61
643.58	956.90
643.92	950.84
644.26	944.79
644.61	938.69
644.95	932.61
645.29	925.99
645.64	919.21
645.98	912.88
646.32	906.95
646.66	900.86
647.01	895.07
647.35	889.40
647.69	883.66
648.04	878.08
648.38	872.28
648.72	866.30
649.06	860.23
649.41	854.36
649.75	848.36
650.09	842.47
650.43	836.65
650.78	830.46
651.12	824.50
651.46	818.79
651.80	813.07
652.14	807.76
652.49	802.41
652.83	797.25
653.17	791.53
653.51	785.85
653.85	780.51
654.20	774.83
654.54	768.79
654.88	763.08
655.22	757.13
655.56	751.43
655.90	745.88
656.25	740.68
656.59	735.26
656.93	730.22
657.27	724.99
657.61	719.58
657.95	714.49
658.29	709.38
658.64	704.10
658.98	698.84
659.32	693.34
659.66	688.14
660.00	682.77
660.34	677.84
660.68	672.92
661.02	667.83
661.36	663.15
661.70	658.67
662.05	654.27
662.39	649.99
662.73	645.62
663.07	641.34
663.41	636.86
663.75	632.37
664.09	627.84
664.43	623.52
664.77	619.35
665.11	615.04
665.45	610.90
665.79	606.83
666.13	602.71
666.47	598.61
666.81	594.41
667.15	590.37
667.49	586.44
667.83	582.63
668.17	578.70
668.51	574.60
668.85	570.56
669.19	566.72
669.53	562.92
669.87	558.98
670.21	555.22
670.55	551.59
670.89	548.17
671.23	544.63
671.57	541.07
671.91	537.54
672.25	534.04
672.58	530.50
672.92	527.04
673.26	523.83
673.60	520.67
673.94	517.55
674.28	514.60
674.62	511.66
674.96	508.51
675.30	505.60
675.64	502.70
675.97	499.88
676.31	497.03
676.65	494.04
676.99	491.31
677.33	488.46
677.67	485.64
678.01	482.60
678.34	479.68
678.68	476.81
679.02	474.05
679.36	471.35
679.70	468.64
680.04	465.91
680.37	463.03
680.71	460.24
681.05	457.66
681.39	454.93
681.73	452.27
682.06	449.77
682.40	447.22
682.74	444.67
683.08	442.16
683.42	439.54
683.75	437.01
684.09	434.49
684.43	432.05
684.77	429.62
685.10	427.22
685.44	424.89
685.78	422.58
686.12	420.28
686.45	417.95
686.79	415.62
687.13	413.41
687.46	411.21
687.80	409.05
688.14	406.79
688.48	404.77
688.81	402.50
689.15	400.30
689.49	398.12
689.82	396.06
690.16	393.93
690.50	391.96
690.83	390.03
691.17	388.02
691.51	386.09
691.84	384.20
692.18	382.30
692.52	380.34
692.85	378.41
693.19	376.50
693.52	374.67
693.86	372.87
694.20	371.08
694.53	369.29
694.87	367.44
695.21	365.66
695.54	363.78
695.88	362.08
696.21	360.42
696.55	358.74
696.88	357.01
697.22	355.35
697.56	353.70
697.89	352.05
698.23	350.42
698.56	348.78
698.90	347.20
699.23	345.55
699.57	344.02
699.90	342.46
700.24	340.93
700.58	339.39
700.91	337.90
701.25	336.43
701.58	335.05
701.92	333.66
702.25	332.24
702.59	330.90
702.92	329.54
703.26	328.13
703.59	326.83
703.93	325.67
704.26	324.45
704.60	323.14
704.93	321.85
705.26	320.63
705.60	319.46
705.93	318.26
706.27	317.19
706.60	316.09
706.94	315.01
707.27	313.90
707.61	312.83
707.94	311.79
708.27	310.76
708.61	309.65
708.94	308.70
709.28	307.75
709.61	306.76
709.94	305.83
710.28	304.85
710.61	303.88
710.95	302.80
711.28	301.87
711.61	300.95
711.95	300.04
712.28	299.08
712.61	298.14
712.95	297.23
713.28	296.38
713.61	295.50
713.95	294.66
714.28	293.79
714.61	292.92
714.95	292.11
715.28	291.23
715.61	290.41
715.95	289.53
716.28	288.66
716.61	287.84
716.95	287.03
717.28	286.31
717.61	285.56
717.94	284.83
718.28	284.02
718.61	283.30
718.94	282.62
719.27	281.98
719.61	281.31
719.94	280.64
720.27	279.89
720.60	279.25
720.94	278.58
721.27	277.99
721.60	277.43
721.93	276.78
722.27	276.22
722.60	275.67
722.93	275.09
723.26	274.60
723.59	274.07
723.93	273.48
724.26	272.91
724.59	272.36
724.92	271.87
725.25	271.42
725.59	270.91
725.92	270.43
726.25	269.88
726.58	269.39
726.91	268.91
727.24	268.44
727.57	267.96
727.91	267.46
728.24	267.00
728.57	266.52
728.90	266.08
729.23	265.61
729.56	265.17
729.89	264.72
730.22	264.22
730.55	263.73
730.89	263.34
731.22	262.90
731.55	262.43
731.88	261.98
732.21	261.52
732.54	261.05
732.87	260.61
733.20	260.21
733.53	259.80
733.86	259.44
734.19	259.06
734.52	258.72
734.85	258.42
735.18	258.02
735.51	257.66
735.84	257.29
736.17	256.94
736.50	256.51
736.83	256.28
737.16	255.97
737.49	255.62
737.82	255.26
738.15	254.97
738.48	254.67
738.81	254.32
739.14	253.95
739.47	253.65
739.80	253.31
740.13	253.03
740.46	252.68
740.79	252.32
741.12	251.98
741.45	251.58
741.78	251.19
742.11	250.85
742.44	250.48
742.77	250.19
743.10	249.90
743.43	249.62
743.75	249.23
744.08	249.05
744.41	248.81
744.74	248.55
745.07	248.18
745.40	247.92
745.73	247.71
746.06	247.47
746.39	247.21
746.71	246.93
747.04	246.68
747.37	246.44
747.70	246.20
748.03	245.96
748.36	245.80
748.68	245.56
749.01	245.33
749.34	245.13
749.67	244.89
750.00	244.66
750.33	244.50
750.65	244.29
750.98	243.94
751.31	243.69
751.64	243.48
751.97	243.37
752.29	243.14
752.62	242.88
752.95	242.67
753.28	242.45
753.60	242.26
753.93	242.06
754.26	241.89
754.59	241.69
754.91	241.52
755.24	241.30
755.57	241.14
755.90	240.98
756.22	240.81
756.55	240.61
756.88	240.44
757.20	240.22
757.53	240.03
757.86	239.89
758.19	239.74
758.51	239.55
758.84	239.32
759.17	239.20
759.49	239.02
759.82	238.89
760.15	238.79
760.47	238.61
760.80	238.43
761.13	238.27
761.45	238.13
761.78	237.99
762.11	237.86
762.43	237.70
762.76	237.54
763.08	237.40
763.41	237.25
763.74	237.08
764.06	236.93
764.39	236.78
764.71	236.61
765.04	236.45
765.37	236.29
765.69	236.17
766.02	236.01
766.34	235.91
766.67	235.77
767.00	235.65
767.32	235.62
767.65	235.58
767.97	235.48
768.30	235.36
768.62	235.23
768.95	235.08
769.27	234.96
769.60	234.86
769.92	234.77
770.25	234.66
770.57	234.55
770.90	234.44
771.22	234.35
771.55	234.27
771.87	234.19
772.20	234.15
772.52	234.15
772.85	234.19
773.17	234.09
773.50	233.95
773.82	233.85
774.15	233.68
774.47	233.50
774.80	233.38
775.12	233.29
775.45	233.20
775.77	233.13
776.09	233.07
776.42	233.01
776.74	232.92
777.07	232.87
777.39	232.79
777.72	232.69
778.04	232.65
778.36	232.56
778.69	232.52
779.01	232.45
779.33	232.28
779.66	232.11
779.98	232.06
780.31	232.01
780.63	231.97
780.95	231.91
781.28	231.86
781.60	231.80
781.92	231.72
782.25	231.67
782.57	231.62
782.89	231.51
783.22	231.46
783.54	231.41
783.86	231.32
784.19	231.24
784.51	231.24
784.83	231.16
785.16	231.09
785.48	231.01
785.80	230.95
786.12	230.88
786.45	230.80
786.77	230.76
787.09	230.76
