SpectraSuite Data File
++++++++++++++++++++++++++++++++++++
Date: Fri Feb 01 14:53:42 EST 2013
User: group
Dark Spectrum Present: No
Reference Spectrum Present: No
Number of Sampled Component Spectra: 1
Spectrometers: USB2E7196
Integration Time (usec): 35000 (USB2E7196)
Spectra Averaged: 100 (USB2E7196)
Boxcar Smoothing: 10 (USB2E7196)
Correct for Electrical Dark: No (USB2E7196)
Strobe/Lamp Enabled: No (USB2E7196)
Correct for Detector Non-linearity: No (USB2E7196)
Correct for Stray Light: No (USB2E7196)
Number of Pixels in Processed Spectrum: 2048
>>>>>Begin Processed Spectral Data<<<<<
339.09	0.00
339.48	215.13
339.86	217.07
340.24	218.14
340.63	219.90
341.01	222.35
341.39	222.15
341.78	222.74
342.16	224.93
342.54	225.28
342.93	213.58
343.31	224.39
343.69	224.97
344.07	225.42
344.46	225.86
344.84	226.21
345.22	226.44
345.60	226.69
345.99	226.92
346.37	227.07
346.75	227.18
347.13	227.25
347.52	227.31
347.90	227.35
348.28	227.37
348.66	227.43
349.05	227.46
349.43	227.48
349.81	227.52
350.19	227.53
350.57	227.57
350.96	227.64
351.34	227.71
351.72	227.79
352.10	227.91
352.48	227.98
352.87	228.03
353.25	228.12
353.63	228.21
354.01	228.28
354.39	228.34
354.77	228.41
355.15	228.51
355.54	228.59
355.92	228.67
356.30	228.78
356.68	228.93
357.06	229.01
357.44	229.10
357.82	229.13
358.20	229.24
358.58	229.34
358.97	229.38
359.35	229.48
359.73	229.51
360.11	229.57
360.49	229.60
360.87	229.69
361.25	229.75
361.63	229.82
362.01	229.88
362.39	229.89
362.77	229.95
363.15	229.99
363.53	230.01
363.91	230.02
364.29	230.01
364.67	229.94
365.05	229.93
365.43	229.95
365.81	229.99
366.19	230.02
366.57	230.05
366.95	230.05
367.33	229.98
367.71	229.98
368.09	229.96
368.47	229.93
368.85	229.88
369.23	229.83
369.61	229.76
369.99	229.71
370.37	229.68
370.75	229.66
371.13	229.55
371.51	229.50
371.89	229.43
372.27	229.38
372.65	229.34
373.03	229.30
373.41	229.21
373.78	229.15
374.16	229.03
374.54	228.92
374.92	228.84
375.30	228.76
375.68	228.67
376.06	228.60
376.44	228.53
376.82	228.44
377.19	228.37
377.57	228.27
377.95	228.18
378.33	228.08
378.71	227.96
379.09	227.84
379.47	227.76
379.84	227.70
380.22	227.59
380.60	227.48
380.98	227.39
381.36	227.32
381.73	227.23
382.11	227.19
382.49	227.14
382.87	227.05
383.25	227.02
383.62	227.05
384.00	226.96
384.38	226.88
384.76	226.87
385.13	226.82
385.51	226.76
385.89	226.71
386.27	226.66
386.64	226.64
387.02	226.63
387.40	226.59
387.78	226.53
388.15	226.51
388.53	226.47
388.91	226.43
389.29	226.38
389.66	226.36
390.04	226.29
390.42	226.31
390.79	226.34
391.17	226.31
391.55	226.24
391.92	226.24
392.30	226.27
392.68	226.25
393.05	226.28
393.43	226.32
393.81	226.36
394.18	226.37
394.56	226.40
394.94	226.46
395.31	226.47
395.69	226.54
396.06	226.59
396.44	226.65
396.82	226.70
397.19	226.84
397.57	226.86
397.95	226.96
398.32	226.98
398.70	227.05
399.07	227.14
399.45	227.20
399.82	227.29
400.20	227.34
400.58	227.42
400.95	227.47
401.33	227.59
401.70	227.75
402.08	227.88
402.45	227.97
402.83	228.10
403.20	228.24
403.58	228.35
403.95	228.51
404.33	228.67
404.71	228.81
405.08	229.02
405.46	229.20
405.83	229.38
406.21	229.56
406.58	229.72
406.96	229.89
407.33	230.09
407.70	230.28
408.08	230.61
408.45	230.84
408.83	231.10
409.20	231.33
409.58	231.50
409.95	231.79
410.33	232.10
410.70	232.34
411.08	232.65
411.45	233.01
411.82	233.31
412.20	233.64
412.57	234.07
412.95	234.37
413.32	234.79
413.69	235.17
414.07	235.60
414.44	236.07
414.82	236.58
415.19	237.13
415.56	237.69
415.94	238.22
416.31	238.85
416.68	239.50
417.06	240.18
417.43	240.88
417.81	241.62
418.18	242.38
418.55	243.20
418.93	244.06
419.30	244.94
419.67	245.86
420.04	246.82
420.42	247.79
420.79	248.96
421.16	250.09
421.54	251.29
421.91	252.52
422.28	253.73
422.66	255.05
423.03	256.34
423.40	257.60
423.77	258.99
424.15	260.42
424.52	261.88
424.89	263.48
425.26	265.00
425.64	266.45
426.01	268.05
426.38	269.71
426.75	271.37
427.13	273.09
427.50	274.91
427.87	276.79
428.24	278.66
428.61	280.38
428.99	282.33
429.36	284.40
429.73	286.42
430.10	288.44
430.47	290.49
430.85	292.58
431.22	294.88
431.59	297.25
431.96	299.51
432.33	301.99
432.70	304.37
433.08	307.20
433.45	309.82
433.82	312.43
434.19	315.32
434.56	318.11
434.93	320.74
435.30	323.36
435.68	326.25
436.05	329.11
436.42	331.92
436.79	334.46
437.16	337.18
437.53	340.06
437.90	342.93
438.27	345.62
438.64	348.43
439.01	350.98
439.38	353.27
439.75	355.41
440.13	357.88
440.50	360.23
440.87	362.09
441.24	364.02
441.61	366.16
441.98	367.65
442.35	369.47
442.72	371.32
443.09	373.16
443.46	374.15
443.83	374.66
444.20	375.18
444.57	375.99
444.94	376.24
445.31	376.56
445.68	376.88
446.05	376.98
446.42	376.63
446.79	376.24
447.16	375.74
447.53	375.43
447.90	374.27
448.27	373.11
448.64	371.53
449.01	370.44
449.37	368.48
449.74	366.60
450.11	364.34
450.48	361.85
450.85	359.33
451.22	357.19
451.59	355.19
451.96	353.23
452.33	350.60
452.70	348.30
453.07	345.47
453.43	342.58
453.80	339.85
454.17	337.18
454.54	334.64
454.91	331.94
455.28	329.22
455.65	326.76
456.02	324.32
456.38	322.20
456.75	319.53
457.12	317.25
457.49	315.04
457.86	312.91
458.23	311.09
458.59	309.03
458.96	306.93
459.33	305.11
459.70	303.23
460.07	301.74
460.43	299.98
460.80	298.33
461.17	296.87
461.54	295.36
461.91	293.94
462.27	292.48
462.64	291.21
463.01	289.89
463.38	288.57
463.74	287.16
464.11	285.96
464.48	284.91
464.85	283.82
465.21	282.95
465.58	282.01
465.95	280.87
466.32	279.94
466.68	279.03
467.05	278.09
467.42	277.20
467.78	276.29
468.15	275.42
468.52	274.78
468.88	273.92
469.25	273.14
469.62	272.50
469.98	271.86
470.35	271.25
470.72	270.61
471.08	269.96
471.45	269.42
471.82	268.86
472.18	268.27
472.55	267.78
472.92	267.23
473.28	266.78
473.65	266.33
474.02	265.88
474.38	265.50
474.75	265.15
475.11	264.81
475.48	264.49
475.85	264.26
476.21	263.99
476.58	263.81
476.94	263.65
477.31	263.44
477.67	263.25
478.04	263.10
478.41	263.02
478.77	263.04
479.14	262.96
479.50	262.99
479.87	263.03
480.23	263.13
480.60	263.21
480.96	263.25
481.33	263.44
481.69	263.62
482.06	263.80
482.42	263.99
482.79	264.24
483.15	264.56
483.52	264.91
483.88	265.27
484.25	265.65
484.61	266.07
484.98	266.55
485.34	267.08
485.71	267.64
486.07	268.30
486.44	268.84
486.80	269.52
487.17	270.19
487.53	270.99
487.90	271.80
488.26	272.67
488.62	273.67
488.99	274.64
489.35	275.68
489.72	276.82
490.08	278.04
490.44	279.28
490.81	280.59
491.17	281.91
491.54	283.33
491.90	284.85
492.26	286.47
492.63	288.16
492.99	289.93
493.36	291.81
493.72	293.80
494.08	295.95
494.45	298.17
494.81	300.51
495.17	302.87
495.54	305.45
495.90	308.16
496.26	310.93
496.63	313.90
496.99	317.00
497.35	320.21
497.72	323.58
498.08	327.04
498.44	330.69
498.80	334.60
499.17	338.65
499.53	342.79
499.89	347.11
500.26	351.56
500.62	356.19
500.98	361.14
501.34	366.17
501.71	371.39
502.07	376.76
502.43	382.37
502.79	388.20
503.16	394.15
503.52	400.35
503.88	406.70
504.24	413.29
504.60	420.08
504.97	427.18
505.33	434.47
505.69	442.16
506.05	449.88
506.41	457.68
506.78	465.77
507.14	474.17
507.50	482.91
507.86	491.88
508.22	501.07
508.59	510.22
508.95	519.76
509.31	529.51
509.67	539.62
510.03	549.85
510.39	560.37
510.75	571.21
511.12	582.17
511.48	593.46
511.84	604.90
512.20	616.49
512.56	628.42
512.92	640.59
513.28	652.80
513.64	665.25
514.00	678.00
514.37	690.92
514.73	703.95
515.09	716.92
515.45	730.21
515.81	743.82
516.17	757.82
516.53	771.94
516.89	786.08
517.25	800.30
517.61	814.73
517.97	829.21
518.33	843.66
518.69	858.46
519.05	873.48
519.41	888.62
519.77	904.11
520.13	919.66
520.49	935.03
520.85	950.61
521.21	966.45
521.57	982.80
521.93	998.72
522.29	1015.23
522.65	1031.64
523.01	1047.93
523.37	1064.00
523.73	1080.31
524.09	1096.51
524.45	1113.00
524.81	1129.65
525.17	1146.60
525.53	1163.59
525.89	1180.46
526.25	1197.45
526.61	1213.95
526.97	1230.84
527.33	1247.47
527.68	1264.03
528.04	1280.66
528.40	1297.40
528.76	1314.53
529.12	1331.12
529.48	1348.03
529.84	1364.15
530.20	1380.79
530.56	1397.88
530.91	1415.30
531.27	1432.01
531.63	1448.58
531.99	1465.20
532.35	1481.28
532.71	1497.14
533.07	1513.47
533.42	1529.50
533.78	1545.44
534.14	1561.75
534.50	1577.09
534.86	1593.04
535.21	1608.35
535.57	1624.28
535.93	1639.77
536.29	1654.54
536.65	1669.79
537.00	1684.59
537.36	1699.92
537.72	1714.47
538.08	1729.01
538.44	1742.95
538.79	1757.02
539.15	1770.83
539.51	1784.59
539.87	1798.92
540.22	1812.77
540.58	1826.51
540.94	1839.98
541.29	1853.02
541.65	1865.76
542.01	1879.05
542.37	1891.33
542.72	1903.77
543.08	1915.68
543.44	1928.14
543.79	1939.51
544.15	1950.42
544.51	1962.03
544.87	1973.01
545.22	1983.96
545.58	1994.23
545.94	2003.98
546.29	2013.79
546.65	2023.65
547.01	2032.90
547.36	2041.71
547.72	2050.27
548.07	2058.13
548.43	2066.33
548.79	2074.34
549.14	2082.00
549.50	2089.42
549.86	2097.26
550.21	2104.52
550.57	2111.73
550.92	2118.35
551.28	2125.43
551.64	2132.49
551.99	2139.01
552.35	2145.16
552.70	2151.07
553.06	2156.93
553.41	2163.16
553.77	2169.17
554.13	2174.99
554.48	2181.08
554.84	2186.48
555.19	2191.77
555.55	2196.86
555.90	2201.06
556.26	2205.79
556.61	2210.34
556.97	2214.49
557.32	2218.42
557.68	2222.64
558.03	2226.82
558.39	2230.49
558.74	2234.96
559.10	2238.71
559.45	2242.21
559.81	2246.32
560.16	2250.16
560.52	2253.31
560.87	2256.83
561.23	2259.33
561.58	2262.25
561.94	2264.74
562.29	2267.03
562.64	2269.59
563.00	2272.15
563.35	2275.74
563.71	2278.77
564.06	2281.76
564.42	2284.55
564.77	2286.91
565.12	2288.96
565.48	2290.61
565.83	2292.17
566.19	2293.30
566.54	2294.20
566.89	2295.30
567.25	2295.79
567.60	2297.02
567.96	2298.55
568.31	2299.19
568.66	2300.14
569.02	2300.51
569.37	2300.57
569.72	2301.18
570.08	2301.05
570.43	2300.99
570.78	2300.01
571.14	2298.31
571.49	2296.85
571.84	2296.24
572.20	2294.86
572.55	2293.56
572.90	2291.69
573.26	2290.24
573.61	2288.43
573.96	2286.28
574.31	2283.02
574.67	2279.76
575.02	2275.84
575.37	2272.24
575.72	2268.28
576.08	2264.77
576.43	2261.32
576.78	2257.49
577.13	2254.16
577.49	2250.87
577.84	2247.11
578.19	2243.17
578.54	2239.32
578.90	2234.84
579.25	2229.14
579.60	2224.07
579.95	2218.89
580.30	2213.81
580.66	2208.37
581.01	2203.16
581.36	2198.21
581.71	2193.89
582.06	2189.41
582.42	2184.71
582.77	2179.29
583.12	2174.49
583.47	2169.65
583.82	2164.49
584.17	2159.17
584.53	2153.50
584.88	2147.65
585.23	2141.76
585.58	2136.26
585.93	2130.66
586.28	2125.89
586.63	2120.74
586.98	2115.53
587.34	2110.87
587.69	2105.82
588.04	2100.42
588.39	2094.70
588.74	2088.16
589.09	2081.91
589.44	2074.81
589.79	2068.77
590.14	2062.97
590.49	2056.17
590.84	2049.50
591.19	2043.24
591.54	2036.59
591.89	2028.99
592.25	2022.06
592.60	2014.68
592.95	2006.91
593.30	1999.55
593.65	1991.69
594.00	1984.50
594.35	1977.06
594.70	1968.79
595.05	1961.50
595.40	1954.10
595.75	1946.50
596.10	1940.06
596.45	1933.05
596.80	1926.90
597.15	1920.08
597.50	1912.90
597.85	1906.53
598.19	1900.02
598.54	1892.96
598.89	1886.24
599.24	1880.29
599.59	1873.52
599.94	1867.18
600.29	1860.86
600.64	1854.06
600.99	1846.61
601.34	1839.72
601.69	1832.85
602.04	1825.88
602.39	1818.54
602.74	1811.76
603.08	1805.09
603.43	1798.42
603.78	1791.28
604.13	1783.95
604.48	1776.76
604.83	1769.94
605.18	1762.92
605.53	1754.76
605.87	1746.72
606.22	1739.69
606.57	1731.89
606.92	1724.65
607.27	1717.56
607.62	1710.73
607.96	1703.57
608.31	1697.05
608.66	1689.48
609.01	1681.88
609.36	1674.44
609.70	1666.46
610.05	1658.58
610.40	1650.75
610.75	1642.41
611.10	1634.71
611.44	1626.56
611.79	1618.58
612.14	1609.89
612.49	1600.76
612.83	1592.49
613.18	1584.40
613.53	1576.21
613.88	1567.82
614.22	1559.62
614.57	1551.11
614.92	1543.04
615.27	1535.54
615.61	1527.26
615.96	1519.33
616.31	1511.75
616.65	1504.42
617.00	1496.96
617.35	1489.24
617.70	1480.97
618.04	1472.46
618.39	1464.39
618.74	1456.79
619.08	1448.57
619.43	1441.14
619.78	1434.33
620.12	1427.29
620.47	1419.87
620.82	1411.80
621.16	1404.40
621.51	1396.95
621.85	1389.45
622.20	1381.10
622.55	1372.88
622.89	1365.13
623.24	1357.61
623.59	1350.38
623.93	1342.93
624.28	1335.70
624.62	1328.27
624.97	1321.18
625.32	1314.53
625.66	1307.50
626.01	1300.45
626.35	1293.13
626.70	1285.51
627.04	1277.82
627.39	1270.05
627.73	1262.68
628.08	1255.82
628.43	1248.46
628.77	1241.07
629.12	1233.43
629.46	1226.25
629.81	1218.87
630.15	1211.69
630.50	1204.33
630.84	1196.15
631.19	1188.14
631.53	1180.73
631.88	1173.16
632.22	1165.72
632.57	1158.52
632.91	1151.12
633.26	1143.69
633.60	1136.33
633.95	1129.26
634.29	1122.30
634.64	1115.74
634.98	1108.44
635.32	1101.40
635.67	1095.02
636.01	1088.41
636.36	1081.75
636.70	1075.34
637.05	1068.90
637.39	1062.48
637.73	1056.05
638.08	1050.27
638.42	1044.49
638.77	1038.12
639.11	1031.59
639.45	1025.18
639.80	1018.62
640.14	1012.29
640.49	1005.80
640.83	999.64
641.17	993.40
641.52	987.12
641.86	980.78
642.20	975.06
642.55	968.84
642.89	962.40
643.23	955.99
643.58	950.30
643.92	944.17
644.26	938.13
644.61	932.24
644.95	926.19
645.29	919.56
645.64	912.88
645.98	906.60
646.32	900.77
646.66	894.80
647.01	889.02
647.35	883.29
647.69	877.54
648.04	872.00
648.38	866.37
648.72	860.39
649.06	854.32
649.41	848.41
649.75	842.41
650.09	836.51
650.43	830.77
650.78	824.60
651.12	818.68
651.46	812.92
651.80	807.14
652.14	801.79
652.49	796.57
652.83	791.42
653.17	785.73
653.51	780.09
653.85	774.81
654.20	769.23
654.54	763.20
654.88	757.57
655.22	751.72
655.56	746.04
655.90	740.71
656.25	735.50
656.59	730.21
656.93	725.18
657.27	720.06
657.61	714.60
657.95	709.65
658.29	704.62
658.64	699.50
658.98	694.27
659.32	688.89
659.66	683.72
660.00	678.46
660.34	673.65
660.68	668.85
661.02	663.84
661.36	659.19
661.70	654.90
662.05	650.58
662.39	646.29
662.73	641.85
663.07	637.45
663.41	633.02
663.75	628.66
664.09	624.20
664.43	619.81
664.77	615.78
665.11	611.46
665.45	607.43
665.79	603.36
666.13	599.28
666.47	595.25
666.81	591.10
667.15	587.01
667.49	583.16
667.83	579.36
668.17	575.46
668.51	571.45
668.85	567.43
669.19	563.56
669.53	559.77
669.87	555.98
670.21	552.33
670.55	548.79
670.89	545.32
671.23	541.89
671.57	538.47
671.91	534.97
672.25	531.58
672.58	528.02
672.92	524.61
673.26	521.52
673.60	518.42
673.94	515.33
674.28	512.44
674.62	509.51
674.96	506.37
675.30	503.50
675.64	500.58
675.97	497.84
676.31	495.02
676.65	492.10
676.99	489.40
677.33	486.59
677.67	483.81
678.01	480.84
678.34	477.88
678.68	475.00
679.02	472.23
679.36	469.46
679.70	466.86
680.04	464.16
680.37	461.27
680.71	458.48
681.05	455.93
681.39	453.24
681.73	450.64
682.06	448.17
682.40	445.58
682.74	443.10
683.08	440.59
683.42	438.01
683.75	435.56
684.09	433.03
684.43	430.60
684.77	428.18
685.10	425.86
685.44	423.59
685.78	421.34
686.12	419.12
686.45	416.91
686.79	414.54
687.13	412.36
687.46	410.23
687.80	408.07
688.14	405.91
688.48	403.90
688.81	401.64
689.15	399.53
689.49	397.47
689.82	395.39
690.16	393.30
690.50	391.35
690.83	389.41
691.17	387.50
691.51	385.61
691.84	383.80
692.18	381.88
692.52	379.88
692.85	377.97
693.19	376.13
693.52	374.32
693.86	372.58
694.20	370.83
694.53	369.02
694.87	367.22
695.21	365.42
695.54	363.61
695.88	361.93
696.21	360.27
696.55	358.57
696.88	356.89
697.22	355.23
697.56	353.66
697.89	352.03
698.23	350.43
698.56	348.85
698.90	347.24
699.23	345.61
699.57	344.09
699.90	342.56
700.24	341.02
700.58	339.50
700.91	338.02
701.25	336.60
701.58	335.30
701.92	333.96
702.25	332.66
702.59	331.32
702.92	330.02
703.26	328.70
703.59	327.47
703.93	326.36
704.26	325.17
704.60	323.88
704.93	322.66
705.26	321.45
705.60	320.31
705.93	319.19
706.27	318.21
706.60	317.19
706.94	316.14
707.27	314.98
707.61	313.96
707.94	312.97
708.27	311.90
708.61	310.85
708.94	309.86
709.28	308.85
709.61	307.90
709.94	306.97
710.28	305.95
710.61	304.96
710.95	303.87
711.28	302.99
711.61	302.03
711.95	301.10
712.28	300.12
712.61	299.14
712.95	298.22
713.28	297.32
713.61	296.40
713.95	295.53
714.28	294.78
714.61	293.91
714.95	293.05
715.28	292.22
715.61	291.31
715.95	290.45
716.28	289.60
716.61	288.78
716.95	287.97
717.28	287.23
717.61	286.50
717.94	285.73
718.28	284.89
718.61	284.22
718.94	283.55
719.27	282.92
719.61	282.25
719.94	281.55
720.27	280.84
720.60	280.22
720.94	279.59
721.27	278.95
721.60	278.38
721.93	277.77
722.27	277.16
722.60	276.62
722.93	276.06
723.26	275.51
723.59	274.94
723.93	274.38
724.26	273.79
724.59	273.24
724.92	272.73
725.25	272.27
725.59	271.77
725.92	271.24
726.25	270.68
726.58	270.23
726.91	269.78
727.24	269.32
727.57	268.83
727.91	268.32
728.24	267.83
728.57	267.28
728.90	266.84
729.23	266.38
729.56	265.97
729.89	265.48
730.22	264.97
730.55	264.51
730.89	264.07
731.22	263.64
731.55	263.19
731.88	262.77
732.21	262.29
732.54	261.87
732.87	261.44
733.20	261.07
733.53	260.64
733.86	260.27
734.19	259.86
734.52	259.49
734.85	259.16
735.18	258.79
735.51	258.49
735.84	258.07
736.17	257.71
736.50	257.28
736.83	257.04
737.16	256.72
737.49	256.36
737.82	256.01
738.15	255.71
738.48	255.40
738.81	255.05
739.14	254.76
739.47	254.44
739.80	254.18
740.13	253.86
740.46	253.57
740.79	253.24
741.12	252.96
741.45	252.63
741.78	252.30
742.11	251.98
742.44	251.67
742.77	251.44
743.10	251.14
743.43	250.87
743.75	250.50
744.08	250.39
744.41	250.13
744.74	249.82
745.07	249.56
745.40	249.31
745.73	249.10
746.06	248.85
746.39	248.58
746.71	248.26
747.04	248.02
747.37	247.76
747.70	247.50
748.03	247.23
748.36	247.04
748.68	246.83
749.01	246.60
749.34	246.37
749.67	246.12
750.00	245.89
750.33	245.75
750.65	245.56
750.98	245.20
751.31	245.02
751.64	244.87
751.97	244.67
752.29	244.47
752.62	244.24
752.95	244.01
753.28	243.81
753.60	243.65
753.93	243.49
754.26	243.30
754.59	243.09
754.91	242.91
755.24	242.71
755.57	242.52
755.90	242.33
756.22	242.17
756.55	242.00
756.88	241.84
757.20	241.60
757.53	241.46
757.86	241.30
758.19	241.13
758.51	240.97
758.84	240.78
759.17	240.59
759.49	240.40
759.82	240.30
760.15	240.15
760.47	239.99
760.80	239.78
761.13	239.65
761.45	239.49
761.78	239.35
762.11	239.21
762.43	239.04
762.76	238.88
763.08	238.71
763.41	238.57
763.74	238.44
764.06	238.31
764.39	238.13
764.71	237.99
765.04	237.86
765.37	237.71
765.69	237.59
766.02	237.46
766.34	237.34
766.67	237.19
767.00	237.09
767.32	237.01
767.65	236.99
767.97	236.87
768.30	236.74
768.62	236.61
768.95	236.47
769.27	236.36
769.60	236.30
769.92	236.20
770.25	236.07
770.57	235.93
770.90	235.84
771.22	235.72
771.55	235.66
771.87	235.56
772.20	235.46
772.52	235.46
772.85	235.49
773.17	235.40
773.50	235.30
773.82	235.19
774.15	235.04
774.47	234.88
774.80	234.78
775.12	234.71
775.45	234.65
775.77	234.61
776.09	234.51
776.42	234.39
776.74	234.32
777.07	234.25
777.39	234.18
777.72	234.07
778.04	234.04
778.36	233.94
778.69	233.88
779.01	233.82
779.33	233.63
779.66	233.45
779.98	233.41
780.31	233.33
780.63	233.30
780.95	233.26
781.28	233.19
781.60	233.12
781.92	233.05
782.25	232.97
782.57	232.89
782.89	232.85
783.22	232.81
783.54	232.74
783.86	232.68
784.19	232.64
784.51	232.62
784.83	232.54
785.16	232.45
785.48	232.38
785.80	232.32
786.12	232.27
786.45	232.22
786.77	232.15
787.09	232.14
