SpectraSuite Data File
++++++++++++++++++++++++++++++++++++
Date: Fri Feb 01 16:19:43 EST 2013
User: group
Dark Spectrum Present: No
Reference Spectrum Present: No
Number of Sampled Component Spectra: 1
Spectrometers: USB2E7196
Integration Time (usec): 35000 (USB2E7196)
Spectra Averaged: 100 (USB2E7196)
Boxcar Smoothing: 10 (USB2E7196)
Correct for Electrical Dark: No (USB2E7196)
Strobe/Lamp Enabled: No (USB2E7196)
Correct for Detector Non-linearity: No (USB2E7196)
Correct for Stray Light: No (USB2E7196)
Number of Pixels in Processed Spectrum: 2048
>>>>>Begin Processed Spectral Data<<<<<
339.09	0.00
339.48	213.99
339.86	215.96
340.24	217.80
340.63	218.03
341.01	221.27
341.39	221.28
341.78	222.67
342.16	224.00
342.54	224.25
342.93	212.59
343.31	223.35
343.69	223.91
344.07	224.34
344.46	224.72
344.84	225.12
345.22	225.36
345.60	225.58
345.99	225.75
346.37	225.89
346.75	225.95
347.13	226.04
347.52	226.08
347.90	226.14
348.28	226.18
348.66	226.21
349.05	226.20
349.43	226.24
349.81	226.27
350.19	226.29
350.57	226.34
350.96	226.41
351.34	226.47
351.72	226.50
352.10	226.61
352.48	226.67
352.87	226.71
353.25	226.77
353.63	226.86
354.01	226.91
354.39	226.95
354.77	227.06
355.15	227.12
355.54	227.22
355.92	227.25
356.30	227.33
356.68	227.49
357.06	227.56
357.44	227.60
357.82	227.66
358.20	227.75
358.58	227.78
358.97	227.84
359.35	227.93
359.73	228.07
360.11	228.14
360.49	228.17
360.87	228.20
361.25	228.26
361.63	228.31
362.01	228.35
362.39	228.36
362.77	228.39
363.15	228.41
363.53	228.42
363.91	228.48
364.29	228.50
364.67	228.40
365.05	228.42
365.43	228.43
365.81	228.46
366.19	228.49
366.57	228.54
366.95	228.48
367.33	228.48
367.71	228.44
368.09	228.45
368.47	228.46
368.85	228.46
369.23	228.43
369.61	228.38
369.99	228.38
370.37	228.41
370.75	228.40
371.13	228.40
371.51	228.36
371.89	228.31
372.27	228.26
372.65	228.20
373.03	228.14
373.41	228.09
373.78	228.03
374.16	227.91
374.54	227.84
374.92	227.83
375.30	227.72
375.68	227.60
376.06	227.54
376.44	227.48
376.82	227.41
377.19	227.34
377.57	227.27
377.95	227.18
378.33	227.09
378.71	226.99
379.09	226.91
379.47	226.86
379.84	226.74
380.22	226.64
380.60	226.58
380.98	226.50
381.36	226.47
381.73	226.39
382.11	226.37
382.49	226.32
382.87	226.22
383.25	226.17
383.62	226.28
384.00	226.19
384.38	226.15
384.76	226.13
385.13	226.12
385.51	226.10
385.89	226.04
386.27	226.02
386.64	225.97
387.02	225.92
387.40	225.84
387.78	225.81
388.15	225.82
388.53	225.80
388.91	225.80
389.29	225.74
389.66	225.74
390.04	225.70
390.42	225.70
390.79	225.67
391.17	225.66
391.55	225.51
391.92	225.49
392.30	225.45
392.68	225.41
393.05	225.41
393.43	225.44
393.81	225.44
394.18	225.39
394.56	225.41
394.94	225.43
395.31	225.44
395.69	225.51
396.06	225.55
396.44	225.58
396.82	225.57
397.19	225.63
397.57	225.65
397.95	225.68
398.32	225.69
398.70	225.76
399.07	225.83
399.45	225.84
399.82	225.90
400.20	226.02
400.58	226.07
400.95	226.07
401.33	226.15
401.70	226.30
402.08	226.38
402.45	226.50
402.83	226.61
403.20	226.70
403.58	226.78
403.95	226.88
404.33	227.03
404.71	227.17
405.08	227.36
405.46	227.49
405.83	227.63
406.21	227.76
406.58	227.92
406.96	228.09
407.33	228.28
407.70	228.46
408.08	228.69
408.45	228.92
408.83	229.15
409.20	229.29
409.58	229.45
409.95	229.72
410.33	229.98
410.70	230.24
411.08	230.55
411.45	230.89
411.82	231.21
412.20	231.53
412.57	231.93
412.95	232.24
413.32	232.65
413.69	233.05
414.07	233.52
414.44	233.98
414.82	234.42
415.19	234.99
415.56	235.52
415.94	236.06
416.31	236.66
416.68	237.32
417.06	238.09
417.43	238.81
417.81	239.56
418.18	240.32
418.55	241.16
418.93	242.06
419.30	242.98
419.67	243.89
420.04	244.85
420.42	245.84
420.79	247.05
421.16	248.20
421.54	249.39
421.91	250.63
422.28	251.88
422.66	253.23
423.03	254.54
423.40	255.90
423.77	257.32
424.15	258.76
424.52	260.24
424.89	261.83
425.26	263.39
425.64	264.85
426.01	266.45
426.38	268.12
426.75	269.78
427.13	271.47
427.50	273.29
427.87	275.16
428.24	277.03
428.61	278.72
428.99	280.65
429.36	282.77
429.73	284.81
430.10	286.87
430.47	288.93
430.85	291.04
431.22	293.29
431.59	295.69
431.96	297.96
432.33	300.45
432.70	302.83
433.08	305.62
433.45	308.25
433.82	310.83
434.19	313.72
434.56	316.50
434.93	319.15
435.30	321.76
435.68	324.71
436.05	327.54
436.42	330.36
436.79	332.88
437.16	335.57
437.53	338.38
437.90	341.16
438.27	343.89
438.64	346.69
439.01	349.29
439.38	351.52
439.75	353.70
440.13	356.17
440.50	358.46
440.87	360.31
441.24	362.27
441.61	364.49
441.98	365.98
442.35	367.80
442.72	369.62
443.09	371.41
443.46	372.35
443.83	372.93
444.20	373.42
444.57	374.26
444.94	374.56
445.31	374.89
445.68	375.25
446.05	375.34
446.42	374.97
446.79	374.53
447.16	374.05
447.53	373.74
447.90	372.60
448.27	371.47
448.64	369.93
449.01	368.80
449.37	366.84
449.74	364.92
450.11	362.72
450.48	360.29
450.85	357.80
451.22	355.66
451.59	353.65
451.96	351.71
452.33	349.10
452.70	346.73
453.07	343.90
453.43	340.98
453.80	338.23
454.17	335.58
454.54	333.10
454.91	330.42
455.28	327.69
455.65	325.24
456.02	322.80
456.38	320.64
456.75	317.95
457.12	315.63
457.49	313.41
457.86	311.21
458.23	309.33
458.59	307.26
458.96	305.23
459.33	303.35
459.70	301.45
460.07	299.93
460.43	298.24
460.80	296.60
461.17	295.18
461.54	293.68
461.91	292.24
462.27	290.73
462.64	289.48
463.01	288.14
463.38	286.84
463.74	285.44
464.11	284.27
464.48	283.27
464.85	282.22
465.21	281.36
465.58	280.46
465.95	279.39
466.32	278.47
466.68	277.51
467.05	276.65
467.42	275.82
467.78	274.89
468.15	274.01
468.52	273.39
468.88	272.54
469.25	271.78
469.62	271.16
469.98	270.51
470.35	269.87
470.72	269.29
471.08	268.61
471.45	268.13
471.82	267.57
472.18	267.01
472.55	266.51
472.92	265.99
473.28	265.49
473.65	265.04
474.02	264.65
474.38	264.34
474.75	264.02
475.11	263.67
475.48	263.45
475.85	263.26
476.21	263.02
476.58	262.88
476.94	262.71
477.31	262.56
477.67	262.42
478.04	262.31
478.41	262.25
478.77	262.32
479.14	262.24
479.50	262.25
479.87	262.29
480.23	262.44
480.60	262.50
480.96	262.64
481.33	262.85
481.69	263.08
482.06	263.25
482.42	263.43
482.79	263.70
483.15	264.00
483.52	264.35
483.88	264.73
484.25	265.12
484.61	265.63
484.98	266.10
485.34	266.66
485.71	267.23
486.07	267.87
486.44	268.44
486.80	269.19
487.17	269.95
487.53	270.78
487.90	271.60
488.26	272.59
488.62	273.57
488.99	274.59
489.35	275.62
489.72	276.80
490.08	278.02
490.44	279.28
490.81	280.64
491.17	282.06
491.54	283.52
491.90	285.04
492.26	286.64
492.63	288.39
492.99	290.19
493.36	292.14
493.72	294.21
494.08	296.33
494.45	298.53
494.81	300.89
495.17	303.31
495.54	305.89
495.90	308.52
496.26	311.32
496.63	314.23
496.99	317.33
497.35	320.51
497.72	323.92
498.08	327.43
498.44	331.07
498.80	334.92
499.17	338.98
499.53	343.18
499.89	347.58
500.26	352.05
500.62	356.77
500.98	361.76
501.34	366.78
501.71	372.10
502.07	377.57
502.43	383.16
502.79	389.01
503.16	395.13
503.52	401.43
503.88	407.84
504.24	414.54
504.60	421.44
504.97	428.62
505.33	435.99
505.69	443.72
506.05	451.47
506.41	459.40
506.78	467.55
507.14	475.93
507.50	484.63
507.86	493.65
508.22	502.80
508.59	511.98
508.95	521.60
509.31	531.44
509.67	541.56
510.03	551.87
510.39	562.51
510.75	573.33
511.12	584.28
511.48	595.56
511.84	606.99
512.20	618.53
512.56	630.46
512.92	642.59
513.28	654.96
513.64	667.48
514.00	680.26
514.37	693.14
514.73	706.30
515.09	719.35
515.45	732.69
515.81	746.28
516.17	760.23
516.53	774.31
516.89	788.47
517.25	802.61
517.61	817.09
517.97	831.44
518.33	845.72
518.69	860.47
519.05	875.47
519.41	890.63
519.77	906.20
520.13	921.62
520.49	937.01
520.85	952.45
521.21	968.15
521.57	984.26
521.93	1000.11
522.29	1016.36
522.65	1032.59
523.01	1048.73
523.37	1064.78
523.73	1080.86
524.09	1096.85
524.45	1113.13
524.81	1129.73
525.17	1146.48
525.53	1163.41
525.89	1180.40
526.25	1197.26
526.61	1213.72
526.97	1230.44
527.33	1246.77
527.68	1263.37
528.04	1279.73
528.40	1296.19
528.76	1313.11
529.12	1329.68
529.48	1346.54
529.84	1362.52
530.20	1379.12
530.56	1395.98
530.91	1413.31
531.27	1430.10
531.63	1446.65
531.99	1463.12
532.35	1479.03
532.71	1494.78
533.07	1510.92
533.42	1526.78
533.78	1542.57
534.14	1558.73
534.50	1573.97
534.86	1589.83
535.21	1604.99
535.57	1620.92
535.93	1636.40
536.29	1651.18
536.65	1666.18
537.00	1680.75
537.36	1696.00
537.72	1710.42
538.08	1724.90
538.44	1738.67
538.79	1752.51
539.15	1766.04
539.51	1779.81
539.87	1794.12
540.22	1807.89
540.58	1821.59
540.94	1834.79
541.29	1847.67
541.65	1860.25
542.01	1873.30
542.37	1885.41
542.72	1897.79
543.08	1909.44
543.44	1921.75
543.79	1933.00
544.15	1943.77
544.51	1955.28
544.87	1966.10
545.22	1976.80
545.58	1986.86
545.94	1996.58
546.29	2006.27
546.65	2016.19
547.01	2025.32
547.36	2034.03
547.72	2042.30
548.07	2050.16
548.43	2058.35
548.79	2066.32
549.14	2073.79
549.50	2081.23
549.86	2088.95
550.21	2096.15
550.57	2103.40
550.92	2109.85
551.28	2116.83
551.64	2123.95
551.99	2130.52
552.35	2136.78
552.70	2143.00
553.06	2149.06
553.41	2155.33
553.77	2161.54
554.13	2167.42
554.48	2173.49
554.84	2178.79
555.19	2184.16
555.55	2189.30
555.90	2193.68
556.26	2198.48
556.61	2203.17
556.97	2207.31
557.32	2211.43
557.68	2215.61
558.03	2219.82
558.39	2223.55
558.74	2228.20
559.10	2232.01
559.45	2235.63
559.81	2240.00
560.16	2243.74
560.52	2246.97
560.87	2250.42
561.23	2253.06
561.58	2255.94
561.94	2258.55
562.29	2261.02
562.64	2263.79
563.00	2266.17
563.35	2269.76
563.71	2272.93
564.06	2276.18
564.42	2279.02
564.77	2281.65
565.12	2283.91
565.48	2285.88
565.83	2287.85
566.19	2289.03
566.54	2290.05
566.89	2291.15
567.25	2291.61
567.60	2292.92
567.96	2294.76
568.31	2295.55
568.66	2296.59
569.02	2297.35
569.37	2297.65
569.72	2298.59
570.08	2298.70
570.43	2299.13
570.78	2298.49
571.14	2296.98
571.49	2295.65
571.84	2295.52
572.20	2294.43
572.55	2293.44
572.90	2291.84
573.26	2290.43
573.61	2289.03
573.96	2287.40
574.31	2284.56
574.67	2281.72
575.02	2278.31
575.37	2274.88
575.72	2271.17
576.08	2267.86
576.43	2264.45
576.78	2260.65
577.13	2257.39
577.49	2254.40
577.84	2250.70
578.19	2247.01
578.54	2243.64
578.90	2239.54
579.25	2233.95
579.60	2229.03
579.95	2224.07
580.30	2219.24
580.66	2214.15
581.01	2209.14
581.36	2204.24
581.71	2200.22
582.06	2195.77
582.42	2191.30
582.77	2186.09
583.12	2181.57
583.47	2177.03
583.82	2172.20
584.17	2167.31
584.53	2162.05
584.88	2156.43
585.23	2150.72
585.58	2145.34
585.93	2139.76
586.28	2135.03
586.63	2130.10
586.98	2125.16
587.34	2120.60
587.69	2115.58
588.04	2110.33
588.39	2104.61
588.74	2098.16
589.09	2092.07
589.44	2085.27
589.79	2079.30
590.14	2073.62
590.49	2067.04
590.84	2060.57
591.19	2054.56
591.54	2048.08
591.89	2040.58
592.25	2033.73
592.60	2026.62
592.95	2019.09
593.30	2011.68
593.65	2004.05
594.00	1996.98
594.35	1989.66
594.70	1981.52
595.05	1974.31
595.40	1967.06
595.75	1959.70
596.10	1953.66
596.45	1946.88
596.80	1940.84
597.15	1934.33
597.50	1927.39
597.85	1921.05
598.19	1914.47
598.54	1907.46
598.89	1900.76
599.24	1894.97
599.59	1888.46
599.94	1882.24
600.29	1875.86
600.64	1869.50
600.99	1862.18
601.34	1855.43
601.69	1848.54
602.04	1841.70
602.39	1834.58
602.74	1827.91
603.08	1821.15
603.43	1814.29
603.78	1806.95
604.13	1799.72
604.48	1792.30
604.83	1785.54
605.18	1778.53
605.53	1770.57
605.87	1762.57
606.22	1755.51
606.57	1747.56
606.92	1740.14
607.27	1733.09
607.62	1726.28
607.96	1718.96
608.31	1712.31
608.66	1704.64
609.01	1697.13
609.36	1689.59
609.70	1681.49
610.05	1673.34
610.40	1665.61
610.75	1657.25
611.10	1649.61
611.44	1641.25
611.79	1633.23
612.14	1624.46
612.49	1615.35
612.83	1606.92
613.18	1598.74
613.53	1590.46
613.88	1582.03
614.22	1573.67
614.57	1564.98
614.92	1556.97
615.27	1549.41
615.61	1541.13
615.96	1533.13
616.31	1525.35
616.65	1517.96
617.00	1510.44
617.35	1502.73
617.70	1494.48
618.04	1486.00
618.39	1477.78
618.74	1470.17
619.08	1461.94
619.43	1454.31
619.78	1447.41
620.12	1440.31
620.47	1432.86
620.82	1424.77
621.16	1417.23
621.51	1409.72
621.85	1402.10
622.20	1393.56
622.55	1385.20
622.89	1377.36
623.24	1369.72
623.59	1362.39
623.93	1354.83
624.28	1347.64
624.62	1340.06
624.97	1332.89
625.32	1326.14
625.66	1319.14
626.01	1312.00
626.35	1304.49
626.70	1296.73
627.04	1288.86
627.39	1281.09
627.73	1273.63
628.08	1266.70
628.43	1259.37
628.77	1251.89
629.12	1244.26
629.46	1237.10
629.81	1229.69
630.15	1222.38
630.50	1215.00
630.84	1206.75
631.19	1198.84
631.53	1191.21
631.88	1183.78
632.22	1176.17
632.57	1168.84
632.91	1161.24
633.26	1153.69
633.60	1146.30
633.95	1139.23
634.29	1132.23
634.64	1125.44
634.98	1118.07
635.32	1110.88
635.67	1104.36
636.01	1097.77
636.36	1091.02
636.70	1084.39
637.05	1077.83
637.39	1071.45
637.73	1064.89
638.08	1058.98
638.42	1052.86
638.77	1046.47
639.11	1039.77
639.45	1033.27
639.80	1026.68
640.14	1020.18
640.49	1013.68
640.83	1007.30
641.17	1001.02
641.52	994.68
641.86	988.19
642.20	982.23
642.55	975.95
642.89	969.30
643.23	962.78
643.58	956.95
643.92	950.77
644.26	944.68
644.61	938.56
644.95	932.53
645.29	925.97
645.64	919.27
645.98	912.89
646.32	907.12
646.66	901.08
647.01	895.23
647.35	889.57
647.69	883.67
648.04	878.18
648.38	872.39
648.72	866.42
649.06	860.42
649.41	854.60
649.75	848.65
650.09	842.80
650.43	837.01
650.78	830.88
651.12	824.88
651.46	819.12
651.80	813.34
652.14	807.93
652.49	802.57
652.83	797.42
653.17	791.72
653.51	785.90
653.85	780.51
654.20	774.84
654.54	768.88
654.88	763.15
655.22	757.22
655.56	751.56
655.90	746.08
656.25	740.81
656.59	735.43
656.93	730.28
657.27	725.18
657.61	719.69
657.95	714.60
658.29	709.54
658.64	704.26
658.98	699.02
659.32	693.55
659.66	688.33
660.00	683.00
660.34	678.03
660.68	673.08
661.02	668.07
661.36	663.32
661.70	658.76
662.05	654.36
662.39	650.12
662.73	645.59
663.07	641.27
663.41	636.79
663.75	632.27
664.09	627.74
664.43	623.30
664.77	619.28
665.11	615.00
665.45	610.84
665.79	606.77
666.13	602.60
666.47	598.51
666.81	594.33
667.15	590.19
667.49	586.33
667.83	582.55
668.17	578.63
668.51	574.52
668.85	570.49
669.19	566.69
669.53	562.76
669.87	558.92
670.21	555.18
670.55	551.58
670.89	548.20
671.23	544.71
671.57	541.19
671.91	537.52
672.25	534.01
672.58	530.51
672.92	527.08
673.26	523.84
673.60	520.70
673.94	517.58
674.28	514.66
674.62	511.72
674.96	508.63
675.30	505.71
675.64	502.83
675.97	500.05
676.31	497.22
676.65	494.33
676.99	491.58
677.33	488.65
677.67	485.84
678.01	482.79
678.34	479.80
678.68	476.90
679.02	474.08
679.36	471.33
679.70	468.55
680.04	465.81
680.37	462.94
680.71	460.06
681.05	457.46
681.39	454.78
681.73	452.06
682.06	449.53
682.40	446.99
682.74	444.44
683.08	441.87
683.42	439.25
683.75	436.70
684.09	434.15
684.43	431.71
684.77	429.16
685.10	426.73
685.44	424.47
685.78	422.18
686.12	419.94
686.45	417.64
686.79	415.36
687.13	413.15
687.46	411.01
687.80	408.89
688.14	406.63
688.48	404.55
688.81	402.40
689.15	400.21
689.49	398.07
689.82	396.04
690.16	393.95
690.50	392.06
690.83	390.12
691.17	388.14
691.51	386.24
691.84	384.43
692.18	382.57
692.52	380.54
692.85	378.58
693.19	376.73
693.52	374.88
693.86	373.09
694.20	371.31
694.53	369.53
694.87	367.70
695.21	365.95
695.54	364.13
695.88	362.36
696.21	360.68
696.55	358.94
696.88	357.21
697.22	355.52
697.56	353.82
697.89	352.19
698.23	350.56
698.56	348.96
698.90	347.35
699.23	345.66
699.57	344.14
699.90	342.67
700.24	341.11
700.58	339.56
700.91	338.08
701.25	336.67
701.58	335.31
701.92	333.96
702.25	332.56
702.59	331.18
702.92	329.83
703.26	328.49
703.59	327.23
703.93	326.04
704.26	324.83
704.60	323.57
704.93	322.31
705.26	321.07
705.60	319.89
705.93	318.79
706.27	317.76
706.60	316.73
706.94	315.64
707.27	314.51
707.61	313.48
707.94	312.45
708.27	311.35
708.61	310.25
708.94	309.26
709.28	308.30
709.61	307.36
709.94	306.44
710.28	305.43
710.61	304.48
710.95	303.42
711.28	302.53
711.61	301.59
711.95	300.68
712.28	299.76
712.61	298.77
712.95	297.80
713.28	296.95
713.61	296.02
713.95	295.14
714.28	294.32
714.61	293.44
714.95	292.57
715.28	291.71
715.61	290.83
715.95	289.94
716.28	289.07
716.61	288.21
716.95	287.36
717.28	286.62
717.61	285.79
717.94	285.06
718.28	284.20
718.61	283.45
718.94	282.73
719.27	282.06
719.61	281.44
719.94	280.78
720.27	280.06
720.60	279.38
720.94	278.75
721.27	278.13
721.60	277.60
721.93	277.00
722.27	276.47
722.60	275.95
722.93	275.38
723.26	274.81
723.59	274.27
723.93	273.72
724.26	273.14
724.59	272.59
724.92	272.03
725.25	271.55
725.59	271.02
725.92	270.52
726.25	269.98
726.58	269.44
726.91	268.91
727.24	268.43
727.57	267.96
727.91	267.43
728.24	267.00
728.57	266.45
728.90	265.98
729.23	265.48
729.56	264.99
729.89	264.56
730.22	264.09
730.55	263.62
730.89	263.23
731.22	262.79
731.55	262.37
731.88	261.93
732.21	261.50
732.54	261.09
732.87	260.63
733.20	260.27
733.53	259.91
733.86	259.55
734.19	259.12
734.52	258.75
734.85	258.44
735.18	257.98
735.51	257.59
735.84	257.23
736.17	256.86
736.50	256.46
736.83	256.21
737.16	255.87
737.49	255.52
737.82	255.17
738.15	254.82
738.48	254.45
738.81	254.15
739.14	253.79
739.47	253.47
739.80	253.18
740.13	252.83
740.46	252.48
740.79	252.12
741.12	251.84
741.45	251.50
741.78	251.14
742.11	250.85
742.44	250.54
742.77	250.25
743.10	249.95
743.43	249.65
743.75	249.27
744.08	249.12
744.41	248.84
744.74	248.55
745.07	248.30
745.40	248.08
745.73	247.85
746.06	247.56
746.39	247.30
746.71	247.02
747.04	246.76
747.37	246.50
747.70	246.31
748.03	246.05
748.36	245.84
748.68	245.60
749.01	245.37
749.34	245.17
749.67	244.92
750.00	244.68
750.33	244.55
750.65	244.32
750.98	243.96
751.31	243.76
751.64	243.55
751.97	243.36
752.29	243.17
752.62	242.90
752.95	242.75
753.28	242.52
753.60	242.29
753.93	242.13
754.26	241.95
754.59	241.70
754.91	241.51
755.24	241.33
755.57	241.13
755.90	240.93
756.22	240.71
756.55	240.53
756.88	240.36
757.20	240.12
757.53	239.92
757.86	239.77
758.19	239.60
758.51	239.39
758.84	239.22
759.17	238.99
759.49	238.84
759.82	238.72
760.15	238.59
760.47	238.49
760.80	238.34
761.13	238.22
761.45	238.09
761.78	237.95
762.11	237.81
762.43	237.68
762.76	237.55
763.08	237.43
763.41	237.28
763.74	237.18
764.06	237.01
764.39	236.93
764.71	236.81
765.04	236.70
765.37	236.59
765.69	236.44
766.02	236.35
766.34	236.25
766.67	236.10
767.00	235.99
767.32	235.91
767.65	235.81
767.97	235.65
768.30	235.55
768.62	235.42
768.95	235.32
769.27	235.20
769.60	235.10
769.92	234.97
770.25	234.90
770.57	234.77
770.90	234.72
771.22	234.60
771.55	234.49
771.87	234.37
772.20	234.26
772.52	234.24
772.85	234.22
773.17	234.11
773.50	233.99
773.82	233.91
774.15	233.77
774.47	233.62
774.80	233.53
775.12	233.42
775.45	233.34
775.77	233.21
776.09	233.12
776.42	233.05
776.74	233.02
777.07	232.91
777.39	232.82
777.72	232.70
778.04	232.60
778.36	232.52
778.69	232.47
779.01	232.41
779.33	232.23
779.66	232.09
779.98	232.02
780.31	231.96
780.63	231.91
780.95	231.87
781.28	231.82
781.60	231.75
781.92	231.66
782.25	231.62
782.57	231.57
782.89	231.50
783.22	231.45
783.54	231.37
783.86	231.31
784.19	231.23
784.51	231.20
784.83	231.15
785.16	231.11
785.48	231.01
785.80	230.99
786.12	231.00
786.45	230.93
786.77	230.86
787.09	230.79
