SpectraSuite Data File
++++++++++++++++++++++++++++++++++++
Date: Fri Feb 01 16:29:39 EST 2013
User: group
Dark Spectrum Present: No
Reference Spectrum Present: No
Number of Sampled Component Spectra: 1
Spectrometers: USB2E7196
Integration Time (usec): 35000 (USB2E7196)
Spectra Averaged: 100 (USB2E7196)
Boxcar Smoothing: 10 (USB2E7196)
Correct for Electrical Dark: No (USB2E7196)
Strobe/Lamp Enabled: No (USB2E7196)
Correct for Detector Non-linearity: No (USB2E7196)
Correct for Stray Light: No (USB2E7196)
Number of Pixels in Processed Spectrum: 2048
>>>>>Begin Processed Spectral Data<<<<<
339.09	0.00
339.48	214.26
339.86	214.90
340.24	216.67
340.63	218.65
341.01	221.11
341.39	221.21
341.78	222.22
342.16	223.27
342.54	224.88
342.93	212.48
343.31	223.24
343.69	223.77
344.07	224.28
344.46	224.72
344.84	225.09
345.22	225.33
345.60	225.55
345.99	225.74
346.37	225.90
346.75	225.98
347.13	226.09
347.52	226.16
347.90	226.21
348.28	226.28
348.66	226.36
349.05	226.33
349.43	226.39
349.81	226.47
350.19	226.53
350.57	226.63
350.96	226.72
351.34	226.76
351.72	226.88
352.10	226.97
352.48	227.07
352.87	227.10
353.25	227.20
353.63	227.31
354.01	227.40
354.39	227.45
354.77	227.53
355.15	227.61
355.54	227.69
355.92	227.71
356.30	227.78
356.68	227.87
357.06	227.96
357.44	227.99
357.82	227.99
358.20	228.07
358.58	228.11
358.97	228.16
359.35	228.27
359.73	228.28
360.11	228.34
360.49	228.37
360.87	228.43
361.25	228.44
361.63	228.50
362.01	228.56
362.39	228.58
362.77	228.60
363.15	228.60
363.53	228.57
363.91	228.60
364.29	228.61
364.67	228.54
365.05	228.57
365.43	228.57
365.81	228.62
366.19	228.67
366.57	228.70
366.95	228.66
367.33	228.64
367.71	228.68
368.09	228.66
368.47	228.65
368.85	228.63
369.23	228.63
369.61	228.56
369.99	228.52
370.37	228.52
370.75	228.52
371.13	228.47
371.51	228.45
371.89	228.41
372.27	228.38
372.65	228.30
373.03	228.24
373.41	228.20
373.78	228.14
374.16	228.00
374.54	227.90
374.92	227.85
375.30	227.75
375.68	227.64
376.06	227.58
376.44	227.50
376.82	227.44
377.19	227.37
377.57	227.31
377.95	227.24
378.33	227.16
378.71	227.04
379.09	227.00
379.47	226.93
379.84	226.86
380.22	226.81
380.60	226.75
380.98	226.67
381.36	226.60
381.73	226.53
382.11	226.49
382.49	226.42
382.87	226.36
383.25	226.27
383.62	226.31
384.00	226.23
384.38	226.18
384.76	226.14
385.13	226.15
385.51	226.08
385.89	226.00
386.27	225.94
386.64	225.94
387.02	225.90
387.40	225.86
387.78	225.79
388.15	225.73
388.53	225.70
388.91	225.69
389.29	225.63
389.66	225.61
390.04	225.61
390.42	225.59
390.79	225.58
391.17	225.59
391.55	225.49
391.92	225.52
392.30	225.55
392.68	225.53
393.05	225.50
393.43	225.50
393.81	225.56
394.18	225.56
394.56	225.55
394.94	225.60
395.31	225.62
395.69	225.71
396.06	225.75
396.44	225.79
396.82	225.84
397.19	225.96
397.57	225.99
397.95	226.04
398.32	226.11
398.70	226.15
399.07	226.23
399.45	226.29
399.82	226.36
400.20	226.39
400.58	226.45
400.95	226.43
401.33	226.54
401.70	226.66
402.08	226.76
402.45	226.84
402.83	226.94
403.20	227.04
403.58	227.11
403.95	227.22
404.33	227.33
404.71	227.43
405.08	227.59
405.46	227.71
405.83	227.82
406.21	227.94
406.58	228.10
406.96	228.26
407.33	228.40
407.70	228.56
408.08	228.81
408.45	229.02
408.83	229.29
409.20	229.50
409.58	229.66
409.95	229.91
410.33	230.16
410.70	230.37
411.08	230.64
411.45	230.90
411.82	231.19
412.20	231.53
412.57	231.91
412.95	232.15
413.32	232.57
413.69	232.95
414.07	233.38
414.44	233.83
414.82	234.29
415.19	234.85
415.56	235.38
415.94	235.94
416.31	236.55
416.68	237.17
417.06	237.84
417.43	238.51
417.81	239.25
418.18	240.04
418.55	240.90
418.93	241.78
419.30	242.67
419.67	243.57
420.04	244.53
420.42	245.49
420.79	246.69
421.16	247.82
421.54	249.03
421.91	250.22
422.28	251.45
422.66	252.80
423.03	254.13
423.40	255.47
423.77	256.85
424.15	258.28
424.52	259.77
424.89	261.39
425.26	262.93
425.64	264.35
426.01	265.92
426.38	267.54
426.75	269.24
427.13	270.99
427.50	272.83
427.87	274.74
428.24	276.62
428.61	278.36
428.99	280.29
429.36	282.36
429.73	284.43
430.10	286.48
430.47	288.54
430.85	290.60
431.22	292.85
431.59	295.26
431.96	297.53
432.33	300.01
432.70	302.40
433.08	305.22
433.45	307.90
433.82	310.56
434.19	313.49
434.56	316.25
434.93	318.89
435.30	321.51
435.68	324.33
436.05	327.09
436.42	329.92
436.79	332.47
437.16	335.18
437.53	338.01
437.90	340.79
438.27	343.50
438.64	346.34
439.01	348.89
439.38	351.11
439.75	353.25
440.13	355.71
440.50	358.05
440.87	359.85
441.24	361.82
441.61	363.96
441.98	365.45
442.35	367.29
442.72	369.14
443.09	370.90
443.46	371.93
443.83	372.59
444.20	373.06
444.57	373.88
444.94	374.21
445.31	374.52
445.68	374.89
446.05	374.97
446.42	374.57
446.79	374.18
447.16	373.69
447.53	373.36
447.90	372.18
448.27	371.02
448.64	369.48
449.01	368.27
449.37	366.27
449.74	364.33
450.11	362.08
450.48	359.59
450.85	357.11
451.22	355.00
451.59	352.99
451.96	351.08
452.33	348.46
452.70	346.08
453.07	343.31
453.43	340.46
453.80	337.71
454.17	335.06
454.54	332.50
454.91	329.77
455.28	327.10
455.65	324.62
456.02	322.20
456.38	320.01
456.75	317.39
457.12	315.17
457.49	313.00
457.86	310.80
458.23	308.94
458.59	306.91
458.96	304.82
459.33	302.93
459.70	301.04
460.07	299.57
460.43	297.84
460.80	296.21
461.17	294.74
461.54	293.27
461.91	291.84
462.27	290.42
462.64	289.22
463.01	287.89
463.38	286.63
463.74	285.25
464.11	284.15
464.48	283.15
464.85	282.02
465.21	281.14
465.58	280.24
465.95	279.20
466.32	278.28
466.68	277.36
467.05	276.53
467.42	275.65
467.78	274.76
468.15	273.91
468.52	273.23
468.88	272.36
469.25	271.57
469.62	270.97
469.98	270.33
470.35	269.70
470.72	269.11
471.08	268.49
471.45	267.98
471.82	267.46
472.18	266.86
472.55	266.42
472.92	265.91
473.28	265.45
473.65	265.01
474.02	264.57
474.38	264.20
474.75	263.88
475.11	263.56
475.48	263.25
475.85	263.05
476.21	262.88
476.58	262.74
476.94	262.60
477.31	262.43
477.67	262.27
478.04	262.16
478.41	262.14
478.77	262.19
479.14	262.12
479.50	262.13
479.87	262.21
480.23	262.30
480.60	262.41
480.96	262.51
481.33	262.73
481.69	262.99
482.06	263.25
482.42	263.43
482.79	263.72
483.15	264.07
483.52	264.41
483.88	264.75
484.25	265.15
484.61	265.62
484.98	266.09
485.34	266.62
485.71	267.25
486.07	267.83
486.44	268.42
486.80	269.16
487.17	269.93
487.53	270.76
487.90	271.61
488.26	272.54
488.62	273.54
488.99	274.52
489.35	275.55
489.72	276.68
490.08	277.91
490.44	279.14
490.81	280.50
491.17	281.87
491.54	283.37
491.90	284.90
492.26	286.53
492.63	288.27
492.99	290.10
493.36	292.00
493.72	294.04
494.08	296.15
494.45	298.39
494.81	300.73
495.17	303.17
495.54	305.76
495.90	308.45
496.26	311.26
496.63	314.22
496.99	317.31
497.35	320.53
497.72	323.92
498.08	327.43
498.44	331.10
498.80	335.06
499.17	339.09
499.53	343.30
499.89	347.65
500.26	352.15
500.62	356.84
500.98	361.79
501.34	366.85
501.71	372.15
502.07	377.58
502.43	383.22
502.79	389.02
503.16	395.11
503.52	401.39
503.88	407.83
504.24	414.50
504.60	421.40
504.97	428.55
505.33	435.88
505.69	443.62
506.05	451.38
506.41	459.22
506.78	467.41
507.14	475.85
507.50	484.57
507.86	493.62
508.22	502.79
508.59	511.98
508.95	521.56
509.31	531.36
509.67	541.41
510.03	551.64
510.39	562.21
510.75	572.96
511.12	583.81
511.48	595.03
511.84	606.47
512.20	617.94
512.56	629.94
512.92	642.13
513.28	654.39
513.64	666.88
514.00	679.56
514.37	692.47
514.73	705.46
515.09	718.51
515.45	731.71
515.81	745.31
516.17	759.29
516.53	773.44
516.89	787.57
517.25	801.72
517.61	816.14
517.97	830.49
518.33	844.85
518.69	859.55
519.05	874.48
519.41	889.58
519.77	905.16
520.13	920.52
520.49	935.78
520.85	951.17
521.21	966.84
521.57	983.15
521.93	998.81
522.29	1015.17
522.65	1031.37
523.01	1047.53
523.37	1063.55
523.73	1079.67
524.09	1095.60
524.45	1111.87
524.81	1128.45
525.17	1145.25
525.53	1162.21
525.89	1179.01
526.25	1195.89
526.61	1212.21
526.97	1228.96
527.33	1245.23
527.68	1261.72
528.04	1278.10
528.40	1294.54
528.76	1311.40
529.12	1327.80
529.48	1344.63
529.84	1360.49
530.20	1377.04
530.56	1393.99
530.91	1411.27
531.27	1427.87
531.63	1444.26
531.99	1460.78
532.35	1476.64
532.71	1492.38
533.07	1508.47
533.42	1524.29
533.78	1540.32
534.14	1556.55
534.50	1571.73
534.86	1587.60
535.21	1602.76
535.57	1618.67
535.93	1634.14
536.29	1648.97
536.65	1663.86
537.00	1678.58
537.36	1693.83
537.72	1708.22
538.08	1722.54
538.44	1736.29
538.79	1750.09
539.15	1763.73
539.51	1777.24
539.87	1791.49
540.22	1805.10
540.58	1818.80
540.94	1832.15
541.29	1844.85
541.65	1857.39
542.01	1870.50
542.37	1882.75
542.72	1894.98
543.08	1906.63
543.44	1918.94
543.79	1930.14
544.15	1941.12
544.51	1952.64
544.87	1963.40
545.22	1974.10
545.58	1984.18
545.94	1993.79
546.29	2003.64
546.65	2013.53
547.01	2022.82
547.36	2031.47
547.72	2039.90
548.07	2047.63
548.43	2055.66
548.79	2063.49
549.14	2070.96
549.50	2078.17
549.86	2085.79
550.21	2093.03
550.57	2100.19
550.92	2106.68
551.28	2113.55
551.64	2120.50
551.99	2126.81
552.35	2133.13
552.70	2139.29
553.06	2145.34
553.41	2151.60
553.77	2157.50
554.13	2163.41
554.48	2169.55
554.84	2175.07
555.19	2180.33
555.55	2185.55
555.90	2189.92
556.26	2194.88
556.61	2199.70
556.97	2204.12
557.32	2208.22
557.68	2212.33
558.03	2216.63
558.39	2220.29
558.74	2224.99
559.10	2228.94
559.45	2232.72
559.81	2236.94
560.16	2240.79
560.52	2244.03
560.87	2247.40
561.23	2250.04
561.58	2253.08
561.94	2255.41
562.29	2257.73
562.64	2260.42
563.00	2262.87
563.35	2266.51
563.71	2269.63
564.06	2272.81
564.42	2275.65
564.77	2278.24
565.12	2280.56
565.48	2282.43
565.83	2284.40
566.19	2285.78
566.54	2286.73
566.89	2287.89
567.25	2288.37
567.60	2289.62
567.96	2291.28
568.31	2292.26
568.66	2293.53
569.02	2294.01
569.37	2294.65
569.72	2295.53
570.08	2295.86
570.43	2296.07
570.78	2295.45
571.14	2293.94
571.49	2292.57
571.84	2292.20
572.20	2291.11
572.55	2290.13
572.90	2288.71
573.26	2287.36
573.61	2285.62
573.96	2283.84
574.31	2280.85
574.67	2278.14
575.02	2274.60
575.37	2271.38
575.72	2267.58
576.08	2264.28
576.43	2261.01
576.78	2257.33
577.13	2254.28
577.49	2251.19
577.84	2247.65
578.19	2244.07
578.54	2240.58
578.90	2236.57
579.25	2231.16
579.60	2226.13
579.95	2221.27
580.30	2216.37
580.66	2211.33
581.01	2206.57
581.36	2201.80
581.71	2197.74
582.06	2193.30
582.42	2189.04
582.77	2183.94
583.12	2179.55
583.47	2174.80
583.82	2169.97
584.17	2164.80
584.53	2159.32
584.88	2153.81
585.23	2148.23
585.58	2142.81
585.93	2137.56
586.28	2132.73
586.63	2127.78
586.98	2122.98
587.34	2118.33
587.69	2113.43
588.04	2108.33
588.39	2102.76
588.74	2096.43
589.09	2090.31
589.44	2083.67
589.79	2077.61
590.14	2072.06
590.49	2065.47
590.84	2059.26
591.19	2053.41
591.54	2046.89
591.89	2039.57
592.25	2032.72
592.60	2025.58
592.95	2018.05
593.30	2010.67
593.65	2003.28
594.00	1996.25
594.35	1988.99
594.70	1980.94
595.05	1973.80
595.40	1966.44
595.75	1958.81
596.10	1952.59
596.45	1945.86
596.80	1939.80
597.15	1933.31
597.50	1926.16
597.85	1919.80
598.19	1913.13
598.54	1905.89
598.89	1899.34
599.24	1893.65
599.59	1886.97
599.94	1880.81
600.29	1874.53
600.64	1867.98
600.99	1860.54
601.34	1853.68
601.69	1846.83
602.04	1840.09
602.39	1832.74
602.74	1825.89
603.08	1819.20
603.43	1812.43
603.78	1805.28
604.13	1797.96
604.48	1790.64
604.83	1783.76
605.18	1776.77
605.53	1768.79
605.87	1760.91
606.22	1753.82
606.57	1745.84
606.92	1738.66
607.27	1731.48
607.62	1724.52
607.96	1717.27
608.31	1710.64
608.66	1703.12
609.01	1695.55
609.36	1687.91
609.70	1679.84
610.05	1671.88
610.40	1664.18
610.75	1655.92
611.10	1648.26
611.44	1639.84
611.79	1631.85
612.14	1623.18
612.49	1614.02
612.83	1605.74
613.18	1597.56
613.53	1589.41
613.88	1580.80
614.22	1572.37
614.57	1563.74
614.92	1555.79
615.27	1548.24
615.61	1539.87
615.96	1531.81
616.31	1524.03
616.65	1516.80
617.00	1509.32
617.35	1501.65
617.70	1493.36
618.04	1484.82
618.39	1476.61
618.74	1469.10
619.08	1460.89
619.43	1453.22
619.78	1446.43
620.12	1439.16
620.47	1431.69
620.82	1423.55
621.16	1416.21
621.51	1408.71
621.85	1401.05
622.20	1392.40
622.55	1384.06
622.89	1376.21
623.24	1368.59
623.59	1361.24
623.93	1353.72
624.28	1346.56
624.62	1339.04
624.97	1331.86
625.32	1325.08
625.66	1318.05
626.01	1310.87
626.35	1303.39
626.70	1295.74
627.04	1287.92
627.39	1280.20
627.73	1272.80
628.08	1265.80
628.43	1258.45
628.77	1251.06
629.12	1243.52
629.46	1236.44
629.81	1229.01
630.15	1221.85
630.50	1214.45
630.84	1206.26
631.19	1198.25
631.53	1190.65
631.88	1183.02
632.22	1175.41
632.57	1168.16
632.91	1160.65
633.26	1153.05
633.60	1145.63
633.95	1138.50
634.29	1131.49
634.64	1124.79
634.98	1117.46
635.32	1110.34
635.67	1103.71
636.01	1096.96
636.36	1090.16
636.70	1083.63
637.05	1077.04
637.39	1070.57
637.73	1063.97
638.08	1058.00
638.42	1051.97
638.77	1045.52
639.11	1038.90
639.45	1032.52
639.80	1025.81
640.14	1019.43
640.49	1013.04
640.83	1006.71
641.17	1000.45
641.52	994.09
641.86	987.56
642.20	981.60
642.55	975.27
642.89	968.82
643.23	962.35
643.58	956.62
643.92	950.39
644.26	944.28
644.61	938.24
644.95	932.32
645.29	925.84
645.64	919.10
645.98	912.77
646.32	907.08
646.66	901.04
647.01	895.29
647.35	889.42
647.69	883.57
648.04	878.04
648.38	872.26
648.72	866.27
649.06	860.35
649.41	854.44
649.75	848.49
650.09	842.50
650.43	836.73
650.78	830.56
651.12	824.57
651.46	818.86
651.80	813.10
652.14	807.71
652.49	802.28
652.83	797.14
653.17	791.41
653.51	785.61
653.85	780.13
654.20	774.49
654.54	768.58
654.88	762.77
655.22	756.84
655.56	751.10
655.90	745.66
656.25	740.33
656.59	735.00
656.93	729.96
657.27	724.86
657.61	719.42
657.95	714.39
658.29	709.36
658.64	704.10
658.98	698.77
659.32	693.30
659.66	688.17
660.00	682.82
660.34	677.87
660.68	672.97
661.02	667.98
661.36	663.20
661.70	658.70
662.05	654.39
662.39	650.11
662.73	645.70
663.07	641.30
663.41	636.91
663.75	632.47
664.09	627.86
664.43	623.49
664.77	619.35
665.11	615.04
665.45	610.88
665.79	606.71
666.13	602.53
666.47	598.42
666.81	594.25
667.15	590.19
667.49	586.28
667.83	582.48
668.17	578.57
668.51	574.54
668.85	570.53
669.19	566.69
669.53	562.84
669.87	559.04
670.21	555.31
670.55	551.64
670.89	548.18
671.23	544.71
671.57	541.12
671.91	537.57
672.25	534.03
672.58	530.54
672.92	527.24
673.26	524.17
673.60	520.98
673.94	517.83
674.28	514.89
674.62	511.97
674.96	508.81
675.30	505.90
675.64	502.90
675.97	500.05
676.31	497.16
676.65	494.22
676.99	491.46
677.33	488.60
677.67	485.74
678.01	482.66
678.34	479.67
678.68	476.87
679.02	474.02
679.36	471.24
679.70	468.55
680.04	465.80
680.37	462.88
680.71	460.10
681.05	457.53
681.39	454.81
681.73	452.14
682.06	449.61
682.40	447.06
682.74	444.58
683.08	442.02
683.42	439.44
683.75	436.90
684.09	434.30
684.43	431.85
684.77	429.40
685.10	427.08
685.44	424.76
685.78	422.44
686.12	420.15
686.45	417.87
686.79	415.50
687.13	413.27
687.46	411.07
687.80	408.92
688.14	406.63
688.48	404.57
688.81	402.34
689.15	400.20
689.49	398.04
689.82	395.97
690.16	393.88
690.50	391.91
690.83	389.97
691.17	388.07
691.51	386.15
691.84	384.33
692.18	382.40
692.52	380.44
692.85	378.48
693.19	376.62
693.52	374.82
693.86	373.05
694.20	371.28
694.53	369.50
694.87	367.66
695.21	365.87
695.54	363.99
695.88	362.27
696.21	360.54
696.55	358.83
696.88	357.12
697.22	355.50
697.56	353.92
697.89	352.26
698.23	350.59
698.56	348.97
698.90	347.34
699.23	345.69
699.57	344.16
699.90	342.64
700.24	341.10
700.58	339.52
700.91	338.01
701.25	336.55
701.58	335.17
701.92	333.80
702.25	332.47
702.59	331.08
702.92	329.76
703.26	328.47
703.59	327.21
703.93	326.06
704.26	324.82
704.60	323.47
704.93	322.20
705.26	320.95
705.60	319.78
705.93	318.64
706.27	317.61
706.60	316.52
706.94	315.44
707.27	314.32
707.61	313.30
707.94	312.29
708.27	311.17
708.61	310.11
708.94	309.09
709.28	308.08
709.61	307.15
709.94	306.21
710.28	305.19
710.61	304.22
710.95	303.11
711.28	302.16
711.61	301.23
711.95	300.33
712.28	299.36
712.61	298.37
712.95	297.39
713.28	296.49
713.61	295.62
713.95	294.71
714.28	293.88
714.61	293.02
714.95	292.15
715.28	291.30
715.61	290.42
715.95	289.55
716.28	288.71
716.61	287.89
716.95	287.03
717.28	286.28
717.61	285.49
717.94	284.73
718.28	283.92
718.61	283.17
718.94	282.43
719.27	281.86
719.61	281.23
719.94	280.60
720.27	279.88
720.60	279.22
720.94	278.58
721.27	277.96
721.60	277.32
721.93	276.73
722.27	276.15
722.60	275.60
722.93	275.04
723.26	274.47
723.59	273.88
723.93	273.34
724.26	272.74
724.59	272.17
724.92	271.69
725.25	271.21
725.59	270.67
725.92	270.18
726.25	269.61
726.58	269.09
726.91	268.57
727.24	268.11
727.57	267.64
727.91	267.17
728.24	266.70
728.57	266.22
728.90	265.79
729.23	265.31
729.56	264.87
729.89	264.38
730.22	263.92
730.55	263.50
730.89	263.03
731.22	262.59
731.55	262.19
731.88	261.72
732.21	261.26
732.54	260.85
732.87	260.42
733.20	260.03
733.53	259.65
733.86	259.31
734.19	258.91
734.52	258.54
734.85	258.23
735.18	257.82
735.51	257.47
735.84	257.07
736.17	256.74
736.50	256.34
736.83	256.15
737.16	255.83
737.49	255.48
737.82	255.14
738.15	254.86
738.48	254.54
738.81	254.22
739.14	253.90
739.47	253.57
739.80	253.29
740.13	252.97
740.46	252.62
740.79	252.28
741.12	251.97
741.45	251.64
741.78	251.27
742.11	251.04
742.44	250.71
742.77	250.45
743.10	250.13
743.43	249.84
743.75	249.43
744.08	249.24
744.41	248.99
744.74	248.75
745.07	248.49
745.40	248.24
745.73	248.00
746.06	247.72
746.39	247.49
746.71	247.19
747.04	246.95
747.37	246.68
747.70	246.49
748.03	246.24
748.36	246.02
748.68	245.78
749.01	245.49
749.34	245.28
749.67	245.03
750.00	244.82
750.33	244.62
750.65	244.44
750.98	244.10
751.31	243.88
751.64	243.63
751.97	243.47
752.29	243.22
752.62	243.02
752.95	242.85
753.28	242.65
753.60	242.47
753.93	242.29
754.26	242.13
754.59	241.87
754.91	241.67
755.24	241.47
755.57	241.27
755.90	241.15
756.22	240.95
756.55	240.75
756.88	240.56
757.20	240.36
757.53	240.13
757.86	239.97
758.19	239.82
758.51	239.67
758.84	239.41
759.17	239.25
759.49	239.07
759.82	238.92
760.15	238.78
760.47	238.62
760.80	238.45
761.13	238.33
761.45	238.16
761.78	238.00
762.11	237.87
762.43	237.73
762.76	237.54
763.08	237.42
763.41	237.28
763.74	237.12
764.06	236.99
764.39	236.85
764.71	236.72
765.04	236.56
765.37	236.41
765.69	236.29
766.02	236.17
766.34	236.04
766.67	235.91
767.00	235.73
767.32	235.65
767.65	235.60
767.97	235.46
768.30	235.39
768.62	235.28
768.95	235.15
769.27	235.03
769.60	234.94
769.92	234.81
770.25	234.69
770.57	234.59
770.90	234.49
771.22	234.39
771.55	234.28
771.87	234.17
772.20	234.04
772.52	234.04
772.85	234.06
773.17	233.97
773.50	233.84
773.82	233.75
774.15	233.62
774.47	233.46
774.80	233.34
775.12	233.22
775.45	233.11
775.77	233.03
776.09	232.94
776.42	232.85
776.74	232.83
777.07	232.77
777.39	232.67
777.72	232.56
778.04	232.53
778.36	232.45
778.69	232.39
779.01	232.34
779.33	232.20
779.66	232.00
779.98	231.95
780.31	231.93
780.63	231.92
780.95	231.87
781.28	231.82
781.60	231.77
781.92	231.71
782.25	231.70
782.57	231.65
782.89	231.59
783.22	231.54
783.54	231.43
783.86	231.40
784.19	231.36
784.51	231.36
784.83	231.25
785.16	231.20
785.48	231.19
785.80	231.15
786.12	231.10
786.45	231.07
786.77	231.02
787.09	230.94
