SpectraSuite Data File
++++++++++++++++++++++++++++++++++++
Date: Fri Feb 01 16:07:03 EST 2013
User: group
Dark Spectrum Present: No
Reference Spectrum Present: No
Number of Sampled Component Spectra: 1
Spectrometers: USB2E7196
Integration Time (usec): 35000 (USB2E7196)
Spectra Averaged: 100 (USB2E7196)
Boxcar Smoothing: 10 (USB2E7196)
Correct for Electrical Dark: No (USB2E7196)
Strobe/Lamp Enabled: No (USB2E7196)
Correct for Detector Non-linearity: No (USB2E7196)
Correct for Stray Light: No (USB2E7196)
Number of Pixels in Processed Spectrum: 2048
>>>>>Begin Processed Spectral Data<<<<<
339.09	0.00
339.48	214.46
339.86	216.35
340.24	217.82
340.63	219.22
341.01	221.27
341.39	221.60
341.78	223.13
342.16	224.15
342.54	224.50
342.93	213.06
343.31	223.85
343.69	224.41
344.07	224.84
344.46	225.24
344.84	225.61
345.22	225.88
345.60	226.12
345.99	226.32
346.37	226.46
346.75	226.57
347.13	226.61
347.52	226.66
347.90	226.74
348.28	226.76
348.66	226.81
349.05	226.81
349.43	226.85
349.81	226.84
350.19	226.88
350.57	226.94
350.96	226.99
351.34	227.02
351.72	227.08
352.10	227.19
352.48	227.24
352.87	227.28
353.25	227.28
353.63	227.32
354.01	227.35
354.39	227.40
354.77	227.48
355.15	227.57
355.54	227.63
355.92	227.64
356.30	227.71
356.68	227.85
357.06	227.89
357.44	227.96
357.82	228.04
358.20	228.12
358.58	228.18
358.97	228.22
359.35	228.29
359.73	228.36
360.11	228.41
360.49	228.47
360.87	228.54
361.25	228.67
361.63	228.75
362.01	228.78
362.39	228.82
362.77	228.85
363.15	228.88
363.53	228.91
363.91	228.93
364.29	228.97
364.67	228.88
365.05	228.91
365.43	228.92
365.81	228.93
366.19	229.01
366.57	229.03
366.95	229.04
367.33	229.05
367.71	229.01
368.09	229.01
368.47	229.01
368.85	228.96
369.23	228.95
369.61	228.90
369.99	228.92
370.37	228.91
370.75	228.93
371.13	228.91
371.51	228.87
371.89	228.87
372.27	228.85
372.65	228.84
373.03	228.80
373.41	228.75
373.78	228.68
374.16	228.57
374.54	228.49
374.92	228.42
375.30	228.36
375.68	228.29
376.06	228.22
376.44	228.18
376.82	228.14
377.19	228.08
377.57	227.99
377.95	227.90
378.33	227.84
378.71	227.71
379.09	227.62
379.47	227.58
379.84	227.50
380.22	227.42
380.60	227.32
380.98	227.24
381.36	227.19
381.73	227.12
382.11	227.07
382.49	227.01
382.87	226.97
383.25	226.92
383.62	226.97
384.00	226.90
384.38	226.82
384.76	226.81
385.13	226.82
385.51	226.77
385.89	226.72
386.27	226.66
386.64	226.63
387.02	226.60
387.40	226.56
387.78	226.53
388.15	226.46
388.53	226.43
388.91	226.41
389.29	226.39
389.66	226.36
390.04	226.32
390.42	226.30
390.79	226.30
391.17	226.27
391.55	226.16
391.92	226.15
392.30	226.17
392.68	226.14
393.05	226.08
393.43	226.10
393.81	226.11
394.18	226.11
394.56	226.13
394.94	226.15
395.31	226.15
395.69	226.20
396.06	226.26
396.44	226.29
396.82	226.29
397.19	226.36
397.57	226.39
397.95	226.42
398.32	226.46
398.70	226.49
399.07	226.58
399.45	226.62
399.82	226.72
400.20	226.77
400.58	226.83
400.95	226.86
401.33	226.95
401.70	227.09
402.08	227.17
402.45	227.22
402.83	227.33
403.20	227.41
403.58	227.50
403.95	227.60
404.33	227.72
404.71	227.87
405.08	228.04
405.46	228.21
405.83	228.36
406.21	228.51
406.58	228.67
406.96	228.82
407.33	229.01
407.70	229.17
408.08	229.43
408.45	229.65
408.83	229.90
409.20	230.09
409.58	230.27
409.95	230.57
410.33	230.87
410.70	231.11
411.08	231.47
411.45	231.75
411.82	232.07
412.20	232.45
412.57	232.85
412.95	233.19
413.32	233.58
413.69	233.99
414.07	234.44
414.44	234.92
414.82	235.43
415.19	235.96
415.56	236.52
415.94	237.04
416.31	237.68
416.68	238.32
417.06	239.05
417.43	239.72
417.81	240.45
418.18	241.25
418.55	242.08
418.93	242.93
419.30	243.84
419.67	244.78
420.04	245.71
420.42	246.68
420.79	247.84
421.16	248.99
421.54	250.18
421.91	251.41
422.28	252.66
422.66	253.97
423.03	255.30
423.40	256.64
423.77	258.06
424.15	259.45
424.52	260.89
424.89	262.54
425.26	264.12
425.64	265.56
426.01	267.11
426.38	268.77
426.75	270.47
427.13	272.20
427.50	274.04
427.87	275.93
428.24	277.78
428.61	279.52
428.99	281.48
429.36	283.58
429.73	285.61
430.10	287.64
430.47	289.70
430.85	291.80
431.22	294.02
431.59	296.43
431.96	298.70
432.33	301.23
432.70	303.59
433.08	306.38
433.45	309.02
433.82	311.63
434.19	314.51
434.56	317.29
434.93	319.92
435.30	322.51
435.68	325.35
436.05	328.22
436.42	330.99
436.79	333.49
437.16	336.14
437.53	338.99
437.90	341.77
438.27	344.46
438.64	347.27
439.01	349.84
439.38	352.04
439.75	354.18
440.13	356.63
440.50	358.92
440.87	360.75
441.24	362.71
441.61	364.86
441.98	366.35
442.35	368.13
442.72	369.95
443.09	371.70
443.46	372.71
443.83	373.26
444.20	373.75
444.57	374.56
444.94	374.90
445.31	375.22
445.68	375.56
446.05	375.68
446.42	375.29
446.79	374.85
447.16	374.41
447.53	374.13
447.90	372.95
448.27	371.81
448.64	370.26
449.01	369.08
449.37	367.16
449.74	365.25
450.11	363.03
450.48	360.62
450.85	358.16
451.22	356.03
451.59	354.06
451.96	352.15
452.33	349.53
452.70	347.16
453.07	344.36
453.43	341.49
453.80	338.74
454.17	336.12
454.54	333.61
454.91	330.86
455.28	328.19
455.65	325.75
456.02	323.35
456.38	321.17
456.75	318.54
457.12	316.26
457.49	314.01
457.86	311.85
458.23	309.98
458.59	307.92
458.96	305.84
459.33	303.96
459.70	302.09
460.07	300.61
460.43	298.94
460.80	297.32
461.17	295.87
461.54	294.41
461.91	292.98
462.27	291.55
462.64	290.33
463.01	289.00
463.38	287.69
463.74	286.33
464.11	285.22
464.48	284.19
464.85	283.11
465.21	282.29
465.58	281.37
465.95	280.27
466.32	279.38
466.68	278.47
467.05	277.59
467.42	276.73
467.78	275.80
468.15	274.91
468.52	274.24
468.88	273.39
469.25	272.58
469.62	271.93
469.98	271.25
470.35	270.61
470.72	270.01
471.08	269.39
471.45	268.83
471.82	268.27
472.18	267.70
472.55	267.24
472.92	266.70
473.28	266.25
473.65	265.81
474.02	265.36
474.38	264.98
474.75	264.66
475.11	264.30
475.48	264.03
475.85	263.75
476.21	263.49
476.58	263.32
476.94	263.17
477.31	263.02
477.67	262.88
478.04	262.79
478.41	262.69
478.77	262.70
479.14	262.63
479.50	262.62
479.87	262.66
480.23	262.77
480.60	262.87
480.96	262.94
481.33	263.16
481.69	263.38
482.06	263.58
482.42	263.75
482.79	264.01
483.15	264.31
483.52	264.68
483.88	265.05
484.25	265.44
484.61	265.87
484.98	266.32
485.34	266.87
485.71	267.45
486.07	268.05
486.44	268.63
486.80	269.33
487.17	270.08
487.53	270.93
487.90	271.75
488.26	272.66
488.62	273.63
488.99	274.56
489.35	275.58
489.72	276.71
490.08	277.90
490.44	279.11
490.81	280.46
491.17	281.81
491.54	283.26
491.90	284.81
492.26	286.45
492.63	288.18
492.99	289.98
493.36	291.88
493.72	293.95
494.08	296.05
494.45	298.32
494.81	300.69
495.17	303.09
495.54	305.63
495.90	308.37
496.26	311.21
496.63	314.27
496.99	317.39
497.35	320.64
497.72	324.04
498.08	327.62
498.44	331.28
498.80	335.25
499.17	339.32
499.53	343.50
499.89	347.89
500.26	352.42
500.62	357.12
500.98	362.06
501.34	367.12
501.71	372.45
502.07	377.89
502.43	383.50
502.79	389.32
503.16	395.41
503.52	401.69
503.88	408.11
504.24	414.67
504.60	421.57
504.97	428.76
505.33	436.14
505.69	443.85
506.05	451.67
506.41	459.55
506.78	467.75
507.14	476.17
507.50	484.93
507.86	493.93
508.22	503.13
508.59	512.40
508.95	522.05
509.31	531.97
509.67	542.13
510.03	552.44
510.39	563.03
510.75	573.84
511.12	584.80
511.48	596.17
511.84	607.65
512.20	619.20
512.56	631.17
512.92	643.39
513.28	655.78
513.64	668.30
514.00	681.08
514.37	694.02
514.73	707.08
515.09	720.16
515.45	733.55
515.81	747.16
516.17	761.10
516.53	775.20
516.89	789.32
517.25	803.42
517.61	817.87
517.97	832.31
518.33	846.81
518.69	861.61
519.05	876.55
519.41	891.67
519.77	907.15
520.13	922.50
520.49	937.88
520.85	953.24
521.21	968.90
521.57	985.05
521.93	1000.74
522.29	1017.16
522.65	1033.27
523.01	1049.44
523.37	1065.39
523.73	1081.50
524.09	1097.54
524.45	1113.75
524.81	1130.39
525.17	1147.17
525.53	1163.98
525.89	1180.85
526.25	1197.57
526.61	1213.87
526.97	1230.64
527.33	1247.07
527.68	1263.54
528.04	1279.93
528.40	1296.41
528.76	1313.43
529.12	1329.87
529.48	1346.76
529.84	1362.64
530.20	1379.31
530.56	1396.17
530.91	1413.55
531.27	1430.31
531.63	1446.73
531.99	1463.27
532.35	1479.11
532.71	1494.98
533.07	1511.08
533.42	1526.94
533.78	1542.92
534.14	1559.14
534.50	1574.42
534.86	1590.28
535.21	1605.48
535.57	1621.24
535.93	1636.74
536.29	1651.51
536.65	1666.45
537.00	1681.16
537.36	1696.44
537.72	1710.79
538.08	1725.14
538.44	1738.87
538.79	1752.61
539.15	1766.18
539.51	1779.89
539.87	1794.26
540.22	1807.70
540.58	1821.46
540.94	1834.66
541.29	1847.48
541.65	1860.11
542.01	1873.07
542.37	1885.40
542.72	1897.75
543.08	1909.55
543.44	1921.73
543.79	1932.75
544.15	1943.79
544.51	1955.33
544.87	1966.14
545.22	1977.03
545.58	1987.31
545.94	1997.09
546.29	2006.93
546.65	2016.89
547.01	2026.13
547.36	2034.82
547.72	2043.41
548.07	2051.30
548.43	2059.38
548.79	2067.35
549.14	2074.89
549.50	2082.33
549.86	2089.82
550.21	2097.11
550.57	2104.27
550.92	2111.10
551.28	2118.29
551.64	2125.43
551.99	2131.97
552.35	2138.27
552.70	2144.26
553.06	2150.24
553.41	2156.62
553.77	2162.65
554.13	2168.71
554.48	2174.81
554.84	2180.25
555.19	2185.58
555.55	2190.75
555.90	2195.15
556.26	2200.01
556.61	2204.84
556.97	2209.25
557.32	2213.53
557.68	2217.72
558.03	2222.06
558.39	2225.67
558.74	2230.30
559.10	2234.03
559.45	2237.72
559.81	2241.96
560.16	2245.91
560.52	2249.06
560.87	2252.41
561.23	2255.09
561.58	2257.85
561.94	2260.39
562.29	2262.63
562.64	2265.37
563.00	2267.95
563.35	2271.58
563.71	2274.71
564.06	2277.75
564.42	2280.71
564.77	2283.24
565.12	2285.64
565.48	2287.60
565.83	2289.49
566.19	2290.78
566.54	2291.83
566.89	2292.90
567.25	2293.54
567.60	2294.72
567.96	2296.44
568.31	2297.24
568.66	2298.50
569.02	2299.19
569.37	2299.59
569.72	2300.60
570.08	2300.67
570.43	2300.74
570.78	2300.18
571.14	2298.56
571.49	2297.39
571.84	2296.90
572.20	2295.90
572.55	2294.73
572.90	2293.03
573.26	2291.58
573.61	2289.88
573.96	2288.31
574.31	2285.29
574.67	2282.26
575.02	2278.61
575.37	2275.23
575.72	2271.54
576.08	2268.05
576.43	2264.70
576.78	2260.99
577.13	2257.84
577.49	2254.75
577.84	2251.25
578.19	2247.51
578.54	2244.04
578.90	2239.78
579.25	2234.21
579.60	2229.11
579.95	2224.16
580.30	2219.13
580.66	2214.05
581.01	2209.11
581.36	2204.17
581.71	2200.16
582.06	2195.76
582.42	2191.58
582.77	2186.41
583.12	2181.81
583.47	2177.14
583.82	2172.32
584.17	2167.12
584.53	2161.52
584.88	2155.84
585.23	2150.24
585.58	2144.74
585.93	2139.31
586.28	2134.47
586.63	2129.48
586.98	2124.50
587.34	2119.69
587.69	2114.92
588.04	2109.62
588.39	2104.01
588.74	2097.42
589.09	2091.16
589.44	2084.46
589.79	2078.21
590.14	2072.58
590.49	2066.04
590.84	2059.53
591.19	2053.42
591.54	2046.98
591.89	2039.69
592.25	2033.03
592.60	2025.81
592.95	2018.26
593.30	2011.03
593.65	2003.44
594.00	1996.36
594.35	1988.98
594.70	1980.93
595.05	1973.86
595.40	1966.60
595.75	1959.08
596.10	1952.89
596.45	1946.34
596.80	1940.15
597.15	1933.56
597.50	1926.57
597.85	1919.98
598.19	1913.59
598.54	1906.53
598.89	1899.86
599.24	1893.95
599.59	1887.37
599.94	1880.99
600.29	1874.68
600.64	1867.86
600.99	1860.50
601.34	1853.72
601.69	1846.84
602.04	1840.22
602.39	1832.85
602.74	1826.08
603.08	1819.42
603.43	1812.67
603.78	1805.24
604.13	1798.09
604.48	1790.97
604.83	1784.14
605.18	1777.43
605.53	1769.34
605.87	1761.26
606.22	1754.04
606.57	1746.14
606.92	1738.73
607.27	1731.77
607.62	1724.98
607.96	1717.95
608.31	1711.40
608.66	1703.85
609.01	1696.33
609.36	1688.69
609.70	1680.58
610.05	1672.53
610.40	1664.81
610.75	1656.46
611.10	1648.81
611.44	1640.35
611.79	1632.29
612.14	1623.59
612.49	1614.29
612.83	1605.91
613.18	1597.85
613.53	1589.68
613.88	1581.14
614.22	1572.78
614.57	1564.15
614.92	1556.01
615.27	1548.48
615.61	1540.14
615.96	1532.08
616.31	1524.45
616.65	1517.05
617.00	1509.43
617.35	1501.71
617.70	1493.49
618.04	1484.97
618.39	1476.71
618.74	1469.14
619.08	1460.81
619.43	1453.21
619.78	1446.29
620.12	1439.17
620.47	1431.62
620.82	1423.43
621.16	1415.99
621.51	1408.39
621.85	1400.67
622.20	1392.14
622.55	1383.67
622.89	1375.81
623.24	1368.15
623.59	1360.71
623.93	1353.24
624.28	1346.24
624.62	1338.76
624.97	1331.56
625.32	1324.82
625.66	1317.83
626.01	1310.64
626.35	1303.17
626.70	1295.39
627.04	1287.75
627.39	1279.88
627.73	1272.47
628.08	1265.60
628.43	1258.37
628.77	1251.03
629.12	1243.50
629.46	1236.36
629.81	1228.84
630.15	1221.63
630.50	1214.19
630.84	1205.93
631.19	1197.93
631.53	1190.31
631.88	1182.75
632.22	1175.04
632.57	1167.77
632.91	1160.24
633.26	1152.88
633.60	1145.51
633.95	1138.32
634.29	1131.14
634.64	1124.51
634.98	1117.12
635.32	1110.07
635.67	1103.42
636.01	1096.78
636.36	1090.04
636.70	1083.52
637.05	1077.05
637.39	1070.58
637.73	1064.11
638.08	1058.33
638.42	1052.34
638.77	1045.88
639.11	1039.29
639.45	1032.91
639.80	1026.19
640.14	1019.79
640.49	1013.22
640.83	1007.00
641.17	1000.80
641.52	994.54
641.86	988.08
642.20	982.24
642.55	975.88
642.89	969.50
643.23	962.86
643.58	957.06
643.92	950.87
644.26	944.83
644.61	938.77
644.95	932.84
645.29	926.26
645.64	919.48
645.98	913.11
646.32	907.32
646.66	901.30
647.01	895.60
647.35	889.89
647.69	884.03
648.04	878.49
648.38	872.80
648.72	866.83
649.06	860.84
649.41	854.92
649.75	849.00
650.09	843.01
650.43	837.31
650.78	831.26
651.12	825.24
651.46	819.51
651.80	813.81
652.14	808.39
652.49	802.98
652.83	797.81
653.17	792.16
653.51	786.37
653.85	780.88
654.20	775.20
654.54	769.16
654.88	763.45
655.22	757.54
655.56	751.81
655.90	746.42
656.25	741.18
656.59	735.85
656.93	730.69
657.27	725.56
657.61	720.11
657.95	714.92
658.29	709.86
658.64	704.64
658.98	699.23
659.32	693.67
659.66	688.50
660.00	683.22
660.34	678.24
660.68	673.34
661.02	668.37
661.36	663.73
661.70	659.24
662.05	654.84
662.39	650.52
662.73	645.96
663.07	641.45
663.41	636.93
663.75	632.45
664.09	627.92
664.43	623.53
664.77	619.39
665.11	615.09
665.45	610.94
665.79	606.86
666.13	602.71
666.47	598.68
666.81	594.51
667.15	590.40
667.49	586.48
667.83	582.65
668.17	578.73
668.51	574.61
668.85	570.55
669.19	566.68
669.53	562.79
669.87	559.02
670.21	555.36
670.55	551.69
670.89	548.30
671.23	544.87
671.57	541.32
671.91	537.82
672.25	534.34
672.58	530.85
672.92	527.43
673.26	524.33
673.60	521.16
673.94	518.03
674.28	515.12
674.62	512.21
674.96	509.09
675.30	506.17
675.64	503.29
675.97	500.53
676.31	497.64
676.65	494.78
676.99	492.02
677.33	489.18
677.67	486.36
678.01	483.32
678.34	480.33
678.68	477.48
679.02	474.66
679.36	471.90
679.70	469.19
680.04	466.42
680.37	463.53
680.71	460.70
681.05	458.10
681.39	455.37
681.73	452.73
682.06	450.24
682.40	447.73
682.74	445.11
683.08	442.57
683.42	440.01
683.75	437.44
684.09	434.91
684.43	432.45
684.77	430.06
685.10	427.70
685.44	425.37
685.78	423.10
686.12	420.86
686.45	418.57
686.79	416.24
687.13	414.03
687.46	411.92
687.80	409.77
688.14	407.56
688.48	405.50
688.81	403.23
689.15	401.06
689.49	398.82
689.82	396.76
690.16	394.66
690.50	392.72
690.83	390.77
691.17	388.79
691.51	386.86
691.84	384.99
692.18	383.07
692.52	381.13
692.85	379.14
693.19	377.24
693.52	375.38
693.86	373.57
694.20	371.78
694.53	369.93
694.87	368.06
695.21	366.27
695.54	364.44
695.88	362.70
696.21	360.96
696.55	359.28
696.88	357.55
697.22	355.84
697.56	354.21
697.89	352.59
698.23	350.98
698.56	349.36
698.90	347.77
699.23	346.10
699.57	344.49
699.90	342.90
700.24	341.33
700.58	339.84
700.91	338.31
701.25	336.86
701.58	335.48
701.92	334.12
702.25	332.77
702.59	331.37
702.92	330.06
703.26	328.70
703.59	327.43
703.93	326.29
704.26	325.08
704.60	323.74
704.93	322.46
705.26	321.21
705.60	320.03
705.93	318.83
706.27	317.79
706.60	316.75
706.94	315.70
707.27	314.59
707.61	313.47
707.94	312.46
708.27	311.36
708.61	310.27
708.94	309.25
709.28	308.25
709.61	307.26
709.94	306.29
710.28	305.32
710.61	304.30
710.95	303.19
711.28	302.24
711.61	301.28
711.95	300.37
712.28	299.41
712.61	298.42
712.95	297.48
713.28	296.59
713.61	295.71
713.95	294.83
714.28	294.02
714.61	293.19
714.95	292.38
715.28	291.53
715.61	290.64
715.95	289.83
716.28	288.93
716.61	288.12
716.95	287.27
717.28	286.58
717.61	285.85
717.94	285.12
718.28	284.35
718.61	283.63
718.94	282.97
719.27	282.29
719.61	281.65
719.94	281.04
720.27	280.30
720.60	279.63
720.94	279.04
721.27	278.40
721.60	277.81
721.93	277.17
722.27	276.58
722.60	276.03
722.93	275.42
723.26	274.94
723.59	274.39
723.93	273.88
724.26	273.33
724.59	272.77
724.92	272.26
725.25	271.78
725.59	271.29
725.92	270.73
726.25	270.28
726.58	269.77
726.91	269.25
727.24	268.80
727.57	268.35
727.91	267.83
728.24	267.36
728.57	266.89
728.90	266.44
729.23	265.98
729.56	265.58
729.89	265.14
730.22	264.67
730.55	264.19
730.89	263.76
731.22	263.29
731.55	262.84
731.88	262.43
732.21	261.99
732.54	261.53
732.87	261.14
733.20	260.73
733.53	260.38
733.86	260.03
734.19	259.62
734.52	259.23
734.85	258.90
735.18	258.51
735.51	258.15
735.84	257.81
736.17	257.48
736.50	257.06
736.83	256.81
737.16	256.43
737.49	256.11
737.82	255.76
738.15	255.42
738.48	255.08
738.81	254.73
739.14	254.39
739.47	254.10
739.80	253.77
740.13	253.45
740.46	253.08
740.79	252.73
741.12	252.46
741.45	252.12
741.78	251.82
742.11	251.53
742.44	251.21
742.77	250.90
743.10	250.56
743.43	250.25
743.75	249.90
744.08	249.75
744.41	249.45
744.74	249.22
745.07	248.92
745.40	248.72
745.73	248.46
746.06	248.19
746.39	247.92
746.71	247.63
747.04	247.34
747.37	247.14
747.70	246.90
748.03	246.65
748.36	246.42
748.68	246.16
749.01	245.86
749.34	245.67
749.67	245.44
750.00	245.24
750.33	245.09
750.65	244.83
750.98	244.49
751.31	244.25
751.64	243.97
751.97	243.83
752.29	243.61
752.62	243.37
752.95	243.20
753.28	243.02
753.60	242.82
753.93	242.66
754.26	242.42
754.59	242.18
754.91	241.95
755.24	241.73
755.57	241.55
755.90	241.41
756.22	241.19
756.55	240.99
756.88	240.79
757.20	240.57
757.53	240.40
757.86	240.23
758.19	240.10
758.51	239.97
758.84	239.76
759.17	239.56
759.49	239.42
759.82	239.28
760.15	239.11
760.47	238.98
760.80	238.83
761.13	238.73
761.45	238.56
761.78	238.39
762.11	238.27
762.43	238.11
762.76	237.97
763.08	237.86
763.41	237.71
763.74	237.58
764.06	237.47
764.39	237.35
764.71	237.23
765.04	237.12
765.37	236.98
765.69	236.87
766.02	236.77
766.34	236.64
766.67	236.51
767.00	236.39
767.32	236.32
767.65	236.26
767.97	236.12
768.30	236.03
768.62	235.98
768.95	235.85
769.27	235.74
769.60	235.63
769.92	235.46
770.25	235.38
770.57	235.30
770.90	235.17
771.22	235.06
771.55	234.97
771.87	234.89
772.20	234.80
772.52	234.76
772.85	234.76
773.17	234.72
773.50	234.62
773.82	234.53
774.15	234.43
774.47	234.28
774.80	234.20
775.12	234.13
775.45	234.05
775.77	234.00
776.09	233.91
776.42	233.83
776.74	233.83
777.07	233.73
777.39	233.67
777.72	233.58
778.04	233.51
778.36	233.41
778.69	233.36
779.01	233.28
779.33	233.14
779.66	232.99
779.98	232.89
780.31	232.82
780.63	232.79
780.95	232.73
781.28	232.68
781.60	232.60
781.92	232.57
782.25	232.49
782.57	232.45
782.89	232.40
783.22	232.36
783.54	232.24
783.86	232.18
784.19	232.07
784.51	232.03
784.83	231.95
785.16	231.90
785.48	231.78
785.80	231.76
786.12	231.72
786.45	231.66
786.77	231.58
787.09	231.53
