SpectraSuite Data File
++++++++++++++++++++++++++++++++++++
Date: Fri Feb 01 16:57:30 EST 2013
User: group
Dark Spectrum Present: No
Reference Spectrum Present: No
Number of Sampled Component Spectra: 1
Spectrometers: USB2E7196
Integration Time (usec): 35000 (USB2E7196)
Spectra Averaged: 100 (USB2E7196)
Boxcar Smoothing: 10 (USB2E7196)
Correct for Electrical Dark: No (USB2E7196)
Strobe/Lamp Enabled: No (USB2E7196)
Correct for Detector Non-linearity: No (USB2E7196)
Correct for Stray Light: No (USB2E7196)
Number of Pixels in Processed Spectrum: 2048
>>>>>Begin Processed Spectral Data<<<<<
339.09	0.00
339.48	213.03
339.86	214.79
340.24	216.42
340.63	217.11
341.01	220.61
341.39	220.33
341.78	221.24
342.16	222.51
342.54	223.71
342.93	211.63
343.31	222.30
343.69	222.85
344.07	223.31
344.46	223.69
344.84	224.03
345.22	224.23
345.60	224.45
345.99	224.62
346.37	224.74
346.75	224.78
347.13	224.83
347.52	224.89
347.90	224.96
348.28	224.98
348.66	225.04
349.05	225.03
349.43	225.05
349.81	225.08
350.19	225.12
350.57	225.18
350.96	225.23
351.34	225.33
351.72	225.37
352.10	225.44
352.48	225.53
352.87	225.63
353.25	225.70
353.63	225.76
354.01	225.82
354.39	225.91
354.77	225.99
355.15	226.08
355.54	226.15
355.92	226.19
356.30	226.23
356.68	226.33
357.06	226.39
357.44	226.47
357.82	226.53
358.20	226.62
358.58	226.69
358.97	226.72
359.35	226.81
359.73	226.91
360.11	226.96
360.49	227.01
360.87	227.03
361.25	227.09
361.63	227.20
362.01	227.29
362.39	227.32
362.77	227.39
363.15	227.44
363.53	227.48
363.91	227.49
364.29	227.55
364.67	227.49
365.05	227.55
365.43	227.58
365.81	227.60
366.19	227.66
366.57	227.70
366.95	227.72
367.33	227.68
367.71	227.68
368.09	227.71
368.47	227.72
368.85	227.75
369.23	227.78
369.61	227.73
369.99	227.72
370.37	227.71
370.75	227.72
371.13	227.68
371.51	227.61
371.89	227.60
372.27	227.57
372.65	227.58
373.03	227.54
373.41	227.45
373.78	227.39
374.16	227.30
374.54	227.23
374.92	227.19
375.30	227.19
375.68	227.10
376.06	227.09
376.44	226.99
376.82	226.91
377.19	226.85
377.57	226.80
377.95	226.72
378.33	226.63
378.71	226.53
379.09	226.49
379.47	226.47
379.84	226.37
380.22	226.31
380.60	226.18
380.98	226.06
381.36	226.05
381.73	225.98
382.11	225.92
382.49	225.85
382.87	225.74
383.25	225.66
383.62	225.74
384.00	225.60
384.38	225.57
384.76	225.55
385.13	225.52
385.51	225.44
385.89	225.38
386.27	225.34
386.64	225.26
387.02	225.21
387.40	225.10
387.78	225.10
388.15	225.05
388.53	225.03
388.91	225.03
389.29	224.96
389.66	224.91
390.04	224.89
390.42	224.93
390.79	224.93
391.17	224.95
391.55	224.83
391.92	224.81
392.30	224.79
392.68	224.75
393.05	224.71
393.43	224.70
393.81	224.69
394.18	224.67
394.56	224.70
394.94	224.74
395.31	224.78
395.69	224.80
396.06	224.83
396.44	224.86
396.82	224.86
397.19	224.97
397.57	225.00
397.95	225.01
398.32	224.98
398.70	225.04
399.07	225.07
399.45	225.07
399.82	225.17
400.20	225.25
400.58	225.32
400.95	225.34
401.33	225.44
401.70	225.61
402.08	225.71
402.45	225.78
402.83	225.85
403.20	225.97
403.58	226.05
403.95	226.17
404.33	226.26
404.71	226.38
405.08	226.54
405.46	226.68
405.83	226.84
406.21	226.98
406.58	227.12
406.96	227.23
407.33	227.43
407.70	227.57
408.08	227.81
408.45	228.01
408.83	228.25
409.20	228.45
409.58	228.60
409.95	228.86
410.33	229.11
410.70	229.33
411.08	229.60
411.45	229.91
411.82	230.21
412.20	230.58
412.57	230.99
412.95	231.27
413.32	231.67
413.69	232.06
414.07	232.51
414.44	232.97
414.82	233.47
415.19	233.97
415.56	234.52
415.94	235.08
416.31	235.74
416.68	236.34
417.06	237.03
417.43	237.70
417.81	238.48
418.18	239.28
418.55	240.13
418.93	241.00
419.30	241.91
419.67	242.87
420.04	243.80
420.42	244.80
420.79	246.00
421.16	247.14
421.54	248.32
421.91	249.56
422.28	250.82
422.66	252.17
423.03	253.54
423.40	254.89
423.77	256.29
424.15	257.68
424.52	259.18
424.89	260.83
425.26	262.41
425.64	263.85
426.01	265.43
426.38	267.10
426.75	268.78
427.13	270.51
427.50	272.32
427.87	274.24
428.24	276.10
428.61	277.81
428.99	279.77
429.36	281.91
429.73	283.94
430.10	285.93
430.47	287.97
430.85	290.04
431.22	292.27
431.59	294.63
431.96	296.91
432.33	299.40
432.70	301.78
433.08	304.56
433.45	307.20
433.82	309.84
434.19	312.67
434.56	315.49
434.93	318.10
435.30	320.70
435.68	323.56
436.05	326.36
436.42	329.13
436.79	331.63
437.16	334.30
437.53	337.08
437.90	339.90
438.27	342.65
438.64	345.49
439.01	348.10
439.38	350.32
439.75	352.44
440.13	354.92
440.50	357.20
440.87	359.03
441.24	360.96
441.61	363.03
441.98	364.56
442.35	366.33
442.72	368.19
443.09	369.99
443.46	370.97
443.83	371.53
444.20	372.00
444.57	372.80
444.94	373.05
445.31	373.40
445.68	373.74
446.05	373.85
446.42	373.45
446.79	373.01
447.16	372.55
447.53	372.22
447.90	371.04
448.27	369.90
448.64	368.33
449.01	367.25
449.37	365.32
449.74	363.44
450.11	361.16
450.48	358.71
450.85	356.19
451.22	354.04
451.59	352.06
451.96	350.16
452.33	347.63
452.70	345.25
453.07	342.46
453.43	339.60
453.80	336.78
454.17	334.12
454.54	331.60
454.91	328.89
455.28	326.28
455.65	323.80
456.02	321.35
456.38	319.22
456.75	316.50
457.12	314.25
457.49	312.04
457.86	309.88
458.23	308.04
458.59	305.99
458.96	303.94
459.33	302.11
459.70	300.30
460.07	298.74
460.43	297.08
460.80	295.45
461.17	294.02
461.54	292.57
461.91	291.20
462.27	289.76
462.64	288.54
463.01	287.16
463.38	285.88
463.74	284.54
464.11	283.37
464.48	282.38
464.85	281.28
465.21	280.43
465.58	279.54
465.95	278.42
466.32	277.53
466.68	276.64
467.05	275.74
467.42	274.84
467.78	273.96
468.15	273.11
468.52	272.48
468.88	271.62
469.25	270.81
469.62	270.15
469.98	269.47
470.35	268.84
470.72	268.24
471.08	267.62
471.45	267.09
471.82	266.54
472.18	265.96
472.55	265.56
472.92	265.04
473.28	264.61
473.65	264.19
474.02	263.76
474.38	263.41
474.75	263.11
475.11	262.78
475.48	262.55
475.85	262.32
476.21	262.11
476.58	261.94
476.94	261.85
477.31	261.73
477.67	261.62
478.04	261.54
478.41	261.54
478.77	261.57
479.14	261.52
479.50	261.59
479.87	261.69
480.23	261.79
480.60	261.89
480.96	262.00
481.33	262.23
481.69	262.45
482.06	262.67
482.42	262.89
482.79	263.15
483.15	263.46
483.52	263.88
483.88	264.22
484.25	264.61
484.61	265.05
484.98	265.52
485.34	266.08
485.71	266.64
486.07	267.27
486.44	267.89
486.80	268.59
487.17	269.34
487.53	270.18
487.90	271.03
488.26	271.98
488.62	272.98
488.99	273.98
489.35	275.04
489.72	276.17
490.08	277.35
490.44	278.59
490.81	279.93
491.17	281.30
491.54	282.82
491.90	284.35
492.26	286.03
492.63	287.74
492.99	289.52
493.36	291.49
493.72	293.51
494.08	295.59
494.45	297.85
494.81	300.19
495.17	302.58
495.54	305.12
495.90	307.78
496.26	310.58
496.63	313.56
496.99	316.61
497.35	319.87
497.72	323.24
498.08	326.72
498.44	330.36
498.80	334.22
499.17	338.24
499.53	342.37
499.89	346.70
500.26	351.18
500.62	355.84
500.98	360.73
501.34	365.75
501.71	371.06
502.07	376.45
502.43	382.02
502.79	387.82
503.16	393.84
503.52	400.04
503.88	406.37
504.24	412.90
504.60	419.74
504.97	426.81
505.33	434.10
505.69	441.78
506.05	449.56
506.41	457.35
506.78	465.36
507.14	473.74
507.50	482.31
507.86	491.27
508.22	500.32
508.59	509.40
508.95	518.87
509.31	528.54
509.67	538.56
510.03	548.74
510.39	559.18
510.75	569.83
511.12	580.64
511.48	591.84
511.84	603.14
512.20	614.47
512.56	626.31
512.92	638.34
513.28	650.51
513.64	662.80
514.00	675.42
514.37	688.29
514.73	701.26
515.09	714.16
515.45	727.24
515.81	740.71
516.17	754.52
516.53	768.52
516.89	782.60
517.25	796.60
517.61	810.80
517.97	825.10
518.33	839.36
518.69	853.98
519.05	868.78
519.41	883.75
519.77	899.11
520.13	914.17
520.49	929.31
520.85	944.49
521.21	959.92
521.57	975.98
521.93	991.47
522.29	1007.55
522.65	1023.58
523.01	1039.52
523.37	1055.21
523.73	1071.22
524.09	1087.03
524.45	1102.93
524.81	1119.19
525.17	1135.70
525.53	1152.19
525.89	1168.84
526.25	1185.36
526.61	1201.52
526.97	1218.03
527.33	1234.23
527.68	1250.64
528.04	1266.91
528.40	1283.15
528.76	1299.93
529.12	1316.08
529.48	1332.75
529.84	1348.48
530.20	1364.80
530.56	1381.58
530.91	1398.82
531.27	1415.15
531.63	1431.31
531.99	1447.64
532.35	1463.43
532.71	1479.08
533.07	1495.04
533.42	1510.67
533.78	1526.43
534.14	1542.31
534.50	1557.34
534.86	1572.85
535.21	1587.73
535.57	1603.37
535.93	1618.66
536.29	1633.11
536.65	1647.82
537.00	1662.21
537.36	1677.30
537.72	1691.51
538.08	1705.62
538.44	1719.05
538.79	1732.79
539.15	1745.99
539.51	1759.48
539.87	1773.48
540.22	1786.91
540.58	1800.45
540.94	1813.46
541.29	1826.06
541.65	1838.37
542.01	1851.34
542.37	1863.48
542.72	1875.71
543.08	1887.29
543.44	1899.40
543.79	1910.51
544.15	1921.38
544.51	1932.72
544.87	1943.43
545.22	1954.21
545.58	1964.21
545.94	1973.83
546.29	1983.52
546.65	1993.38
547.01	2002.57
547.36	2011.15
547.72	2019.47
548.07	2027.18
548.43	2035.22
548.79	2043.19
549.14	2050.80
549.50	2057.93
549.86	2065.42
550.21	2072.68
550.57	2079.74
550.92	2086.21
551.28	2093.20
551.64	2100.20
551.99	2106.78
552.35	2112.80
552.70	2118.78
553.06	2124.72
553.41	2131.06
553.77	2136.92
554.13	2142.94
554.48	2148.95
554.84	2154.51
555.19	2159.78
555.55	2164.92
555.90	2169.38
556.26	2174.25
556.61	2178.84
556.97	2183.35
557.32	2187.59
557.68	2191.61
558.03	2195.89
558.39	2199.60
558.74	2204.23
559.10	2208.14
559.45	2211.70
559.81	2215.98
560.16	2219.85
560.52	2223.08
560.87	2226.41
561.23	2229.28
561.58	2232.34
561.94	2235.07
562.29	2237.38
562.64	2240.26
563.00	2242.97
563.35	2246.57
563.71	2249.83
564.06	2253.13
564.42	2256.05
564.77	2258.69
565.12	2261.30
565.48	2263.34
565.83	2265.42
566.19	2266.95
566.54	2267.84
566.89	2269.20
567.25	2270.00
567.60	2271.56
567.96	2273.64
568.31	2274.73
568.66	2275.88
569.02	2276.58
569.37	2277.01
569.72	2278.13
570.08	2278.40
570.43	2278.58
570.78	2278.34
571.14	2276.91
571.49	2275.84
571.84	2275.67
572.20	2274.75
572.55	2273.90
572.90	2272.40
573.26	2271.24
573.61	2269.71
573.96	2268.45
574.31	2265.74
574.67	2263.04
575.02	2259.44
575.37	2256.16
575.72	2252.59
576.08	2249.35
576.43	2246.23
576.78	2242.69
577.13	2239.52
577.49	2236.50
577.84	2233.32
578.19	2229.58
578.54	2226.25
578.90	2222.34
579.25	2216.98
579.60	2212.24
579.95	2207.40
580.30	2202.66
580.66	2197.69
581.01	2192.77
581.36	2187.94
581.71	2184.05
582.06	2179.73
582.42	2175.55
582.77	2170.61
583.12	2166.23
583.47	2161.90
583.82	2157.16
584.17	2152.23
584.53	2147.19
584.88	2141.80
585.23	2136.28
585.58	2130.96
585.93	2125.63
586.28	2120.85
586.63	2116.03
586.98	2111.14
587.34	2106.59
587.69	2101.85
588.04	2096.81
588.39	2091.34
588.74	2084.97
589.09	2078.83
589.44	2072.32
589.79	2066.43
590.14	2060.79
590.49	2054.30
590.84	2048.03
591.19	2042.18
591.54	2035.69
591.89	2028.35
592.25	2021.79
592.60	2014.60
592.95	2007.21
593.30	2000.05
593.65	1992.61
594.00	1985.71
594.35	1978.53
594.70	1970.50
595.05	1963.68
595.40	1956.44
595.75	1949.14
596.10	1943.08
596.45	1936.51
596.80	1930.52
597.15	1924.09
597.50	1917.32
597.85	1910.92
598.19	1904.42
598.54	1897.47
598.89	1891.10
599.24	1885.36
599.59	1878.78
599.94	1872.72
600.29	1866.55
600.64	1859.97
600.99	1852.71
601.34	1845.92
601.69	1839.18
602.04	1832.51
602.39	1825.07
602.74	1818.43
603.08	1811.76
603.43	1805.13
603.78	1797.87
604.13	1790.70
604.48	1783.48
604.83	1776.58
605.18	1769.91
605.53	1762.00
605.87	1754.05
606.22	1746.77
606.57	1738.89
606.92	1731.72
607.27	1724.69
607.62	1717.92
607.96	1710.96
608.31	1704.54
608.66	1697.12
609.01	1689.71
609.36	1682.19
609.70	1674.29
610.05	1666.30
610.40	1658.78
610.75	1650.51
611.10	1642.96
611.44	1634.50
611.79	1626.62
612.14	1618.16
612.49	1608.97
612.83	1600.60
613.18	1592.65
613.53	1584.65
613.88	1576.29
614.22	1568.06
614.57	1559.32
614.92	1551.34
615.27	1543.71
615.61	1535.43
615.96	1527.34
616.31	1519.67
616.65	1512.37
617.00	1504.90
617.35	1497.26
617.70	1489.04
618.04	1480.67
618.39	1472.47
618.74	1464.98
619.08	1456.61
619.43	1448.96
619.78	1442.16
620.12	1435.06
620.47	1427.47
620.82	1419.27
621.16	1411.77
621.51	1404.15
621.85	1396.75
622.20	1388.24
622.55	1379.91
622.89	1372.06
623.24	1364.47
623.59	1357.04
623.93	1349.46
624.28	1342.29
624.62	1334.87
624.97	1327.65
625.32	1320.79
625.66	1313.91
626.01	1306.82
626.35	1299.57
626.70	1291.76
627.04	1284.01
627.39	1276.23
627.73	1268.75
628.08	1261.97
628.43	1254.81
628.77	1247.53
629.12	1240.01
629.46	1232.96
629.81	1225.50
630.15	1218.32
630.50	1210.93
630.84	1202.75
631.19	1194.92
631.53	1187.33
631.88	1179.75
632.22	1172.24
632.57	1165.04
632.91	1157.39
633.26	1149.96
633.60	1142.42
633.95	1135.33
634.29	1128.29
634.64	1121.69
634.98	1114.49
635.32	1107.26
635.67	1100.60
636.01	1093.88
636.36	1087.16
636.70	1080.59
637.05	1074.02
637.39	1067.48
637.73	1061.09
638.08	1055.22
638.42	1049.17
638.77	1042.74
639.11	1036.24
639.45	1029.78
639.80	1023.09
640.14	1016.74
640.49	1010.26
640.83	1004.00
641.17	997.81
641.52	991.43
641.86	984.95
642.20	979.04
642.55	972.79
642.89	966.33
643.23	959.75
643.58	953.83
643.92	947.66
644.26	941.66
644.61	935.55
644.95	929.48
645.29	922.93
645.64	916.25
645.98	909.89
646.32	903.94
646.66	897.85
647.01	892.06
647.35	886.35
647.69	880.43
648.04	874.85
648.38	869.10
648.72	863.23
649.06	857.22
649.41	851.36
649.75	845.42
650.09	839.55
650.43	833.77
650.78	827.69
651.12	821.73
651.46	815.99
651.80	810.34
652.14	804.94
652.49	799.64
652.83	794.56
653.17	788.97
653.51	783.25
653.85	777.97
654.20	772.39
654.54	766.41
654.88	760.69
655.22	754.85
655.56	749.18
655.90	743.66
656.25	738.49
656.59	733.18
656.93	728.10
657.27	722.92
657.61	717.54
657.95	712.50
658.29	707.46
658.64	702.18
658.98	696.86
659.32	691.51
659.66	686.25
660.00	680.92
660.34	675.95
660.68	671.10
661.02	666.09
661.36	661.36
661.70	656.91
662.05	652.65
662.39	648.45
662.73	643.97
663.07	639.67
663.41	635.18
663.75	630.70
664.09	626.13
664.43	621.75
664.77	617.67
665.11	613.47
665.45	609.29
665.79	605.31
666.13	601.25
666.47	597.10
666.81	593.01
667.15	588.90
667.49	585.04
667.83	581.20
668.17	577.25
668.51	573.20
668.85	569.15
669.19	565.27
669.53	561.43
669.87	557.54
670.21	553.85
670.55	550.22
670.89	546.75
671.23	543.38
671.57	539.89
671.91	536.33
672.25	532.76
672.58	529.32
672.92	525.88
673.26	522.71
673.60	519.51
673.94	516.36
674.28	513.45
674.62	510.44
674.96	507.40
675.30	504.48
675.64	501.54
675.97	498.75
676.31	495.88
676.65	492.88
676.99	490.25
677.33	487.35
677.67	484.52
678.01	481.52
678.34	478.51
678.68	475.57
679.02	472.70
679.36	469.85
679.70	467.11
680.04	464.33
680.37	461.47
680.71	458.68
681.05	456.05
681.39	453.31
681.73	450.65
682.06	448.08
682.40	445.55
682.74	443.02
683.08	440.44
683.42	437.84
683.75	435.39
684.09	432.81
684.43	430.38
684.77	427.93
685.10	425.59
685.44	423.27
685.78	421.03
686.12	418.84
686.45	416.63
686.79	414.33
687.13	412.13
687.46	409.96
687.80	407.81
688.14	405.60
688.48	403.59
688.81	401.41
689.15	399.30
689.49	397.17
689.82	395.07
690.16	393.03
690.50	391.12
690.83	389.21
691.17	387.24
691.51	385.34
691.84	383.52
692.18	381.57
692.52	379.64
692.85	377.69
693.19	375.81
693.52	373.95
693.86	372.09
694.20	370.35
694.53	368.55
694.87	366.74
695.21	364.98
695.54	363.12
695.88	361.37
696.21	359.63
696.55	357.92
696.88	356.28
697.22	354.58
697.56	352.94
697.89	351.27
698.23	349.68
698.56	348.10
698.90	346.50
699.23	344.89
699.57	343.33
699.90	341.79
700.24	340.25
700.58	338.77
700.91	337.29
701.25	335.87
701.58	334.55
701.92	333.17
702.25	331.77
702.59	330.45
702.92	329.13
703.26	327.84
703.59	326.61
703.93	325.46
704.26	324.25
704.60	322.95
704.93	321.64
705.26	320.38
705.60	319.17
705.93	317.98
706.27	316.93
706.60	315.92
706.94	314.83
707.27	313.74
707.61	312.67
707.94	311.65
708.27	310.54
708.61	309.45
708.94	308.46
709.28	307.53
709.61	306.54
709.94	305.58
710.28	304.54
710.61	303.49
710.95	302.38
711.28	301.46
711.61	300.49
711.95	299.59
712.28	298.64
712.61	297.69
712.95	296.78
713.28	295.88
713.61	294.97
713.95	294.07
714.28	293.20
714.61	292.32
714.95	291.46
715.28	290.58
715.61	289.65
715.95	288.80
716.28	287.91
716.61	287.04
716.95	286.22
717.28	285.44
717.61	284.69
717.94	283.96
718.28	283.13
718.61	282.45
718.94	281.77
719.27	281.10
719.61	280.43
719.94	279.76
720.27	279.03
720.60	278.31
720.94	277.68
721.27	277.09
721.60	276.52
721.93	275.96
722.27	275.41
722.60	274.86
722.93	274.29
723.26	273.76
723.59	273.23
723.93	272.69
724.26	272.14
724.59	271.57
724.92	271.03
725.25	270.52
725.59	269.95
725.92	269.40
726.25	268.93
726.58	268.41
726.91	267.90
727.24	267.43
727.57	266.96
727.91	266.41
728.24	265.96
728.57	265.45
728.90	265.00
729.23	264.47
729.56	264.06
729.89	263.53
730.22	263.03
730.55	262.55
730.89	262.11
731.22	261.69
731.55	261.30
731.88	260.86
732.21	260.45
732.54	260.06
732.87	259.63
733.20	259.20
733.53	258.83
733.86	258.46
734.19	258.07
734.52	257.73
734.85	257.44
735.18	257.01
735.51	256.66
735.84	256.30
736.17	255.99
736.50	255.56
736.83	255.41
737.16	255.09
737.49	254.78
737.82	254.45
738.15	254.11
738.48	253.74
738.81	253.41
739.14	253.08
739.47	252.76
739.80	252.50
740.13	252.21
740.46	251.86
740.79	251.56
741.12	251.25
741.45	250.92
741.78	250.58
742.11	250.33
742.44	249.99
742.77	249.70
743.10	249.41
743.43	249.13
743.75	248.69
744.08	248.54
744.41	248.28
744.74	247.96
745.07	247.69
745.40	247.48
745.73	247.24
746.06	247.00
746.39	246.75
746.71	246.45
747.04	246.19
747.37	245.96
747.70	245.70
748.03	245.47
748.36	245.30
748.68	245.11
749.01	244.84
749.34	244.65
749.67	244.43
750.00	244.22
750.33	244.10
750.65	243.90
750.98	243.57
751.31	243.34
751.64	243.15
751.97	242.99
752.29	242.77
752.62	242.55
752.95	242.34
753.28	242.12
753.60	241.93
753.93	241.79
754.26	241.61
754.59	241.39
754.91	241.19
755.24	240.97
755.57	240.73
755.90	240.55
756.22	240.36
756.55	240.13
756.88	239.92
757.20	239.67
757.53	239.50
757.86	239.30
758.19	239.13
758.51	238.98
758.84	238.76
759.17	238.57
759.49	238.38
759.82	238.23
760.15	238.09
760.47	237.94
760.80	237.76
761.13	237.60
761.45	237.47
761.78	237.32
762.11	237.16
762.43	237.03
762.76	236.91
763.08	236.78
763.41	236.64
763.74	236.48
764.06	236.34
764.39	236.16
764.71	236.02
765.04	235.90
765.37	235.74
765.69	235.58
766.02	235.47
766.34	235.38
766.67	235.21
767.00	235.08
767.32	235.00
767.65	234.89
767.97	234.74
768.30	234.59
768.62	234.45
768.95	234.32
769.27	234.20
769.60	234.08
769.92	233.92
770.25	233.79
770.57	233.67
770.90	233.54
771.22	233.47
771.55	233.37
771.87	233.24
772.20	233.15
772.52	233.15
772.85	233.14
773.17	233.00
773.50	232.90
773.82	232.81
774.15	232.65
774.47	232.52
774.80	232.44
775.12	232.35
775.45	232.29
775.77	232.21
776.09	232.12
776.42	232.01
776.74	231.96
777.07	231.90
777.39	231.85
777.72	231.81
778.04	231.73
778.36	231.69
778.69	231.59
779.01	231.56
779.33	231.42
779.66	231.24
779.98	231.19
780.31	231.14
780.63	231.12
780.95	231.11
781.28	231.03
781.60	230.97
781.92	230.92
782.25	230.84
782.57	230.79
782.89	230.73
783.22	230.68
783.54	230.63
783.86	230.59
784.19	230.52
784.51	230.49
784.83	230.44
785.16	230.36
785.48	230.35
785.80	230.32
786.12	230.30
786.45	230.25
786.77	230.20
787.09	230.19
