SpectraSuite Data File
++++++++++++++++++++++++++++++++++++
Date: Fri Feb 01 16:02:59 EST 2013
User: group
Dark Spectrum Present: No
Reference Spectrum Present: No
Number of Sampled Component Spectra: 1
Spectrometers: USB2E7196
Integration Time (usec): 35000 (USB2E7196)
Spectra Averaged: 100 (USB2E7196)
Boxcar Smoothing: 10 (USB2E7196)
Correct for Electrical Dark: No (USB2E7196)
Strobe/Lamp Enabled: No (USB2E7196)
Correct for Detector Non-linearity: No (USB2E7196)
Correct for Stray Light: No (USB2E7196)
Number of Pixels in Processed Spectrum: 2048
>>>>>Begin Processed Spectral Data<<<<<
339.09	0.00
339.48	214.65
339.86	215.99
340.24	217.79
340.63	219.17
341.01	221.92
341.39	221.72
341.78	223.10
342.16	224.21
342.54	224.71
342.93	213.12
343.31	223.87
343.69	224.40
344.07	224.88
344.46	225.30
344.84	225.67
345.22	225.91
345.60	226.16
345.99	226.34
346.37	226.47
346.75	226.55
347.13	226.59
347.52	226.64
347.90	226.70
348.28	226.71
348.66	226.73
349.05	226.75
349.43	226.78
349.81	226.81
350.19	226.88
350.57	226.91
350.96	227.00
351.34	227.12
351.72	227.19
352.10	227.28
352.48	227.34
352.87	227.39
353.25	227.43
353.63	227.50
354.01	227.60
354.39	227.68
354.77	227.77
355.15	227.90
355.54	227.95
355.92	228.00
356.30	228.08
356.68	228.22
357.06	228.27
357.44	228.34
357.82	228.41
358.20	228.47
358.58	228.53
358.97	228.58
359.35	228.62
359.73	228.69
360.11	228.72
360.49	228.77
360.87	228.81
361.25	228.90
361.63	228.95
362.01	228.96
362.39	228.97
362.77	229.00
363.15	229.01
363.53	229.05
363.91	229.08
364.29	229.09
364.67	229.00
365.05	229.02
365.43	229.02
365.81	229.03
366.19	229.09
366.57	229.11
366.95	229.10
367.33	229.06
367.71	229.06
368.09	229.09
368.47	229.05
368.85	229.01
369.23	229.00
369.61	228.92
369.99	228.93
370.37	228.93
370.75	228.92
371.13	228.87
371.51	228.81
371.89	228.75
372.27	228.73
372.65	228.67
373.03	228.59
373.41	228.52
373.78	228.46
374.16	228.31
374.54	228.23
374.92	228.14
375.30	228.07
375.68	227.98
376.06	227.90
376.44	227.86
376.82	227.80
377.19	227.71
377.57	227.68
377.95	227.56
378.33	227.49
378.71	227.36
379.09	227.30
379.47	227.26
379.84	227.18
380.22	227.07
380.60	227.04
380.98	227.01
381.36	226.94
381.73	226.87
382.11	226.84
382.49	226.78
382.87	226.70
383.25	226.66
383.62	226.73
384.00	226.67
384.38	226.57
384.76	226.55
385.13	226.48
385.51	226.44
385.89	226.40
386.27	226.36
386.64	226.33
387.02	226.28
387.40	226.24
387.78	226.22
388.15	226.22
388.53	226.15
388.91	226.11
389.29	226.10
389.66	226.09
390.04	226.03
390.42	226.05
390.79	226.08
391.17	226.08
391.55	225.99
391.92	225.96
392.30	225.98
392.68	225.96
393.05	226.00
393.43	225.99
393.81	225.99
394.18	226.01
394.56	226.03
394.94	226.04
395.31	226.06
395.69	226.12
396.06	226.19
396.44	226.23
396.82	226.30
397.19	226.38
397.57	226.42
397.95	226.52
398.32	226.55
398.70	226.60
399.07	226.70
399.45	226.73
399.82	226.85
400.20	226.93
400.58	227.01
400.95	227.03
401.33	227.13
401.70	227.30
402.08	227.40
402.45	227.50
402.83	227.64
403.20	227.77
403.58	227.84
403.95	227.96
404.33	228.13
404.71	228.28
405.08	228.50
405.46	228.64
405.83	228.77
406.21	228.92
406.58	229.10
406.96	229.28
407.33	229.46
407.70	229.68
408.08	229.96
408.45	230.19
408.83	230.45
409.20	230.67
409.58	230.83
409.95	231.09
410.33	231.35
410.70	231.61
411.08	231.89
411.45	232.23
411.82	232.55
412.20	232.90
412.57	233.26
412.95	233.55
413.32	233.93
413.69	234.33
414.07	234.79
414.44	235.23
414.82	235.65
415.19	236.19
415.56	236.74
415.94	237.29
416.31	237.92
416.68	238.55
417.06	239.27
417.43	239.97
417.81	240.74
418.18	241.52
418.55	242.33
418.93	243.19
419.30	244.08
419.67	244.99
420.04	245.93
420.42	246.90
420.79	248.05
421.16	249.20
421.54	250.40
421.91	251.61
422.28	252.84
422.66	254.22
423.03	255.53
423.40	256.83
423.77	258.19
424.15	259.58
424.52	261.06
424.89	262.67
425.26	264.25
425.64	265.65
426.01	267.22
426.38	268.90
426.75	270.57
427.13	272.26
427.50	274.03
427.87	275.92
428.24	277.80
428.61	279.55
428.99	281.50
429.36	283.61
429.73	285.64
430.10	287.69
430.47	289.70
430.85	291.80
431.22	293.99
431.59	296.36
431.96	298.62
432.33	301.08
432.70	303.41
433.08	306.16
433.45	308.81
433.82	311.41
434.19	314.30
434.56	317.09
434.93	319.73
435.30	322.36
435.68	325.22
436.05	328.01
436.42	330.83
436.79	333.34
437.16	336.01
437.53	338.82
437.90	341.60
438.27	344.37
438.64	347.18
439.01	349.78
439.38	352.04
439.75	354.19
440.13	356.67
440.50	359.07
440.87	360.93
441.24	362.85
441.61	365.02
441.98	366.51
442.35	368.30
442.72	370.16
443.09	371.91
443.46	372.90
443.83	373.48
444.20	373.96
444.57	374.80
444.94	375.06
445.31	375.36
445.68	375.74
446.05	375.77
446.42	375.42
446.79	375.00
447.16	374.56
447.53	374.20
447.90	373.06
448.27	371.84
448.64	370.23
449.01	369.09
449.37	367.12
449.74	365.24
450.11	363.00
450.48	360.56
450.85	358.12
451.22	356.00
451.59	354.00
451.96	352.03
452.33	349.43
452.70	347.10
453.07	344.28
453.43	341.38
453.80	338.66
454.17	335.94
454.54	333.40
454.91	330.68
455.28	328.06
455.65	325.58
456.02	323.18
456.38	321.06
456.75	318.42
457.12	316.15
457.49	313.96
457.86	311.80
458.23	309.92
458.59	307.82
458.96	305.76
459.33	303.90
459.70	302.08
460.07	300.56
460.43	298.86
460.80	297.28
461.17	295.85
461.54	294.35
461.91	292.95
462.27	291.52
462.64	290.28
463.01	288.93
463.38	287.63
463.74	286.24
464.11	285.11
464.48	284.07
464.85	282.97
465.21	282.09
465.58	281.16
465.95	280.10
466.32	279.20
466.68	278.29
467.05	277.40
467.42	276.48
467.78	275.58
468.15	274.70
468.52	274.04
468.88	273.21
469.25	272.46
469.62	271.86
469.98	271.20
470.35	270.57
470.72	269.96
471.08	269.30
471.45	268.78
471.82	268.21
472.18	267.63
472.55	267.21
472.92	266.67
473.28	266.23
473.65	265.76
474.02	265.35
474.38	264.99
474.75	264.66
475.11	264.32
475.48	264.02
475.85	263.77
476.21	263.56
476.58	263.38
476.94	263.21
477.31	263.04
477.67	262.88
478.04	262.82
478.41	262.78
478.77	262.85
479.14	262.77
479.50	262.78
479.87	262.87
480.23	262.94
480.60	263.02
480.96	263.10
481.33	263.33
481.69	263.52
482.06	263.74
482.42	263.97
482.79	264.20
483.15	264.55
483.52	264.95
483.88	265.28
484.25	265.67
484.61	266.13
484.98	266.60
485.34	267.15
485.71	267.72
486.07	268.33
486.44	268.86
486.80	269.58
487.17	270.32
487.53	271.13
487.90	271.98
488.26	272.91
488.62	273.89
488.99	274.87
489.35	275.90
489.72	276.98
490.08	278.21
490.44	279.49
490.81	280.83
491.17	282.19
491.54	283.67
491.90	285.19
492.26	286.84
492.63	288.55
492.99	290.37
493.36	292.28
493.72	294.35
494.08	296.47
494.45	298.73
494.81	301.14
495.17	303.60
495.54	306.18
495.90	308.88
496.26	311.71
496.63	314.69
496.99	317.83
497.35	321.08
497.72	324.45
498.08	327.98
498.44	331.68
498.80	335.64
499.17	339.68
499.53	343.85
499.89	348.24
500.26	352.75
500.62	357.39
500.98	362.35
501.34	367.44
501.71	372.80
502.07	378.25
502.43	383.85
502.79	389.64
503.16	395.77
503.52	402.08
503.88	408.45
504.24	415.10
504.60	422.01
504.97	429.16
505.33	436.52
505.69	444.19
506.05	451.94
506.41	459.82
506.78	467.98
507.14	476.42
507.50	485.11
507.86	494.18
508.22	503.41
508.59	512.57
508.95	522.17
509.31	531.96
509.67	542.05
510.03	552.34
510.39	562.92
510.75	573.66
511.12	584.59
511.48	595.93
511.84	607.37
512.20	618.91
512.56	630.88
512.92	643.11
513.28	655.49
513.64	668.01
514.00	680.72
514.37	693.69
514.73	706.80
515.09	719.81
515.45	733.08
515.81	746.56
516.17	760.55
516.53	774.65
516.89	788.81
517.25	802.97
517.61	817.43
517.97	831.96
518.33	846.40
518.69	861.11
519.05	876.08
519.41	891.17
519.77	906.67
520.13	922.16
520.49	937.44
520.85	952.83
521.21	968.54
521.57	984.72
521.93	1000.41
522.29	1016.78
522.65	1033.10
523.01	1049.34
523.37	1065.50
523.73	1081.74
524.09	1097.74
524.45	1114.09
524.81	1130.74
525.17	1147.54
525.53	1164.45
525.89	1181.31
526.25	1198.14
526.61	1214.52
526.97	1231.37
527.33	1247.82
527.68	1264.36
528.04	1280.91
528.40	1297.50
528.76	1314.67
529.12	1331.35
529.48	1348.17
529.84	1364.19
530.20	1380.74
530.56	1397.66
530.91	1415.00
531.27	1431.73
531.63	1448.28
531.99	1464.71
532.35	1480.55
532.71	1496.42
533.07	1512.60
533.42	1528.39
533.78	1544.32
534.14	1560.59
534.50	1575.84
534.86	1591.73
535.21	1606.83
535.57	1622.61
535.93	1638.19
536.29	1652.73
536.65	1667.65
537.00	1682.55
537.36	1697.84
537.72	1712.35
538.08	1726.69
538.44	1740.37
538.79	1754.14
539.15	1767.70
539.51	1781.50
539.87	1795.78
540.22	1809.43
540.58	1823.08
540.94	1836.42
541.29	1849.45
541.65	1862.11
542.01	1875.30
542.37	1887.52
542.72	1899.97
543.08	1911.79
543.44	1923.93
543.79	1935.28
544.15	1946.33
544.51	1957.93
544.87	1968.84
545.22	1979.64
545.58	1989.85
545.94	1999.64
546.29	2009.44
546.65	2019.40
547.01	2028.59
547.36	2037.43
547.72	2045.82
548.07	2053.62
548.43	2061.72
548.79	2069.80
549.14	2077.21
549.50	2084.44
549.86	2092.13
550.21	2099.33
550.57	2106.61
550.92	2113.19
551.28	2120.08
551.64	2127.06
551.99	2133.38
552.35	2139.58
552.70	2145.74
553.06	2151.80
553.41	2158.31
553.77	2164.34
554.13	2170.47
554.48	2176.64
554.84	2182.03
555.19	2187.43
555.55	2192.70
555.90	2197.21
556.26	2201.99
556.61	2206.90
556.97	2211.15
557.32	2215.25
557.68	2219.34
558.03	2223.55
558.39	2227.42
558.74	2232.15
559.10	2236.14
559.45	2239.94
559.81	2244.11
560.16	2247.85
560.52	2251.02
560.87	2254.30
561.23	2257.11
561.58	2259.99
561.94	2262.54
562.29	2264.99
562.64	2267.56
563.00	2270.14
563.35	2273.59
563.71	2276.61
564.06	2279.77
564.42	2282.72
564.77	2285.07
565.12	2287.44
565.48	2289.30
565.83	2291.13
566.19	2292.36
566.54	2293.13
566.89	2294.11
567.25	2294.76
567.60	2296.11
567.96	2297.71
568.31	2298.65
568.66	2299.46
569.02	2300.11
569.37	2300.32
569.72	2301.10
570.08	2301.31
570.43	2301.35
570.78	2300.82
571.14	2299.30
571.49	2297.91
571.84	2297.61
572.20	2296.68
572.55	2295.60
572.90	2294.13
573.26	2292.75
573.61	2291.01
573.96	2289.19
574.31	2286.32
574.67	2283.39
575.02	2279.89
575.37	2276.66
575.72	2272.74
576.08	2269.65
576.43	2266.19
576.78	2262.56
577.13	2259.40
577.49	2256.43
577.84	2252.83
578.19	2249.26
578.54	2245.66
578.90	2241.43
579.25	2235.94
579.60	2230.96
579.95	2226.08
580.30	2221.06
580.66	2215.97
581.01	2211.12
581.36	2206.38
581.71	2202.15
582.06	2197.66
582.42	2193.05
582.77	2187.86
583.12	2183.38
583.47	2178.48
583.82	2173.54
584.17	2168.33
584.53	2162.92
584.88	2157.20
585.23	2151.60
585.58	2146.10
585.93	2140.71
586.28	2136.01
586.63	2130.83
586.98	2125.73
587.34	2121.04
587.69	2116.07
588.04	2110.74
588.39	2105.18
588.74	2098.67
589.09	2092.58
589.44	2085.77
589.79	2080.05
590.14	2074.46
590.49	2067.80
590.84	2061.60
591.19	2055.56
591.54	2049.15
591.89	2041.78
592.25	2035.02
592.60	2027.80
592.95	2020.12
593.30	2012.74
593.65	2005.18
594.00	1998.26
594.35	1991.07
594.70	1983.03
595.05	1975.71
595.40	1968.46
595.75	1960.86
596.10	1954.61
596.45	1947.94
596.80	1941.80
597.15	1934.95
597.50	1927.78
597.85	1921.57
598.19	1914.96
598.54	1907.85
598.89	1901.18
599.24	1895.20
599.59	1888.38
599.94	1882.13
600.29	1875.84
600.64	1869.43
600.99	1861.94
601.34	1855.13
601.69	1848.30
602.04	1841.46
602.39	1834.30
602.74	1827.28
603.08	1820.66
603.43	1813.94
603.78	1806.55
604.13	1799.35
604.48	1791.98
604.83	1785.17
605.18	1778.00
605.53	1769.88
605.87	1761.86
606.22	1754.68
606.57	1746.70
606.92	1739.45
607.27	1732.25
607.62	1725.32
607.96	1717.90
608.31	1711.37
608.66	1703.72
609.01	1696.14
609.36	1688.52
609.70	1680.48
610.05	1672.57
610.40	1664.71
610.75	1656.47
611.10	1648.83
611.44	1640.38
611.79	1632.38
612.14	1623.67
612.49	1614.53
612.83	1606.17
613.18	1598.02
613.53	1589.89
613.88	1581.40
614.22	1573.12
614.57	1564.41
614.92	1556.27
615.27	1548.62
615.61	1540.21
615.96	1532.24
616.31	1524.43
616.65	1517.11
617.00	1509.47
617.35	1501.86
617.70	1493.60
618.04	1485.05
618.39	1476.82
618.74	1469.15
619.08	1460.90
619.43	1453.31
619.78	1446.40
620.12	1439.25
620.47	1431.79
620.82	1423.54
621.16	1416.17
621.51	1408.58
621.85	1401.10
622.20	1392.60
622.55	1384.34
622.89	1376.55
623.24	1368.86
623.59	1361.54
623.93	1353.98
624.28	1346.73
624.62	1339.12
624.97	1331.99
625.32	1325.17
625.66	1318.11
626.01	1311.07
626.35	1303.57
626.70	1295.90
627.04	1288.24
627.39	1280.45
627.73	1273.05
628.08	1266.20
628.43	1258.86
628.77	1251.44
629.12	1243.85
629.46	1236.81
629.81	1229.45
630.15	1222.21
630.50	1214.81
630.84	1206.72
631.19	1198.72
631.53	1191.32
631.88	1183.82
632.22	1176.17
632.57	1168.95
632.91	1161.43
633.26	1154.00
633.60	1146.67
633.95	1139.51
634.29	1132.47
634.64	1125.80
634.98	1118.36
635.32	1111.21
635.67	1104.68
636.01	1098.09
636.36	1091.26
636.70	1084.70
637.05	1078.05
637.39	1071.47
637.73	1064.99
638.08	1059.04
638.42	1053.05
638.77	1046.60
639.11	1040.01
639.45	1033.63
639.80	1026.92
640.14	1020.50
640.49	1013.93
640.83	1007.61
641.17	1001.30
641.52	994.92
641.86	988.46
642.20	982.68
642.55	976.44
642.89	969.92
643.23	963.40
643.58	957.59
643.92	951.39
644.26	945.30
644.61	939.40
644.95	933.17
645.29	926.55
645.64	919.75
645.98	913.43
646.32	907.63
646.66	901.61
647.01	895.77
647.35	890.08
647.69	884.28
648.04	878.84
648.38	873.04
648.72	867.01
649.06	860.92
649.41	854.95
649.75	848.90
650.09	842.95
650.43	837.09
650.78	830.96
651.12	824.96
651.46	819.16
651.80	813.27
652.14	808.03
652.49	802.68
652.83	797.60
653.17	791.87
653.51	785.98
653.85	780.56
654.20	774.93
654.54	768.85
654.88	763.00
655.22	757.01
655.56	751.39
655.90	745.97
656.25	740.71
656.59	735.36
656.93	730.33
657.27	725.19
657.61	719.73
657.95	714.66
658.29	709.58
658.64	704.38
658.98	699.12
659.32	693.60
659.66	688.31
660.00	682.95
660.34	677.98
660.68	673.13
661.02	668.02
661.36	663.27
661.70	658.86
662.05	654.53
662.39	650.18
662.73	645.63
663.07	641.27
663.41	636.77
663.75	632.24
664.09	627.62
664.43	623.20
664.77	619.07
665.11	614.77
665.45	610.63
665.79	606.56
666.13	602.46
666.47	598.42
666.81	594.27
667.15	590.14
667.49	586.20
667.83	582.39
668.17	578.51
668.51	574.44
668.85	570.33
669.19	566.55
669.53	562.74
669.87	558.84
670.21	555.10
670.55	551.48
670.89	548.08
671.23	544.62
671.57	541.10
671.91	537.58
672.25	534.13
672.58	530.57
672.92	527.15
673.26	523.97
673.60	520.82
673.94	517.75
674.28	514.89
674.62	512.00
674.96	508.83
675.30	505.93
675.64	503.04
675.97	500.28
676.31	497.39
676.65	494.49
676.99	491.85
677.33	489.01
677.67	486.28
678.01	483.22
678.34	480.24
678.68	477.44
679.02	474.65
679.36	471.91
679.70	469.27
680.04	466.54
680.37	463.66
680.71	460.86
681.05	458.25
681.39	455.52
681.73	452.86
682.06	450.45
682.40	447.87
682.74	445.34
683.08	442.81
683.42	440.19
683.75	437.67
684.09	435.07
684.43	432.58
684.77	430.09
685.10	427.79
685.44	425.56
685.78	423.25
686.12	420.98
686.45	418.67
686.79	416.32
687.13	414.14
687.46	411.97
687.80	409.79
688.14	407.53
688.48	405.45
688.81	403.20
689.15	400.96
689.49	398.85
689.82	396.78
690.16	394.66
690.50	392.75
690.83	390.85
691.17	388.93
691.51	387.01
691.84	385.13
692.18	383.15
692.52	381.14
692.85	379.19
693.19	377.31
693.52	375.48
693.86	373.70
694.20	371.85
694.53	370.02
694.87	368.18
695.21	366.40
695.54	364.58
695.88	362.85
696.21	361.14
696.55	359.41
696.88	357.72
697.22	356.10
697.56	354.42
697.89	352.75
698.23	351.04
698.56	349.42
698.90	347.82
699.23	346.19
699.57	344.61
699.90	343.06
700.24	341.47
700.58	339.90
700.91	338.38
701.25	336.93
701.58	335.61
701.92	334.26
702.25	332.86
702.59	331.49
702.92	330.15
703.26	328.79
703.59	327.53
703.93	326.31
704.26	325.02
704.60	323.72
704.93	322.43
705.26	321.20
705.60	320.07
705.93	318.92
706.27	317.89
706.60	316.85
706.94	315.78
707.27	314.71
707.61	313.67
707.94	312.63
708.27	311.57
708.61	310.43
708.94	309.38
709.28	308.41
709.61	307.46
709.94	306.53
710.28	305.56
710.61	304.58
710.95	303.51
711.28	302.64
711.61	301.72
711.95	300.82
712.28	299.87
712.61	298.84
712.95	297.94
713.28	297.02
713.61	296.11
713.95	295.20
714.28	294.37
714.61	293.53
714.95	292.67
715.28	291.81
715.61	290.97
715.95	290.15
716.28	289.33
716.61	288.51
716.95	287.65
717.28	286.89
717.61	286.14
717.94	285.40
718.28	284.56
718.61	283.83
718.94	283.13
719.27	282.47
719.61	281.84
719.94	281.15
720.27	280.43
720.60	279.79
720.94	279.18
721.27	278.55
721.60	277.98
721.93	277.37
722.27	276.84
722.60	276.28
722.93	275.73
723.26	275.17
723.59	274.59
723.93	274.05
724.26	273.50
724.59	272.95
724.92	272.41
725.25	271.94
725.59	271.43
725.92	270.91
726.25	270.41
726.58	269.93
726.91	269.44
727.24	269.02
727.57	268.54
727.91	268.03
728.24	267.57
728.57	267.07
728.90	266.64
729.23	266.15
729.56	265.72
729.89	265.24
730.22	264.77
730.55	264.34
730.89	263.91
731.22	263.47
731.55	263.02
731.88	262.61
732.21	262.17
732.54	261.76
732.87	261.36
733.20	260.97
733.53	260.56
733.86	260.20
734.19	259.79
734.52	259.42
734.85	259.11
735.18	258.67
735.51	258.27
735.84	257.88
736.17	257.50
736.50	257.06
736.83	256.82
737.16	256.48
737.49	256.10
737.82	255.72
738.15	255.41
738.48	255.10
738.81	254.79
739.14	254.45
739.47	254.13
739.80	253.82
740.13	253.52
740.46	253.17
740.79	252.84
741.12	252.52
741.45	252.18
741.78	251.82
742.11	251.54
742.44	251.22
742.77	250.94
743.10	250.65
743.43	250.40
743.75	250.02
744.08	249.88
744.41	249.62
744.74	249.34
745.07	249.03
745.40	248.76
745.73	248.51
746.06	248.23
746.39	247.96
746.71	247.68
747.04	247.42
747.37	247.17
747.70	246.89
748.03	246.63
748.36	246.40
748.68	246.15
749.01	245.90
749.34	245.68
749.67	245.43
750.00	245.20
750.33	245.03
750.65	244.80
750.98	244.42
751.31	244.22
751.64	244.03
751.97	243.88
752.29	243.65
752.62	243.40
752.95	243.18
753.28	242.94
753.60	242.75
753.93	242.58
754.26	242.37
754.59	242.18
754.91	241.96
755.24	241.77
755.57	241.60
755.90	241.42
756.22	241.25
756.55	241.06
756.88	240.88
757.20	240.67
757.53	240.50
757.86	240.35
758.19	240.18
758.51	240.01
758.84	239.79
759.17	239.65
759.49	239.52
759.82	239.43
760.15	239.28
760.47	239.15
760.80	238.96
761.13	238.82
761.45	238.65
761.78	238.54
762.11	238.43
762.43	238.29
762.76	238.19
763.08	238.08
763.41	237.98
763.74	237.85
764.06	237.71
764.39	237.57
764.71	237.43
765.04	237.33
765.37	237.21
765.69	237.10
766.02	236.96
766.34	236.82
766.67	236.69
767.00	236.59
767.32	236.49
767.65	236.46
767.97	236.38
768.30	236.27
768.62	236.21
768.95	236.08
769.27	235.95
769.60	235.85
769.92	235.77
770.25	235.65
770.57	235.54
770.90	235.42
771.22	235.32
771.55	235.22
771.87	235.12
772.20	235.00
772.52	234.99
772.85	235.02
773.17	234.94
773.50	234.84
773.82	234.75
774.15	234.64
774.47	234.46
774.80	234.35
775.12	234.26
775.45	234.13
775.77	234.04
776.09	233.95
776.42	233.86
776.74	233.75
777.07	233.66
777.39	233.59
777.72	233.50
778.04	233.41
778.36	233.33
778.69	233.27
779.01	233.20
779.33	233.06
779.66	232.86
779.98	232.80
780.31	232.70
780.63	232.65
780.95	232.56
781.28	232.54
781.60	232.45
781.92	232.40
782.25	232.29
782.57	232.23
782.89	232.15
783.22	232.07
783.54	232.02
783.86	231.99
784.19	231.91
784.51	231.90
784.83	231.84
785.16	231.78
785.48	231.70
785.80	231.68
786.12	231.60
786.45	231.55
786.77	231.49
787.09	231.44
