SpectraSuite Data File
++++++++++++++++++++++++++++++++++++
Date: Fri Feb 01 15:52:31 EST 2013
User: group
Dark Spectrum Present: No
Reference Spectrum Present: No
Number of Sampled Component Spectra: 1
Spectrometers: USB2E7196
Integration Time (usec): 35000 (USB2E7196)
Spectra Averaged: 100 (USB2E7196)
Boxcar Smoothing: 10 (USB2E7196)
Correct for Electrical Dark: No (USB2E7196)
Strobe/Lamp Enabled: No (USB2E7196)
Correct for Detector Non-linearity: No (USB2E7196)
Correct for Stray Light: No (USB2E7196)
Number of Pixels in Processed Spectrum: 2048
>>>>>Begin Processed Spectral Data<<<<<
339.09	0.00
339.48	214.94
339.86	216.60
340.24	217.72
340.63	218.70
341.01	221.65
341.39	221.24
341.78	223.40
342.16	224.35
342.54	223.97
342.93	213.24
343.31	224.01
343.69	224.57
344.07	225.00
344.46	225.42
344.84	225.84
345.22	226.09
345.60	226.36
345.99	226.51
346.37	226.63
346.75	226.80
347.13	226.83
347.52	226.89
347.90	226.95
348.28	226.96
348.66	226.98
349.05	227.02
349.43	227.04
349.81	227.07
350.19	227.11
350.57	227.18
350.96	227.24
351.34	227.31
351.72	227.35
352.10	227.47
352.48	227.54
352.87	227.58
353.25	227.66
353.63	227.71
354.01	227.77
354.39	227.88
354.77	227.93
355.15	228.07
355.54	228.12
355.92	228.17
356.30	228.27
356.68	228.42
357.06	228.50
357.44	228.57
357.82	228.62
358.20	228.71
358.58	228.80
358.97	228.87
359.35	228.99
359.73	229.10
360.11	229.16
360.49	229.23
360.87	229.29
361.25	229.34
361.63	229.42
362.01	229.52
362.39	229.52
362.77	229.55
363.15	229.56
363.53	229.58
363.91	229.61
364.29	229.59
364.67	229.48
365.05	229.48
365.43	229.55
365.81	229.56
366.19	229.62
366.57	229.63
366.95	229.64
367.33	229.60
367.71	229.57
368.09	229.54
368.47	229.53
368.85	229.50
369.23	229.50
369.61	229.46
369.99	229.44
370.37	229.42
370.75	229.41
371.13	229.37
371.51	229.34
371.89	229.28
372.27	229.24
372.65	229.20
373.03	229.13
373.41	229.03
373.78	228.99
374.16	228.86
374.54	228.78
374.92	228.73
375.30	228.66
375.68	228.56
376.06	228.53
376.44	228.44
376.82	228.36
377.19	228.29
377.57	228.19
377.95	228.08
378.33	228.01
378.71	227.93
379.09	227.85
379.47	227.77
379.84	227.71
380.22	227.63
380.60	227.56
380.98	227.48
381.36	227.42
381.73	227.31
382.11	227.25
382.49	227.22
382.87	227.09
383.25	227.04
383.62	227.10
384.00	227.02
384.38	226.97
384.76	226.95
385.13	226.92
385.51	226.91
385.89	226.85
386.27	226.79
386.64	226.71
387.02	226.68
387.40	226.64
387.78	226.61
388.15	226.57
388.53	226.50
388.91	226.52
389.29	226.46
389.66	226.44
390.04	226.39
390.42	226.35
390.79	226.33
391.17	226.31
391.55	226.17
391.92	226.14
392.30	226.15
392.68	226.12
393.05	226.11
393.43	226.09
393.81	226.10
394.18	226.11
394.56	226.13
394.94	226.15
395.31	226.15
395.69	226.20
396.06	226.21
396.44	226.26
396.82	226.28
397.19	226.40
397.57	226.45
397.95	226.53
398.32	226.54
398.70	226.63
399.07	226.70
399.45	226.78
399.82	226.81
400.20	226.88
400.58	226.95
400.95	226.97
401.33	227.07
401.70	227.18
402.08	227.26
402.45	227.38
402.83	227.48
403.20	227.59
403.58	227.69
403.95	227.87
404.33	228.04
404.71	228.13
405.08	228.30
405.46	228.43
405.83	228.58
406.21	228.75
406.58	228.91
406.96	229.05
407.33	229.23
407.70	229.43
408.08	229.67
408.45	229.90
408.83	230.13
409.20	230.36
409.58	230.58
409.95	230.84
410.33	231.10
410.70	231.37
411.08	231.68
411.45	231.95
411.82	232.26
412.20	232.60
412.57	233.05
412.95	233.34
413.32	233.75
413.69	234.16
414.07	234.59
414.44	235.09
414.82	235.59
415.19	236.15
415.56	236.73
415.94	237.29
416.31	237.94
416.68	238.58
417.06	239.26
417.43	239.98
417.81	240.75
418.18	241.52
418.55	242.36
418.93	243.20
419.30	244.11
419.67	245.03
420.04	245.97
420.42	246.97
420.79	248.12
421.16	249.29
421.54	250.50
421.91	251.73
422.28	252.97
422.66	254.31
423.03	255.61
423.40	256.95
423.77	258.36
424.15	259.78
424.52	261.29
424.89	262.90
425.26	264.42
425.64	265.88
426.01	267.47
426.38	269.12
426.75	270.82
427.13	272.52
427.50	274.34
427.87	276.22
428.24	278.04
428.61	279.79
428.99	281.73
429.36	283.81
429.73	285.85
430.10	287.87
430.47	289.89
430.85	292.00
431.22	294.19
431.59	296.56
431.96	298.79
432.33	301.25
432.70	303.68
433.08	306.51
433.45	309.16
433.82	311.79
434.19	314.68
434.56	317.52
434.93	320.19
435.30	322.79
435.68	325.70
436.05	328.56
436.42	331.34
436.79	333.86
437.16	336.58
437.53	339.44
437.90	342.25
438.27	345.00
438.64	347.85
439.01	350.43
439.38	352.68
439.75	354.87
440.13	357.36
440.50	359.62
440.87	361.42
441.24	363.38
441.61	365.52
441.98	366.99
442.35	368.77
442.72	370.58
443.09	372.39
443.46	373.33
443.83	373.92
444.20	374.42
444.57	375.22
444.94	375.49
445.31	375.82
445.68	376.16
446.05	376.29
446.42	375.83
446.79	375.45
447.16	374.98
447.53	374.63
447.90	373.47
448.27	372.35
448.64	370.76
449.01	369.56
449.37	367.60
449.74	365.71
450.11	363.49
450.48	361.04
450.85	358.49
451.22	356.35
451.59	354.29
451.96	352.37
452.33	349.74
452.70	347.35
453.07	344.49
453.43	341.59
453.80	338.77
454.17	336.15
454.54	333.61
454.91	330.87
455.28	328.22
455.65	325.73
456.02	323.28
456.38	321.14
456.75	318.50
457.12	316.22
457.49	314.00
457.86	311.79
458.23	309.97
458.59	307.94
458.96	305.87
459.33	304.05
459.70	302.19
460.07	300.70
460.43	298.99
460.80	297.40
461.17	295.98
461.54	294.52
461.91	293.09
462.27	291.66
462.64	290.42
463.01	289.02
463.38	287.73
463.74	286.37
464.11	285.23
464.48	284.20
464.85	283.12
465.21	282.24
465.58	281.33
465.95	280.23
466.32	279.34
466.68	278.44
467.05	277.54
467.42	276.65
467.78	275.76
468.15	274.90
468.52	274.24
468.88	273.34
469.25	272.58
469.62	271.96
469.98	271.31
470.35	270.70
470.72	270.16
471.08	269.53
471.45	269.03
471.82	268.47
472.18	267.87
472.55	267.42
472.92	266.95
473.28	266.51
473.65	266.07
474.02	265.64
474.38	265.27
474.75	265.00
475.11	264.66
475.48	264.38
475.85	264.18
476.21	263.96
476.58	263.80
476.94	263.65
477.31	263.49
477.67	263.33
478.04	263.19
478.41	263.12
478.77	263.16
479.14	263.06
479.50	263.09
479.87	263.18
480.23	263.27
480.60	263.29
480.96	263.35
481.33	263.55
481.69	263.77
482.06	263.96
482.42	264.10
482.79	264.34
483.15	264.65
483.52	265.04
483.88	265.38
484.25	265.81
484.61	266.23
484.98	266.67
485.34	267.24
485.71	267.82
486.07	268.43
486.44	268.98
486.80	269.69
487.17	270.39
487.53	271.20
487.90	272.05
488.26	272.99
488.62	274.01
488.99	274.99
489.35	276.02
489.72	277.16
490.08	278.38
490.44	279.61
490.81	280.94
491.17	282.26
491.54	283.70
491.90	285.20
492.26	286.86
492.63	288.56
492.99	290.30
493.36	292.18
493.72	294.22
494.08	296.32
494.45	298.56
494.81	300.90
495.17	303.34
495.54	305.90
495.90	308.58
496.26	311.41
496.63	314.36
496.99	317.42
497.35	320.68
497.72	324.10
498.08	327.61
498.44	331.24
498.80	335.16
499.17	339.21
499.53	343.38
499.89	347.71
500.26	352.25
500.62	356.93
500.98	361.95
501.34	367.00
501.71	372.32
502.07	377.74
502.43	383.40
502.79	389.21
503.16	395.25
503.52	401.54
503.88	407.93
504.24	414.62
504.60	421.53
504.97	428.64
505.33	435.94
505.69	443.66
506.05	451.46
506.41	459.36
506.78	467.49
507.14	475.97
507.50	484.71
507.86	493.77
508.22	502.93
508.59	512.13
508.95	521.75
509.31	531.55
509.67	541.70
510.03	552.04
510.39	562.55
510.75	573.41
511.12	584.35
511.48	595.66
511.84	606.99
512.20	618.51
512.56	630.42
512.92	642.69
513.28	655.08
513.64	667.60
514.00	680.34
514.37	693.35
514.73	706.41
515.09	719.45
515.45	732.71
515.81	746.34
516.17	760.28
516.53	774.45
516.89	788.66
517.25	802.83
517.61	817.16
517.97	831.76
518.33	846.16
518.69	861.00
519.05	875.91
519.41	891.16
519.77	906.72
520.13	922.22
520.49	937.60
520.85	952.94
521.21	968.64
521.57	984.85
521.93	1000.63
522.29	1017.00
522.65	1033.29
523.01	1049.54
523.37	1065.64
523.73	1081.84
524.09	1097.88
524.45	1114.24
524.81	1130.91
525.17	1147.81
525.53	1164.65
525.89	1181.56
526.25	1198.26
526.61	1214.69
526.97	1231.39
527.33	1247.86
527.68	1264.48
528.04	1280.93
528.40	1297.57
528.76	1314.68
529.12	1331.33
529.48	1348.12
529.84	1364.09
530.20	1380.63
530.56	1397.63
530.91	1414.96
531.27	1431.73
531.63	1448.22
531.99	1464.71
532.35	1480.55
532.71	1496.48
533.07	1512.66
533.42	1528.55
533.78	1544.62
534.14	1560.82
534.50	1576.22
534.86	1592.07
535.21	1607.10
535.57	1623.01
535.93	1638.45
536.29	1653.14
536.65	1668.08
537.00	1682.91
537.36	1698.27
537.72	1712.86
538.08	1727.10
538.44	1740.91
538.79	1754.64
539.15	1768.30
539.51	1782.07
539.87	1796.42
540.22	1810.05
540.58	1823.84
540.94	1837.10
541.29	1849.99
541.65	1862.71
542.01	1875.81
542.37	1888.18
542.72	1900.65
543.08	1912.38
543.44	1924.81
543.79	1936.04
544.15	1947.11
544.51	1958.68
544.87	1969.67
545.22	1980.33
545.58	1990.60
545.94	2000.13
546.29	2010.10
546.65	2019.87
547.01	2029.09
547.36	2037.85
547.72	2046.31
548.07	2054.10
548.43	2062.33
548.79	2070.40
549.14	2077.88
549.50	2085.26
549.86	2092.88
550.21	2100.14
550.57	2107.28
550.92	2113.78
551.28	2120.79
551.64	2127.74
551.99	2134.24
552.35	2140.19
552.70	2146.50
553.06	2152.53
553.41	2159.07
553.77	2165.07
554.13	2171.19
554.48	2177.44
554.84	2182.77
555.19	2188.05
555.55	2193.13
555.90	2197.52
556.26	2202.33
556.61	2207.20
556.97	2211.40
557.32	2215.54
557.68	2219.74
558.03	2223.93
558.39	2227.64
558.74	2232.33
559.10	2236.21
559.45	2239.80
559.81	2244.23
560.16	2247.96
560.52	2251.09
560.87	2254.35
561.23	2257.02
561.58	2260.05
561.94	2262.51
562.29	2264.83
562.64	2267.48
563.00	2270.19
563.35	2273.87
563.71	2277.02
564.06	2280.14
564.42	2283.10
564.77	2285.51
565.12	2287.69
565.48	2289.66
565.83	2291.54
566.19	2292.74
566.54	2293.73
566.89	2294.86
567.25	2295.38
567.60	2296.84
567.96	2298.67
568.31	2299.70
568.66	2300.84
569.02	2301.32
569.37	2301.61
569.72	2302.57
570.08	2302.71
570.43	2302.68
570.78	2301.99
571.14	2300.39
571.49	2299.15
571.84	2298.89
572.20	2297.90
572.55	2296.97
572.90	2295.49
573.26	2294.17
573.61	2292.59
573.96	2290.66
574.31	2287.80
574.67	2284.77
575.02	2280.95
575.37	2277.56
575.72	2273.81
576.08	2270.52
576.43	2267.17
576.78	2263.38
577.13	2260.34
577.49	2257.37
577.84	2253.91
578.19	2250.08
578.54	2246.40
578.90	2242.12
579.25	2236.46
579.60	2231.38
579.95	2226.33
580.30	2221.26
580.66	2216.07
581.01	2211.14
581.36	2206.41
581.71	2202.13
582.06	2197.70
582.42	2193.35
582.77	2188.06
583.12	2183.40
583.47	2178.50
583.82	2173.47
584.17	2168.31
584.53	2162.74
584.88	2157.07
585.23	2151.27
585.58	2145.84
585.93	2140.46
586.28	2135.80
586.63	2130.75
586.98	2125.63
587.34	2120.98
587.69	2116.16
588.04	2110.73
588.39	2105.07
588.74	2098.64
589.09	2092.52
589.44	2085.73
589.79	2079.81
590.14	2074.20
590.49	2067.61
590.84	2061.34
591.19	2055.28
591.54	2048.76
591.89	2041.24
592.25	2034.25
592.60	2027.02
592.95	2019.43
593.30	2012.03
593.65	2004.27
594.00	1997.30
594.35	1990.14
594.70	1982.08
595.05	1974.75
595.40	1967.63
595.75	1960.02
596.10	1953.65
596.45	1946.94
596.80	1940.87
597.15	1934.04
597.50	1926.79
597.85	1920.42
598.19	1913.73
598.54	1906.75
598.89	1900.12
599.24	1894.30
599.59	1887.71
599.94	1881.54
600.29	1875.20
600.64	1868.68
600.99	1861.24
601.34	1854.37
601.69	1847.44
602.04	1840.58
602.39	1833.29
602.74	1826.32
603.08	1819.58
603.43	1812.90
603.78	1805.48
604.13	1798.29
604.48	1790.96
604.83	1784.25
605.18	1777.15
605.53	1769.11
605.87	1761.04
606.22	1753.80
606.57	1745.92
606.92	1738.60
607.27	1731.47
607.62	1724.52
607.96	1717.25
608.31	1710.69
608.66	1702.93
609.01	1695.27
609.36	1687.73
609.70	1679.63
610.05	1671.67
610.40	1663.87
610.75	1655.52
611.10	1647.91
611.44	1639.44
611.79	1631.56
612.14	1622.88
612.49	1613.78
612.83	1605.45
613.18	1597.34
613.53	1589.29
613.88	1580.76
614.22	1572.46
614.57	1563.85
614.92	1555.79
615.27	1548.19
615.61	1539.76
615.96	1531.86
616.31	1524.32
616.65	1516.81
617.00	1509.31
617.35	1501.65
617.70	1493.35
618.04	1484.90
618.39	1476.65
618.74	1469.01
619.08	1460.65
619.43	1452.91
619.78	1445.99
620.12	1438.71
620.47	1431.11
620.82	1422.95
621.16	1415.67
621.51	1408.15
621.85	1400.41
622.20	1391.80
622.55	1383.38
622.89	1375.58
623.24	1367.87
623.59	1360.52
623.93	1353.01
624.28	1345.79
624.62	1338.25
624.97	1331.19
625.32	1324.44
625.66	1317.44
626.01	1310.20
626.35	1302.70
626.70	1295.16
627.04	1287.41
627.39	1279.78
627.73	1272.41
628.08	1265.42
628.43	1258.01
628.77	1250.64
629.12	1243.09
629.46	1236.09
629.81	1228.71
630.15	1221.44
630.50	1214.12
630.84	1205.95
631.19	1198.04
631.53	1190.43
631.88	1182.85
632.22	1175.13
632.57	1167.69
632.91	1160.16
633.26	1152.83
633.60	1145.57
633.95	1138.35
634.29	1131.40
634.64	1124.74
634.98	1117.40
635.32	1110.27
635.67	1103.66
636.01	1096.94
636.36	1090.21
636.70	1083.59
637.05	1077.03
637.39	1070.58
637.73	1064.02
638.08	1058.02
638.42	1052.07
638.77	1045.64
639.11	1039.02
639.45	1032.77
639.80	1026.15
640.14	1019.64
640.49	1013.08
640.83	1006.70
641.17	1000.46
641.52	994.00
641.86	987.41
642.20	981.65
642.55	975.45
642.89	968.79
643.23	962.27
643.58	956.47
643.92	950.34
644.26	944.31
644.61	938.33
644.95	932.28
645.29	925.62
645.64	918.86
645.98	912.51
646.32	906.73
646.66	900.62
647.01	894.87
647.35	889.16
647.69	883.32
648.04	877.87
648.38	872.07
648.72	866.09
649.06	860.07
649.41	854.07
649.75	847.95
650.09	842.10
650.43	836.34
650.78	830.12
651.12	824.08
651.46	818.35
651.80	812.60
652.14	807.25
652.49	801.97
652.83	796.77
653.17	791.10
653.51	785.39
653.85	780.07
654.20	774.40
654.54	768.42
654.88	762.68
655.22	756.76
655.56	751.13
655.90	745.69
656.25	740.46
656.59	735.14
656.93	730.13
657.27	725.05
657.61	719.63
657.95	714.64
658.29	709.64
658.64	704.38
658.98	699.05
659.32	693.56
659.66	688.33
660.00	683.03
660.34	678.11
660.68	673.15
661.02	668.07
661.36	663.38
661.70	658.95
662.05	654.64
662.39	650.30
662.73	645.87
663.07	641.50
663.41	637.08
663.75	632.50
664.09	627.92
664.43	623.52
664.77	619.37
665.11	615.12
665.45	611.02
665.79	606.94
666.13	602.85
666.47	598.77
666.81	594.62
667.15	590.51
667.49	586.57
667.83	582.80
668.17	578.88
668.51	574.72
668.85	570.65
669.19	566.80
669.53	562.90
669.87	558.94
670.21	555.27
670.55	551.62
670.89	548.24
671.23	544.80
671.57	541.22
671.91	537.62
672.25	534.07
672.58	530.50
672.92	527.05
673.26	523.80
673.60	520.62
673.94	517.49
674.28	514.63
674.62	511.76
674.96	508.59
675.30	505.63
675.64	502.70
675.97	499.92
676.31	496.99
676.65	494.12
676.99	491.47
677.33	488.55
677.67	485.72
678.01	482.72
678.34	479.71
678.68	476.87
679.02	474.08
679.36	471.32
679.70	468.60
680.04	465.85
680.37	463.00
680.71	460.22
681.05	457.59
681.39	454.82
681.73	452.13
682.06	449.68
682.40	447.14
682.74	444.69
683.08	442.15
683.42	439.57
683.75	437.09
684.09	434.48
684.43	432.00
684.77	429.53
685.10	427.14
685.44	424.89
685.78	422.59
686.12	420.32
686.45	418.03
686.79	415.70
687.13	413.53
687.46	411.36
687.80	409.28
688.14	407.08
688.48	405.00
688.81	402.75
689.15	400.57
689.49	398.45
689.82	396.36
690.16	394.30
690.50	392.35
690.83	390.45
691.17	388.52
691.51	386.64
691.84	384.77
692.18	382.89
692.52	380.91
692.85	378.98
693.19	377.11
693.52	375.29
693.86	373.52
694.20	371.74
694.53	369.96
694.87	368.04
695.21	366.27
695.54	364.50
695.88	362.78
696.21	361.05
696.55	359.33
696.88	357.65
697.22	356.00
697.56	354.39
697.89	352.71
698.23	351.11
698.56	349.47
698.90	347.87
699.23	346.21
699.57	344.61
699.90	343.11
700.24	341.59
700.58	340.03
700.91	338.56
701.25	337.13
701.58	335.71
701.92	334.40
702.25	333.05
702.59	331.65
702.92	330.33
703.26	329.03
703.59	327.76
703.93	326.58
704.26	325.35
704.60	324.04
704.93	322.76
705.26	321.48
705.60	320.32
705.93	319.17
706.27	318.12
706.60	317.06
706.94	315.95
707.27	314.84
707.61	313.82
707.94	312.78
708.27	311.66
708.61	310.62
708.94	309.60
709.28	308.61
709.61	307.67
709.94	306.70
710.28	305.69
710.61	304.74
710.95	303.68
711.28	302.74
711.61	301.81
711.95	300.90
712.28	299.98
712.61	298.99
712.95	298.10
713.28	297.21
713.61	296.34
713.95	295.43
714.28	294.58
714.61	293.74
714.95	292.88
715.28	292.09
715.61	291.22
715.95	290.33
716.28	289.48
716.61	288.64
716.95	287.86
717.28	287.13
717.61	286.35
717.94	285.60
718.28	284.79
718.61	284.04
718.94	283.34
719.27	282.67
719.61	282.04
719.94	281.36
720.27	280.64
720.60	279.95
720.94	279.36
721.27	278.75
721.60	278.13
721.93	277.55
722.27	276.96
722.60	276.40
722.93	275.85
723.26	275.34
723.59	274.78
723.93	274.21
724.26	273.65
724.59	273.10
724.92	272.57
725.25	272.09
725.59	271.55
725.92	271.06
726.25	270.53
726.58	270.04
726.91	269.56
727.24	269.07
727.57	268.60
727.91	268.10
728.24	267.64
728.57	267.18
728.90	266.72
729.23	266.26
729.56	265.85
729.89	265.42
730.22	264.92
730.55	264.46
730.89	264.02
731.22	263.55
731.55	263.10
731.88	262.71
732.21	262.25
732.54	261.79
732.87	261.36
733.20	260.98
733.53	260.56
733.86	260.18
734.19	259.80
734.52	259.42
734.85	259.13
735.18	258.72
735.51	258.36
735.84	257.97
736.17	257.59
736.50	257.20
736.83	256.94
737.16	256.56
737.49	256.26
737.82	255.92
738.15	255.61
738.48	255.27
738.81	254.93
739.14	254.62
739.47	254.32
739.80	254.04
740.13	253.73
740.46	253.40
740.79	253.09
741.12	252.80
741.45	252.50
741.78	252.13
742.11	251.87
742.44	251.52
742.77	251.22
743.10	250.89
743.43	250.54
743.75	250.17
744.08	250.04
744.41	249.74
744.74	249.44
745.07	249.16
745.40	248.92
745.73	248.65
746.06	248.38
746.39	248.13
746.71	247.85
747.04	247.56
747.37	247.31
747.70	247.05
748.03	246.78
748.36	246.56
748.68	246.33
749.01	246.02
749.34	245.81
749.67	245.58
750.00	245.39
750.33	245.24
750.65	245.02
750.98	244.69
751.31	244.49
751.64	244.33
751.97	244.14
752.29	243.92
752.62	243.70
752.95	243.50
753.28	243.29
753.60	243.09
753.93	242.94
754.26	242.74
754.59	242.53
754.91	242.36
755.24	242.11
755.57	241.94
755.90	241.79
756.22	241.58
756.55	241.40
756.88	241.21
757.20	241.00
757.53	240.78
757.86	240.60
758.19	240.45
758.51	240.28
758.84	240.10
759.17	239.95
759.49	239.79
759.82	239.69
760.15	239.54
760.47	239.38
760.80	239.19
761.13	239.10
761.45	238.92
761.78	238.75
762.11	238.65
762.43	238.49
762.76	238.33
763.08	238.26
763.41	238.12
763.74	237.99
764.06	237.85
764.39	237.72
764.71	237.57
765.04	237.41
765.37	237.29
765.69	237.14
766.02	236.96
766.34	236.86
766.67	236.69
767.00	236.57
767.32	236.52
767.65	236.48
767.97	236.36
768.30	236.27
768.62	236.17
768.95	236.07
769.27	235.93
769.60	235.83
769.92	235.67
770.25	235.58
770.57	235.42
770.90	235.33
771.22	235.25
771.55	235.18
771.87	235.13
772.20	235.00
772.52	234.99
772.85	235.05
773.17	234.96
773.50	234.82
773.82	234.73
774.15	234.56
774.47	234.39
774.80	234.23
775.12	234.12
775.45	234.07
775.77	233.99
776.09	233.89
776.42	233.80
776.74	233.75
777.07	233.67
777.39	233.61
777.72	233.53
778.04	233.44
778.36	233.35
778.69	233.27
779.01	233.23
779.33	233.08
779.66	232.86
779.98	232.77
780.31	232.76
780.63	232.72
780.95	232.72
781.28	232.66
781.60	232.61
781.92	232.57
782.25	232.47
782.57	232.36
782.89	232.33
783.22	232.26
783.54	232.21
783.86	232.13
784.19	232.06
784.51	232.03
784.83	232.00
785.16	231.94
785.48	231.86
785.80	231.80
786.12	231.77
786.45	231.76
786.77	231.72
787.09	231.67
