SpectraSuite Data File
++++++++++++++++++++++++++++++++++++
Date: Fri Feb 01 15:17:10 EST 2013
User: group
Dark Spectrum Present: No
Reference Spectrum Present: No
Number of Sampled Component Spectra: 1
Spectrometers: USB2E7196
Integration Time (usec): 35000 (USB2E7196)
Spectra Averaged: 100 (USB2E7196)
Boxcar Smoothing: 10 (USB2E7196)
Correct for Electrical Dark: No (USB2E7196)
Strobe/Lamp Enabled: No (USB2E7196)
Correct for Detector Non-linearity: No (USB2E7196)
Correct for Stray Light: No (USB2E7196)
Number of Pixels in Processed Spectrum: 2048
>>>>>Begin Processed Spectral Data<<<<<
339.09	0.00
339.48	214.80
339.86	216.85
340.24	217.53
340.63	219.67
341.01	221.56
341.39	222.46
341.78	223.52
342.16	224.68
342.54	225.02
342.93	213.42
343.31	224.20
343.69	224.76
344.07	225.24
344.46	225.69
344.84	226.06
345.22	226.32
345.60	226.56
345.99	226.74
346.37	226.86
346.75	226.96
347.13	227.05
347.52	227.14
347.90	227.21
348.28	227.24
348.66	227.33
349.05	227.27
349.43	227.32
349.81	227.38
350.19	227.42
350.57	227.50
350.96	227.59
351.34	227.69
351.72	227.79
352.10	227.85
352.48	227.90
352.87	227.95
353.25	228.04
353.63	228.12
354.01	228.20
354.39	228.27
354.77	228.36
355.15	228.50
355.54	228.55
355.92	228.59
356.30	228.67
356.68	228.80
357.06	228.94
357.44	229.00
357.82	229.06
358.20	229.15
358.58	229.22
358.97	229.26
359.35	229.35
359.73	229.44
360.11	229.51
360.49	229.57
360.87	229.62
361.25	229.66
361.63	229.71
362.01	229.77
362.39	229.80
362.77	229.85
363.15	229.85
363.53	229.86
363.91	229.88
364.29	229.90
364.67	229.80
365.05	229.81
365.43	229.85
365.81	229.84
366.19	229.84
366.57	229.86
366.95	229.87
367.33	229.82
367.71	229.73
368.09	229.73
368.47	229.73
368.85	229.70
369.23	229.71
369.61	229.63
369.99	229.60
370.37	229.56
370.75	229.54
371.13	229.47
371.51	229.42
371.89	229.40
372.27	229.33
372.65	229.28
373.03	229.21
373.41	229.13
373.78	229.07
374.16	228.97
374.54	228.87
374.92	228.80
375.30	228.74
375.68	228.70
376.06	228.60
376.44	228.51
376.82	228.43
377.19	228.33
377.57	228.26
377.95	228.14
378.33	228.07
378.71	227.94
379.09	227.85
379.47	227.75
379.84	227.65
380.22	227.56
380.60	227.47
380.98	227.38
381.36	227.29
381.73	227.20
382.11	227.16
382.49	227.10
382.87	227.00
383.25	226.94
383.62	226.96
384.00	226.89
384.38	226.82
384.76	226.78
385.13	226.75
385.51	226.68
385.89	226.66
386.27	226.62
386.64	226.62
387.02	226.62
387.40	226.61
387.78	226.56
388.15	226.53
388.53	226.50
388.91	226.48
389.29	226.46
389.66	226.41
390.04	226.38
390.42	226.38
390.79	226.40
391.17	226.38
391.55	226.28
391.92	226.30
392.30	226.32
392.68	226.29
393.05	226.29
393.43	226.33
393.81	226.30
394.18	226.32
394.56	226.30
394.94	226.31
395.31	226.31
395.69	226.39
396.06	226.47
396.44	226.51
396.82	226.55
397.19	226.64
397.57	226.72
397.95	226.79
398.32	226.84
398.70	226.89
399.07	226.98
399.45	227.03
399.82	227.10
400.20	227.16
400.58	227.27
400.95	227.33
401.33	227.43
401.70	227.60
402.08	227.69
402.45	227.81
402.83	227.95
403.20	228.10
403.58	228.18
403.95	228.33
404.33	228.49
404.71	228.63
405.08	228.81
405.46	228.97
405.83	229.11
406.21	229.26
406.58	229.45
406.96	229.59
407.33	229.80
407.70	229.99
408.08	230.32
408.45	230.55
408.83	230.81
409.20	231.06
409.58	231.25
409.95	231.54
410.33	231.83
410.70	232.10
411.08	232.42
411.45	232.74
411.82	233.00
412.20	233.34
412.57	233.75
412.95	234.03
413.32	234.42
413.69	234.85
414.07	235.26
414.44	235.72
414.82	236.22
415.19	236.78
415.56	237.34
415.94	237.83
416.31	238.46
416.68	239.08
417.06	239.76
417.43	240.45
417.81	241.20
418.18	241.94
418.55	242.76
418.93	243.64
419.30	244.53
419.67	245.47
420.04	246.43
420.42	247.43
420.79	248.61
421.16	249.77
421.54	250.94
421.91	252.21
422.28	253.46
422.66	254.79
423.03	256.09
423.40	257.40
423.77	258.80
424.15	260.24
424.52	261.73
424.89	263.34
425.26	264.88
425.64	266.31
426.01	267.91
426.38	269.55
426.75	271.20
427.13	272.94
427.50	274.73
427.87	276.58
428.24	278.42
428.61	280.14
428.99	282.06
429.36	284.19
429.73	286.22
430.10	288.21
430.47	290.28
430.85	292.41
431.22	294.65
431.59	297.07
431.96	299.34
432.33	301.82
432.70	304.21
433.08	307.04
433.45	309.71
433.82	312.37
434.19	315.29
434.56	318.09
434.93	320.74
435.30	323.37
435.68	326.31
436.05	329.16
436.42	331.98
436.79	334.54
437.16	337.24
437.53	340.06
437.90	342.87
438.27	345.64
438.64	348.47
439.01	351.11
439.38	353.35
439.75	355.49
440.13	358.00
440.50	360.30
440.87	362.16
441.24	364.12
441.61	366.22
441.98	367.69
442.35	369.53
442.72	371.39
443.09	373.24
443.46	374.25
443.83	374.85
444.20	375.39
444.57	376.21
444.94	376.49
445.31	376.88
445.68	377.25
446.05	377.31
446.42	376.91
446.79	376.44
447.16	375.97
447.53	375.65
447.90	374.50
448.27	373.35
448.64	371.75
449.01	370.61
449.37	368.66
449.74	366.78
450.11	364.47
450.48	362.01
450.85	359.47
451.22	357.26
451.59	355.22
451.96	353.25
452.33	350.66
452.70	348.30
453.07	345.40
453.43	342.55
453.80	339.78
454.17	337.11
454.54	334.57
454.91	331.84
455.28	329.16
455.65	326.64
456.02	324.21
456.38	322.08
456.75	319.38
457.12	317.16
457.49	314.94
457.86	312.80
458.23	310.97
458.59	308.91
458.96	306.84
459.33	305.01
459.70	303.13
460.07	301.63
460.43	299.92
460.80	298.33
461.17	296.86
461.54	295.37
461.91	293.93
462.27	292.51
462.64	291.29
463.01	289.90
463.38	288.61
463.74	287.21
464.11	286.05
464.48	285.06
464.85	283.92
465.21	283.06
465.58	282.11
465.95	280.96
466.32	280.03
466.68	279.14
467.05	278.22
467.42	277.33
467.78	276.41
468.15	275.54
468.52	274.85
468.88	274.02
469.25	273.23
469.62	272.59
469.98	271.84
470.35	271.21
470.72	270.62
471.08	269.98
471.45	269.45
471.82	268.87
472.18	268.24
472.55	267.77
472.92	267.23
473.28	266.78
473.65	266.32
474.02	265.90
474.38	265.51
474.75	265.18
475.11	264.84
475.48	264.56
475.85	264.30
476.21	264.11
476.58	263.88
476.94	263.77
477.31	263.60
477.67	263.47
478.04	263.33
478.41	263.27
478.77	263.27
479.14	263.20
479.50	263.19
479.87	263.26
480.23	263.37
480.60	263.43
480.96	263.52
481.33	263.73
481.69	263.89
482.06	264.08
482.42	264.26
482.79	264.50
483.15	264.75
483.52	265.11
483.88	265.40
484.25	265.75
484.61	266.12
484.98	266.58
485.34	267.14
485.71	267.71
486.07	268.32
486.44	268.88
486.80	269.57
487.17	270.32
487.53	271.13
487.90	271.98
488.26	272.90
488.62	273.91
488.99	274.90
489.35	275.93
489.72	277.05
490.08	278.27
490.44	279.52
490.81	280.88
491.17	282.20
491.54	283.72
491.90	285.30
492.26	286.91
492.63	288.63
492.99	290.41
493.36	292.26
493.72	294.29
494.08	296.40
494.45	298.64
494.81	300.97
495.17	303.37
495.54	305.92
495.90	308.62
496.26	311.39
496.63	314.33
496.99	317.42
497.35	320.67
497.72	324.01
498.08	327.52
498.44	331.15
498.80	335.11
499.17	339.11
499.53	343.22
499.89	347.61
500.26	352.08
500.62	356.77
500.98	361.79
501.34	366.81
501.71	372.13
502.07	377.55
502.43	383.11
502.79	388.98
503.16	395.05
503.52	401.26
503.88	407.65
504.24	414.24
504.60	421.14
504.97	428.28
505.33	435.58
505.69	443.26
506.05	451.05
506.41	458.97
506.78	467.13
507.14	475.58
507.50	484.33
507.86	493.32
508.22	502.47
508.59	511.66
508.95	521.31
509.31	531.11
509.67	541.28
510.03	551.59
510.39	562.06
510.75	572.83
511.12	583.81
511.48	595.11
511.84	606.56
512.20	618.09
512.56	630.07
512.92	642.32
513.28	654.72
513.64	667.26
514.00	679.91
514.37	692.82
514.73	705.96
515.09	719.06
515.45	732.42
515.81	745.97
516.17	759.96
516.53	774.06
516.89	788.26
517.25	802.34
517.61	816.87
517.97	831.39
518.33	845.93
518.69	860.67
519.05	875.64
519.41	890.91
519.77	906.56
520.13	922.11
520.49	937.50
520.85	952.95
521.21	968.72
521.57	985.06
521.93	1000.86
522.29	1017.27
522.65	1033.50
523.01	1049.83
523.37	1065.99
523.73	1082.20
524.09	1098.36
524.45	1114.77
524.81	1131.47
525.17	1148.31
525.53	1165.34
525.89	1182.15
526.25	1199.01
526.61	1215.60
526.97	1232.30
527.33	1248.82
527.68	1265.39
528.04	1282.01
528.40	1298.73
528.76	1315.79
529.12	1332.33
529.48	1349.24
529.84	1365.35
530.20	1382.05
530.56	1399.03
530.91	1416.48
531.27	1433.34
531.63	1449.81
531.99	1466.42
532.35	1482.49
532.71	1498.40
533.07	1514.73
533.42	1530.70
533.78	1546.82
534.14	1563.19
534.50	1578.60
534.86	1594.44
535.21	1609.65
535.57	1625.68
535.93	1641.22
536.29	1656.04
536.65	1671.24
537.00	1686.18
537.36	1701.59
537.72	1716.26
538.08	1730.79
538.44	1744.76
538.79	1758.66
539.15	1772.51
539.51	1786.27
539.87	1800.75
540.22	1814.59
540.58	1828.46
540.94	1841.98
541.29	1855.02
541.65	1867.72
542.01	1881.13
542.37	1893.56
542.72	1906.09
543.08	1917.92
543.44	1930.42
543.79	1941.76
544.15	1952.68
544.51	1964.40
544.87	1975.37
545.22	1986.14
545.58	1996.32
545.94	2006.05
546.29	2016.18
546.65	2025.87
547.01	2035.19
547.36	2043.95
547.72	2052.42
548.07	2060.25
548.43	2068.43
548.79	2076.56
549.14	2084.10
549.50	2091.49
549.86	2099.22
550.21	2106.59
550.57	2113.58
550.92	2119.96
551.28	2127.05
551.64	2134.38
551.99	2140.90
552.35	2146.94
552.70	2153.10
553.06	2159.06
553.41	2165.46
553.77	2171.37
554.13	2177.58
554.48	2183.79
554.84	2189.10
555.19	2194.41
555.55	2199.43
555.90	2203.93
556.26	2208.67
556.61	2213.33
556.97	2217.38
557.32	2221.60
557.68	2225.82
558.03	2230.18
558.39	2234.12
558.74	2238.68
559.10	2242.47
559.45	2246.12
559.81	2250.62
560.16	2254.48
560.52	2257.74
560.87	2261.01
561.23	2263.61
561.58	2266.46
561.94	2268.90
562.29	2271.36
562.64	2273.93
563.00	2276.64
563.35	2280.20
563.71	2283.37
564.06	2286.58
564.42	2289.53
564.77	2291.87
565.12	2293.90
565.48	2295.68
565.83	2297.33
566.19	2298.57
566.54	2299.38
566.89	2300.49
567.25	2300.80
567.60	2302.11
567.96	2303.87
568.31	2304.90
568.66	2306.00
569.02	2306.59
569.37	2306.91
569.72	2307.72
570.08	2307.92
570.43	2307.75
570.78	2306.86
571.14	2305.31
571.49	2303.93
571.84	2303.60
572.20	2302.41
572.55	2301.37
572.90	2299.84
573.26	2298.43
573.61	2296.68
573.96	2294.84
574.31	2291.63
574.67	2288.60
575.02	2284.91
575.37	2281.33
575.72	2277.18
576.08	2273.77
576.43	2270.37
576.78	2266.56
577.13	2263.37
577.49	2260.27
577.84	2256.71
578.19	2253.03
578.54	2249.27
578.90	2244.87
579.25	2239.13
579.60	2233.98
579.95	2228.94
580.30	2223.88
580.66	2218.58
581.01	2213.55
581.36	2208.60
581.71	2204.30
582.06	2199.92
582.42	2195.19
582.77	2190.03
583.12	2185.46
583.47	2180.48
583.82	2175.34
584.17	2170.03
584.53	2164.27
584.88	2158.40
585.23	2152.46
585.58	2146.99
585.93	2141.40
586.28	2136.59
586.63	2131.43
586.98	2126.34
587.34	2121.54
587.69	2116.53
588.04	2111.22
588.39	2105.47
588.74	2098.96
589.09	2092.84
589.44	2085.75
589.79	2079.79
590.14	2073.88
590.49	2067.30
590.84	2060.85
591.19	2054.68
591.54	2048.12
591.89	2040.59
592.25	2033.73
592.60	2026.58
592.95	2018.71
593.30	2011.26
593.65	2003.51
594.00	1996.34
594.35	1989.02
594.70	1980.95
595.05	1973.77
595.40	1966.51
595.75	1958.92
596.10	1952.46
596.45	1945.45
596.80	1939.36
597.15	1932.56
597.50	1925.50
597.85	1919.07
598.19	1912.36
598.54	1905.25
598.89	1898.54
599.24	1892.66
599.59	1885.82
599.94	1879.56
600.29	1873.30
600.64	1866.71
600.99	1859.30
601.34	1852.42
601.69	1845.50
602.04	1838.44
602.39	1830.86
602.74	1823.88
603.08	1817.17
603.43	1810.52
603.78	1803.31
604.13	1796.05
604.48	1788.72
604.83	1781.84
605.18	1774.64
605.53	1766.73
605.87	1758.83
606.22	1751.58
606.57	1743.67
606.92	1736.49
607.27	1729.26
607.62	1722.42
607.96	1715.06
608.31	1708.34
608.66	1700.68
609.01	1693.05
609.36	1685.39
609.70	1677.29
610.05	1669.18
610.40	1661.41
610.75	1653.07
611.10	1645.40
611.44	1636.95
611.79	1628.94
612.14	1620.26
612.49	1611.19
612.83	1602.81
613.18	1594.62
613.53	1586.62
613.88	1578.06
614.22	1569.72
614.57	1561.09
614.92	1552.88
615.27	1545.32
615.61	1537.08
615.96	1529.10
616.31	1521.48
616.65	1514.18
617.00	1506.83
617.35	1499.14
617.70	1490.70
618.04	1482.06
618.39	1473.73
618.74	1466.19
619.08	1457.90
619.43	1450.30
619.78	1443.34
620.12	1436.17
620.47	1428.58
620.82	1420.48
621.16	1413.15
621.51	1405.51
621.85	1397.96
622.20	1389.50
622.55	1381.24
622.89	1373.39
623.24	1365.93
623.59	1358.54
623.93	1351.08
624.28	1343.84
624.62	1336.34
624.97	1329.29
625.32	1322.55
625.66	1315.61
626.01	1308.39
626.35	1300.96
626.70	1293.24
627.04	1285.50
627.39	1277.73
627.73	1270.39
628.08	1263.27
628.43	1255.90
628.77	1248.49
629.12	1240.83
629.46	1233.56
629.81	1226.06
630.15	1218.83
630.50	1211.40
630.84	1203.24
631.19	1195.38
631.53	1187.86
631.88	1180.26
632.22	1172.72
632.57	1165.51
632.91	1157.92
633.26	1150.54
633.60	1143.20
633.95	1136.06
634.29	1129.08
634.64	1122.38
634.98	1115.04
635.32	1107.95
635.67	1101.48
636.01	1095.03
636.36	1088.36
636.70	1081.96
637.05	1075.43
637.39	1068.98
637.73	1062.42
638.08	1056.60
638.42	1050.56
638.77	1044.17
639.11	1037.66
639.45	1031.25
639.80	1024.55
640.14	1018.12
640.49	1011.54
640.83	1005.35
641.17	999.11
641.52	992.71
641.86	986.32
642.20	980.50
642.55	974.33
642.89	967.78
643.23	961.14
643.58	955.33
643.92	949.03
644.26	942.98
644.61	936.98
644.95	930.98
645.29	924.38
645.64	917.60
645.98	911.19
646.32	905.43
646.66	899.45
647.01	893.80
647.35	888.19
647.69	882.49
648.04	876.89
648.38	871.12
648.72	865.11
649.06	859.02
649.41	853.12
649.75	847.09
650.09	841.18
650.43	835.41
650.78	829.32
651.12	823.41
651.46	817.61
651.80	811.86
652.14	806.42
652.49	800.97
652.83	795.86
653.17	790.16
653.51	784.43
653.85	778.99
654.20	773.27
654.54	767.28
654.88	761.55
655.22	755.65
655.56	749.94
655.90	744.56
656.25	739.30
656.59	733.96
656.93	728.80
657.27	723.61
657.61	718.17
657.95	713.00
658.29	708.01
658.64	702.82
658.98	697.53
659.32	692.10
659.66	687.02
660.00	681.69
660.34	676.80
660.68	671.92
661.02	666.88
661.36	662.21
661.70	657.73
662.05	653.33
662.39	649.04
662.73	644.65
663.07	640.29
663.41	635.85
663.75	631.38
664.09	626.91
664.43	622.52
664.77	618.38
665.11	614.17
665.45	610.00
665.79	605.97
666.13	601.88
666.47	597.80
666.81	593.65
667.15	589.50
667.49	585.67
667.83	581.79
668.17	577.88
668.51	573.79
668.85	569.73
669.19	565.83
669.53	561.95
669.87	558.06
670.21	554.35
670.55	550.72
670.89	547.30
671.23	543.86
671.57	540.40
671.91	536.89
672.25	533.41
672.58	529.97
672.92	526.58
673.26	523.42
673.60	520.28
673.94	517.17
674.28	514.34
674.62	511.31
674.96	508.22
675.30	505.27
675.64	502.34
675.97	499.59
676.31	496.77
676.65	493.88
676.99	491.24
677.33	488.43
677.67	485.65
678.01	482.55
678.34	479.50
678.68	476.68
679.02	473.87
679.36	471.10
679.70	468.35
680.04	465.56
680.37	462.68
680.71	459.87
681.05	457.25
681.39	454.52
681.73	451.92
682.06	449.41
682.40	446.94
682.74	444.42
683.08	441.90
683.42	439.31
683.75	436.89
684.09	434.33
684.43	431.86
684.77	429.38
685.10	427.08
685.44	424.91
685.78	422.62
686.12	420.46
686.45	418.18
686.79	415.89
687.13	413.71
687.46	411.59
687.80	409.51
688.14	407.28
688.48	405.26
688.81	402.98
689.15	400.82
689.49	398.68
689.82	396.61
690.16	394.52
690.50	392.57
690.83	390.57
691.17	388.58
691.51	386.65
691.84	384.84
692.18	382.91
692.52	380.89
692.85	378.95
693.19	377.04
693.52	375.24
693.86	373.47
694.20	371.74
694.53	369.91
694.87	368.04
695.21	366.27
695.54	364.41
695.88	362.76
696.21	361.02
696.55	359.31
696.88	357.67
697.22	356.03
697.56	354.44
697.89	352.77
698.23	351.19
698.56	349.56
698.90	347.94
699.23	346.26
699.57	344.73
699.90	343.18
700.24	341.65
700.58	340.10
700.91	338.58
701.25	337.12
701.58	335.76
701.92	334.44
702.25	333.05
702.59	331.71
702.92	330.37
703.26	329.12
703.59	327.87
703.93	326.66
704.26	325.41
704.60	324.11
704.93	322.88
705.26	321.61
705.60	320.48
705.93	319.37
706.27	318.36
706.60	317.32
706.94	316.23
707.27	315.12
707.61	314.07
707.94	313.04
708.27	311.93
708.61	310.85
708.94	309.79
709.28	308.81
709.61	307.81
709.94	306.86
710.28	305.84
710.61	304.87
710.95	303.80
711.28	302.89
711.61	301.95
711.95	301.03
712.28	300.09
712.61	299.08
712.95	298.13
713.28	297.27
713.61	296.30
713.95	295.42
714.28	294.58
714.61	293.68
714.95	292.84
715.28	292.01
715.61	291.16
715.95	290.29
716.28	289.44
716.61	288.64
716.95	287.82
717.28	287.06
717.61	286.29
717.94	285.55
718.28	284.74
718.61	284.00
718.94	283.32
719.27	282.65
719.61	282.01
719.94	281.32
720.27	280.62
720.60	280.01
720.94	279.38
721.27	278.72
721.60	278.17
721.93	277.56
722.27	277.03
722.60	276.45
722.93	275.90
723.26	275.39
723.59	274.82
723.93	274.25
724.26	273.69
724.59	273.13
724.92	272.57
725.25	272.08
725.59	271.55
725.92	271.03
726.25	270.53
726.58	270.05
726.91	269.59
727.24	269.11
727.57	268.64
727.91	268.16
728.24	267.71
728.57	267.22
728.90	266.78
729.23	266.27
729.56	265.87
729.89	265.41
730.22	264.92
730.55	264.46
730.89	264.06
731.22	263.61
731.55	263.17
731.88	262.76
732.21	262.31
732.54	261.91
732.87	261.47
733.20	261.08
733.53	260.70
733.86	260.32
734.19	259.93
734.52	259.56
734.85	259.20
735.18	258.83
735.51	258.48
735.84	258.12
736.17	257.76
736.50	257.36
736.83	257.14
737.16	256.80
737.49	256.48
737.82	256.12
738.15	255.81
738.48	255.48
738.81	255.17
739.14	254.87
739.47	254.56
739.80	254.26
740.13	253.94
740.46	253.62
740.79	253.28
741.12	252.95
741.45	252.62
741.78	252.33
742.11	252.02
742.44	251.69
742.77	251.37
743.10	251.10
743.43	250.81
743.75	250.45
744.08	250.30
744.41	250.03
744.74	249.76
745.07	249.47
745.40	249.23
745.73	249.01
746.06	248.76
746.39	248.49
746.71	248.26
747.04	247.99
747.37	247.71
747.70	247.46
748.03	247.23
748.36	247.00
748.68	246.76
749.01	246.49
749.34	246.31
749.67	246.10
750.00	245.83
750.33	245.65
750.65	245.38
750.98	245.02
751.31	244.80
751.64	244.59
751.97	244.45
752.29	244.23
752.62	243.95
752.95	243.72
753.28	243.50
753.60	243.25
753.93	243.07
754.26	242.88
754.59	242.67
754.91	242.46
755.24	242.26
755.57	242.04
755.90	241.87
756.22	241.63
756.55	241.39
756.88	241.22
757.20	240.98
757.53	240.79
757.86	240.63
758.19	240.45
758.51	240.32
758.84	240.07
759.17	239.90
759.49	239.78
759.82	239.65
760.15	239.50
760.47	239.35
760.80	239.17
761.13	239.06
761.45	238.90
761.78	238.75
762.11	238.59
762.43	238.42
762.76	238.28
763.08	238.21
763.41	238.09
763.74	237.93
764.06	237.78
764.39	237.67
764.71	237.55
765.04	237.40
765.37	237.23
765.69	237.05
766.02	236.92
766.34	236.76
766.67	236.63
767.00	236.52
767.32	236.47
767.65	236.42
767.97	236.28
768.30	236.18
768.62	236.06
768.95	235.94
769.27	235.86
769.60	235.74
769.92	235.58
770.25	235.46
770.57	235.39
770.90	235.33
771.22	235.23
771.55	235.13
771.87	235.07
772.20	234.97
772.52	235.03
772.85	235.07
773.17	235.03
773.50	234.93
773.82	234.87
774.15	234.71
774.47	234.58
774.80	234.52
775.12	234.44
775.45	234.41
775.77	234.35
776.09	234.29
776.42	234.24
776.74	234.23
777.07	234.18
777.39	234.09
777.72	233.99
778.04	233.90
778.36	233.85
778.69	233.78
779.01	233.74
779.33	233.60
779.66	233.39
779.98	233.31
780.31	233.26
780.63	233.22
780.95	233.19
781.28	233.11
781.60	233.04
781.92	232.96
782.25	232.89
782.57	232.84
782.89	232.79
783.22	232.73
783.54	232.64
783.86	232.60
784.19	232.56
784.51	232.55
784.83	232.52
785.16	232.45
785.48	232.39
785.80	232.34
786.12	232.27
786.45	232.24
786.77	232.21
787.09	232.17
