SpectraSuite Data File
++++++++++++++++++++++++++++++++++++
Date: Fri Feb 01 16:04:33 EST 2013
User: group
Dark Spectrum Present: No
Reference Spectrum Present: No
Number of Sampled Component Spectra: 1
Spectrometers: USB2E7196
Integration Time (usec): 35000 (USB2E7196)
Spectra Averaged: 100 (USB2E7196)
Boxcar Smoothing: 10 (USB2E7196)
Correct for Electrical Dark: No (USB2E7196)
Strobe/Lamp Enabled: No (USB2E7196)
Correct for Detector Non-linearity: No (USB2E7196)
Correct for Stray Light: No (USB2E7196)
Number of Pixels in Processed Spectrum: 2048
>>>>>Begin Processed Spectral Data<<<<<
339.09	0.00
339.48	214.64
339.86	216.15
340.24	217.07
340.63	219.32
341.01	221.38
341.39	221.67
341.78	223.18
342.16	223.64
342.54	223.99
342.93	212.86
343.31	223.63
343.69	224.16
344.07	224.62
344.46	225.06
344.84	225.42
345.22	225.66
345.60	225.91
345.99	226.07
346.37	226.23
346.75	226.35
347.13	226.45
347.52	226.52
347.90	226.59
348.28	226.65
348.66	226.70
349.05	226.70
349.43	226.78
349.81	226.82
350.19	226.88
350.57	226.92
350.96	227.01
351.34	227.09
351.72	227.19
352.10	227.31
352.48	227.40
352.87	227.44
353.25	227.54
353.63	227.63
354.01	227.71
354.39	227.78
354.77	227.89
355.15	227.99
355.54	228.02
355.92	228.06
356.30	228.12
356.68	228.27
357.06	228.36
357.44	228.40
357.82	228.48
358.20	228.53
358.58	228.63
358.97	228.69
359.35	228.77
359.73	228.85
360.11	228.90
360.49	228.96
360.87	229.00
361.25	229.04
361.63	229.07
362.01	229.13
362.39	229.19
362.77	229.26
363.15	229.28
363.53	229.31
363.91	229.33
364.29	229.39
364.67	229.30
365.05	229.30
365.43	229.32
365.81	229.35
366.19	229.40
366.57	229.41
366.95	229.41
367.33	229.37
367.71	229.38
368.09	229.35
368.47	229.35
368.85	229.34
369.23	229.33
369.61	229.29
369.99	229.30
370.37	229.24
370.75	229.20
371.13	229.14
371.51	229.07
371.89	229.02
372.27	228.94
372.65	228.90
373.03	228.84
373.41	228.74
373.78	228.61
374.16	228.51
374.54	228.41
374.92	228.34
375.30	228.26
375.68	228.14
376.06	228.12
376.44	228.03
376.82	227.95
377.19	227.86
377.57	227.75
377.95	227.57
378.33	227.51
378.71	227.36
379.09	227.28
379.47	227.21
379.84	227.13
380.22	227.07
380.60	226.98
380.98	226.85
381.36	226.80
381.73	226.75
382.11	226.68
382.49	226.61
382.87	226.54
383.25	226.50
383.62	226.57
384.00	226.45
384.38	226.40
384.76	226.36
385.13	226.35
385.51	226.36
385.89	226.36
386.27	226.32
386.64	226.31
387.02	226.28
387.40	226.26
387.78	226.26
388.15	226.21
388.53	226.21
388.91	226.20
389.29	226.14
389.66	226.14
390.04	226.14
390.42	226.12
390.79	226.12
391.17	226.09
391.55	225.95
391.92	225.96
392.30	225.95
392.68	225.97
393.05	225.97
393.43	225.94
393.81	225.96
394.18	225.94
394.56	225.93
394.94	225.99
395.31	226.00
395.69	226.01
396.06	226.04
396.44	226.08
396.82	226.13
397.19	226.26
397.57	226.28
397.95	226.32
398.32	226.34
398.70	226.41
399.07	226.50
399.45	226.56
399.82	226.59
400.20	226.66
400.58	226.72
400.95	226.73
401.33	226.85
401.70	226.99
402.08	227.10
402.45	227.19
402.83	227.27
403.20	227.36
403.58	227.50
403.95	227.63
404.33	227.75
404.71	227.87
405.08	228.04
405.46	228.16
405.83	228.33
406.21	228.51
406.58	228.64
406.96	228.78
407.33	228.96
407.70	229.20
408.08	229.49
408.45	229.71
408.83	229.95
409.20	230.13
409.58	230.33
409.95	230.61
410.33	230.88
410.70	231.14
411.08	231.48
411.45	231.79
411.82	232.10
412.20	232.43
412.57	232.86
412.95	233.18
413.32	233.59
413.69	233.97
414.07	234.43
414.44	234.91
414.82	235.43
415.19	235.96
415.56	236.49
415.94	236.98
416.31	237.65
416.68	238.29
417.06	239.01
417.43	239.67
417.81	240.42
418.18	241.19
418.55	242.01
418.93	242.88
419.30	243.73
419.67	244.67
420.04	245.64
420.42	246.55
420.79	247.69
421.16	248.84
421.54	250.08
421.91	251.27
422.28	252.52
422.66	253.83
423.03	255.16
423.40	256.46
423.77	257.86
424.15	259.26
424.52	260.73
424.89	262.34
425.26	263.90
425.64	265.32
426.01	266.92
426.38	268.59
426.75	270.27
427.13	271.97
427.50	273.77
427.87	275.67
428.24	277.56
428.61	279.31
428.99	281.27
429.36	283.35
429.73	285.41
430.10	287.43
430.47	289.46
430.85	291.57
431.22	293.79
431.59	296.17
431.96	298.41
432.33	300.89
432.70	303.27
433.08	306.06
433.45	308.69
433.82	311.28
434.19	314.18
434.56	316.99
434.93	319.67
435.30	322.35
435.68	325.22
436.05	328.07
436.42	330.87
436.79	333.37
437.16	336.06
437.53	338.94
437.90	341.75
438.27	344.50
438.64	347.37
439.01	349.96
439.38	352.20
439.75	354.39
440.13	356.89
440.50	359.25
440.87	361.18
441.24	363.17
441.61	365.33
441.98	366.81
442.35	368.61
442.72	370.47
443.09	372.22
443.46	373.20
443.83	373.80
444.20	374.31
444.57	375.14
444.94	375.42
445.31	375.68
445.68	376.02
446.05	376.11
446.42	375.70
446.79	375.34
447.16	374.91
447.53	374.55
447.90	373.40
448.27	372.19
448.64	370.56
449.01	369.41
449.37	367.46
449.74	365.57
450.11	363.31
450.48	360.81
450.85	358.27
451.22	356.14
451.59	354.14
451.96	352.16
452.33	349.56
452.70	347.21
453.07	344.43
453.43	341.54
453.80	338.77
454.17	336.10
454.54	333.55
454.91	330.84
455.28	328.19
455.65	325.67
456.02	323.23
456.38	321.05
456.75	318.40
457.12	316.13
457.49	313.91
457.86	311.74
458.23	309.90
458.59	307.86
458.96	305.75
459.33	303.83
459.70	302.03
460.07	300.53
460.43	298.77
460.80	297.17
461.17	295.74
461.54	294.24
461.91	292.84
462.27	291.38
462.64	290.12
463.01	288.78
463.38	287.49
463.74	286.15
464.11	285.01
464.48	283.97
464.85	282.87
465.21	281.99
465.58	281.07
465.95	279.99
466.32	279.11
466.68	278.23
467.05	277.35
467.42	276.43
467.78	275.53
468.15	274.67
468.52	273.95
468.88	273.07
469.25	272.33
469.62	271.69
469.98	271.00
470.35	270.37
470.72	269.74
471.08	269.11
471.45	268.59
471.82	268.04
472.18	267.44
472.55	267.04
472.92	266.54
473.28	266.08
473.65	265.64
474.02	265.20
474.38	264.85
474.75	264.50
475.11	264.19
475.48	263.92
475.85	263.72
476.21	263.48
476.58	263.29
476.94	263.12
477.31	262.95
477.67	262.80
478.04	262.69
478.41	262.68
478.77	262.71
479.14	262.63
479.50	262.64
479.87	262.73
480.23	262.77
480.60	262.81
480.96	262.89
481.33	263.08
481.69	263.26
482.06	263.43
482.42	263.64
482.79	263.85
483.15	264.15
483.52	264.47
483.88	264.84
484.25	265.24
484.61	265.64
484.98	266.05
485.34	266.61
485.71	267.17
486.07	267.71
486.44	268.26
486.80	268.97
487.17	269.67
487.53	270.44
487.90	271.28
488.26	272.20
488.62	273.21
488.99	274.17
489.35	275.22
489.72	276.36
490.08	277.55
490.44	278.82
490.81	280.14
491.17	281.52
491.54	283.04
491.90	284.56
492.26	286.20
492.63	287.97
492.99	289.79
493.36	291.69
493.72	293.76
494.08	295.87
494.45	298.14
494.81	300.49
495.17	302.94
495.54	305.55
495.90	308.29
496.26	311.08
496.63	314.08
496.99	317.19
497.35	320.45
497.72	323.91
498.08	327.45
498.44	331.17
498.80	335.14
499.17	339.21
499.53	343.37
499.89	347.83
500.26	352.36
500.62	357.04
500.98	361.99
501.34	367.13
501.71	372.51
502.07	377.95
502.43	383.65
502.79	389.51
503.16	395.57
503.52	401.84
503.88	408.29
504.24	415.00
504.60	421.95
504.97	429.18
505.33	436.57
505.69	444.26
506.05	452.03
506.41	459.88
506.78	468.04
507.14	476.62
507.50	485.32
507.86	494.36
508.22	503.53
508.59	512.81
508.95	522.37
509.31	532.14
509.67	542.21
510.03	552.50
510.39	563.13
510.75	573.99
511.12	584.94
511.48	596.30
511.84	607.68
512.20	619.16
512.56	631.08
512.92	643.23
513.28	655.60
513.64	668.11
514.00	680.79
514.37	693.70
514.73	706.73
515.09	719.79
515.45	733.15
515.81	746.81
516.17	760.87
516.53	774.97
516.89	789.24
517.25	803.47
517.61	817.97
517.97	832.37
518.33	846.70
518.69	861.55
519.05	876.46
519.41	891.69
519.77	907.20
520.13	922.59
520.49	937.97
520.85	953.41
521.21	969.06
521.57	985.38
521.93	1001.17
522.29	1017.56
522.65	1033.78
523.01	1049.97
523.37	1065.97
523.73	1082.03
524.09	1098.18
524.45	1114.37
524.81	1130.92
525.17	1147.64
525.53	1164.57
525.89	1181.45
526.25	1198.28
526.61	1214.60
526.97	1231.28
527.33	1247.77
527.68	1264.35
528.04	1280.75
528.40	1297.30
528.76	1314.46
529.12	1330.88
529.48	1347.78
529.84	1363.72
530.20	1380.39
530.56	1397.22
530.91	1414.59
531.27	1431.39
531.63	1447.79
531.99	1464.37
532.35	1480.23
532.71	1496.07
533.07	1512.14
533.42	1528.00
533.78	1543.85
534.14	1560.12
534.50	1575.36
534.86	1591.11
535.21	1606.21
535.57	1622.17
535.93	1637.47
536.29	1652.19
536.65	1667.22
537.00	1681.81
537.36	1697.01
537.72	1711.43
538.08	1725.78
538.44	1739.48
538.79	1753.11
539.15	1766.59
539.51	1780.16
539.87	1794.56
540.22	1808.18
540.58	1821.85
540.94	1834.95
541.29	1847.68
541.65	1860.18
542.01	1873.31
542.37	1885.60
542.72	1897.97
543.08	1909.56
543.44	1921.95
543.79	1933.11
544.15	1944.12
544.51	1955.70
544.87	1966.68
545.22	1977.43
545.58	1987.73
545.94	1997.52
546.29	2007.34
546.65	2017.25
547.01	2026.52
547.36	2035.21
547.72	2043.62
548.07	2051.65
548.43	2060.07
548.79	2068.25
549.14	2075.96
549.50	2083.45
549.86	2091.17
550.21	2098.57
550.57	2105.94
550.92	2112.56
551.28	2119.52
551.64	2126.62
551.99	2133.18
552.35	2139.27
552.70	2145.61
553.06	2151.72
553.41	2158.09
553.77	2164.34
554.13	2170.49
554.48	2176.74
554.84	2182.27
555.19	2187.59
555.55	2192.76
555.90	2197.10
556.26	2202.01
556.61	2206.79
556.97	2211.03
557.32	2215.21
557.68	2219.44
558.03	2223.67
558.39	2227.36
558.74	2232.04
559.10	2235.99
559.45	2239.71
559.81	2244.09
560.16	2247.79
560.52	2250.96
560.87	2254.37
561.23	2256.93
561.58	2259.80
561.94	2262.50
562.29	2264.81
562.64	2267.58
563.00	2270.15
563.35	2273.80
563.71	2277.01
564.06	2280.04
564.42	2282.99
564.77	2285.57
565.12	2287.76
565.48	2289.58
565.83	2291.61
566.19	2293.03
566.54	2293.83
566.89	2294.91
567.25	2295.51
567.60	2296.66
567.96	2298.53
568.31	2299.22
568.66	2300.41
569.02	2301.17
569.37	2301.29
569.72	2302.13
570.08	2302.26
570.43	2302.27
570.78	2301.65
571.14	2299.96
571.49	2298.63
571.84	2298.21
572.20	2297.00
572.55	2295.89
572.90	2294.39
573.26	2292.82
573.61	2291.02
573.96	2289.45
574.31	2286.49
574.67	2283.60
575.02	2279.98
575.37	2276.31
575.72	2272.64
576.08	2269.32
576.43	2265.89
576.78	2262.32
577.13	2259.19
577.49	2256.02
577.84	2252.53
578.19	2248.84
578.54	2245.35
578.90	2241.34
579.25	2235.86
579.60	2231.01
579.95	2226.08
580.30	2221.04
580.66	2215.89
581.01	2211.00
581.36	2206.06
581.71	2201.93
582.06	2197.39
582.42	2193.06
582.77	2187.93
583.12	2183.38
583.47	2178.61
583.82	2173.67
584.17	2168.45
584.53	2163.01
584.88	2157.59
585.23	2151.83
585.58	2146.19
585.93	2140.64
586.28	2135.85
586.63	2130.91
586.98	2125.94
587.34	2121.18
587.69	2116.45
588.04	2111.34
588.39	2105.75
588.74	2099.20
589.09	2092.99
589.44	2086.36
589.79	2080.35
590.14	2074.79
590.49	2068.25
590.84	2061.80
591.19	2055.69
591.54	2049.23
591.89	2041.93
592.25	2035.15
592.60	2028.08
592.95	2020.68
593.30	2013.52
593.65	2005.92
594.00	1998.78
594.35	1991.34
594.70	1983.39
595.05	1976.08
595.40	1968.85
595.75	1961.32
596.10	1955.21
596.45	1948.45
596.80	1942.30
597.15	1935.71
597.50	1928.61
597.85	1922.16
598.19	1915.69
598.54	1908.64
598.89	1901.96
599.24	1896.11
599.59	1889.34
599.94	1883.03
600.29	1876.69
600.64	1869.83
600.99	1862.34
601.34	1855.42
601.69	1848.50
602.04	1841.66
602.39	1834.30
602.74	1827.51
603.08	1820.74
603.43	1813.99
603.78	1806.78
604.13	1799.51
604.48	1792.32
604.83	1785.48
605.18	1778.54
605.53	1770.50
605.87	1762.36
606.22	1755.14
606.57	1746.84
606.92	1739.45
607.27	1732.22
607.62	1725.16
607.96	1717.95
608.31	1711.41
608.66	1703.75
609.01	1696.17
609.36	1688.46
609.70	1680.46
610.05	1672.24
610.40	1664.57
610.75	1656.10
611.10	1648.27
611.44	1639.74
611.79	1631.62
612.14	1622.81
612.49	1613.58
612.83	1605.21
613.18	1597.12
613.53	1588.92
613.88	1580.52
614.22	1572.28
614.57	1563.69
614.92	1555.74
615.27	1548.25
615.61	1539.92
615.96	1532.00
616.31	1524.34
616.65	1517.05
617.00	1509.52
617.35	1501.91
617.70	1493.59
618.04	1485.19
618.39	1477.13
618.74	1469.58
619.08	1461.26
619.43	1453.70
619.78	1446.85
620.12	1439.68
620.47	1432.25
620.82	1424.14
621.16	1416.83
621.51	1409.17
621.85	1401.53
622.20	1393.01
622.55	1384.62
622.89	1376.73
623.24	1369.10
623.59	1361.75
623.93	1354.19
624.28	1346.89
624.62	1339.37
624.97	1332.07
625.32	1325.30
625.66	1318.22
626.01	1310.99
626.35	1303.59
626.70	1295.83
627.04	1288.04
627.39	1280.18
627.73	1272.76
628.08	1265.92
628.43	1258.60
628.77	1251.29
629.12	1243.78
629.46	1236.73
629.81	1229.21
630.15	1221.96
630.50	1214.47
630.84	1206.25
631.19	1198.36
631.53	1190.86
631.88	1183.23
632.22	1175.61
632.57	1168.23
632.91	1160.69
633.26	1153.29
633.60	1145.84
633.95	1138.70
634.29	1131.60
634.64	1124.94
634.98	1117.58
635.32	1110.39
635.67	1103.76
636.01	1097.10
636.36	1090.27
636.70	1083.72
637.05	1077.35
637.39	1070.87
637.73	1064.35
638.08	1058.45
638.42	1052.46
638.77	1046.11
639.11	1039.55
639.45	1033.26
639.80	1026.65
640.14	1020.26
640.49	1013.79
640.83	1007.56
641.17	1001.43
641.52	995.16
641.86	988.69
642.20	982.84
642.55	976.47
642.89	970.01
643.23	963.43
643.58	957.73
643.92	951.59
644.26	945.43
644.61	939.36
644.95	933.37
645.29	926.74
645.64	920.03
645.98	913.64
646.32	907.92
646.66	901.83
647.01	895.97
647.35	890.28
647.69	884.34
648.04	878.75
648.38	872.89
648.72	866.88
649.06	860.88
649.41	854.98
649.75	849.02
650.09	843.09
650.43	837.37
650.78	831.13
651.12	825.08
651.46	819.32
651.80	813.64
652.14	808.29
652.49	802.90
652.83	797.72
653.17	792.03
653.51	786.22
653.85	780.82
654.20	775.23
654.54	769.17
654.88	763.50
655.22	757.64
655.56	752.04
655.90	746.67
656.25	741.36
656.59	735.98
656.93	730.94
657.27	725.75
657.61	720.29
657.95	715.21
658.29	710.14
658.64	704.85
658.98	699.54
659.32	693.99
659.66	688.83
660.00	683.48
660.34	678.52
660.68	673.54
661.02	668.53
661.36	663.77
661.70	659.26
662.05	654.82
662.39	650.49
662.73	645.96
663.07	641.54
663.41	637.09
663.75	632.58
664.09	628.01
664.43	623.59
664.77	619.45
665.11	615.16
665.45	610.96
665.79	606.93
666.13	602.72
666.47	598.70
666.81	594.55
667.15	590.38
667.49	586.47
667.83	582.66
668.17	578.66
668.51	574.60
668.85	570.55
669.19	566.71
669.53	562.84
669.87	558.95
670.21	555.15
670.55	551.48
670.89	548.01
671.23	544.57
671.57	541.06
671.91	537.55
672.25	534.04
672.58	530.52
672.92	527.07
673.26	523.96
673.60	520.74
673.94	517.59
674.28	514.72
674.62	511.70
674.96	508.61
675.30	505.72
675.64	502.81
675.97	500.05
676.31	497.20
676.65	494.24
676.99	491.53
677.33	488.73
677.67	485.93
678.01	482.93
678.34	479.97
678.68	477.09
679.02	474.21
679.36	471.46
679.70	468.76
680.04	466.00
680.37	463.15
680.71	460.37
681.05	457.75
681.39	455.06
681.73	452.45
682.06	449.92
682.40	447.42
682.74	444.88
683.08	442.35
683.42	439.76
683.75	437.33
684.09	434.75
684.43	432.26
684.77	429.80
685.10	427.46
685.44	425.15
685.78	422.87
686.12	420.64
686.45	418.36
686.79	416.07
687.13	413.92
687.46	411.74
687.80	409.61
688.14	407.45
688.48	405.38
688.81	403.16
689.15	401.00
689.49	398.84
689.82	396.77
690.16	394.71
690.50	392.78
690.83	390.82
691.17	388.85
691.51	386.98
691.84	385.21
692.18	383.27
692.52	381.29
692.85	379.36
693.19	377.51
693.52	375.66
693.86	373.84
694.20	372.06
694.53	370.26
694.87	368.37
695.21	366.54
695.54	364.71
695.88	362.96
696.21	361.22
696.55	359.54
696.88	357.84
697.22	356.13
697.56	354.47
697.89	352.83
698.23	351.26
698.56	349.64
698.90	348.01
699.23	346.34
699.57	344.80
699.90	343.27
700.24	341.71
700.58	340.18
700.91	338.69
701.25	337.22
701.58	335.83
701.92	334.53
702.25	333.16
702.59	331.79
702.92	330.46
703.26	329.14
703.59	327.84
703.93	326.62
704.26	325.35
704.60	324.04
704.93	322.70
705.26	321.44
705.60	320.24
705.93	319.06
706.27	318.04
706.60	316.93
706.94	315.84
707.27	314.66
707.61	313.58
707.94	312.54
708.27	311.43
708.61	310.32
708.94	309.28
709.28	308.25
709.61	307.23
709.94	306.25
710.28	305.20
710.61	304.24
710.95	303.16
711.28	302.30
711.61	301.36
711.95	300.48
712.28	299.52
712.61	298.55
712.95	297.59
713.28	296.69
713.61	295.81
713.95	294.94
714.28	294.16
714.61	293.35
714.95	292.49
715.28	291.63
715.61	290.74
715.95	289.91
716.28	289.11
716.61	288.30
716.95	287.52
717.28	286.84
717.61	286.06
717.94	285.39
718.28	284.53
718.61	283.80
718.94	283.07
719.27	282.44
719.61	281.81
719.94	281.18
720.27	280.48
720.60	279.84
720.94	279.20
721.27	278.55
721.60	277.95
721.93	277.39
722.27	276.90
722.60	276.38
722.93	275.79
723.26	275.21
723.59	274.67
723.93	274.11
724.26	273.52
724.59	272.99
724.92	272.46
725.25	272.00
725.59	271.49
725.92	270.98
726.25	270.43
726.58	269.90
726.91	269.41
727.24	268.93
727.57	268.45
727.91	267.93
728.24	267.48
728.57	266.99
728.90	266.51
729.23	266.01
729.56	265.60
729.89	265.10
730.22	264.64
730.55	264.18
730.89	263.76
731.22	263.36
731.55	262.92
731.88	262.46
732.21	262.05
732.54	261.63
732.87	261.27
733.20	260.91
733.53	260.54
733.86	260.17
734.19	259.79
734.52	259.41
734.85	259.14
735.18	258.73
735.51	258.35
735.84	257.98
736.17	257.62
736.50	257.22
736.83	257.03
737.16	256.72
737.49	256.41
737.82	256.06
738.15	255.68
738.48	255.32
738.81	255.00
739.14	254.64
739.47	254.27
739.80	253.91
740.13	253.59
740.46	253.25
740.79	252.89
741.12	252.55
741.45	252.26
741.78	251.90
742.11	251.58
742.44	251.25
742.77	250.96
743.10	250.66
743.43	250.35
743.75	249.94
744.08	249.78
744.41	249.47
744.74	249.19
745.07	248.89
745.40	248.63
745.73	248.36
746.06	248.07
746.39	247.84
746.71	247.58
747.04	247.25
747.37	247.02
747.70	246.74
748.03	246.49
748.36	246.25
748.68	245.98
749.01	245.72
749.34	245.52
749.67	245.29
750.00	245.05
750.33	244.87
750.65	244.68
750.98	244.36
751.31	244.13
751.64	243.92
751.97	243.79
752.29	243.60
752.62	243.36
752.95	243.18
753.28	242.96
753.60	242.77
753.93	242.63
754.26	242.41
754.59	242.18
754.91	242.00
755.24	241.75
755.57	241.60
755.90	241.44
756.22	241.25
756.55	241.03
756.88	240.81
757.20	240.61
757.53	240.38
757.86	240.19
758.19	240.06
758.51	239.87
758.84	239.68
759.17	239.49
759.49	239.37
759.82	239.25
760.15	239.09
760.47	238.95
760.80	238.76
761.13	238.65
761.45	238.52
761.78	238.36
762.11	238.26
762.43	238.10
762.76	237.95
763.08	237.83
763.41	237.76
763.74	237.67
764.06	237.54
764.39	237.42
764.71	237.28
765.04	237.14
765.37	237.01
765.69	236.88
766.02	236.79
766.34	236.68
766.67	236.53
767.00	236.45
767.32	236.39
767.65	236.37
767.97	236.28
768.30	236.20
768.62	236.11
768.95	236.02
769.27	235.93
769.60	235.88
769.92	235.78
770.25	235.66
770.57	235.55
770.90	235.46
771.22	235.36
771.55	235.26
771.87	235.19
772.20	235.11
772.52	235.06
772.85	235.09
773.17	234.97
773.50	234.87
773.82	234.76
774.15	234.64
774.47	234.49
774.80	234.38
775.12	234.28
775.45	234.17
775.77	234.08
776.09	233.99
776.42	233.86
776.74	233.78
777.07	233.69
777.39	233.60
777.72	233.50
778.04	233.49
778.36	233.40
778.69	233.32
779.01	233.25
779.33	233.12
779.66	232.92
779.98	232.90
780.31	232.88
780.63	232.88
780.95	232.79
781.28	232.69
781.60	232.63
781.92	232.56
782.25	232.52
782.57	232.47
782.89	232.41
783.22	232.39
783.54	232.33
783.86	232.27
784.19	232.23
784.51	232.18
784.83	232.09
785.16	232.03
785.48	231.98
785.80	231.92
786.12	231.86
786.45	231.81
786.77	231.72
787.09	231.64
