SpectraSuite Data File
++++++++++++++++++++++++++++++++++++
Date: Fri Feb 01 16:30:52 EST 2013
User: group
Dark Spectrum Present: No
Reference Spectrum Present: No
Number of Sampled Component Spectra: 1
Spectrometers: USB2E7196
Integration Time (usec): 35000 (USB2E7196)
Spectra Averaged: 100 (USB2E7196)
Boxcar Smoothing: 10 (USB2E7196)
Correct for Electrical Dark: No (USB2E7196)
Strobe/Lamp Enabled: No (USB2E7196)
Correct for Detector Non-linearity: No (USB2E7196)
Correct for Stray Light: No (USB2E7196)
Number of Pixels in Processed Spectrum: 2048
>>>>>Begin Processed Spectral Data<<<<<
339.09	0.00
339.48	214.42
339.86	215.40
340.24	217.15
340.63	218.21
341.01	221.02
341.39	220.63
341.78	222.28
342.16	223.64
342.54	223.74
342.93	212.46
343.31	223.19
343.69	223.72
344.07	224.19
344.46	224.62
344.84	224.97
345.22	225.21
345.60	225.46
345.99	225.65
346.37	225.79
346.75	225.91
347.13	225.95
347.52	226.02
347.90	226.10
348.28	226.14
348.66	226.16
349.05	226.13
349.43	226.14
349.81	226.20
350.19	226.22
350.57	226.27
350.96	226.32
351.34	226.37
351.72	226.47
352.10	226.54
352.48	226.58
352.87	226.64
353.25	226.68
353.63	226.73
354.01	226.76
354.39	226.84
354.77	226.89
355.15	226.98
355.54	226.99
355.92	227.01
356.30	227.06
356.68	227.20
357.06	227.28
357.44	227.32
357.82	227.35
358.20	227.38
358.58	227.43
358.97	227.46
359.35	227.54
359.73	227.56
360.11	227.61
360.49	227.69
360.87	227.72
361.25	227.79
361.63	227.88
362.01	227.93
362.39	227.92
362.77	227.95
363.15	227.95
363.53	227.99
363.91	228.04
364.29	228.04
364.67	227.98
365.05	227.97
365.43	227.99
365.81	228.02
366.19	228.07
366.57	228.11
366.95	228.12
367.33	228.12
367.71	228.13
368.09	228.16
368.47	228.12
368.85	228.11
369.23	228.11
369.61	228.07
369.99	228.07
370.37	228.09
370.75	228.13
371.13	228.12
371.51	228.07
371.89	228.03
372.27	228.01
372.65	227.99
373.03	227.93
373.41	227.88
373.78	227.86
374.16	227.77
374.54	227.68
374.92	227.62
375.30	227.57
375.68	227.49
376.06	227.42
376.44	227.39
376.82	227.32
377.19	227.26
377.57	227.14
377.95	227.05
378.33	226.95
378.71	226.85
379.09	226.79
379.47	226.74
379.84	226.68
380.22	226.62
380.60	226.56
380.98	226.54
381.36	226.49
381.73	226.41
382.11	226.39
382.49	226.34
382.87	226.30
383.25	226.22
383.62	226.31
384.00	226.26
384.38	226.17
384.76	226.18
385.13	226.18
385.51	226.16
385.89	226.09
386.27	226.08
386.64	226.04
387.02	225.97
387.40	225.92
387.78	225.86
388.15	225.82
388.53	225.74
388.91	225.64
389.29	225.62
389.66	225.59
390.04	225.57
390.42	225.59
390.79	225.56
391.17	225.55
391.55	225.37
391.92	225.35
392.30	225.38
392.68	225.32
393.05	225.30
393.43	225.29
393.81	225.32
394.18	225.28
394.56	225.26
394.94	225.33
395.31	225.37
395.69	225.48
396.06	225.53
396.44	225.60
396.82	225.66
397.19	225.72
397.57	225.76
397.95	225.79
398.32	225.76
398.70	225.80
399.07	225.89
399.45	225.97
399.82	226.01
400.20	226.05
400.58	226.14
400.95	226.16
401.33	226.27
401.70	226.42
402.08	226.49
402.45	226.56
402.83	226.66
403.20	226.74
403.58	226.76
403.95	226.86
404.33	226.93
404.71	227.05
405.08	227.22
405.46	227.34
405.83	227.51
406.21	227.66
406.58	227.84
406.96	227.98
407.33	228.16
407.70	228.35
408.08	228.60
408.45	228.79
408.83	229.04
409.20	229.22
409.58	229.35
409.95	229.60
410.33	229.88
410.70	230.13
411.08	230.43
411.45	230.72
411.82	231.04
412.20	231.36
412.57	231.76
412.95	232.01
413.32	232.41
413.69	232.78
414.07	233.22
414.44	233.65
414.82	234.13
415.19	234.67
415.56	235.17
415.94	235.71
416.31	236.37
416.68	236.98
417.06	237.73
417.43	238.44
417.81	239.25
418.18	240.03
418.55	240.88
418.93	241.74
419.30	242.69
419.67	243.61
420.04	244.59
420.42	245.58
420.79	246.82
421.16	247.98
421.54	249.20
421.91	250.41
422.28	251.68
422.66	253.00
423.03	254.25
423.40	255.62
423.77	257.02
424.15	258.43
424.52	259.90
424.89	261.52
425.26	263.09
425.64	264.53
426.01	266.11
426.38	267.75
426.75	269.39
427.13	271.08
427.50	272.90
427.87	274.77
428.24	276.64
428.61	278.38
428.99	280.36
429.36	282.43
429.73	284.48
430.10	286.52
430.47	288.59
430.85	290.75
431.22	292.99
431.59	295.37
431.96	297.59
432.33	300.10
432.70	302.44
433.08	305.24
433.45	307.84
433.82	310.44
434.19	313.29
434.56	316.13
434.93	318.82
435.30	321.40
435.68	324.33
436.05	327.14
436.42	329.92
436.79	332.37
437.16	335.06
437.53	337.91
437.90	340.69
438.27	343.44
438.64	346.24
439.01	348.87
439.38	351.08
439.75	353.26
440.13	355.74
440.50	358.08
440.87	359.88
441.24	361.86
441.61	364.00
441.98	365.48
442.35	367.21
442.72	368.98
443.09	370.79
443.46	371.75
443.83	372.37
444.20	372.85
444.57	373.70
444.94	374.03
445.31	374.36
445.68	374.77
446.05	374.84
446.42	374.47
446.79	374.01
447.16	373.57
447.53	373.25
447.90	372.06
448.27	370.88
448.64	369.35
449.01	368.18
449.37	366.20
449.74	364.36
450.11	362.19
450.48	359.77
450.85	357.29
451.22	355.16
451.59	353.14
451.96	351.24
452.33	348.63
452.70	346.25
453.07	343.40
453.43	340.46
453.80	337.67
454.17	334.98
454.54	332.46
454.91	329.79
455.28	327.13
455.65	324.68
456.02	322.29
456.38	320.13
456.75	317.53
457.12	315.33
457.49	313.10
457.86	310.92
458.23	309.08
458.59	307.07
458.96	305.01
459.33	303.16
459.70	301.27
460.07	299.80
460.43	298.14
460.80	296.57
461.17	295.15
461.54	293.67
461.91	292.27
462.27	290.82
462.64	289.55
463.01	288.23
463.38	286.97
463.74	285.58
464.11	284.44
464.48	283.39
464.85	282.29
465.21	281.44
465.58	280.55
465.95	279.44
466.32	278.53
466.68	277.63
467.05	276.72
467.42	275.85
467.78	274.91
468.15	274.04
468.52	273.35
468.88	272.52
469.25	271.75
469.62	271.16
469.98	270.51
470.35	269.88
470.72	269.29
471.08	268.62
471.45	268.08
471.82	267.57
472.18	266.99
472.55	266.58
472.92	266.08
473.28	265.61
473.65	265.19
474.02	264.73
474.38	264.35
474.75	264.04
475.11	263.70
475.48	263.46
475.85	263.23
476.21	263.05
476.58	262.86
476.94	262.78
477.31	262.60
477.67	262.45
478.04	262.35
478.41	262.28
478.77	262.34
479.14	262.29
479.50	262.25
479.87	262.38
480.23	262.47
480.60	262.53
480.96	262.62
481.33	262.87
481.69	263.08
482.06	263.34
482.42	263.54
482.79	263.81
483.15	264.13
483.52	264.48
483.88	264.82
484.25	265.21
484.61	265.62
484.98	266.10
485.34	266.68
485.71	267.29
486.07	267.92
486.44	268.47
486.80	269.19
487.17	269.97
487.53	270.75
487.90	271.58
488.26	272.58
488.62	273.58
488.99	274.54
489.35	275.59
489.72	276.68
490.08	277.88
490.44	279.14
490.81	280.51
491.17	281.88
491.54	283.38
491.90	284.94
492.26	286.59
492.63	288.34
492.99	290.12
493.36	292.01
493.72	294.01
494.08	296.13
494.45	298.33
494.81	300.72
495.17	303.20
495.54	305.79
495.90	308.44
496.26	311.27
496.63	314.25
496.99	317.35
497.35	320.62
497.72	324.09
498.08	327.61
498.44	331.28
498.80	335.21
499.17	339.22
499.53	343.39
499.89	347.78
500.26	352.30
500.62	357.00
500.98	361.96
501.34	367.09
501.71	372.43
502.07	377.95
502.43	383.53
502.79	389.34
503.16	395.44
503.52	401.72
503.88	408.07
504.24	414.69
504.60	421.61
504.97	428.75
505.33	436.02
505.69	443.73
506.05	451.49
506.41	459.36
506.78	467.51
507.14	476.01
507.50	484.69
507.86	493.70
508.22	502.85
508.59	512.05
508.95	521.61
509.31	531.42
509.67	541.44
510.03	551.69
510.39	562.23
510.75	572.92
511.12	583.91
511.48	595.25
511.84	606.66
512.20	618.20
512.56	630.18
512.92	642.34
513.28	654.66
513.64	667.12
514.00	679.82
514.37	692.77
514.73	705.79
515.09	718.82
515.45	732.09
515.81	745.60
516.17	759.57
516.53	773.71
516.89	787.84
517.25	802.04
517.61	816.53
517.97	830.99
518.33	845.42
518.69	860.13
519.05	875.06
519.41	890.21
519.77	905.58
520.13	920.91
520.49	936.26
520.85	951.56
521.21	967.24
521.57	983.47
521.93	999.05
522.29	1015.32
522.65	1031.50
523.01	1047.61
523.37	1063.58
523.73	1079.72
524.09	1095.69
524.45	1111.84
524.81	1128.42
525.17	1144.99
525.53	1161.79
525.89	1178.62
526.25	1195.23
526.61	1211.59
526.97	1228.27
527.33	1244.69
527.68	1261.17
528.04	1277.68
528.40	1294.21
528.76	1311.10
529.12	1327.50
529.48	1344.58
529.84	1360.46
530.20	1377.01
530.56	1393.96
530.91	1411.36
531.27	1427.99
531.63	1444.38
531.99	1461.04
532.35	1476.87
532.71	1492.72
533.07	1508.84
533.42	1524.63
533.78	1540.74
534.14	1556.84
534.50	1572.11
534.86	1587.92
535.21	1603.04
535.57	1618.80
535.93	1634.24
536.29	1649.00
536.65	1664.08
537.00	1678.50
537.36	1693.63
537.72	1708.07
538.08	1722.44
538.44	1736.08
538.79	1749.82
539.15	1763.36
539.51	1776.85
539.87	1791.06
540.22	1804.76
540.58	1818.46
540.94	1831.70
541.29	1844.40
541.65	1856.94
542.01	1869.97
542.37	1882.16
542.72	1894.45
543.08	1905.95
543.44	1918.29
543.79	1929.47
544.15	1940.29
544.51	1951.84
544.87	1962.94
545.22	1973.67
545.58	1983.87
545.94	1993.61
546.29	2003.39
546.65	2013.22
547.01	2022.51
547.36	2031.24
547.72	2039.65
548.07	2047.33
548.43	2055.41
548.79	2063.54
549.14	2070.92
549.50	2078.12
549.86	2085.71
550.21	2093.14
550.57	2100.42
550.92	2106.90
551.28	2113.81
551.64	2120.86
551.99	2127.30
552.35	2133.28
552.70	2139.53
553.06	2145.26
553.41	2151.57
553.77	2157.55
554.13	2163.66
554.48	2169.67
554.84	2175.13
555.19	2180.42
555.55	2185.60
555.90	2190.02
556.26	2194.73
556.61	2199.58
556.97	2203.94
557.32	2208.15
557.68	2212.20
558.03	2216.52
558.39	2220.21
558.74	2224.96
559.10	2228.76
559.45	2232.47
559.81	2236.85
560.16	2240.55
560.52	2243.92
560.87	2247.34
561.23	2250.07
561.58	2252.87
561.94	2255.43
562.29	2257.79
562.64	2260.38
563.00	2262.92
563.35	2266.46
563.71	2269.58
564.06	2272.86
564.42	2275.70
564.77	2278.26
565.12	2280.64
565.48	2282.47
565.83	2284.37
566.19	2285.68
566.54	2286.68
566.89	2287.79
567.25	2288.38
567.60	2289.72
567.96	2291.39
568.31	2292.24
568.66	2293.39
569.02	2294.06
569.37	2294.47
569.72	2295.35
570.08	2295.60
570.43	2295.87
570.78	2295.33
571.14	2293.80
571.49	2292.38
571.84	2292.26
572.20	2291.24
572.55	2290.15
572.90	2288.69
573.26	2287.35
573.61	2285.62
573.96	2283.87
574.31	2280.96
574.67	2277.94
575.02	2274.36
575.37	2271.26
575.72	2267.51
576.08	2264.09
576.43	2260.99
576.78	2257.39
577.13	2254.31
577.49	2251.36
577.84	2247.86
578.19	2244.28
578.54	2240.88
578.90	2237.00
579.25	2231.46
579.60	2226.44
579.95	2221.51
580.30	2216.65
580.66	2211.47
581.01	2206.75
581.36	2201.97
581.71	2197.97
582.06	2193.67
582.42	2189.32
582.77	2184.01
583.12	2179.57
583.47	2175.05
583.82	2169.94
584.17	2164.76
584.53	2159.37
584.88	2153.71
585.23	2147.95
585.58	2142.60
585.93	2137.12
586.28	2132.22
586.63	2127.31
586.98	2122.36
587.34	2117.69
587.69	2112.69
588.04	2107.61
588.39	2101.91
588.74	2095.48
589.09	2089.32
589.44	2082.55
589.79	2076.64
590.14	2071.11
590.49	2064.59
590.84	2058.19
591.19	2052.27
591.54	2045.89
591.89	2038.44
592.25	2031.75
592.60	2024.80
592.95	2017.27
593.30	2010.08
593.65	2002.52
594.00	1995.54
594.35	1988.34
594.70	1980.34
595.05	1973.31
595.40	1966.10
595.75	1958.66
596.10	1952.51
596.45	1945.79
596.80	1939.79
597.15	1933.22
597.50	1926.15
597.85	1919.81
598.19	1913.22
598.54	1906.09
598.89	1899.44
599.24	1893.74
599.59	1887.04
599.94	1880.75
600.29	1874.34
600.64	1867.77
600.99	1860.49
601.34	1853.58
601.69	1846.72
602.04	1840.01
602.39	1832.69
602.74	1825.89
603.08	1819.08
603.43	1812.32
603.78	1805.17
604.13	1797.98
604.48	1790.59
604.83	1783.64
605.18	1776.64
605.53	1768.76
605.87	1760.91
606.22	1753.69
606.57	1745.60
606.92	1738.33
607.27	1731.17
607.62	1724.37
607.96	1717.02
608.31	1710.42
608.66	1702.98
609.01	1695.38
609.36	1687.69
609.70	1679.69
610.05	1671.58
610.40	1663.92
610.75	1655.71
611.10	1647.98
611.44	1639.53
611.79	1631.65
612.14	1623.05
612.49	1613.76
612.83	1605.44
613.18	1597.34
613.53	1589.27
613.88	1580.79
614.22	1572.45
614.57	1563.83
614.92	1555.70
615.27	1548.24
615.61	1539.81
615.96	1531.63
616.31	1524.15
616.65	1516.82
617.00	1509.28
617.35	1501.66
617.70	1493.42
618.04	1484.91
618.39	1476.71
618.74	1469.12
619.08	1460.75
619.43	1453.19
619.78	1446.42
620.12	1439.12
620.47	1431.48
620.82	1423.29
621.16	1415.97
621.51	1408.42
621.85	1400.82
622.20	1392.31
622.55	1383.91
622.89	1376.17
623.24	1368.48
623.59	1360.94
623.93	1353.43
624.28	1346.18
624.62	1338.64
624.97	1331.54
625.32	1324.79
625.66	1317.80
626.01	1310.66
626.35	1303.23
626.70	1295.43
627.04	1287.67
627.39	1279.93
627.73	1272.53
628.08	1265.73
628.43	1258.29
628.77	1250.82
629.12	1243.29
629.46	1236.18
629.81	1228.73
630.15	1221.50
630.50	1214.10
630.84	1206.01
631.19	1198.09
631.53	1190.49
631.88	1182.95
632.22	1175.28
632.57	1167.83
632.91	1160.18
633.26	1152.73
633.60	1145.35
633.95	1138.24
634.29	1131.24
634.64	1124.57
634.98	1117.28
635.32	1110.05
635.67	1103.61
636.01	1097.04
636.36	1090.12
636.70	1083.62
637.05	1077.04
637.39	1070.48
637.73	1064.02
638.08	1058.03
638.42	1052.01
638.77	1045.54
639.11	1038.95
639.45	1032.56
639.80	1026.02
640.14	1019.66
640.49	1013.13
640.83	1006.78
641.17	1000.55
641.52	994.11
641.86	987.69
642.20	981.77
642.55	975.45
642.89	968.85
643.23	962.26
643.58	956.52
643.92	950.23
644.26	944.16
644.61	938.12
644.95	932.08
645.29	925.52
645.64	918.77
645.98	912.45
646.32	906.60
646.66	900.54
647.01	894.63
647.35	888.90
647.69	883.02
648.04	877.52
648.38	871.70
648.72	865.73
649.06	859.64
649.41	853.83
649.75	847.87
650.09	841.93
650.43	836.24
650.78	830.11
651.12	824.25
651.46	818.51
651.80	812.76
652.14	807.32
652.49	801.94
652.83	796.80
653.17	791.14
653.51	785.40
653.85	780.06
654.20	774.44
654.54	768.36
654.88	762.64
655.22	756.75
655.56	751.14
655.90	745.72
656.25	740.42
656.59	735.01
656.93	729.87
657.27	724.72
657.61	719.19
657.95	714.10
658.29	708.90
658.64	703.68
658.98	698.37
659.32	692.99
659.66	687.86
660.00	682.46
660.34	677.51
660.68	672.57
661.02	667.49
661.36	662.83
661.70	658.39
662.05	654.01
662.39	649.64
662.73	645.09
663.07	640.69
663.41	636.25
663.75	631.76
664.09	627.27
664.43	622.89
664.77	618.83
665.11	614.55
665.45	610.46
665.79	606.39
666.13	602.26
666.47	598.15
666.81	593.88
667.15	589.82
667.49	585.95
667.83	582.18
668.17	578.29
668.51	574.18
668.85	570.17
669.19	566.37
669.53	562.59
669.87	558.71
670.21	555.01
670.55	551.42
670.89	547.99
671.23	544.53
671.57	541.02
671.91	537.47
672.25	534.01
672.58	530.50
672.92	527.13
673.26	523.98
673.60	520.85
673.94	517.76
674.28	514.82
674.62	511.86
674.96	508.70
675.30	505.71
675.64	502.81
675.97	499.98
676.31	497.07
676.65	494.15
676.99	491.48
677.33	488.62
677.67	485.78
678.01	482.70
678.34	479.69
678.68	476.78
679.02	473.97
679.36	471.21
679.70	468.46
680.04	465.63
680.37	462.74
680.71	459.93
681.05	457.28
681.39	454.58
681.73	451.85
682.06	449.31
682.40	446.82
682.74	444.27
683.08	441.80
683.42	439.22
683.75	436.68
684.09	434.14
684.43	431.66
684.77	429.22
685.10	426.87
685.44	424.59
685.78	422.30
686.12	420.06
686.45	417.77
686.79	415.49
687.13	413.33
687.46	411.16
687.80	409.01
688.14	406.84
688.48	404.78
688.81	402.57
689.15	400.42
689.49	398.26
689.82	396.17
690.16	394.04
690.50	392.10
690.83	390.11
691.17	388.12
691.51	386.24
691.84	384.37
692.18	382.47
692.52	380.52
692.85	378.58
693.19	376.67
693.52	374.80
693.86	372.93
694.20	371.12
694.53	369.34
694.87	367.47
695.21	365.68
695.54	363.88
695.88	362.12
696.21	360.40
696.55	358.69
696.88	357.03
697.22	355.35
697.56	353.73
697.89	352.10
698.23	350.48
698.56	348.83
698.90	347.22
699.23	345.57
699.57	344.00
699.90	342.48
700.24	340.94
700.58	339.43
700.91	337.92
701.25	336.53
701.58	335.16
701.92	333.76
702.25	332.37
702.59	330.99
702.92	329.73
703.26	328.45
703.59	327.17
703.93	325.97
704.26	324.77
704.60	323.43
704.93	322.15
705.26	320.90
705.60	319.73
705.93	318.60
706.27	317.51
706.60	316.43
706.94	315.33
707.27	314.20
707.61	313.11
707.94	312.13
708.27	311.02
708.61	309.92
708.94	308.91
709.28	307.92
709.61	306.91
709.94	305.89
710.28	304.85
710.61	303.88
710.95	302.82
711.28	301.88
711.61	300.98
711.95	300.08
712.28	299.14
712.61	298.19
712.95	297.25
713.28	296.41
713.61	295.58
713.95	294.71
714.28	293.86
714.61	293.04
714.95	292.17
715.28	291.31
715.61	290.47
715.95	289.64
716.28	288.78
716.61	287.95
716.95	287.14
717.28	286.41
717.61	285.62
717.94	284.84
718.28	284.02
718.61	283.25
718.94	282.52
719.27	281.89
719.61	281.23
719.94	280.59
720.27	279.86
720.60	279.17
720.94	278.53
721.27	277.96
721.60	277.34
721.93	276.71
722.27	276.13
722.60	275.58
722.93	275.00
723.26	274.48
723.59	273.95
723.93	273.43
724.26	272.85
724.59	272.32
724.92	271.82
725.25	271.33
725.59	270.82
725.92	270.32
726.25	269.77
726.58	269.27
726.91	268.73
727.24	268.24
727.57	267.74
727.91	267.26
728.24	266.79
728.57	266.27
728.90	265.84
729.23	265.34
729.56	264.89
729.89	264.44
730.22	263.93
730.55	263.42
730.89	262.96
731.22	262.55
731.55	262.08
731.88	261.66
732.21	261.20
732.54	260.77
732.87	260.35
733.20	259.95
733.53	259.57
733.86	259.20
734.19	258.80
734.52	258.41
734.85	258.06
735.18	257.65
735.51	257.32
735.84	256.94
736.17	256.64
736.50	256.24
736.83	256.00
737.16	255.68
737.49	255.36
737.82	255.03
738.15	254.72
738.48	254.39
738.81	254.05
739.14	253.76
739.47	253.45
739.80	253.14
740.13	252.85
740.46	252.48
740.79	252.15
741.12	251.84
741.45	251.54
741.78	251.19
742.11	250.91
742.44	250.59
742.77	250.31
743.10	249.99
743.43	249.70
743.75	249.30
744.08	249.14
744.41	248.88
744.74	248.59
745.07	248.27
745.40	248.03
745.73	247.81
746.06	247.52
746.39	247.24
746.71	246.99
747.04	246.73
747.37	246.49
747.70	246.23
748.03	245.99
748.36	245.80
748.68	245.61
749.01	245.37
749.34	245.14
749.67	244.88
750.00	244.66
750.33	244.52
750.65	244.32
750.98	244.00
751.31	243.80
751.64	243.62
751.97	243.50
752.29	243.26
752.62	243.01
752.95	242.84
753.28	242.65
753.60	242.44
753.93	242.25
754.26	242.06
754.59	241.85
754.91	241.66
755.24	241.42
755.57	241.22
755.90	241.05
756.22	240.86
756.55	240.68
756.88	240.47
757.20	240.22
757.53	240.05
757.86	239.88
758.19	239.71
758.51	239.53
758.84	239.31
759.17	239.15
759.49	238.98
759.82	238.86
760.15	238.71
760.47	238.56
760.80	238.35
761.13	238.26
761.45	238.11
761.78	237.95
762.11	237.83
762.43	237.71
762.76	237.53
763.08	237.42
763.41	237.27
763.74	237.16
764.06	237.03
764.39	236.85
764.71	236.68
765.04	236.53
765.37	236.38
765.69	236.24
766.02	236.11
766.34	236.00
766.67	235.82
767.00	235.70
767.32	235.62
767.65	235.61
767.97	235.46
768.30	235.36
768.62	235.21
768.95	235.05
769.27	234.91
769.60	234.82
769.92	234.69
770.25	234.56
770.57	234.42
770.90	234.32
771.22	234.23
771.55	234.15
771.87	234.07
772.20	233.96
772.52	233.98
772.85	234.01
773.17	233.91
773.50	233.80
773.82	233.73
774.15	233.59
774.47	233.47
774.80	233.37
775.12	233.29
775.45	233.22
775.77	233.15
776.09	233.06
776.42	232.97
776.74	232.91
777.07	232.84
777.39	232.80
777.72	232.68
778.04	232.57
778.36	232.50
778.69	232.43
779.01	232.38
779.33	232.18
779.66	231.99
779.98	231.88
780.31	231.83
780.63	231.77
780.95	231.72
781.28	231.62
781.60	231.56
781.92	231.49
782.25	231.42
782.57	231.37
782.89	231.32
783.22	231.26
783.54	231.20
783.86	231.18
784.19	231.11
784.51	231.10
784.83	231.08
785.16	231.05
785.48	231.02
785.80	230.95
786.12	230.92
786.45	230.88
786.77	230.87
787.09	230.82
