SpectraSuite Data File
++++++++++++++++++++++++++++++++++++
Date: Fri Feb 01 17:24:54 EST 2013
User: group
Dark Spectrum Present: No
Reference Spectrum Present: No
Number of Sampled Component Spectra: 1
Spectrometers: USB2E7196
Integration Time (usec): 35000 (USB2E7196)
Spectra Averaged: 100 (USB2E7196)
Boxcar Smoothing: 10 (USB2E7196)
Correct for Electrical Dark: No (USB2E7196)
Strobe/Lamp Enabled: No (USB2E7196)
Correct for Detector Non-linearity: No (USB2E7196)
Correct for Stray Light: No (USB2E7196)
Number of Pixels in Processed Spectrum: 2048
>>>>>Begin Processed Spectral Data<<<<<
339.09	0.00
339.48	213.15
339.86	214.47
340.24	215.96
340.63	218.33
341.01	220.05
341.39	219.74
341.78	221.34
342.16	222.80
342.54	223.18
342.93	211.51
343.31	222.18
343.69	222.71
344.07	223.17
344.46	223.59
344.84	223.93
345.22	224.17
345.60	224.41
345.99	224.57
346.37	224.68
346.75	224.74
347.13	224.82
347.52	224.83
347.90	224.92
348.28	224.95
348.66	224.97
349.05	224.93
349.43	224.93
349.81	224.99
350.19	225.00
350.57	225.06
350.96	225.12
351.34	225.20
351.72	225.24
352.10	225.32
352.48	225.36
352.87	225.39
353.25	225.44
353.63	225.53
354.01	225.58
354.39	225.67
354.77	225.75
355.15	225.85
355.54	225.89
355.92	225.88
356.30	225.97
356.68	226.12
357.06	226.20
357.44	226.27
357.82	226.32
358.20	226.42
358.58	226.47
358.97	226.56
359.35	226.64
359.73	226.76
360.11	226.82
360.49	226.90
360.87	226.93
361.25	226.98
361.63	227.05
362.01	227.12
362.39	227.14
362.77	227.20
363.15	227.22
363.53	227.28
363.91	227.33
364.29	227.35
364.67	227.28
365.05	227.29
365.43	227.32
365.81	227.33
366.19	227.36
366.57	227.37
366.95	227.34
367.33	227.33
367.71	227.29
368.09	227.32
368.47	227.32
368.85	227.30
369.23	227.32
369.61	227.22
369.99	227.21
370.37	227.18
370.75	227.19
371.13	227.14
371.51	227.08
371.89	227.07
372.27	227.01
372.65	226.98
373.03	226.97
373.41	226.95
373.78	226.92
374.16	226.84
374.54	226.78
374.92	226.70
375.30	226.63
375.68	226.57
376.06	226.50
376.44	226.43
376.82	226.42
377.19	226.34
377.57	226.31
377.95	226.24
378.33	226.18
378.71	226.09
379.09	226.05
379.47	226.02
379.84	225.93
380.22	225.85
380.60	225.77
380.98	225.66
381.36	225.57
381.73	225.50
382.11	225.48
382.49	225.43
382.87	225.39
383.25	225.32
383.62	225.39
384.00	225.34
384.38	225.30
384.76	225.24
385.13	225.22
385.51	225.19
385.89	225.11
386.27	225.06
386.64	225.03
387.02	224.96
387.40	224.91
387.78	224.87
388.15	224.86
388.53	224.79
388.91	224.81
389.29	224.79
389.66	224.78
390.04	224.73
390.42	224.70
390.79	224.68
391.17	224.69
391.55	224.57
391.92	224.55
392.30	224.53
392.68	224.50
393.05	224.48
393.43	224.46
393.81	224.49
394.18	224.48
394.56	224.45
394.94	224.49
395.31	224.47
395.69	224.50
396.06	224.48
396.44	224.51
396.82	224.52
397.19	224.59
397.57	224.58
397.95	224.61
398.32	224.63
398.70	224.67
399.07	224.73
399.45	224.77
399.82	224.82
400.20	224.86
400.58	224.94
400.95	224.95
401.33	225.02
401.70	225.16
402.08	225.24
402.45	225.32
402.83	225.43
403.20	225.55
403.58	225.66
403.95	225.83
404.33	225.98
404.71	226.10
405.08	226.24
405.46	226.37
405.83	226.52
406.21	226.69
406.58	226.83
406.96	226.98
407.33	227.13
407.70	227.31
408.08	227.60
408.45	227.81
408.83	228.06
409.20	228.31
409.58	228.46
409.95	228.74
410.33	229.05
410.70	229.31
411.08	229.59
411.45	229.89
411.82	230.17
412.20	230.53
412.57	230.94
412.95	231.25
413.32	231.69
413.69	232.11
414.07	232.54
414.44	233.04
414.82	233.53
415.19	234.11
415.56	234.68
415.94	235.18
416.31	235.84
416.68	236.50
417.06	237.22
417.43	237.95
417.81	238.77
418.18	239.60
418.55	240.47
418.93	241.41
419.30	242.36
419.67	243.33
420.04	244.31
420.42	245.35
420.79	246.59
421.16	247.76
421.54	249.02
421.91	250.28
422.28	251.62
422.66	253.01
423.03	254.39
423.40	255.78
423.77	257.29
424.15	258.76
424.52	260.30
424.89	262.00
425.26	263.63
425.64	265.11
426.01	266.75
426.38	268.45
426.75	270.18
427.13	271.96
427.50	273.87
427.87	275.82
428.24	277.76
428.61	279.59
428.99	281.63
429.36	283.80
429.73	285.96
430.10	288.03
430.47	290.16
430.85	292.35
431.22	294.67
431.59	297.11
431.96	299.48
432.33	302.07
432.70	304.49
433.08	307.45
433.45	310.22
433.82	312.94
434.19	315.98
434.56	318.89
434.93	321.68
435.30	324.40
435.68	327.42
436.05	330.37
436.42	333.25
436.79	335.83
437.16	338.62
437.53	341.52
437.90	344.46
438.27	347.31
438.64	350.26
439.01	352.97
439.38	355.30
439.75	357.51
440.13	360.08
440.50	362.54
440.87	364.39
441.24	366.38
441.61	368.62
441.98	370.14
442.35	372.01
442.72	373.86
443.09	375.72
443.46	376.71
443.83	377.32
444.20	377.84
444.57	378.75
444.94	379.08
445.31	379.48
445.68	379.84
446.05	379.98
446.42	379.59
446.79	379.12
447.16	378.71
447.53	378.43
447.90	377.25
448.27	376.07
448.64	374.42
449.01	373.26
449.37	371.25
449.74	369.30
450.11	367.02
450.48	364.52
450.85	361.92
451.22	359.73
451.59	357.62
451.96	355.64
452.33	352.93
452.70	350.47
453.07	347.56
453.43	344.56
453.80	341.69
454.17	338.90
454.54	336.29
454.91	333.45
455.28	330.67
455.65	328.10
456.02	325.56
456.38	323.38
456.75	320.60
457.12	318.23
457.49	315.90
457.86	313.61
458.23	311.71
458.59	309.58
458.96	307.44
459.33	305.53
459.70	303.56
460.07	302.02
460.43	300.24
460.80	298.56
461.17	297.08
461.54	295.48
461.91	294.02
462.27	292.53
462.64	291.23
463.01	289.80
463.38	288.45
463.74	287.01
464.11	285.78
464.48	284.72
464.85	283.56
465.21	282.68
465.58	281.73
465.95	280.54
466.32	279.57
466.68	278.60
467.05	277.65
467.42	276.79
467.78	275.81
468.15	274.89
468.52	274.17
468.88	273.25
469.25	272.46
469.62	271.81
469.98	271.11
470.35	270.43
470.72	269.83
471.08	269.15
471.45	268.62
471.82	268.03
472.18	267.41
472.55	266.97
472.92	266.41
473.28	265.90
473.65	265.48
474.02	265.05
474.38	264.68
474.75	264.36
475.11	263.98
475.48	263.70
475.85	263.49
476.21	263.24
476.58	263.06
476.94	262.90
477.31	262.73
477.67	262.58
478.04	262.49
478.41	262.40
478.77	262.46
479.14	262.38
479.50	262.40
479.87	262.46
480.23	262.52
480.60	262.57
480.96	262.66
481.33	262.89
481.69	263.10
482.06	263.29
482.42	263.48
482.79	263.73
483.15	264.04
483.52	264.41
483.88	264.79
484.25	265.18
484.61	265.61
484.98	266.04
485.34	266.60
485.71	267.18
486.07	267.78
486.44	268.33
486.80	269.03
487.17	269.74
487.53	270.59
487.90	271.46
488.26	272.41
488.62	273.42
488.99	274.36
489.35	275.42
489.72	276.58
490.08	277.81
490.44	279.05
490.81	280.43
491.17	281.73
491.54	283.19
491.90	284.73
492.26	286.34
492.63	288.10
492.99	289.86
493.36	291.74
493.72	293.82
494.08	295.91
494.45	298.16
494.81	300.54
495.17	302.90
495.54	305.44
495.90	308.07
496.26	310.85
496.63	313.80
496.99	316.88
497.35	320.03
497.72	323.41
498.08	326.92
498.44	330.51
498.80	334.42
499.17	338.45
499.53	342.56
499.89	346.93
500.26	351.38
500.62	356.01
500.98	360.92
501.34	365.95
501.71	371.26
502.07	376.60
502.43	382.16
502.79	387.95
503.16	393.93
503.52	400.11
503.88	406.45
504.24	412.98
504.60	419.73
504.97	426.82
505.33	434.02
505.69	441.58
506.05	449.26
506.41	457.02
506.78	465.03
507.14	473.35
507.50	481.90
507.86	490.75
508.22	499.79
508.59	508.84
508.95	518.18
509.31	527.77
509.67	537.71
510.03	547.76
510.39	558.14
510.75	568.69
511.12	579.49
511.48	590.51
511.84	601.77
512.20	613.08
512.56	624.71
512.92	636.69
513.28	648.75
513.64	660.93
514.00	673.32
514.37	685.96
514.73	698.75
515.09	711.39
515.45	724.35
515.81	737.63
516.17	751.28
516.53	765.17
516.89	779.08
517.25	792.91
517.61	806.99
517.97	821.07
518.33	835.19
518.69	849.55
519.05	864.20
519.41	878.95
519.77	894.10
520.13	909.14
520.49	924.12
520.85	939.13
521.21	954.41
521.57	970.33
521.93	985.69
522.29	1001.51
522.65	1017.52
523.01	1033.25
523.37	1048.92
523.73	1064.84
524.09	1080.42
524.45	1096.20
524.81	1112.43
525.17	1128.78
525.53	1145.18
525.89	1161.70
526.25	1178.14
526.61	1194.03
526.97	1210.39
527.33	1226.43
527.68	1242.63
528.04	1258.67
528.40	1274.76
528.76	1291.44
529.12	1307.45
529.48	1324.00
529.84	1339.81
530.20	1356.06
530.56	1372.60
530.91	1389.48
531.27	1405.61
531.63	1421.66
531.99	1437.84
532.35	1453.45
532.71	1469.01
533.07	1485.03
533.42	1500.62
533.78	1516.35
534.14	1532.44
534.50	1547.47
534.86	1563.07
535.21	1578.01
535.57	1593.52
535.93	1608.78
536.29	1623.32
536.65	1638.16
537.00	1652.61
537.36	1667.62
537.72	1681.78
538.08	1696.14
538.44	1709.69
538.79	1723.59
539.15	1737.09
539.51	1750.63
539.87	1764.79
540.22	1778.33
540.58	1791.72
540.94	1804.72
541.29	1817.28
541.65	1829.75
542.01	1842.72
542.37	1854.97
542.72	1867.19
543.08	1878.98
543.44	1891.35
543.79	1902.62
544.15	1913.67
544.51	1925.18
544.87	1936.06
545.22	1946.90
545.58	1956.98
545.94	1966.82
546.29	1976.61
546.65	1986.58
547.01	1995.94
547.36	2004.67
547.72	2013.28
548.07	2021.42
548.43	2029.75
548.79	2037.86
549.14	2045.54
549.50	2053.21
549.86	2060.90
550.21	2068.39
550.57	2075.73
550.92	2082.46
551.28	2089.72
551.64	2096.98
551.99	2103.62
552.35	2110.09
552.70	2116.41
553.06	2122.73
553.41	2129.42
553.77	2135.57
554.13	2141.82
554.48	2148.18
554.84	2154.09
555.19	2159.47
555.55	2164.87
555.90	2169.63
556.26	2175.09
556.61	2180.09
556.97	2184.70
557.32	2189.07
557.68	2193.60
558.03	2198.08
558.39	2201.97
558.74	2206.75
559.10	2210.96
559.45	2214.90
559.81	2219.33
560.16	2223.54
560.52	2227.20
560.87	2230.75
561.23	2233.66
561.58	2236.83
561.94	2239.81
562.29	2242.38
562.64	2245.75
563.00	2248.66
563.35	2252.47
563.71	2255.82
564.06	2259.29
564.42	2262.45
564.77	2265.53
565.12	2268.30
565.48	2270.71
565.83	2273.17
566.19	2275.06
566.54	2276.24
566.89	2277.90
567.25	2279.05
567.60	2280.55
567.96	2282.76
568.31	2284.14
568.66	2285.84
569.02	2286.87
569.37	2287.53
569.72	2288.86
570.08	2289.29
570.43	2289.60
570.78	2289.64
571.14	2288.55
571.49	2287.48
571.84	2287.40
572.20	2286.66
572.55	2285.86
572.90	2284.46
573.26	2283.45
573.61	2281.90
573.96	2280.59
574.31	2278.03
574.67	2275.44
575.02	2272.36
575.37	2269.20
575.72	2265.75
576.08	2262.60
576.43	2259.58
576.78	2256.42
577.13	2253.41
577.49	2250.36
577.84	2247.28
578.19	2243.65
578.54	2240.41
578.90	2236.81
579.25	2231.68
579.60	2227.17
579.95	2222.55
580.30	2217.95
580.66	2213.27
581.01	2208.63
581.36	2203.97
581.71	2200.09
582.06	2196.09
582.42	2192.04
582.77	2187.05
583.12	2182.93
583.47	2178.78
583.82	2174.28
584.17	2169.37
584.53	2164.25
584.88	2159.02
585.23	2153.76
585.58	2148.62
585.93	2143.36
586.28	2138.61
586.63	2133.87
586.98	2128.90
587.34	2124.38
587.69	2119.74
588.04	2114.58
588.39	2109.16
588.74	2102.88
589.09	2096.95
589.44	2090.30
589.79	2084.33
590.14	2078.87
590.49	2072.41
590.84	2066.03
591.19	2060.16
591.54	2053.68
591.89	2046.61
592.25	2040.25
592.60	2033.05
592.95	2025.72
593.30	2018.59
593.65	2011.30
594.00	2004.35
594.35	1997.24
594.70	1989.29
595.05	1982.47
595.40	1975.29
595.75	1968.02
596.10	1962.07
596.45	1955.60
596.80	1949.58
597.15	1943.21
597.50	1936.52
597.85	1930.12
598.19	1923.73
598.54	1916.89
598.89	1910.41
599.24	1904.59
599.59	1898.24
599.94	1892.14
600.29	1885.99
600.64	1879.44
600.99	1872.04
601.34	1865.28
601.69	1858.45
602.04	1851.76
602.39	1844.38
602.74	1837.77
603.08	1831.18
603.43	1824.55
603.78	1817.31
604.13	1810.11
604.48	1802.96
604.83	1796.08
605.18	1789.38
605.53	1781.53
605.87	1773.51
606.22	1766.27
606.57	1758.36
606.92	1750.63
607.27	1743.55
607.62	1736.64
607.96	1729.59
608.31	1723.16
608.66	1715.72
609.01	1708.29
609.36	1700.80
609.70	1692.91
610.05	1684.81
610.40	1677.06
610.75	1668.63
611.10	1660.87
611.44	1652.40
611.79	1644.17
612.14	1635.47
612.49	1626.11
612.83	1617.35
613.18	1609.04
613.53	1600.94
613.88	1592.43
614.22	1584.18
614.57	1575.35
614.92	1567.17
615.27	1559.59
615.61	1551.30
615.96	1543.13
616.31	1535.25
616.65	1527.78
617.00	1520.02
617.35	1512.19
617.70	1503.88
618.04	1495.40
618.39	1487.02
618.74	1479.39
619.08	1471.06
619.43	1463.26
619.78	1456.18
620.12	1449.17
620.47	1441.64
620.82	1433.34
621.16	1425.69
621.51	1417.92
621.85	1410.34
622.20	1401.82
622.55	1393.19
622.89	1385.16
623.24	1377.44
623.59	1369.89
623.93	1362.24
624.28	1354.91
624.62	1347.44
624.97	1340.13
625.32	1333.18
625.66	1326.09
626.01	1318.85
626.35	1311.45
626.70	1303.62
627.04	1296.04
627.39	1288.07
627.73	1280.52
628.08	1273.49
628.43	1266.24
628.77	1258.84
629.12	1251.17
629.46	1243.82
629.81	1236.21
630.15	1228.80
630.50	1221.38
630.84	1213.17
631.19	1205.14
631.53	1197.51
631.88	1189.74
632.22	1181.97
632.57	1174.54
632.91	1166.91
633.26	1159.36
633.60	1151.70
633.95	1144.40
634.29	1137.09
634.64	1130.28
634.98	1122.95
635.32	1115.84
635.67	1109.04
636.01	1102.37
636.36	1095.55
636.70	1088.99
637.05	1082.38
637.39	1075.85
637.73	1069.23
638.08	1063.21
638.42	1057.18
638.77	1050.70
639.11	1044.15
639.45	1037.79
639.80	1031.08
640.14	1024.70
640.49	1018.20
640.83	1011.96
641.17	1005.83
641.52	999.51
641.86	993.01
642.20	987.02
642.55	980.51
642.89	974.00
643.23	967.31
643.58	961.56
643.92	955.37
644.26	949.37
644.61	943.20
644.95	937.19
645.29	930.65
645.64	923.88
645.98	917.48
646.32	911.49
646.66	905.40
647.01	899.60
647.35	893.84
647.69	887.86
648.04	882.18
648.38	876.39
648.72	870.39
649.06	864.37
649.41	858.42
649.75	852.53
650.09	846.54
650.43	840.85
650.78	834.67
651.12	828.59
651.46	822.79
651.80	817.14
652.14	811.71
652.49	806.39
652.83	801.16
653.17	795.57
653.51	789.93
653.85	784.50
654.20	778.84
654.54	772.80
654.88	767.03
655.22	761.14
655.56	755.31
655.90	749.73
656.25	744.43
656.59	739.07
656.93	733.90
657.27	728.81
657.61	723.26
657.95	718.07
658.29	712.99
658.64	707.68
658.98	702.26
659.32	696.71
659.66	691.41
660.00	686.14
660.34	681.03
660.68	675.99
661.02	670.89
661.36	666.22
661.70	661.67
662.05	657.34
662.39	653.09
662.73	648.66
663.07	644.31
663.41	639.91
663.75	635.41
664.09	630.81
664.43	626.37
664.77	622.34
665.11	618.10
665.45	613.89
665.79	609.82
666.13	605.75
666.47	601.59
666.81	597.39
667.15	593.18
667.49	589.31
667.83	585.45
668.17	581.51
668.51	577.38
668.85	573.23
669.19	569.33
669.53	565.48
669.87	561.58
670.21	557.84
670.55	554.11
670.89	550.63
671.23	547.17
671.57	543.62
671.91	540.03
672.25	536.42
672.58	532.90
672.92	529.48
673.26	526.23
673.60	523.07
673.94	519.95
674.28	517.03
674.62	514.03
674.96	510.90
675.30	507.95
675.64	505.07
675.97	502.32
676.31	499.45
676.65	496.46
676.99	493.71
677.33	490.89
677.67	488.07
678.01	485.07
678.34	482.15
678.68	479.23
679.02	476.37
679.36	473.59
679.70	470.85
680.04	468.05
680.37	465.23
680.71	462.43
681.05	459.83
681.39	457.17
681.73	454.50
682.06	452.01
682.40	449.47
682.74	446.83
683.08	444.26
683.42	441.60
683.75	439.10
684.09	436.52
684.43	433.98
684.77	431.54
685.10	429.12
685.44	426.76
685.78	424.40
686.12	422.12
686.45	419.80
686.79	417.53
687.13	415.26
687.46	413.09
687.80	410.91
688.14	408.66
688.48	406.51
688.81	404.29
689.15	402.11
689.49	399.90
689.82	397.82
690.16	395.70
690.50	393.74
690.83	391.78
691.17	389.81
691.51	387.88
691.84	386.01
692.18	384.11
692.52	382.09
692.85	380.16
693.19	378.30
693.52	376.46
693.86	374.58
694.20	372.81
694.53	370.94
694.87	369.03
695.21	367.18
695.54	365.34
695.88	363.56
696.21	361.76
696.55	360.10
696.88	358.40
697.22	356.70
697.56	355.01
697.89	353.30
698.23	351.64
698.56	349.99
698.90	348.33
699.23	346.67
699.57	345.13
699.90	343.54
700.24	341.94
700.58	340.42
700.91	338.96
701.25	337.50
701.58	336.08
701.92	334.70
702.25	333.35
702.59	331.96
702.92	330.63
703.26	329.28
703.59	327.93
703.93	326.71
704.26	325.50
704.60	324.25
704.93	322.95
705.26	321.64
705.60	320.40
705.93	319.24
706.27	318.18
706.60	317.09
706.94	316.02
707.27	314.85
707.61	313.71
707.94	312.63
708.27	311.49
708.61	310.37
708.94	309.36
709.28	308.30
709.61	307.30
709.94	306.30
710.28	305.27
710.61	304.25
710.95	303.13
711.28	302.18
711.61	301.18
711.95	300.22
712.28	299.30
712.61	298.33
712.95	297.37
713.28	296.44
713.61	295.48
713.95	294.58
714.28	293.75
714.61	292.90
714.95	292.04
715.28	291.20
715.61	290.32
715.95	289.42
716.28	288.56
716.61	287.72
716.95	286.87
717.28	286.14
717.61	285.36
717.94	284.64
718.28	283.82
718.61	283.06
718.94	282.37
719.27	281.68
719.61	281.03
719.94	280.38
720.27	279.66
720.60	278.98
720.94	278.32
721.27	277.70
721.60	277.10
721.93	276.53
722.27	275.96
722.60	275.42
722.93	274.89
723.26	274.35
723.59	273.79
723.93	273.26
724.26	272.71
724.59	272.14
724.92	271.59
725.25	271.10
725.59	270.61
725.92	270.09
726.25	269.58
726.58	269.06
726.91	268.51
727.24	268.06
727.57	267.58
727.91	267.10
728.24	266.65
728.57	266.15
728.90	265.67
729.23	265.18
729.56	264.75
729.89	264.28
730.22	263.81
730.55	263.32
730.89	262.89
731.22	262.43
731.55	262.01
731.88	261.57
732.21	261.13
732.54	260.67
732.87	260.24
733.20	259.82
733.53	259.47
733.86	259.11
734.19	258.68
734.52	258.30
734.85	257.95
735.18	257.51
735.51	257.13
735.84	256.73
736.17	256.36
736.50	255.92
736.83	255.68
737.16	255.29
737.49	254.96
737.82	254.57
738.15	254.21
738.48	253.86
738.81	253.52
739.14	253.16
739.47	252.88
739.80	252.57
740.13	252.26
740.46	251.88
740.79	251.52
741.12	251.21
741.45	250.91
741.78	250.57
742.11	250.28
742.44	249.91
742.77	249.63
743.10	249.30
743.43	249.00
743.75	248.58
744.08	248.44
744.41	248.15
744.74	247.90
745.07	247.58
745.40	247.32
745.73	247.07
746.06	246.84
746.39	246.53
746.71	246.23
747.04	245.96
747.37	245.72
747.70	245.49
748.03	245.20
748.36	244.98
748.68	244.70
749.01	244.42
749.34	244.22
749.67	243.99
750.00	243.77
750.33	243.59
750.65	243.40
750.98	243.06
751.31	242.84
751.64	242.61
751.97	242.44
752.29	242.22
752.62	241.94
752.95	241.72
753.28	241.50
753.60	241.31
753.93	241.10
754.26	240.90
754.59	240.64
754.91	240.42
755.24	240.21
755.57	240.03
755.90	239.84
756.22	239.64
756.55	239.41
756.88	239.22
757.20	239.00
757.53	238.78
757.86	238.58
758.19	238.43
758.51	238.24
758.84	238.03
759.17	237.87
759.49	237.72
759.82	237.61
760.15	237.46
760.47	237.32
760.80	237.16
761.13	237.04
761.45	236.87
761.78	236.75
762.11	236.59
762.43	236.46
762.76	236.34
763.08	236.22
763.41	236.12
763.74	236.01
764.06	235.90
764.39	235.75
764.71	235.64
765.04	235.51
765.37	235.39
765.69	235.27
766.02	235.12
766.34	235.02
766.67	234.86
767.00	234.74
767.32	234.67
767.65	234.67
767.97	234.56
768.30	234.48
768.62	234.38
768.95	234.25
769.27	234.16
769.60	234.05
769.92	233.91
770.25	233.82
770.57	233.67
770.90	233.57
771.22	233.52
771.55	233.44
771.87	233.34
772.20	233.24
772.52	233.24
772.85	233.29
773.17	233.19
773.50	233.07
773.82	233.02
774.15	232.86
774.47	232.66
774.80	232.56
775.12	232.48
775.45	232.40
775.77	232.34
776.09	232.23
776.42	232.15
776.74	232.11
777.07	232.02
777.39	231.99
777.72	231.90
778.04	231.79
778.36	231.70
778.69	231.64
779.01	231.57
779.33	231.45
779.66	231.26
779.98	231.21
780.31	231.16
780.63	231.10
780.95	231.05
781.28	230.97
781.60	230.91
781.92	230.84
782.25	230.75
782.57	230.68
782.89	230.61
783.22	230.54
783.54	230.46
783.86	230.39
784.19	230.32
784.51	230.28
784.83	230.19
785.16	230.13
785.48	230.05
785.80	230.00
786.12	229.92
786.45	229.87
786.77	229.78
787.09	229.74
