SpectraSuite Data File
++++++++++++++++++++++++++++++++++++
Date: Fri Feb 01 15:33:01 EST 2013
User: group
Dark Spectrum Present: No
Reference Spectrum Present: No
Number of Sampled Component Spectra: 1
Spectrometers: USB2E7196
Integration Time (usec): 35000 (USB2E7196)
Spectra Averaged: 100 (USB2E7196)
Boxcar Smoothing: 10 (USB2E7196)
Correct for Electrical Dark: No (USB2E7196)
Strobe/Lamp Enabled: No (USB2E7196)
Correct for Detector Non-linearity: No (USB2E7196)
Correct for Stray Light: No (USB2E7196)
Number of Pixels in Processed Spectrum: 2048
>>>>>Begin Processed Spectral Data<<<<<
339.09	0.00
339.48	214.72
339.86	216.81
340.24	217.97
340.63	219.42
341.01	222.11
341.39	222.18
341.78	223.29
342.16	224.79
342.54	224.84
342.93	213.31
343.31	224.10
343.69	224.66
344.07	225.12
344.46	225.55
344.84	225.90
345.22	226.14
345.60	226.39
345.99	226.58
346.37	226.69
346.75	226.80
347.13	226.87
347.52	226.95
347.90	227.03
348.28	227.05
348.66	227.06
349.05	227.03
349.43	227.10
349.81	227.15
350.19	227.19
350.57	227.28
350.96	227.38
351.34	227.47
351.72	227.56
352.10	227.63
352.48	227.65
352.87	227.74
353.25	227.82
353.63	227.88
354.01	227.94
354.39	228.03
354.77	228.11
355.15	228.16
355.54	228.21
355.92	228.23
356.30	228.30
356.68	228.48
357.06	228.56
357.44	228.62
357.82	228.69
358.20	228.78
358.58	228.84
358.97	228.91
359.35	228.98
359.73	229.07
360.11	229.13
360.49	229.24
360.87	229.27
361.25	229.32
361.63	229.38
362.01	229.43
362.39	229.44
362.77	229.48
363.15	229.54
363.53	229.57
363.91	229.64
364.29	229.67
364.67	229.56
365.05	229.57
365.43	229.56
365.81	229.58
366.19	229.61
366.57	229.65
366.95	229.62
367.33	229.57
367.71	229.52
368.09	229.52
368.47	229.49
368.85	229.46
369.23	229.43
369.61	229.36
369.99	229.35
370.37	229.31
370.75	229.31
371.13	229.27
371.51	229.20
371.89	229.12
372.27	229.09
372.65	229.04
373.03	228.98
373.41	228.93
373.78	228.85
374.16	228.73
374.54	228.58
374.92	228.52
375.30	228.45
375.68	228.37
376.06	228.28
376.44	228.21
376.82	228.12
377.19	228.04
377.57	227.97
377.95	227.88
378.33	227.80
378.71	227.71
379.09	227.68
379.47	227.61
379.84	227.54
380.22	227.46
380.60	227.37
380.98	227.29
381.36	227.22
381.73	227.15
382.11	227.13
382.49	227.09
382.87	226.99
383.25	226.95
383.62	226.99
384.00	226.92
384.38	226.84
384.76	226.84
385.13	226.83
385.51	226.78
385.89	226.73
386.27	226.68
386.64	226.64
387.02	226.51
387.40	226.47
387.78	226.46
388.15	226.42
388.53	226.41
388.91	226.40
389.29	226.38
389.66	226.37
390.04	226.30
390.42	226.31
390.79	226.30
391.17	226.27
391.55	226.17
391.92	226.18
392.30	226.21
392.68	226.18
393.05	226.19
393.43	226.23
393.81	226.23
394.18	226.27
394.56	226.28
394.94	226.37
395.31	226.40
395.69	226.43
396.06	226.48
396.44	226.52
396.82	226.57
397.19	226.67
397.57	226.73
397.95	226.80
398.32	226.83
398.70	226.91
399.07	227.02
399.45	227.07
399.82	227.16
400.20	227.21
400.58	227.31
400.95	227.37
401.33	227.44
401.70	227.61
402.08	227.68
402.45	227.79
402.83	227.90
403.20	228.05
403.58	228.14
403.95	228.27
404.33	228.38
404.71	228.51
405.08	228.67
405.46	228.78
405.83	228.94
406.21	229.11
406.58	229.28
406.96	229.44
407.33	229.65
407.70	229.81
408.08	230.07
408.45	230.30
408.83	230.52
409.20	230.75
409.58	230.91
409.95	231.19
410.33	231.47
410.70	231.70
411.08	231.99
411.45	232.30
411.82	232.59
412.20	232.96
412.57	233.37
412.95	233.67
413.32	234.10
413.69	234.46
414.07	234.91
414.44	235.38
414.82	235.87
415.19	236.38
415.56	236.94
415.94	237.47
416.31	238.12
416.68	238.72
417.06	239.44
417.43	240.12
417.81	240.88
418.18	241.65
418.55	242.49
418.93	243.35
419.30	244.24
419.67	245.18
420.04	246.15
420.42	247.11
420.79	248.31
421.16	249.44
421.54	250.66
421.91	251.88
422.28	253.12
422.66	254.44
423.03	255.77
423.40	257.11
423.77	258.53
424.15	259.93
424.52	261.44
424.89	263.04
425.26	264.55
425.64	265.98
426.01	267.56
426.38	269.21
426.75	270.91
427.13	272.66
427.50	274.47
427.87	276.34
428.24	278.22
428.61	279.94
428.99	281.90
429.36	283.98
429.73	286.05
430.10	288.08
430.47	290.15
430.85	292.23
431.22	294.44
431.59	296.83
431.96	299.08
432.33	301.58
432.70	303.98
433.08	306.80
433.45	309.46
433.82	312.11
434.19	315.01
434.56	317.78
434.93	320.42
435.30	323.06
435.68	325.96
436.05	328.80
436.42	331.61
436.79	334.13
437.16	336.84
437.53	339.68
437.90	342.53
438.27	345.28
438.64	348.11
439.01	350.76
439.38	353.01
439.75	355.15
440.13	357.63
440.50	359.96
440.87	361.87
441.24	363.84
441.61	365.95
441.98	367.46
442.35	369.29
442.72	371.16
443.09	372.97
443.46	373.95
443.83	374.53
444.20	375.09
444.57	375.92
444.94	376.22
445.31	376.56
445.68	376.90
446.05	376.96
446.42	376.60
446.79	376.17
447.16	375.74
447.53	375.44
447.90	374.30
448.27	373.08
448.64	371.48
449.01	370.32
449.37	368.35
449.74	366.45
450.11	364.24
450.48	361.75
450.85	359.21
451.22	357.08
451.59	355.06
451.96	353.05
452.33	350.46
452.70	348.10
453.07	345.27
453.43	342.38
453.80	339.63
454.17	336.96
454.54	334.41
454.91	331.67
455.28	328.99
455.65	326.48
456.02	324.04
456.38	321.90
456.75	319.22
457.12	317.00
457.49	314.75
457.86	312.55
458.23	310.73
458.59	308.68
458.96	306.59
459.33	304.75
459.70	302.88
460.07	301.38
460.43	299.64
460.80	298.02
461.17	296.59
461.54	295.06
461.91	293.63
462.27	292.18
462.64	290.91
463.01	289.56
463.38	288.26
463.74	286.91
464.11	285.72
464.48	284.72
464.85	283.58
465.21	282.75
465.58	281.79
465.95	280.65
466.32	279.72
466.68	278.82
467.05	277.92
467.42	277.05
467.78	276.08
468.15	275.23
468.52	274.58
468.88	273.66
469.25	272.90
469.62	272.29
469.98	271.60
470.35	270.98
470.72	270.36
471.08	269.74
471.45	269.22
471.82	268.67
472.18	268.03
472.55	267.60
472.92	267.08
473.28	266.58
473.65	266.18
474.02	265.73
474.38	265.34
474.75	265.00
475.11	264.62
475.48	264.39
475.85	264.17
476.21	263.90
476.58	263.71
476.94	263.54
477.31	263.33
477.67	263.17
478.04	263.04
478.41	263.00
478.77	263.01
479.14	262.92
479.50	262.92
479.87	263.01
480.23	263.09
480.60	263.15
480.96	263.27
481.33	263.41
481.69	263.63
482.06	263.82
482.42	264.00
482.79	264.25
483.15	264.55
483.52	264.88
483.88	265.20
484.25	265.60
484.61	266.02
484.98	266.47
485.34	267.02
485.71	267.61
486.07	268.19
486.44	268.75
486.80	269.48
487.17	270.22
487.53	271.03
487.90	271.91
488.26	272.83
488.62	273.82
488.99	274.86
489.35	275.87
489.72	277.04
490.08	278.28
490.44	279.55
490.81	280.85
491.17	282.22
491.54	283.71
491.90	285.26
492.26	286.92
492.63	288.65
492.99	290.44
493.36	292.35
493.72	294.41
494.08	296.46
494.45	298.67
494.81	301.02
495.17	303.46
495.54	305.98
495.90	308.66
496.26	311.46
496.63	314.40
496.99	317.52
497.35	320.73
497.72	324.15
498.08	327.66
498.44	331.33
498.80	335.26
499.17	339.30
499.53	343.49
499.89	347.88
500.26	352.42
500.62	357.09
500.98	362.04
501.34	367.10
501.71	372.51
502.07	377.96
502.43	383.60
502.79	389.41
503.16	395.49
503.52	401.74
503.88	408.10
504.24	414.78
504.60	421.65
504.97	428.79
505.33	436.13
505.69	443.85
506.05	451.66
506.41	459.52
506.78	467.72
507.14	476.10
507.50	484.84
507.86	493.85
508.22	503.08
508.59	512.32
508.95	522.01
509.31	531.85
509.67	541.95
510.03	552.30
510.39	562.90
510.75	573.70
511.12	584.68
511.48	596.01
511.84	607.47
512.20	619.00
512.56	630.97
512.92	643.14
513.28	655.50
513.64	667.95
514.00	680.75
514.37	693.64
514.73	706.76
515.09	719.73
515.45	733.06
515.81	746.63
516.17	760.57
516.53	774.64
516.89	788.75
517.25	802.99
517.61	817.41
517.97	831.84
518.33	846.31
518.69	861.20
519.05	876.26
519.41	891.43
519.77	907.01
520.13	922.48
520.49	937.82
520.85	953.32
521.21	969.09
521.57	985.29
521.93	1001.13
522.29	1017.52
522.65	1033.82
523.01	1049.95
523.37	1066.01
523.73	1082.31
524.09	1098.46
524.45	1114.83
524.81	1131.43
525.17	1148.32
525.53	1165.30
525.89	1182.20
526.25	1198.97
526.61	1215.33
526.97	1232.06
527.33	1248.55
527.68	1265.23
528.04	1281.87
528.40	1298.44
528.76	1315.47
529.12	1332.11
529.48	1349.02
529.84	1365.11
530.20	1381.79
530.56	1398.95
530.91	1416.33
531.27	1433.07
531.63	1449.56
531.99	1466.18
532.35	1482.20
532.71	1498.03
533.07	1514.28
533.42	1530.26
533.78	1546.27
534.14	1562.61
534.50	1577.98
534.86	1593.86
535.21	1609.10
535.57	1625.07
535.93	1640.72
536.29	1655.50
536.65	1670.67
537.00	1685.41
537.36	1700.69
537.72	1715.18
538.08	1729.54
538.44	1743.37
538.79	1757.33
539.15	1771.11
539.51	1784.87
539.87	1799.23
540.22	1812.97
540.58	1826.82
540.94	1840.22
541.29	1853.35
541.65	1866.13
542.01	1879.50
542.37	1891.91
542.72	1904.37
543.08	1916.08
543.44	1928.43
543.79	1939.73
544.15	1950.73
544.51	1962.34
544.87	1973.38
545.22	1984.30
545.58	1994.66
545.94	2004.51
546.29	2014.28
546.65	2024.06
547.01	2033.30
547.36	2042.16
547.72	2050.60
548.07	2058.47
548.43	2066.72
548.79	2074.70
549.14	2082.22
549.50	2089.59
549.86	2097.43
550.21	2104.67
550.57	2111.96
550.92	2118.49
551.28	2125.72
551.64	2132.84
551.99	2139.42
552.35	2145.66
552.70	2151.81
553.06	2157.78
553.41	2164.16
553.77	2170.30
554.13	2176.50
554.48	2182.74
554.84	2188.17
555.19	2193.69
555.55	2198.79
555.90	2203.12
556.26	2208.03
556.61	2212.81
556.97	2216.93
557.32	2221.01
557.68	2225.27
558.03	2229.57
558.39	2233.45
558.74	2237.95
559.10	2241.73
559.45	2245.39
559.81	2249.65
560.16	2253.45
560.52	2256.78
560.87	2260.25
561.23	2262.94
561.58	2265.86
561.94	2268.38
562.29	2270.75
562.64	2273.28
563.00	2275.96
563.35	2279.56
563.71	2282.58
564.06	2285.74
564.42	2288.62
564.77	2291.00
565.12	2293.21
565.48	2295.07
565.83	2296.77
566.19	2297.97
566.54	2298.95
566.89	2300.17
567.25	2300.72
567.60	2302.01
567.96	2303.50
568.31	2304.31
568.66	2305.40
569.02	2305.90
569.37	2306.26
569.72	2307.06
570.08	2307.11
570.43	2307.12
570.78	2306.33
571.14	2304.73
571.49	2303.37
571.84	2303.13
572.20	2301.96
572.55	2300.93
572.90	2299.30
573.26	2297.87
573.61	2296.19
573.96	2294.33
574.31	2291.25
574.67	2288.26
575.02	2284.70
575.37	2281.31
575.72	2277.32
576.08	2273.98
576.43	2270.54
576.78	2266.68
577.13	2263.48
577.49	2260.48
577.84	2256.85
578.19	2253.19
578.54	2249.60
578.90	2245.23
579.25	2239.49
579.60	2234.47
579.95	2229.39
580.30	2224.23
580.66	2219.01
581.01	2214.13
581.36	2209.07
581.71	2204.80
582.06	2200.18
582.42	2195.57
582.77	2190.28
583.12	2185.76
583.47	2180.90
583.82	2175.81
584.17	2170.49
584.53	2164.94
584.88	2159.15
585.23	2153.39
585.58	2147.78
585.93	2142.26
586.28	2137.54
586.63	2132.46
586.98	2127.44
587.34	2122.68
587.69	2117.79
588.04	2112.51
588.39	2106.64
588.74	2100.25
589.09	2093.98
589.44	2087.19
589.79	2081.21
590.14	2075.54
590.49	2068.89
590.84	2062.44
591.19	2056.42
591.54	2049.93
591.89	2042.39
592.25	2035.51
592.60	2028.25
592.95	2020.73
593.30	2013.31
593.65	2005.53
594.00	1998.43
594.35	1991.03
594.70	1982.95
595.05	1975.68
595.40	1968.35
595.75	1960.95
596.10	1954.54
596.45	1947.66
596.80	1941.49
597.15	1934.73
597.50	1927.57
597.85	1921.10
598.19	1914.38
598.54	1907.17
598.89	1900.48
599.24	1894.56
599.59	1888.00
599.94	1881.75
600.29	1875.33
600.64	1868.71
600.99	1861.22
601.34	1854.39
601.69	1847.44
602.04	1840.37
602.39	1832.98
602.74	1826.08
603.08	1819.28
603.43	1812.72
603.78	1805.53
604.13	1798.20
604.48	1790.83
604.83	1784.01
605.18	1776.99
605.53	1768.87
605.87	1760.92
606.22	1753.69
606.57	1745.72
606.92	1738.27
607.27	1730.97
607.62	1723.99
607.96	1716.60
608.31	1710.14
608.66	1702.35
609.01	1694.78
609.36	1687.20
609.70	1679.18
610.05	1671.14
610.40	1663.38
610.75	1654.87
611.10	1647.25
611.44	1638.87
611.79	1630.94
612.14	1622.15
612.49	1613.03
612.83	1604.75
613.18	1596.62
613.53	1588.55
613.88	1580.07
614.22	1571.69
614.57	1563.19
614.92	1555.17
615.27	1547.66
615.61	1539.17
615.96	1531.27
616.31	1523.55
616.65	1516.21
617.00	1508.64
617.35	1500.98
617.70	1492.67
618.04	1484.12
618.39	1475.85
618.74	1468.34
619.08	1459.97
619.43	1452.43
619.78	1445.38
620.12	1438.28
620.47	1430.83
620.82	1422.54
621.16	1415.13
621.51	1407.58
621.85	1399.82
622.20	1391.22
622.55	1382.88
622.89	1375.12
623.24	1367.53
623.59	1360.18
623.93	1352.64
624.28	1345.46
624.62	1337.87
624.97	1330.63
625.32	1323.95
625.66	1316.86
626.01	1309.60
626.35	1302.19
626.70	1294.45
627.04	1286.83
627.39	1278.98
627.73	1271.41
628.08	1264.51
628.43	1257.26
628.77	1249.93
629.12	1242.46
629.46	1235.30
629.81	1227.87
630.15	1220.65
630.50	1213.25
630.84	1205.02
631.19	1197.18
631.53	1189.63
631.88	1182.02
632.22	1174.41
632.57	1167.13
632.91	1159.61
633.26	1152.25
633.60	1144.81
633.95	1137.75
634.29	1130.70
634.64	1124.03
634.98	1116.71
635.32	1109.60
635.67	1102.98
636.01	1096.29
636.36	1089.51
636.70	1083.00
637.05	1076.40
637.39	1069.83
637.73	1063.29
638.08	1057.47
638.42	1051.50
638.77	1045.02
639.11	1038.37
639.45	1032.13
639.80	1025.46
640.14	1019.07
640.49	1012.50
640.83	1006.27
641.17	999.95
641.52	993.65
641.86	987.13
642.20	981.36
642.55	975.20
642.89	968.64
643.23	962.20
643.58	956.48
643.92	950.29
644.26	944.19
644.61	938.28
644.95	932.22
645.29	925.57
645.64	918.77
645.98	912.47
646.32	906.72
646.66	900.65
647.01	894.92
647.35	889.15
647.69	883.28
648.04	877.81
648.38	872.08
648.72	866.03
649.06	860.02
649.41	854.10
649.75	848.08
650.09	842.08
650.43	836.18
650.78	829.93
651.12	824.01
651.46	818.29
651.80	812.53
652.14	807.16
652.49	801.84
652.83	796.58
653.17	790.83
653.51	785.04
653.85	779.60
654.20	773.86
654.54	767.85
654.88	762.13
655.22	756.20
655.56	750.46
655.90	745.00
656.25	739.77
656.59	734.43
656.93	729.29
657.27	724.21
657.61	718.79
657.95	713.72
658.29	708.68
658.64	703.53
658.98	698.18
659.32	692.70
659.66	687.47
660.00	682.22
660.34	677.39
660.68	672.57
661.02	667.53
661.36	662.84
661.70	658.35
662.05	653.99
662.39	649.66
662.73	645.27
663.07	640.92
663.41	636.45
663.75	631.91
664.09	627.39
664.43	622.99
664.77	618.87
665.11	614.66
665.45	610.45
665.79	606.32
666.13	602.25
666.47	598.23
666.81	594.11
667.15	590.03
667.49	586.15
667.83	582.33
668.17	578.41
668.51	574.38
668.85	570.42
669.19	566.61
669.53	562.74
669.87	558.85
670.21	555.15
670.55	551.53
670.89	548.07
671.23	544.58
671.57	541.12
671.91	537.64
672.25	534.14
672.58	530.69
672.92	527.28
673.26	524.08
673.60	520.87
673.94	517.75
674.28	514.80
674.62	511.80
674.96	508.66
675.30	505.82
675.64	502.88
675.97	500.11
676.31	497.25
676.65	494.35
676.99	491.69
677.33	488.83
677.67	486.02
678.01	483.07
678.34	480.13
678.68	477.25
679.02	474.40
679.36	471.65
679.70	468.95
680.04	466.20
680.37	463.31
680.71	460.51
681.05	457.93
681.39	455.21
681.73	452.55
682.06	450.09
682.40	447.48
682.74	444.89
683.08	442.36
683.42	439.75
683.75	437.28
684.09	434.69
684.43	432.24
684.77	429.77
685.10	427.38
685.44	425.05
685.78	422.76
686.12	420.54
686.45	418.24
686.79	415.94
687.13	413.75
687.46	411.63
687.80	409.54
688.14	407.31
688.48	405.30
688.81	403.01
689.15	400.87
689.49	398.72
689.82	396.69
690.16	394.60
690.50	392.64
690.83	390.70
691.17	388.73
691.51	386.84
691.84	385.00
692.18	383.08
692.52	381.14
692.85	379.19
693.19	377.28
693.52	375.42
693.86	373.61
694.20	371.83
694.53	370.01
694.87	368.11
695.21	366.32
695.54	364.47
695.88	362.76
696.21	361.01
696.55	359.33
696.88	357.65
697.22	355.97
697.56	354.35
697.89	352.63
698.23	351.00
698.56	349.36
698.90	347.77
699.23	346.09
699.57	344.56
699.90	343.00
700.24	341.48
700.58	339.99
700.91	338.49
701.25	337.05
701.58	335.69
701.92	334.34
702.25	332.95
702.59	331.59
702.92	330.29
703.26	328.98
703.59	327.65
703.93	326.46
704.26	325.25
704.60	323.94
704.93	322.68
705.26	321.43
705.60	320.28
705.93	319.11
706.27	318.12
706.60	317.00
706.94	315.90
707.27	314.74
707.61	313.67
707.94	312.64
708.27	311.49
708.61	310.43
708.94	309.41
709.28	308.44
709.61	307.50
709.94	306.56
710.28	305.54
710.61	304.59
710.95	303.52
711.28	302.60
711.61	301.69
711.95	300.82
712.28	299.87
712.61	298.87
712.95	297.91
713.28	297.01
713.61	296.14
713.95	295.27
714.28	294.46
714.61	293.59
714.95	292.77
715.28	291.99
715.61	291.14
715.95	290.33
716.28	289.49
716.61	288.64
716.95	287.83
717.28	287.13
717.61	286.38
717.94	285.65
718.28	284.86
718.61	284.15
718.94	283.45
719.27	282.80
719.61	282.20
719.94	281.59
720.27	280.89
720.60	280.25
720.94	279.62
721.27	279.01
721.60	278.45
721.93	277.85
722.27	277.32
722.60	276.71
722.93	276.15
723.26	275.62
723.59	275.08
723.93	274.54
724.26	274.00
724.59	273.47
724.92	272.97
725.25	272.45
725.59	271.93
725.92	271.41
726.25	270.90
726.58	270.41
726.91	269.93
727.24	269.48
727.57	269.02
727.91	268.52
728.24	268.07
728.57	267.57
728.90	267.12
729.23	266.57
729.56	266.16
729.89	265.68
730.22	265.20
730.55	264.72
730.89	264.24
731.22	263.76
731.55	263.31
731.88	262.88
732.21	262.47
732.54	262.02
732.87	261.62
733.20	261.20
733.53	260.76
733.86	260.37
734.19	259.99
734.52	259.60
734.85	259.30
735.18	258.87
735.51	258.52
735.84	258.11
736.17	257.75
736.50	257.36
736.83	257.11
737.16	256.71
737.49	256.40
737.82	256.05
738.15	255.71
738.48	255.36
738.81	255.03
739.14	254.70
739.47	254.36
739.80	254.00
740.13	253.70
740.46	253.42
740.79	253.05
741.12	252.72
741.45	252.36
741.78	252.01
742.11	251.76
742.44	251.40
742.77	251.12
743.10	250.82
743.43	250.50
743.75	250.07
744.08	249.97
744.41	249.69
744.74	249.43
745.07	249.12
745.40	248.90
745.73	248.63
746.06	248.31
746.39	248.07
746.71	247.79
747.04	247.51
747.37	247.26
747.70	247.03
748.03	246.79
748.36	246.61
748.68	246.39
749.01	246.10
749.34	245.87
749.67	245.62
750.00	245.43
750.33	245.29
750.65	245.10
750.98	244.74
751.31	244.51
751.64	244.28
751.97	244.13
752.29	243.89
752.62	243.66
752.95	243.50
753.28	243.30
753.60	243.14
753.93	242.97
754.26	242.73
754.59	242.52
754.91	242.28
755.24	242.09
755.57	241.88
755.90	241.73
756.22	241.55
756.55	241.39
756.88	241.17
757.20	240.97
757.53	240.79
757.86	240.65
758.19	240.52
758.51	240.37
758.84	240.19
759.17	240.04
759.49	239.88
759.82	239.76
760.15	239.61
760.47	239.47
760.80	239.30
761.13	239.22
761.45	239.05
761.78	238.93
762.11	238.78
762.43	238.62
762.76	238.50
763.08	238.36
763.41	238.24
763.74	238.13
764.06	237.97
764.39	237.86
764.71	237.72
765.04	237.58
765.37	237.46
765.69	237.35
766.02	237.23
766.34	237.11
766.67	236.95
767.00	236.87
767.32	236.78
767.65	236.70
767.97	236.57
768.30	236.48
768.62	236.36
768.95	236.23
769.27	236.12
769.60	236.01
769.92	235.89
770.25	235.78
770.57	235.64
770.90	235.55
771.22	235.43
771.55	235.32
771.87	235.21
772.20	235.12
772.52	235.10
772.85	235.10
773.17	235.00
773.50	234.92
773.82	234.81
774.15	234.71
774.47	234.56
774.80	234.44
775.12	234.36
775.45	234.29
775.77	234.21
776.09	234.11
776.42	234.02
776.74	233.99
777.07	233.87
777.39	233.85
777.72	233.78
778.04	233.72
778.36	233.65
778.69	233.61
779.01	233.57
779.33	233.37
779.66	233.24
779.98	233.15
780.31	233.08
780.63	233.01
780.95	232.90
781.28	232.83
781.60	232.77
781.92	232.67
782.25	232.63
782.57	232.57
782.89	232.52
783.22	232.45
783.54	232.33
783.86	232.26
784.19	232.14
784.51	232.07
784.83	231.98
785.16	231.93
785.48	231.86
785.80	231.75
786.12	231.77
786.45	231.67
786.77	231.65
787.09	231.59
