SpectraSuite Data File
++++++++++++++++++++++++++++++++++++
Date: Fri Feb 01 17:22:52 EST 2013
User: group
Dark Spectrum Present: No
Reference Spectrum Present: No
Number of Sampled Component Spectra: 1
Spectrometers: USB2E7196
Integration Time (usec): 35000 (USB2E7196)
Spectra Averaged: 100 (USB2E7196)
Boxcar Smoothing: 10 (USB2E7196)
Correct for Electrical Dark: No (USB2E7196)
Strobe/Lamp Enabled: No (USB2E7196)
Correct for Detector Non-linearity: No (USB2E7196)
Correct for Stray Light: No (USB2E7196)
Number of Pixels in Processed Spectrum: 2048
>>>>>Begin Processed Spectral Data<<<<<
339.09	0.00
339.48	212.82
339.86	214.60
340.24	215.93
340.63	217.58
341.01	220.08
341.39	220.19
341.78	221.08
342.16	222.15
342.54	222.97
342.93	211.37
343.31	222.03
343.69	222.59
344.07	223.02
344.46	223.44
344.84	223.80
345.22	224.03
345.60	224.26
345.99	224.45
346.37	224.59
346.75	224.71
347.13	224.79
347.52	224.84
347.90	224.90
348.28	224.92
348.66	224.98
349.05	224.98
349.43	225.01
349.81	225.05
350.19	225.13
350.57	225.20
350.96	225.23
351.34	225.34
351.72	225.38
352.10	225.45
352.48	225.49
352.87	225.54
353.25	225.58
353.63	225.64
354.01	225.71
354.39	225.78
354.77	225.85
355.15	225.93
355.54	225.97
355.92	225.99
356.30	226.04
356.68	226.15
357.06	226.23
357.44	226.30
357.82	226.34
358.20	226.40
358.58	226.43
358.97	226.48
359.35	226.56
359.73	226.64
360.11	226.72
360.49	226.82
360.87	226.86
361.25	226.93
361.63	227.00
362.01	227.05
362.39	227.07
362.77	227.10
363.15	227.14
363.53	227.20
363.91	227.25
364.29	227.27
364.67	227.20
365.05	227.23
365.43	227.27
365.81	227.33
366.19	227.38
366.57	227.47
366.95	227.51
367.33	227.46
367.71	227.49
368.09	227.49
368.47	227.49
368.85	227.48
369.23	227.48
369.61	227.41
369.99	227.40
370.37	227.42
370.75	227.42
371.13	227.40
371.51	227.36
371.89	227.32
372.27	227.32
372.65	227.33
373.03	227.29
373.41	227.23
373.78	227.17
374.16	227.06
374.54	226.97
374.92	226.93
375.30	226.92
375.68	226.85
376.06	226.80
376.44	226.74
376.82	226.68
377.19	226.64
377.57	226.61
377.95	226.53
378.33	226.45
378.71	226.34
379.09	226.28
379.47	226.22
379.84	226.14
380.22	226.05
380.60	225.93
380.98	225.85
381.36	225.77
381.73	225.69
382.11	225.68
382.49	225.64
382.87	225.54
383.25	225.45
383.62	225.48
384.00	225.40
384.38	225.32
384.76	225.30
385.13	225.29
385.51	225.22
385.89	225.17
386.27	225.17
386.64	225.12
387.02	225.06
387.40	225.04
387.78	225.03
388.15	224.98
388.53	224.99
388.91	224.95
389.29	224.93
389.66	224.93
390.04	224.86
390.42	224.82
390.79	224.82
391.17	224.81
391.55	224.73
391.92	224.74
392.30	224.76
392.68	224.73
393.05	224.68
393.43	224.73
393.81	224.75
394.18	224.68
394.56	224.72
394.94	224.74
395.31	224.71
395.69	224.73
396.06	224.77
396.44	224.74
396.82	224.77
397.19	224.87
397.57	224.86
397.95	224.91
398.32	224.94
398.70	224.97
399.07	225.04
399.45	225.05
399.82	225.09
400.20	225.13
400.58	225.18
400.95	225.20
401.33	225.27
401.70	225.39
402.08	225.49
402.45	225.57
402.83	225.67
403.20	225.80
403.58	225.88
403.95	225.98
404.33	226.13
404.71	226.23
405.08	226.35
405.46	226.47
405.83	226.61
406.21	226.76
406.58	226.92
406.96	227.06
407.33	227.23
407.70	227.42
408.08	227.68
408.45	227.91
408.83	228.16
409.20	228.37
409.58	228.56
409.95	228.83
410.33	229.08
410.70	229.32
411.08	229.61
411.45	229.94
411.82	230.26
412.20	230.62
412.57	231.08
412.95	231.38
413.32	231.81
413.69	232.23
414.07	232.67
414.44	233.13
414.82	233.62
415.19	234.21
415.56	234.76
415.94	235.28
416.31	235.93
416.68	236.58
417.06	237.33
417.43	238.01
417.81	238.80
418.18	239.63
418.55	240.49
418.93	241.37
419.30	242.29
419.67	243.29
420.04	244.26
420.42	245.29
420.79	246.54
421.16	247.76
421.54	249.02
421.91	250.28
422.28	251.63
422.66	253.02
423.03	254.36
423.40	255.75
423.77	257.27
424.15	258.76
424.52	260.32
424.89	261.96
425.26	263.59
425.64	265.09
426.01	266.74
426.38	268.48
426.75	270.27
427.13	272.05
427.50	273.94
427.87	275.95
428.24	277.87
428.61	279.68
428.99	281.65
429.36	283.81
429.73	285.94
430.10	288.03
430.47	290.15
430.85	292.37
431.22	294.69
431.59	297.11
431.96	299.43
432.33	301.98
432.70	304.43
433.08	307.37
433.45	310.11
433.82	312.76
434.19	315.73
434.56	318.63
434.93	321.37
435.30	324.10
435.68	327.05
436.05	329.97
436.42	332.85
436.79	335.50
437.16	338.28
437.53	341.25
437.90	344.12
438.27	346.99
438.64	349.89
439.01	352.59
439.38	354.93
439.75	357.16
440.13	359.74
440.50	362.15
440.87	364.02
441.24	366.07
441.61	368.34
441.98	369.88
442.35	371.74
442.72	373.68
443.09	375.54
443.46	376.56
443.83	377.16
444.20	377.72
444.57	378.60
444.94	378.93
445.31	379.29
445.68	379.67
446.05	379.78
446.42	379.45
446.79	379.04
447.16	378.63
447.53	378.33
447.90	377.17
448.27	376.06
448.64	374.45
449.01	373.25
449.37	371.23
449.74	369.30
450.11	366.99
450.48	364.47
450.85	361.87
451.22	359.67
451.59	357.59
451.96	355.55
452.33	352.82
452.70	350.40
453.07	347.46
453.43	344.48
453.80	341.60
454.17	338.80
454.54	336.18
454.91	333.34
455.28	330.58
455.65	327.99
456.02	325.42
456.38	323.21
456.75	320.47
457.12	318.14
457.49	315.84
457.86	313.58
458.23	311.68
458.59	309.56
458.96	307.41
459.33	305.52
459.70	303.62
460.07	302.06
460.43	300.26
460.80	298.59
461.17	297.12
461.54	295.53
461.91	294.05
462.27	292.55
462.64	291.24
463.01	289.84
463.38	288.51
463.74	287.08
464.11	285.87
464.48	284.79
464.85	283.64
465.21	282.76
465.58	281.84
465.95	280.71
466.32	279.77
466.68	278.82
467.05	277.88
467.42	276.94
467.78	276.01
468.15	275.11
468.52	274.44
468.88	273.55
469.25	272.79
469.62	272.15
469.98	271.43
470.35	270.81
470.72	270.22
471.08	269.55
471.45	268.99
471.82	268.47
472.18	267.84
472.55	267.43
472.92	266.92
473.28	266.44
473.65	265.97
474.02	265.53
474.38	265.17
474.75	264.81
475.11	264.48
475.48	264.27
475.85	264.02
476.21	263.76
476.58	263.55
476.94	263.42
477.31	263.22
477.67	263.06
478.04	262.93
478.41	262.84
478.77	262.88
479.14	262.81
479.50	262.76
479.87	262.86
480.23	262.91
480.60	262.94
480.96	263.02
481.33	263.22
481.69	263.42
482.06	263.60
482.42	263.83
482.79	264.07
483.15	264.32
483.52	264.71
483.88	265.06
484.25	265.43
484.61	265.83
484.98	266.33
485.34	266.91
485.71	267.47
486.07	268.10
486.44	268.62
486.80	269.32
487.17	270.02
487.53	270.84
487.90	271.67
488.26	272.60
488.62	273.55
488.99	274.47
489.35	275.50
489.72	276.66
490.08	277.86
490.44	279.10
490.81	280.43
491.17	281.78
491.54	283.24
491.90	284.76
492.26	286.40
492.63	288.07
492.99	289.84
493.36	291.71
493.72	293.74
494.08	295.84
494.45	298.06
494.81	300.43
495.17	302.85
495.54	305.42
495.90	308.08
496.26	310.86
496.63	313.77
496.99	316.83
497.35	320.01
497.72	323.36
498.08	326.82
498.44	330.49
498.80	334.39
499.17	338.41
499.53	342.59
499.89	346.90
500.26	351.38
500.62	355.97
500.98	360.92
501.34	365.89
501.71	371.16
502.07	376.61
502.43	382.19
502.79	387.85
503.16	393.85
503.52	400.07
503.88	406.46
504.24	413.03
504.60	419.83
504.97	426.92
505.33	434.13
505.69	441.76
506.05	449.42
506.41	457.22
506.78	465.24
507.14	473.50
507.50	482.17
507.86	491.05
508.22	500.11
508.59	509.18
508.95	518.66
509.31	528.40
509.67	538.29
510.03	548.38
510.39	558.86
510.75	569.42
511.12	580.03
511.48	591.08
511.84	602.40
512.20	613.71
512.56	625.39
512.92	637.37
513.28	649.48
513.64	661.71
514.00	674.16
514.37	686.94
514.73	699.70
515.09	712.38
515.45	725.40
515.81	738.76
516.17	752.48
516.53	766.22
516.89	780.00
517.25	793.82
517.61	807.95
517.97	822.00
518.33	836.11
518.69	850.71
519.05	865.36
519.41	880.06
519.77	895.15
520.13	910.28
520.49	925.29
520.85	940.30
521.21	955.64
521.57	971.41
521.93	986.75
522.29	1002.79
522.65	1018.64
523.01	1034.33
523.37	1049.92
523.73	1065.60
524.09	1081.33
524.45	1097.10
524.81	1113.45
525.17	1129.81
525.53	1146.34
525.89	1162.80
526.25	1179.20
526.61	1195.15
526.97	1211.59
527.33	1227.70
527.68	1243.83
528.04	1259.93
528.40	1276.09
528.76	1292.69
529.12	1308.90
529.48	1325.32
529.84	1340.85
530.20	1356.95
530.56	1373.58
530.91	1390.62
531.27	1406.99
531.63	1423.15
531.99	1439.54
532.35	1455.05
532.71	1470.61
533.07	1486.43
533.42	1502.06
533.78	1517.88
534.14	1533.88
534.50	1548.92
534.86	1564.52
535.21	1579.45
535.57	1595.00
535.93	1610.14
536.29	1624.67
536.65	1639.41
537.00	1653.93
537.36	1669.11
537.72	1683.48
538.08	1697.80
538.44	1711.39
538.79	1725.14
539.15	1738.45
539.51	1752.00
539.87	1766.14
540.22	1779.68
540.58	1793.18
540.94	1806.09
541.29	1818.67
541.65	1831.09
542.01	1844.04
542.37	1856.25
542.72	1868.45
543.08	1880.29
543.44	1892.66
543.79	1903.81
544.15	1914.76
544.51	1926.38
544.87	1937.36
545.22	1948.20
545.58	1958.42
545.94	1968.16
546.29	1978.11
546.65	1988.13
547.01	1997.53
547.36	2006.36
547.72	2014.84
548.07	2023.09
548.43	2031.51
548.79	2039.55
549.14	2047.43
549.50	2054.89
549.86	2062.56
550.21	2070.06
550.57	2077.30
550.92	2084.18
551.28	2091.51
551.64	2098.74
551.99	2105.34
552.35	2111.74
552.70	2118.17
553.06	2124.24
553.41	2130.79
553.77	2136.95
554.13	2143.18
554.48	2149.42
554.84	2155.23
555.19	2160.68
555.55	2166.10
555.90	2171.02
556.26	2176.31
556.61	2181.18
556.97	2185.94
557.32	2190.61
557.68	2195.18
558.03	2199.73
558.39	2203.63
558.74	2208.44
559.10	2212.73
559.45	2216.73
559.81	2221.12
560.16	2225.22
560.52	2228.99
560.87	2232.75
561.23	2235.74
561.58	2238.99
561.94	2241.90
562.29	2244.42
562.64	2247.74
563.00	2250.62
563.35	2254.37
563.71	2257.84
564.06	2261.32
564.42	2264.70
564.77	2267.65
565.12	2270.36
565.48	2272.77
565.83	2275.00
566.19	2276.80
566.54	2277.92
566.89	2279.51
567.25	2280.58
567.60	2282.31
567.96	2284.41
568.31	2285.59
568.66	2287.11
569.02	2288.13
569.37	2288.91
569.72	2290.40
570.08	2290.93
570.43	2291.25
570.78	2291.03
571.14	2289.92
571.49	2289.01
571.84	2288.93
572.20	2288.03
572.55	2287.18
572.90	2285.84
573.26	2284.87
573.61	2283.46
573.96	2282.39
574.31	2279.85
574.67	2277.26
575.02	2273.98
575.37	2270.81
575.72	2267.57
576.08	2264.42
576.43	2261.41
576.78	2258.04
577.13	2254.92
577.49	2251.90
577.84	2248.76
578.19	2245.36
578.54	2242.04
578.90	2238.24
579.25	2232.92
579.60	2228.40
579.95	2223.91
580.30	2219.15
580.66	2214.24
581.01	2209.69
581.36	2204.84
581.71	2200.88
582.06	2196.91
582.42	2192.79
582.77	2187.90
583.12	2183.61
583.47	2179.36
583.82	2174.72
584.17	2169.82
584.53	2164.66
584.88	2159.39
585.23	2153.91
585.58	2148.68
585.93	2143.41
586.28	2138.79
586.63	2134.09
586.98	2129.17
587.34	2124.50
587.69	2119.89
588.04	2115.08
588.39	2109.58
588.74	2103.36
589.09	2097.43
589.44	2090.79
589.79	2084.70
590.14	2079.25
590.49	2072.69
590.84	2066.31
591.19	2060.41
591.54	2054.10
591.89	2047.29
592.25	2040.81
592.60	2033.92
592.95	2026.57
593.30	2019.49
593.65	2011.98
594.00	2004.93
594.35	1997.81
594.70	1989.85
595.05	1983.03
595.40	1975.75
595.75	1968.36
596.10	1962.36
596.45	1955.85
596.80	1949.76
597.15	1943.53
597.50	1936.73
597.85	1930.46
598.19	1924.18
598.54	1917.48
598.89	1910.87
599.24	1904.77
599.59	1898.23
599.94	1891.96
600.29	1885.70
600.64	1879.20
600.99	1872.11
601.34	1865.54
601.69	1858.54
602.04	1851.97
602.39	1844.60
602.74	1837.88
603.08	1831.27
603.43	1824.62
603.78	1817.32
604.13	1810.15
604.48	1803.01
604.83	1796.08
605.18	1789.31
605.53	1781.34
605.87	1773.23
606.22	1765.99
606.57	1758.13
606.92	1750.70
607.27	1743.70
607.62	1736.90
607.96	1729.65
608.31	1723.08
608.66	1715.47
609.01	1708.07
609.36	1700.49
609.70	1692.49
610.05	1684.53
610.40	1676.89
610.75	1668.59
611.10	1660.92
611.44	1652.46
611.79	1644.15
612.14	1635.49
612.49	1626.09
612.83	1617.65
613.18	1609.34
613.53	1601.24
613.88	1592.67
614.22	1584.29
614.57	1575.49
614.92	1567.39
615.27	1559.85
615.61	1551.34
615.96	1543.21
616.31	1535.42
616.65	1527.93
617.00	1520.24
617.35	1512.33
617.70	1503.95
618.04	1495.31
618.39	1487.01
618.74	1479.34
619.08	1471.10
619.43	1463.35
619.78	1456.38
620.12	1449.10
620.47	1441.59
620.82	1433.23
621.16	1425.54
621.51	1417.84
621.85	1410.01
622.20	1401.31
622.55	1392.63
622.89	1384.75
623.24	1376.97
623.59	1369.41
623.93	1361.80
624.28	1354.44
624.62	1346.91
624.97	1339.56
625.32	1332.55
625.66	1325.42
626.01	1318.16
626.35	1310.72
626.70	1302.86
627.04	1295.11
627.39	1287.26
627.73	1279.70
628.08	1272.82
628.43	1265.58
628.77	1258.23
629.12	1250.70
629.46	1243.44
629.81	1235.92
630.15	1228.51
630.50	1221.08
630.84	1212.95
631.19	1204.85
631.53	1197.19
631.88	1189.42
632.22	1181.76
632.57	1174.41
632.91	1166.72
633.26	1159.25
633.60	1151.74
633.95	1144.53
634.29	1137.33
634.64	1130.37
634.98	1123.00
635.32	1115.73
635.67	1108.97
636.01	1102.32
636.36	1095.48
636.70	1088.90
637.05	1082.32
637.39	1075.84
637.73	1069.24
638.08	1063.21
638.42	1057.16
638.77	1050.74
639.11	1044.34
639.45	1037.91
639.80	1031.32
640.14	1024.90
640.49	1018.35
640.83	1011.92
641.17	1005.66
641.52	999.37
641.86	992.98
642.20	987.10
642.55	980.70
642.89	974.33
643.23	967.68
643.58	961.85
643.92	955.60
644.26	949.69
644.61	943.49
644.95	937.46
645.29	930.94
645.64	924.16
645.98	917.73
646.32	911.60
646.66	905.48
647.01	899.58
647.35	893.86
647.69	887.92
648.04	882.31
648.38	876.56
648.72	870.62
649.06	864.59
649.41	858.59
649.75	852.69
650.09	846.67
650.43	840.82
650.78	834.63
651.12	828.69
651.46	822.84
651.80	817.17
652.14	811.65
652.49	806.20
652.83	801.09
653.17	795.49
653.51	789.89
653.85	784.45
654.20	778.84
654.54	772.81
654.88	767.05
655.22	761.16
655.56	755.38
655.90	749.72
656.25	744.41
656.59	739.02
656.93	733.92
657.27	728.69
657.61	723.21
657.95	718.10
658.29	712.98
658.64	707.68
658.98	702.30
659.32	696.88
659.66	691.65
660.00	686.34
660.34	681.36
660.68	676.35
661.02	671.28
661.36	666.55
661.70	662.03
662.05	657.58
662.39	653.30
662.73	648.85
663.07	644.54
663.41	640.05
663.75	635.58
664.09	630.90
664.43	626.47
664.77	622.36
665.11	618.11
665.45	613.95
665.79	609.85
666.13	605.75
666.47	601.58
666.81	597.46
667.15	593.22
667.49	589.25
667.83	585.40
668.17	581.43
668.51	577.31
668.85	573.20
669.19	569.36
669.53	565.50
669.87	561.58
670.21	557.80
670.55	554.16
670.89	550.64
671.23	547.13
671.57	543.59
671.91	540.06
672.25	536.45
672.58	532.89
672.92	529.44
673.26	526.21
673.60	523.05
673.94	519.88
674.28	516.97
674.62	513.98
674.96	510.86
675.30	507.98
675.64	505.08
675.97	502.29
676.31	499.40
676.65	496.42
676.99	493.66
677.33	490.76
677.67	487.88
678.01	484.89
678.34	482.00
678.68	479.14
679.02	476.27
679.36	473.51
679.70	470.79
680.04	467.99
680.37	465.08
680.71	462.22
681.05	459.57
681.39	456.90
681.73	454.24
682.06	451.68
682.40	449.11
682.74	446.50
683.08	443.88
683.42	441.23
683.75	438.72
684.09	436.12
684.43	433.63
684.77	431.20
685.10	428.78
685.44	426.39
685.78	424.07
686.12	421.74
686.45	419.44
686.79	417.11
687.13	414.86
687.46	412.70
687.80	410.56
688.14	408.25
688.48	406.07
688.81	403.83
689.15	401.65
689.49	399.42
689.82	397.30
690.16	395.20
690.50	393.26
690.83	391.29
691.17	389.29
691.51	387.40
691.84	385.53
692.18	383.62
692.52	381.67
692.85	379.69
693.19	377.83
693.52	375.95
693.86	374.07
694.20	372.30
694.53	370.51
694.87	368.60
695.21	366.82
695.54	364.99
695.88	363.18
696.21	361.43
696.55	359.76
696.88	358.02
697.22	356.38
697.56	354.70
697.89	353.00
698.23	351.42
698.56	349.78
698.90	348.16
699.23	346.50
699.57	344.93
699.90	343.36
700.24	341.79
700.58	340.27
700.91	338.80
701.25	337.32
701.58	335.92
701.92	334.64
702.25	333.25
702.59	331.86
702.92	330.52
703.26	329.27
703.59	327.97
703.93	326.80
704.26	325.54
704.60	324.26
704.93	322.99
705.26	321.70
705.60	320.48
705.93	319.29
706.27	318.26
706.60	317.18
706.94	316.10
707.27	314.95
707.61	313.85
707.94	312.81
708.27	311.74
708.61	310.63
708.94	309.59
709.28	308.60
709.61	307.68
709.94	306.78
710.28	305.70
710.61	304.71
710.95	303.60
711.28	302.68
711.61	301.70
711.95	300.79
712.28	299.83
712.61	298.82
712.95	297.88
713.28	296.97
713.61	296.04
713.95	295.15
714.28	294.30
714.61	293.43
714.95	292.54
715.28	291.62
715.61	290.71
715.95	289.80
716.28	288.92
716.61	288.00
716.95	287.14
717.28	286.34
717.61	285.55
717.94	284.81
718.28	283.94
718.61	283.17
718.94	282.42
719.27	281.80
719.61	281.15
719.94	280.46
720.27	279.73
720.60	279.05
720.94	278.41
721.27	277.79
721.60	277.16
721.93	276.58
722.27	276.01
722.60	275.48
722.93	274.89
723.26	274.35
723.59	273.78
723.93	273.22
724.26	272.65
724.59	272.09
724.92	271.53
725.25	271.05
725.59	270.55
725.92	270.06
726.25	269.48
726.58	268.96
726.91	268.47
727.24	267.98
727.57	267.50
727.91	266.95
728.24	266.46
728.57	265.99
728.90	265.50
729.23	264.99
729.56	264.51
729.89	264.05
730.22	263.53
730.55	263.05
730.89	262.58
731.22	262.11
731.55	261.65
731.88	261.21
732.21	260.76
732.54	260.33
732.87	259.91
733.20	259.51
733.53	259.13
733.86	258.75
734.19	258.38
734.52	257.97
734.85	257.67
735.18	257.29
735.51	256.92
735.84	256.52
736.17	256.19
736.50	255.80
736.83	255.52
737.16	255.21
737.49	254.89
737.82	254.53
738.15	254.21
738.48	253.87
738.81	253.56
739.14	253.22
739.47	252.90
739.80	252.57
740.13	252.26
740.46	251.93
740.79	251.57
741.12	251.23
741.45	250.95
741.78	250.57
742.11	250.28
742.44	249.96
742.77	249.67
743.10	249.36
743.43	249.05
743.75	248.69
744.08	248.52
744.41	248.25
744.74	248.00
745.07	247.71
745.40	247.48
745.73	247.21
746.06	246.93
746.39	246.66
746.71	246.36
747.04	246.09
747.37	245.81
747.70	245.60
748.03	245.36
748.36	245.11
748.68	244.92
749.01	244.64
749.34	244.41
749.67	244.20
750.00	243.97
750.33	243.80
750.65	243.64
750.98	243.29
751.31	243.08
751.64	242.89
751.97	242.73
752.29	242.51
752.62	242.24
752.95	242.06
753.28	241.84
753.60	241.66
753.93	241.44
754.26	241.24
754.59	240.99
754.91	240.78
755.24	240.59
755.57	240.38
755.90	240.21
756.22	239.98
756.55	239.79
756.88	239.59
757.20	239.37
757.53	239.14
757.86	239.00
758.19	238.81
758.51	238.60
758.84	238.38
759.17	238.20
759.49	238.10
759.82	237.98
760.15	237.82
760.47	237.65
760.80	237.49
761.13	237.36
761.45	237.23
761.78	237.06
762.11	236.92
762.43	236.78
762.76	236.64
763.08	236.53
763.41	236.40
763.74	236.25
764.06	236.08
764.39	235.93
764.71	235.79
765.04	235.67
765.37	235.54
765.69	235.38
766.02	235.25
766.34	235.12
766.67	234.91
767.00	234.81
767.32	234.77
767.65	234.72
767.97	234.58
768.30	234.45
768.62	234.37
768.95	234.23
769.27	234.07
769.60	233.96
769.92	233.82
770.25	233.68
770.57	233.61
770.90	233.52
771.22	233.40
771.55	233.29
771.87	233.18
772.20	233.05
772.52	233.07
772.85	233.09
773.17	232.96
773.50	232.88
773.82	232.77
774.15	232.58
774.47	232.44
774.80	232.35
775.12	232.26
775.45	232.15
775.77	232.07
776.09	232.03
776.42	231.96
776.74	231.90
777.07	231.81
777.39	231.69
777.72	231.62
778.04	231.57
778.36	231.48
778.69	231.41
779.01	231.34
779.33	231.17
779.66	230.98
779.98	230.90
780.31	230.83
780.63	230.79
780.95	230.76
781.28	230.68
781.60	230.62
781.92	230.55
782.25	230.50
782.57	230.40
782.89	230.30
783.22	230.21
783.54	230.13
783.86	230.11
784.19	230.04
784.51	230.02
784.83	229.95
785.16	229.90
785.48	229.86
785.80	229.81
786.12	229.79
786.45	229.77
786.77	229.76
787.09	229.72
