SpectraSuite Data File
++++++++++++++++++++++++++++++++++++
Date: Fri Feb 01 16:21:36 EST 2013
User: group
Dark Spectrum Present: No
Reference Spectrum Present: No
Number of Sampled Component Spectra: 1
Spectrometers: USB2E7196
Integration Time (usec): 35000 (USB2E7196)
Spectra Averaged: 100 (USB2E7196)
Boxcar Smoothing: 10 (USB2E7196)
Correct for Electrical Dark: No (USB2E7196)
Strobe/Lamp Enabled: No (USB2E7196)
Correct for Detector Non-linearity: No (USB2E7196)
Correct for Stray Light: No (USB2E7196)
Number of Pixels in Processed Spectrum: 2048
>>>>>Begin Processed Spectral Data<<<<<
339.09	0.00
339.48	214.44
339.86	216.18
340.24	217.08
340.63	218.81
341.01	221.33
341.39	220.47
341.78	222.75
342.16	223.72
342.54	223.94
342.93	212.77
343.31	223.51
343.69	224.05
344.07	224.51
344.46	224.94
344.84	225.29
345.22	225.53
345.60	225.82
345.99	225.97
346.37	226.07
346.75	226.20
347.13	226.25
347.52	226.29
347.90	226.32
348.28	226.31
348.66	226.36
349.05	226.31
349.43	226.35
349.81	226.35
350.19	226.40
350.57	226.43
350.96	226.43
351.34	226.50
351.72	226.55
352.10	226.61
352.48	226.63
352.87	226.69
353.25	226.76
353.63	226.78
354.01	226.86
354.39	226.95
354.77	226.98
355.15	227.08
355.54	227.13
355.92	227.19
356.30	227.29
356.68	227.36
357.06	227.45
357.44	227.45
357.82	227.52
358.20	227.60
358.58	227.66
358.97	227.72
359.35	227.80
359.73	227.87
360.11	227.92
360.49	228.02
360.87	228.04
361.25	228.08
361.63	228.18
362.01	228.22
362.39	228.25
362.77	228.31
363.15	228.36
363.53	228.37
363.91	228.39
364.29	228.43
364.67	228.38
365.05	228.42
365.43	228.47
365.81	228.50
366.19	228.52
366.57	228.56
366.95	228.55
367.33	228.49
367.71	228.53
368.09	228.54
368.47	228.49
368.85	228.51
369.23	228.50
369.61	228.43
369.99	228.44
370.37	228.41
370.75	228.43
371.13	228.36
371.51	228.35
371.89	228.32
372.27	228.27
372.65	228.24
373.03	228.18
373.41	228.11
373.78	228.04
374.16	227.97
374.54	227.89
374.92	227.86
375.30	227.81
375.68	227.69
376.06	227.65
376.44	227.60
376.82	227.50
377.19	227.44
377.57	227.37
377.95	227.26
378.33	227.19
378.71	227.07
379.09	226.99
379.47	226.93
379.84	226.86
380.22	226.76
380.60	226.68
380.98	226.63
381.36	226.58
381.73	226.51
382.11	226.44
382.49	226.37
382.87	226.29
383.25	226.24
383.62	226.32
384.00	226.24
384.38	226.18
384.76	226.14
385.13	226.11
385.51	226.11
385.89	226.04
386.27	226.00
386.64	225.97
387.02	225.96
387.40	225.92
387.78	225.91
388.15	225.89
388.53	225.88
388.91	225.80
389.29	225.77
389.66	225.80
390.04	225.77
390.42	225.76
390.79	225.76
391.17	225.74
391.55	225.61
391.92	225.61
392.30	225.59
392.68	225.59
393.05	225.61
393.43	225.58
393.81	225.63
394.18	225.64
394.56	225.67
394.94	225.69
395.31	225.70
395.69	225.73
396.06	225.77
396.44	225.79
396.82	225.80
397.19	225.88
397.57	225.88
397.95	225.96
398.32	225.99
398.70	226.04
399.07	226.11
399.45	226.16
399.82	226.21
400.20	226.30
400.58	226.37
400.95	226.37
401.33	226.47
401.70	226.60
402.08	226.67
402.45	226.74
402.83	226.85
403.20	226.95
403.58	227.04
403.95	227.17
404.33	227.29
404.71	227.43
405.08	227.59
405.46	227.72
405.83	227.83
406.21	227.99
406.58	228.17
406.96	228.36
407.33	228.56
407.70	228.76
408.08	229.01
408.45	229.26
408.83	229.51
409.20	229.72
409.58	229.91
409.95	230.18
410.33	230.44
410.70	230.68
411.08	230.98
411.45	231.28
411.82	231.56
412.20	231.91
412.57	232.32
412.95	232.60
413.32	232.99
413.69	233.40
414.07	233.81
414.44	234.28
414.82	234.73
415.19	235.26
415.56	235.81
415.94	236.36
416.31	236.98
416.68	237.61
417.06	238.31
417.43	238.97
417.81	239.73
418.18	240.52
418.55	241.39
418.93	242.24
419.30	243.11
419.67	244.05
420.04	245.00
420.42	246.01
420.79	247.21
421.16	248.35
421.54	249.55
421.91	250.79
422.28	252.07
422.66	253.39
423.03	254.69
423.40	256.01
423.77	257.42
424.15	258.80
424.52	260.25
424.89	261.90
425.26	263.44
425.64	264.89
426.01	266.50
426.38	268.15
426.75	269.82
427.13	271.56
427.50	273.36
427.87	275.26
428.24	277.11
428.61	278.81
428.99	280.77
429.36	282.88
429.73	284.94
430.10	286.93
430.47	289.00
430.85	291.13
431.22	293.36
431.59	295.75
431.96	298.00
432.33	300.52
432.70	302.84
433.08	305.67
433.45	308.31
433.82	310.90
434.19	313.75
434.56	316.55
434.93	319.24
435.30	321.86
435.68	324.75
436.05	327.50
436.42	330.34
436.79	332.86
437.16	335.50
437.53	338.28
437.90	341.09
438.27	343.84
438.64	346.64
439.01	349.26
439.38	351.48
439.75	353.63
440.13	356.10
440.50	358.50
440.87	360.31
441.24	362.23
441.61	364.38
441.98	365.88
442.35	367.67
442.72	369.49
443.09	371.26
443.46	372.27
443.83	372.89
444.20	373.39
444.57	374.19
444.94	374.52
445.31	374.86
445.68	375.19
446.05	375.25
446.42	374.87
446.79	374.43
447.16	373.96
447.53	373.64
447.90	372.48
448.27	371.26
448.64	369.68
449.01	368.58
449.37	366.59
449.74	364.69
450.11	362.47
450.48	360.03
450.85	357.55
451.22	355.39
451.59	353.41
451.96	351.42
452.33	348.83
452.70	346.48
453.07	343.69
453.43	340.82
453.80	338.09
454.17	335.42
454.54	332.86
454.91	330.20
455.28	327.53
455.65	325.03
456.02	322.62
456.38	320.50
456.75	317.83
457.12	315.65
457.49	313.47
457.86	311.30
458.23	309.48
458.59	307.40
458.96	305.34
459.33	303.50
459.70	301.67
460.07	300.17
460.43	298.43
460.80	296.81
461.17	295.35
461.54	293.83
461.91	292.42
462.27	291.01
462.64	289.73
463.01	288.39
463.38	287.14
463.74	285.76
464.11	284.61
464.48	283.56
464.85	282.40
465.21	281.50
465.58	280.56
465.95	279.44
466.32	278.55
466.68	277.64
467.05	276.75
467.42	275.87
467.78	274.97
468.15	274.14
468.52	273.47
468.88	272.64
469.25	271.88
469.62	271.26
469.98	270.58
470.35	269.94
470.72	269.35
471.08	268.68
471.45	268.13
471.82	267.59
472.18	267.00
472.55	266.56
472.92	266.07
473.28	265.60
473.65	265.15
474.02	264.71
474.38	264.36
474.75	264.03
475.11	263.68
475.48	263.41
475.85	263.18
476.21	262.93
476.58	262.74
476.94	262.60
477.31	262.43
477.67	262.31
478.04	262.21
478.41	262.15
478.77	262.21
479.14	262.15
479.50	262.17
479.87	262.28
480.23	262.36
480.60	262.41
480.96	262.52
481.33	262.75
481.69	262.96
482.06	263.11
482.42	263.34
482.79	263.62
483.15	263.94
483.52	264.30
483.88	264.65
484.25	265.05
484.61	265.49
484.98	265.91
485.34	266.46
485.71	267.08
486.07	267.70
486.44	268.24
486.80	268.96
487.17	269.69
487.53	270.48
487.90	271.34
488.26	272.30
488.62	273.33
488.99	274.27
489.35	275.32
489.72	276.49
490.08	277.70
490.44	278.94
490.81	280.27
491.17	281.64
491.54	283.15
491.90	284.65
492.26	286.31
492.63	288.09
492.99	289.83
493.36	291.72
493.72	293.72
494.08	295.82
494.45	298.04
494.81	300.42
495.17	302.86
495.54	305.44
495.90	308.10
496.26	310.89
496.63	313.85
496.99	316.96
497.35	320.21
497.72	323.60
498.08	327.11
498.44	330.77
498.80	334.72
499.17	338.74
499.53	342.90
499.89	347.33
500.26	351.84
500.62	356.55
500.98	361.50
501.34	366.58
501.71	371.90
502.07	377.37
502.43	382.98
502.79	388.85
503.16	394.96
503.52	401.29
503.88	407.74
504.24	414.39
504.60	421.28
504.97	428.44
505.33	435.80
505.69	443.57
506.05	451.38
506.41	459.26
506.78	467.45
507.14	475.98
507.50	484.65
507.86	493.65
508.22	502.82
508.59	512.12
508.95	521.74
509.31	531.55
509.67	541.72
510.03	551.96
510.39	562.47
510.75	573.30
511.12	584.17
511.48	595.43
511.84	606.89
512.20	618.42
512.56	630.36
512.92	642.54
513.28	654.84
513.64	667.36
514.00	680.12
514.37	693.05
514.73	706.04
515.09	719.03
515.45	732.39
515.81	746.01
516.17	759.93
516.53	774.06
516.89	788.24
517.25	802.37
517.61	816.77
517.97	831.25
518.33	845.68
518.69	860.41
519.05	875.42
519.41	890.67
519.77	906.13
520.13	921.50
520.49	936.85
520.85	952.18
521.21	967.77
521.57	983.93
521.93	999.69
522.29	1016.10
522.65	1032.41
523.01	1048.44
523.37	1064.48
523.73	1080.58
524.09	1096.57
524.45	1112.81
524.81	1129.31
525.17	1146.20
525.53	1163.05
525.89	1179.78
526.25	1196.63
526.61	1212.93
526.97	1229.55
527.33	1246.00
527.68	1262.58
528.04	1278.99
528.40	1295.58
528.76	1312.59
529.12	1329.13
529.48	1345.82
529.84	1361.73
530.20	1378.11
530.56	1395.17
530.91	1412.49
531.27	1429.30
531.63	1445.78
531.99	1462.30
532.35	1478.20
532.71	1494.04
533.07	1510.24
533.42	1526.16
533.78	1542.10
534.14	1558.29
534.50	1573.59
534.86	1589.35
535.21	1604.45
535.57	1620.32
535.93	1635.75
536.29	1650.53
536.65	1665.36
537.00	1680.13
537.36	1695.37
537.72	1710.06
538.08	1724.43
538.44	1738.09
538.79	1751.72
539.15	1765.25
539.51	1778.91
539.87	1793.26
540.22	1806.89
540.58	1820.40
540.94	1833.63
541.29	1846.43
541.65	1858.96
542.01	1872.11
542.37	1884.50
542.72	1896.85
543.08	1908.54
543.44	1920.78
543.79	1931.87
544.15	1942.96
544.51	1954.48
544.87	1965.37
545.22	1975.99
545.58	1986.08
545.94	1995.84
546.29	2005.73
546.65	2015.56
547.01	2024.85
547.36	2033.34
547.72	2041.70
548.07	2049.71
548.43	2057.83
548.79	2065.84
549.14	2073.30
549.50	2080.47
549.86	2088.01
550.21	2095.28
550.57	2102.40
550.92	2109.07
551.28	2116.03
551.64	2122.98
551.99	2129.51
552.35	2135.59
552.70	2141.78
553.06	2147.79
553.41	2154.09
553.77	2160.14
554.13	2166.15
554.48	2172.29
554.84	2177.82
555.19	2183.09
555.55	2188.20
555.90	2192.59
556.26	2197.49
556.61	2202.32
556.97	2206.63
557.32	2210.78
557.68	2214.90
558.03	2219.27
558.39	2222.83
558.74	2227.57
559.10	2231.39
559.45	2235.08
559.81	2239.41
560.16	2243.23
560.52	2246.42
560.87	2249.79
561.23	2252.40
561.58	2255.42
561.94	2257.85
562.29	2260.35
562.64	2263.03
563.00	2265.62
563.35	2269.14
563.71	2272.21
564.06	2275.43
564.42	2278.23
564.77	2280.65
565.12	2283.00
565.48	2284.76
565.83	2286.76
566.19	2288.10
566.54	2289.05
566.89	2290.09
567.25	2290.65
567.60	2291.93
567.96	2293.61
568.31	2294.51
568.66	2295.64
569.02	2296.33
569.37	2296.77
569.72	2297.59
570.08	2297.79
570.43	2297.84
570.78	2297.41
571.14	2295.95
571.49	2294.58
571.84	2294.55
572.20	2293.52
572.55	2292.51
572.90	2291.20
573.26	2289.86
573.61	2288.15
573.96	2286.53
574.31	2283.64
574.67	2280.81
575.02	2277.36
575.37	2274.03
575.72	2270.26
576.08	2267.05
576.43	2263.70
576.78	2260.02
577.13	2256.95
577.49	2253.93
577.84	2250.51
578.19	2246.74
578.54	2243.21
578.90	2239.10
579.25	2233.42
579.60	2228.53
579.95	2223.59
580.30	2218.44
580.66	2213.36
581.01	2208.52
581.36	2203.68
581.71	2199.67
582.06	2195.22
582.42	2190.74
582.77	2185.55
583.12	2181.13
583.47	2176.42
583.82	2171.36
584.17	2166.23
584.53	2160.74
584.88	2155.08
585.23	2149.27
585.58	2143.82
585.93	2138.38
586.28	2133.67
586.63	2128.77
586.98	2123.77
587.34	2119.02
587.69	2114.25
588.04	2108.88
588.39	2103.34
588.74	2096.89
589.09	2090.75
589.44	2084.11
589.79	2078.04
590.14	2072.62
590.49	2066.05
590.84	2059.70
591.19	2053.66
591.54	2047.21
591.89	2039.95
592.25	2033.22
592.60	2025.99
592.95	2018.46
593.30	2011.22
593.65	2003.60
594.00	1996.43
594.35	1989.13
594.70	1981.23
595.05	1974.00
595.40	1966.83
595.75	1959.28
596.10	1953.11
596.45	1946.31
596.80	1940.14
597.15	1933.55
597.50	1926.30
597.85	1919.78
598.19	1913.12
598.54	1906.02
598.89	1899.28
599.24	1893.42
599.59	1886.68
599.94	1880.63
600.29	1874.34
600.64	1867.57
600.99	1860.30
601.34	1853.63
601.69	1846.86
602.04	1839.98
602.39	1832.62
602.74	1825.77
603.08	1819.04
603.43	1812.30
603.78	1805.00
604.13	1797.69
604.48	1790.49
604.83	1783.75
605.18	1776.83
605.53	1768.92
605.87	1761.11
606.22	1753.99
606.57	1746.01
606.92	1738.78
607.27	1731.62
607.62	1724.71
607.96	1717.59
608.31	1710.87
608.66	1703.23
609.01	1695.60
609.36	1688.06
609.70	1680.14
610.05	1672.14
610.40	1664.43
610.75	1656.08
611.10	1648.43
611.44	1640.03
611.79	1632.04
612.14	1623.33
612.49	1614.23
612.83	1605.80
613.18	1597.70
613.53	1589.58
613.88	1581.03
614.22	1572.70
614.57	1564.14
614.92	1556.13
615.27	1548.53
615.61	1540.26
615.96	1532.19
616.31	1524.56
616.65	1517.11
617.00	1509.53
617.35	1501.97
617.70	1493.68
618.04	1485.22
618.39	1477.07
618.74	1469.44
619.08	1461.15
619.43	1453.56
619.78	1446.59
620.12	1439.50
620.47	1431.92
620.82	1423.74
621.16	1416.32
621.51	1408.77
621.85	1401.13
622.20	1392.62
622.55	1384.20
622.89	1376.28
623.24	1368.72
623.59	1361.28
623.93	1353.84
624.28	1346.66
624.62	1339.04
624.97	1331.86
625.32	1325.08
625.66	1318.01
626.01	1310.96
626.35	1303.42
626.70	1295.69
627.04	1287.97
627.39	1280.18
627.73	1272.77
628.08	1265.97
628.43	1258.63
628.77	1251.27
629.12	1243.66
629.46	1236.56
629.81	1229.31
630.15	1222.06
630.50	1214.61
630.84	1206.43
631.19	1198.49
631.53	1190.84
631.88	1183.27
632.22	1175.62
632.57	1168.32
632.91	1160.63
633.26	1153.17
633.60	1145.90
633.95	1138.79
634.29	1131.76
634.64	1125.05
634.98	1117.71
635.32	1110.45
635.67	1103.87
636.01	1097.22
636.36	1090.46
636.70	1083.79
637.05	1077.14
637.39	1070.72
637.73	1064.25
638.08	1058.42
638.42	1052.36
638.77	1046.02
639.11	1039.35
639.45	1032.95
639.80	1026.30
640.14	1019.90
640.49	1013.31
640.83	1007.01
641.17	1000.65
641.52	994.29
641.86	987.78
642.20	981.89
642.55	975.60
642.89	968.99
643.23	962.47
643.58	956.61
643.92	950.44
644.26	944.37
644.61	938.32
644.95	932.31
645.29	925.67
645.64	918.89
645.98	912.55
646.32	906.73
646.66	900.73
647.01	894.87
647.35	889.23
647.69	883.49
648.04	877.87
648.38	872.19
648.72	866.21
649.06	860.18
649.41	854.29
649.75	848.33
650.09	842.61
650.43	836.75
650.78	830.57
651.12	824.65
651.46	818.86
651.80	813.10
652.14	807.66
652.49	802.21
652.83	797.15
653.17	791.43
653.51	785.72
653.85	780.32
654.20	774.75
654.54	768.78
654.88	763.00
655.22	757.17
655.56	751.44
655.90	745.99
656.25	740.74
656.59	735.39
656.93	730.36
657.27	725.12
657.61	719.73
657.95	714.69
658.29	709.64
658.64	704.48
658.98	699.20
659.32	693.66
659.66	688.55
660.00	683.17
660.34	678.25
660.68	673.39
661.02	668.32
661.36	663.63
661.70	659.12
662.05	654.77
662.39	650.41
662.73	645.90
663.07	641.49
663.41	637.02
663.75	632.52
664.09	627.87
664.43	623.46
664.77	619.34
665.11	615.09
665.45	610.89
665.79	606.87
666.13	602.74
666.47	598.70
666.81	594.55
667.15	590.48
667.49	586.58
667.83	582.73
668.17	578.78
668.51	574.62
668.85	570.59
669.19	566.71
669.53	562.92
669.87	559.13
670.21	555.45
670.55	551.81
670.89	548.34
671.23	544.87
671.57	541.38
671.91	537.79
672.25	534.25
672.58	530.73
672.92	527.23
673.26	524.04
673.60	520.91
673.94	517.78
674.28	514.82
674.62	511.88
674.96	508.80
675.30	505.91
675.64	502.98
675.97	500.18
676.31	497.34
676.65	494.31
676.99	491.58
677.33	488.74
677.67	485.96
678.01	482.93
678.34	480.00
678.68	477.10
679.02	474.27
679.36	471.54
679.70	468.84
680.04	466.08
680.37	463.19
680.71	460.39
681.05	457.75
681.39	455.01
681.73	452.35
682.06	449.80
682.40	447.21
682.74	444.70
683.08	442.17
683.42	439.49
683.75	437.07
684.09	434.50
684.43	432.00
684.77	429.48
685.10	427.13
685.44	424.83
685.78	422.54
686.12	420.30
686.45	417.99
686.79	415.60
687.13	413.40
687.46	411.22
687.80	409.01
688.14	406.81
688.48	404.76
688.81	402.45
689.15	400.28
689.49	398.14
689.82	396.04
690.16	393.94
690.50	392.04
690.83	390.07
691.17	388.10
691.51	386.17
691.84	384.31
692.18	382.37
692.52	380.36
692.85	378.39
693.19	376.49
693.52	374.71
693.86	372.92
694.20	371.11
694.53	369.29
694.87	367.45
695.21	365.67
695.54	363.83
695.88	362.17
696.21	360.40
696.55	358.72
696.88	357.03
697.22	355.36
697.56	353.72
697.89	352.08
698.23	350.47
698.56	348.85
698.90	347.29
699.23	345.67
699.57	344.14
699.90	342.59
700.24	341.07
700.58	339.51
700.91	338.04
701.25	336.60
701.58	335.26
701.92	333.92
702.25	332.50
702.59	331.15
702.92	329.80
703.26	328.54
703.59	327.28
703.93	326.14
704.26	324.92
704.60	323.59
704.93	322.30
705.26	321.05
705.60	319.88
705.93	318.68
706.27	317.64
706.60	316.56
706.94	315.54
707.27	314.38
707.61	313.33
707.94	312.29
708.27	311.23
708.61	310.15
708.94	309.17
709.28	308.22
709.61	307.24
709.94	306.32
710.28	305.28
710.61	304.30
710.95	303.20
711.28	302.28
711.61	301.37
711.95	300.47
712.28	299.51
712.61	298.55
712.95	297.69
713.28	296.82
713.61	295.94
713.95	295.06
714.28	294.23
714.61	293.37
714.95	292.56
715.28	291.69
715.61	290.78
715.95	289.89
716.28	289.00
716.61	288.16
716.95	287.33
717.28	286.59
717.61	285.81
717.94	285.04
718.28	284.22
718.61	283.49
718.94	282.76
719.27	282.09
719.61	281.44
719.94	280.76
720.27	280.04
720.60	279.40
720.94	278.74
721.27	278.16
721.60	277.53
721.93	276.91
722.27	276.35
722.60	275.82
722.93	275.27
723.26	274.73
723.59	274.16
723.93	273.61
724.26	273.06
724.59	272.49
724.92	271.97
725.25	271.47
725.59	270.95
725.92	270.44
726.25	269.95
726.58	269.44
726.91	268.91
727.24	268.39
727.57	267.89
727.91	267.39
728.24	266.88
728.57	266.37
728.90	265.93
729.23	265.39
729.56	264.93
729.89	264.45
730.22	264.00
730.55	263.50
730.89	263.05
731.22	262.60
731.55	262.18
731.88	261.76
732.21	261.30
732.54	260.85
732.87	260.40
733.20	259.99
733.53	259.60
733.86	259.22
734.19	258.85
734.52	258.45
734.85	258.13
735.18	257.72
735.51	257.38
735.84	256.95
736.17	256.62
736.50	256.23
736.83	255.95
737.16	255.60
737.49	255.29
737.82	254.90
738.15	254.55
738.48	254.19
738.81	253.88
739.14	253.54
739.47	253.23
739.80	252.94
740.13	252.62
740.46	252.28
740.79	251.99
741.12	251.67
741.45	251.36
741.78	251.02
742.11	250.74
742.44	250.46
742.77	250.22
743.10	249.93
743.43	249.65
743.75	249.28
744.08	249.16
744.41	248.89
744.74	248.69
745.07	248.41
745.40	248.19
745.73	247.93
746.06	247.70
746.39	247.44
746.71	247.18
747.04	246.91
747.37	246.63
747.70	246.37
748.03	246.11
748.36	245.92
748.68	245.69
749.01	245.42
749.34	245.19
749.67	244.96
750.00	244.77
750.33	244.61
750.65	244.41
750.98	244.09
751.31	243.91
751.64	243.69
751.97	243.55
752.29	243.34
752.62	243.11
752.95	242.89
753.28	242.70
753.60	242.50
753.93	242.31
754.26	242.15
754.59	241.93
754.91	241.72
755.24	241.51
755.57	241.32
755.90	241.18
756.22	240.96
756.55	240.73
756.88	240.53
757.20	240.30
757.53	240.12
757.86	239.89
758.19	239.70
758.51	239.52
758.84	239.33
759.17	239.13
759.49	238.99
759.82	238.91
760.15	238.77
760.47	238.60
760.80	238.44
761.13	238.32
761.45	238.17
761.78	238.03
762.11	237.86
762.43	237.67
762.76	237.52
763.08	237.40
763.41	237.26
763.74	237.09
764.06	236.96
764.39	236.79
764.71	236.67
765.04	236.53
765.37	236.41
765.69	236.26
766.02	236.14
766.34	236.01
766.67	235.81
767.00	235.68
767.32	235.63
767.65	235.57
767.97	235.43
768.30	235.35
768.62	235.21
768.95	235.09
769.27	234.99
769.60	234.90
769.92	234.78
770.25	234.64
770.57	234.55
770.90	234.44
771.22	234.33
771.55	234.24
771.87	234.12
772.20	233.98
772.52	233.96
772.85	233.96
773.17	233.85
773.50	233.76
773.82	233.68
774.15	233.51
774.47	233.37
774.80	233.28
775.12	233.16
775.45	233.12
775.77	233.08
776.09	233.01
776.42	232.93
776.74	232.88
777.07	232.81
777.39	232.77
777.72	232.69
778.04	232.60
778.36	232.50
778.69	232.45
779.01	232.42
779.33	232.28
779.66	232.10
779.98	232.06
780.31	231.98
780.63	231.96
780.95	231.93
781.28	231.84
781.60	231.78
781.92	231.70
782.25	231.66
782.57	231.59
782.89	231.54
783.22	231.49
783.54	231.46
783.86	231.45
784.19	231.38
784.51	231.36
784.83	231.35
785.16	231.30
785.48	231.25
785.80	231.16
786.12	231.12
786.45	231.11
786.77	231.04
787.09	231.02
