SpectraSuite Data File
++++++++++++++++++++++++++++++++++++
Date: Fri Feb 01 15:12:40 EST 2013
User: group
Dark Spectrum Present: No
Reference Spectrum Present: No
Number of Sampled Component Spectra: 1
Spectrometers: USB2E7196
Integration Time (usec): 35000 (USB2E7196)
Spectra Averaged: 100 (USB2E7196)
Boxcar Smoothing: 10 (USB2E7196)
Correct for Electrical Dark: No (USB2E7196)
Strobe/Lamp Enabled: No (USB2E7196)
Correct for Detector Non-linearity: No (USB2E7196)
Correct for Stray Light: No (USB2E7196)
Number of Pixels in Processed Spectrum: 2048
>>>>>Begin Processed Spectral Data<<<<<
339.09	0.00
339.48	215.59
339.86	216.19
340.24	218.23
340.63	219.40
341.01	222.76
341.39	221.83
341.78	223.19
342.16	224.21
342.54	225.09
342.93	213.45
343.31	224.24
343.69	224.76
344.07	225.24
344.46	225.65
344.84	226.03
345.22	226.23
345.60	226.48
345.99	226.69
346.37	226.85
346.75	226.96
347.13	227.06
347.52	227.14
347.90	227.22
348.28	227.26
348.66	227.28
349.05	227.27
349.43	227.31
349.81	227.39
350.19	227.42
350.57	227.51
350.96	227.59
351.34	227.69
351.72	227.80
352.10	227.92
352.48	228.03
352.87	228.08
353.25	228.15
353.63	228.21
354.01	228.29
354.39	228.35
354.77	228.42
355.15	228.50
355.54	228.54
355.92	228.60
356.30	228.66
356.68	228.78
357.06	228.86
357.44	228.90
357.82	228.96
358.20	229.02
358.58	229.04
358.97	229.11
359.35	229.20
359.73	229.25
360.11	229.27
360.49	229.27
360.87	229.32
361.25	229.39
361.63	229.47
362.01	229.50
362.39	229.52
362.77	229.57
363.15	229.56
363.53	229.60
363.91	229.59
364.29	229.66
364.67	229.60
365.05	229.62
365.43	229.64
365.81	229.64
366.19	229.69
366.57	229.73
366.95	229.70
367.33	229.66
367.71	229.62
368.09	229.64
368.47	229.63
368.85	229.59
369.23	229.54
369.61	229.44
369.99	229.43
370.37	229.42
370.75	229.42
371.13	229.36
371.51	229.30
371.89	229.26
372.27	229.16
372.65	229.12
373.03	229.08
373.41	229.03
373.78	228.94
374.16	228.81
374.54	228.73
374.92	228.65
375.30	228.54
375.68	228.46
376.06	228.39
376.44	228.32
376.82	228.25
377.19	228.20
377.57	228.16
377.95	228.04
378.33	227.93
378.71	227.81
379.09	227.74
379.47	227.66
379.84	227.58
380.22	227.48
380.60	227.36
380.98	227.21
381.36	227.14
381.73	227.04
382.11	227.02
382.49	226.94
382.87	226.86
383.25	226.80
383.62	226.83
384.00	226.72
384.38	226.67
384.76	226.60
385.13	226.58
385.51	226.51
385.89	226.45
386.27	226.45
386.64	226.41
387.02	226.38
387.40	226.33
387.78	226.29
388.15	226.28
388.53	226.27
388.91	226.29
389.29	226.25
389.66	226.26
390.04	226.24
390.42	226.25
390.79	226.26
391.17	226.24
391.55	226.13
391.92	226.14
392.30	226.13
392.68	226.14
393.05	226.19
393.43	226.18
393.81	226.17
394.18	226.16
394.56	226.16
394.94	226.18
395.31	226.21
395.69	226.28
396.06	226.35
396.44	226.43
396.82	226.44
397.19	226.53
397.57	226.58
397.95	226.64
398.32	226.66
398.70	226.73
399.07	226.84
399.45	226.92
399.82	226.99
400.20	227.05
400.58	227.16
400.95	227.15
401.33	227.26
401.70	227.47
402.08	227.57
402.45	227.67
402.83	227.83
403.20	227.93
403.58	228.05
403.95	228.20
404.33	228.31
404.71	228.51
405.08	228.70
405.46	228.84
405.83	228.96
406.21	229.13
406.58	229.30
406.96	229.48
407.33	229.66
407.70	229.89
408.08	230.20
408.45	230.43
408.83	230.71
409.20	230.95
409.58	231.12
409.95	231.38
410.33	231.69
410.70	231.95
411.08	232.30
411.45	232.60
411.82	232.88
412.20	233.23
412.57	233.61
412.95	233.92
413.32	234.35
413.69	234.79
414.07	235.22
414.44	235.69
414.82	236.14
415.19	236.70
415.56	237.23
415.94	237.76
416.31	238.38
416.68	238.97
417.06	239.72
417.43	240.39
417.81	241.18
418.18	241.95
418.55	242.78
418.93	243.63
419.30	244.48
419.67	245.41
420.04	246.35
420.42	247.34
420.79	248.53
421.16	249.66
421.54	250.85
421.91	252.05
422.28	253.26
422.66	254.59
423.03	255.92
423.40	257.26
423.77	258.67
424.15	260.06
424.52	261.55
424.89	263.14
425.26	264.65
425.64	266.08
426.01	267.68
426.38	269.29
426.75	270.98
427.13	272.75
427.50	274.55
427.87	276.40
428.24	278.28
428.61	280.00
428.99	281.93
429.36	284.05
429.73	286.14
430.10	288.22
430.47	290.30
430.85	292.39
431.22	294.64
431.59	297.03
431.96	299.32
432.33	301.85
432.70	304.20
433.08	307.05
433.45	309.66
433.82	312.28
434.19	315.22
434.56	317.97
434.93	320.65
435.30	323.29
435.68	326.25
436.05	329.07
436.42	331.88
436.79	334.40
437.16	337.11
437.53	339.94
437.90	342.74
438.27	345.50
438.64	348.39
439.01	350.96
439.38	353.20
439.75	355.39
440.13	357.88
440.50	360.31
440.87	362.21
441.24	364.20
441.61	366.37
441.98	367.84
442.35	369.67
442.72	371.52
443.09	373.30
443.46	374.30
443.83	374.88
444.20	375.37
444.57	376.21
444.94	376.48
445.31	376.80
445.68	377.14
446.05	377.24
446.42	376.80
446.79	376.43
447.16	376.03
447.53	375.66
447.90	374.46
448.27	373.21
448.64	371.62
449.01	370.48
449.37	368.50
449.74	366.63
450.11	364.40
450.48	361.91
450.85	359.39
451.22	357.22
451.59	355.22
451.96	353.29
452.33	350.71
452.70	348.35
453.07	345.59
453.43	342.70
453.80	339.88
454.17	337.22
454.54	334.62
454.91	331.82
455.28	329.19
455.65	326.72
456.02	324.29
456.38	322.14
456.75	319.45
457.12	317.19
457.49	314.93
457.86	312.76
458.23	310.89
458.59	308.82
458.96	306.71
459.33	304.83
459.70	302.97
460.07	301.45
460.43	299.73
460.80	298.09
461.17	296.64
461.54	295.18
461.91	293.77
462.27	292.34
462.64	291.10
463.01	289.71
463.38	288.39
463.74	287.03
464.11	285.86
464.48	284.85
464.85	283.76
465.21	282.88
465.58	281.98
465.95	280.85
466.32	279.94
466.68	279.04
467.05	278.14
467.42	277.24
467.78	276.30
468.15	275.39
468.52	274.70
468.88	273.84
469.25	273.03
469.62	272.40
469.98	271.70
470.35	271.04
470.72	270.47
471.08	269.78
471.45	269.23
471.82	268.64
472.18	268.01
472.55	267.52
472.92	267.00
473.28	266.49
473.65	266.07
474.02	265.64
474.38	265.26
474.75	264.94
475.11	264.59
475.48	264.29
475.85	264.07
476.21	263.78
476.58	263.59
476.94	263.44
477.31	263.22
477.67	263.06
478.04	262.96
478.41	262.89
478.77	262.96
479.14	262.88
479.50	262.88
479.87	262.93
480.23	263.00
480.60	263.09
480.96	263.19
481.33	263.38
481.69	263.56
482.06	263.79
482.42	263.97
482.79	264.23
483.15	264.56
483.52	264.91
483.88	265.27
484.25	265.65
484.61	266.05
484.98	266.56
485.34	267.15
485.71	267.72
486.07	268.27
486.44	268.84
486.80	269.53
487.17	270.23
487.53	271.05
487.90	271.88
488.26	272.80
488.62	273.79
488.99	274.75
489.35	275.80
489.72	276.89
490.08	278.07
490.44	279.31
490.81	280.60
491.17	281.97
491.54	283.44
491.90	284.94
492.26	286.56
492.63	288.25
492.99	290.01
493.36	291.91
493.72	293.96
494.08	296.04
494.45	298.28
494.81	300.68
495.17	303.10
495.54	305.65
495.90	308.29
496.26	311.07
496.63	314.05
496.99	317.13
497.35	320.37
497.72	323.74
498.08	327.25
498.44	330.93
498.80	334.83
499.17	338.88
499.53	343.05
499.89	347.45
500.26	351.93
500.62	356.62
500.98	361.55
501.34	366.60
501.71	371.89
502.07	377.30
502.43	382.88
502.79	388.71
503.16	394.82
503.52	401.08
503.88	407.49
504.24	414.06
504.60	420.99
504.97	428.15
505.33	435.51
505.69	443.16
506.05	450.94
506.41	458.83
506.78	466.96
507.14	475.49
507.50	484.13
507.86	493.16
508.22	502.30
508.59	511.52
508.95	521.11
509.31	530.93
509.67	541.07
510.03	551.42
510.39	561.93
510.75	572.80
511.12	583.78
511.48	595.05
511.84	606.60
512.20	618.13
512.56	630.08
512.92	642.23
513.28	654.63
513.64	667.10
514.00	679.79
514.37	692.72
514.73	705.69
515.09	718.81
515.45	732.11
515.81	745.72
516.17	759.73
516.53	773.86
516.89	788.03
517.25	802.19
517.61	816.64
517.97	831.15
518.33	845.58
518.69	860.44
519.05	875.48
519.41	890.65
519.77	906.26
520.13	921.80
520.49	937.24
520.85	952.75
521.21	968.54
521.57	984.83
521.93	1000.64
522.29	1017.18
522.65	1033.42
523.01	1049.72
523.37	1065.84
523.73	1082.08
524.09	1098.22
524.45	1114.62
524.81	1131.33
525.17	1148.23
525.53	1165.25
525.89	1182.11
526.25	1198.91
526.61	1215.41
526.97	1232.18
527.33	1248.66
527.68	1265.31
528.04	1281.91
528.40	1298.56
528.76	1315.84
529.12	1332.47
529.48	1349.41
529.84	1365.45
530.20	1382.22
530.56	1399.41
530.91	1416.85
531.27	1433.66
531.63	1450.27
531.99	1466.94
532.35	1482.96
532.71	1498.81
533.07	1515.01
533.42	1530.93
533.78	1547.09
534.14	1563.30
534.50	1578.72
534.86	1594.66
535.21	1609.75
535.57	1625.85
535.93	1641.44
536.29	1656.12
536.65	1671.27
537.00	1686.15
537.36	1701.56
537.72	1716.21
538.08	1730.47
538.44	1744.31
538.79	1758.32
539.15	1772.16
539.51	1786.06
539.87	1800.57
540.22	1814.57
540.58	1828.64
540.94	1842.26
541.29	1855.32
541.65	1868.18
542.01	1881.50
542.37	1893.76
542.72	1906.39
543.08	1917.97
543.44	1930.42
543.79	1941.72
544.15	1952.86
544.51	1964.44
544.87	1975.53
545.22	1986.26
545.58	1996.62
545.94	2006.60
546.29	2016.50
546.65	2026.33
547.01	2035.45
547.36	2044.23
547.72	2052.59
548.07	2060.42
548.43	2068.48
548.79	2076.53
549.14	2084.12
549.50	2091.50
549.86	2099.38
550.21	2106.71
550.57	2114.04
550.92	2120.59
551.28	2127.72
551.64	2134.70
551.99	2141.32
552.35	2147.36
552.70	2153.54
553.06	2159.50
553.41	2165.70
553.77	2171.66
554.13	2177.67
554.48	2183.78
554.84	2189.07
555.19	2194.48
555.55	2199.43
555.90	2203.92
556.26	2208.66
556.61	2213.48
556.97	2217.72
557.32	2221.80
557.68	2225.80
558.03	2230.17
558.39	2233.82
558.74	2238.37
559.10	2242.19
559.45	2245.86
559.81	2250.17
560.16	2253.94
560.52	2257.17
560.87	2260.60
561.23	2263.17
561.58	2266.09
561.94	2268.70
562.29	2271.14
562.64	2273.61
563.00	2276.33
563.35	2279.87
563.71	2283.01
564.06	2286.11
564.42	2288.88
564.77	2291.24
565.12	2293.58
565.48	2295.37
565.83	2297.24
566.19	2298.33
566.54	2299.34
566.89	2300.35
567.25	2300.87
567.60	2302.38
567.96	2304.08
568.31	2304.91
568.66	2305.88
569.02	2306.39
569.37	2306.64
569.72	2307.41
570.08	2307.52
570.43	2307.42
570.78	2306.59
571.14	2304.89
571.49	2303.46
571.84	2303.07
572.20	2301.88
572.55	2300.71
572.90	2299.02
573.26	2297.41
573.61	2295.74
573.96	2293.79
574.31	2290.74
574.67	2287.66
575.02	2283.82
575.37	2280.31
575.72	2276.26
576.08	2273.03
576.43	2269.60
576.78	2265.93
577.13	2262.72
577.49	2259.62
577.84	2256.09
578.19	2252.40
578.54	2248.72
578.90	2244.29
579.25	2238.79
579.60	2233.79
579.95	2228.67
580.30	2223.55
580.66	2218.34
581.01	2213.40
581.36	2208.38
581.71	2204.11
582.06	2199.59
582.42	2194.94
582.77	2189.56
583.12	2184.98
583.47	2179.98
583.82	2174.75
584.17	2169.26
584.53	2163.61
584.88	2157.80
585.23	2151.79
585.58	2146.24
585.93	2140.73
586.28	2135.95
586.63	2130.67
586.98	2125.51
587.34	2120.84
587.69	2115.84
588.04	2110.45
588.39	2104.71
588.74	2098.18
589.09	2091.87
589.44	2085.00
589.79	2078.96
590.14	2073.15
590.49	2066.49
590.84	2060.13
591.19	2054.05
591.54	2047.57
591.89	2039.96
592.25	2033.13
592.60	2025.83
592.95	2018.14
593.30	2010.54
593.65	2002.74
594.00	1995.61
594.35	1988.30
594.70	1980.09
595.05	1972.74
595.40	1965.46
595.75	1957.76
596.10	1951.41
596.45	1944.59
596.80	1938.31
597.15	1931.49
597.50	1924.34
597.85	1917.86
598.19	1911.18
598.54	1904.12
598.89	1897.40
599.24	1891.56
599.59	1884.62
599.94	1878.32
600.29	1871.79
600.64	1865.29
600.99	1857.84
601.34	1850.94
601.69	1843.93
602.04	1837.02
602.39	1829.64
602.74	1822.72
603.08	1816.10
603.43	1809.26
603.78	1801.90
604.13	1794.65
604.48	1787.29
604.83	1780.51
605.18	1773.47
605.53	1765.35
605.87	1757.42
606.22	1750.10
606.57	1742.14
606.92	1734.91
607.27	1727.70
607.62	1720.75
607.96	1713.40
608.31	1706.81
608.66	1699.27
609.01	1691.58
609.36	1683.97
609.70	1675.97
610.05	1667.89
610.40	1660.13
610.75	1651.85
611.10	1644.23
611.44	1635.84
611.79	1627.99
612.14	1619.25
612.49	1610.11
612.83	1601.79
613.18	1593.52
613.53	1585.52
613.88	1576.89
614.22	1568.58
614.57	1560.10
614.92	1552.16
615.27	1544.56
615.61	1536.23
615.96	1528.15
616.31	1520.59
616.65	1513.14
617.00	1505.66
617.35	1498.01
617.70	1489.59
618.04	1481.11
618.39	1472.82
618.74	1465.20
619.08	1456.88
619.43	1449.34
619.78	1442.39
620.12	1435.17
620.47	1427.65
620.82	1419.49
621.16	1412.21
621.51	1404.67
621.85	1397.03
622.20	1388.51
622.55	1380.24
622.89	1372.41
623.24	1364.82
623.59	1357.40
623.93	1349.94
624.28	1342.68
624.62	1335.20
624.97	1328.13
625.32	1321.38
625.66	1314.41
626.01	1307.14
626.35	1299.70
626.70	1291.91
627.04	1284.15
627.39	1276.45
627.73	1269.07
628.08	1262.16
628.43	1254.74
628.77	1247.40
629.12	1239.88
629.46	1232.71
629.81	1225.42
630.15	1218.19
630.50	1210.75
630.84	1202.67
631.19	1194.81
631.53	1187.34
631.88	1179.77
632.22	1172.14
632.57	1164.86
632.91	1157.38
633.26	1150.03
633.60	1142.76
633.95	1135.78
634.29	1128.86
634.64	1122.10
634.98	1114.84
635.32	1107.75
635.67	1101.36
636.01	1094.67
636.36	1087.87
636.70	1081.43
637.05	1074.77
637.39	1068.36
637.73	1061.86
638.08	1055.95
638.42	1050.02
638.77	1043.56
639.11	1036.96
639.45	1030.71
639.80	1024.01
640.14	1017.44
640.49	1010.96
640.83	1004.66
641.17	998.38
641.52	992.08
641.86	985.79
642.20	979.91
642.55	973.64
642.89	966.99
643.23	960.57
643.58	954.79
643.92	948.55
644.26	942.47
644.61	936.48
644.95	930.46
645.29	923.86
645.64	917.04
645.98	910.76
646.32	905.04
646.66	898.97
647.01	893.30
647.35	887.77
647.69	881.93
648.04	876.38
648.38	870.57
648.72	864.46
649.06	858.40
649.41	852.56
649.75	846.47
650.09	840.62
650.43	834.83
650.78	828.71
651.12	822.76
651.46	817.05
651.80	811.24
652.14	805.92
652.49	800.58
652.83	795.51
653.17	789.77
653.51	783.95
653.85	778.52
654.20	772.78
654.54	766.73
654.88	761.02
655.22	755.16
655.56	749.49
655.90	744.09
656.25	738.81
656.59	733.46
656.93	728.40
657.27	723.20
657.61	717.68
657.95	712.63
658.29	707.66
658.64	702.47
658.98	697.20
659.32	691.77
659.66	686.55
660.00	681.17
660.34	676.26
660.68	671.42
661.02	666.41
661.36	661.78
661.70	657.37
662.05	653.06
662.39	648.77
662.73	644.32
663.07	639.99
663.41	635.54
663.75	631.02
664.09	626.48
664.43	622.20
664.77	618.15
665.11	613.85
665.45	609.64
665.79	605.49
666.13	601.33
666.47	597.13
666.81	592.95
667.15	588.90
667.49	585.04
667.83	581.23
668.17	577.33
668.51	573.24
668.85	569.21
669.19	565.35
669.53	561.46
669.87	557.59
670.21	553.90
670.55	550.26
670.89	546.84
671.23	543.44
671.57	539.85
671.91	536.33
672.25	532.94
672.58	529.47
672.92	526.19
673.26	523.10
673.60	520.05
673.94	517.01
674.28	514.14
674.62	511.16
674.96	508.10
675.30	505.18
675.64	502.24
675.97	499.47
676.31	496.64
676.65	493.74
676.99	491.02
677.33	488.14
677.67	485.35
678.01	482.35
678.34	479.40
678.68	476.59
679.02	473.76
679.36	470.94
679.70	468.24
680.04	465.46
680.37	462.56
680.71	459.78
681.05	457.15
681.39	454.37
681.73	451.81
682.06	449.28
682.40	446.74
682.74	444.29
683.08	441.79
683.42	439.18
683.75	436.74
684.09	434.26
684.43	431.85
684.77	429.43
685.10	427.12
685.44	424.80
685.78	422.58
686.12	420.36
686.45	418.14
686.79	415.86
687.13	413.72
687.46	411.62
687.80	409.48
688.14	407.30
688.48	405.35
688.81	403.09
689.15	401.00
689.49	398.87
689.82	396.73
690.16	394.67
690.50	392.75
690.83	390.77
691.17	388.81
691.51	386.94
691.84	385.11
692.18	383.17
692.52	381.17
692.85	379.22
693.19	377.31
693.52	375.50
693.86	373.71
694.20	371.88
694.53	370.04
694.87	368.18
695.21	366.36
695.54	364.49
695.88	362.72
696.21	360.97
696.55	359.30
696.88	357.67
697.22	356.01
697.56	354.38
697.89	352.70
698.23	351.04
698.56	349.37
698.90	347.76
699.23	346.10
699.57	344.58
699.90	343.01
700.24	341.49
700.58	339.94
700.91	338.40
701.25	336.98
701.58	335.62
701.92	334.29
702.25	332.92
702.59	331.57
702.92	330.26
703.26	328.90
703.59	327.61
703.93	326.41
704.26	325.17
704.60	323.87
704.93	322.64
705.26	321.41
705.60	320.26
705.93	319.08
706.27	318.07
706.60	317.06
706.94	316.02
707.27	314.90
707.61	313.83
707.94	312.83
708.27	311.68
708.61	310.62
708.94	309.58
709.28	308.59
709.61	307.56
709.94	306.63
710.28	305.65
710.61	304.65
710.95	303.57
711.28	302.65
711.61	301.70
711.95	300.80
712.28	299.87
712.61	298.92
712.95	297.99
713.28	297.11
713.61	296.19
713.95	295.28
714.28	294.47
714.61	293.61
714.95	292.77
715.28	291.99
715.61	291.12
715.95	290.28
716.28	289.46
716.61	288.66
716.95	287.85
717.28	287.13
717.61	286.39
717.94	285.66
718.28	284.85
718.61	284.16
718.94	283.45
719.27	282.79
719.61	282.15
719.94	281.51
720.27	280.78
720.60	280.14
720.94	279.55
721.27	278.96
721.60	278.36
721.93	277.76
722.27	277.20
722.60	276.65
722.93	276.09
723.26	275.56
723.59	275.01
723.93	274.45
724.26	273.90
724.59	273.33
724.92	272.80
725.25	272.29
725.59	271.78
725.92	271.28
726.25	270.78
726.58	270.28
726.91	269.78
727.24	269.32
727.57	268.82
727.91	268.30
728.24	267.83
728.57	267.36
728.90	266.88
729.23	266.38
729.56	265.94
729.89	265.45
730.22	264.95
730.55	264.48
730.89	264.06
731.22	263.63
731.55	263.22
731.88	262.80
732.21	262.39
732.54	261.93
732.87	261.48
733.20	261.11
733.53	260.72
733.86	260.40
734.19	259.99
734.52	259.61
734.85	259.29
735.18	258.89
735.51	258.50
735.84	258.12
736.17	257.77
736.50	257.40
736.83	257.16
737.16	256.85
737.49	256.51
737.82	256.15
738.15	255.80
738.48	255.46
738.81	255.11
739.14	254.76
739.47	254.43
739.80	254.13
740.13	253.80
740.46	253.46
740.79	253.07
741.12	252.78
741.45	252.47
741.78	252.12
742.11	251.81
742.44	251.49
742.77	251.26
743.10	250.95
743.43	250.63
743.75	250.27
744.08	250.14
744.41	249.85
744.74	249.60
745.07	249.34
745.40	249.06
745.73	248.85
746.06	248.62
746.39	248.38
746.71	248.10
747.04	247.85
747.37	247.60
747.70	247.38
748.03	247.12
748.36	246.91
748.68	246.67
749.01	246.41
749.34	246.18
749.67	245.93
750.00	245.70
750.33	245.54
750.65	245.34
750.98	244.98
751.31	244.78
751.64	244.57
751.97	244.40
752.29	244.17
752.62	243.96
752.95	243.73
753.28	243.52
753.60	243.32
753.93	243.10
754.26	242.91
754.59	242.69
754.91	242.48
755.24	242.26
755.57	242.08
755.90	241.91
756.22	241.75
756.55	241.55
756.88	241.38
757.20	241.21
757.53	241.01
757.86	240.85
758.19	240.73
758.51	240.57
758.84	240.34
759.17	240.22
759.49	240.02
759.82	239.88
760.15	239.74
760.47	239.60
760.80	239.47
761.13	239.35
761.45	239.20
761.78	239.10
762.11	238.96
762.43	238.82
762.76	238.70
763.08	238.58
763.41	238.43
763.74	238.33
764.06	238.17
764.39	238.02
764.71	237.86
765.04	237.67
765.37	237.54
765.69	237.45
766.02	237.34
766.34	237.24
766.67	237.16
767.00	237.07
767.32	237.02
767.65	236.97
767.97	236.84
768.30	236.74
768.62	236.60
768.95	236.51
769.27	236.37
769.60	236.28
769.92	236.15
770.25	236.06
770.57	235.93
770.90	235.79
771.22	235.68
771.55	235.62
771.87	235.59
772.20	235.50
772.52	235.46
772.85	235.44
773.17	235.34
773.50	235.20
773.82	235.07
774.15	234.92
774.47	234.75
774.80	234.63
775.12	234.53
775.45	234.47
775.77	234.35
776.09	234.27
776.42	234.18
776.74	234.12
777.07	234.05
777.39	233.97
777.72	233.89
778.04	233.84
778.36	233.71
778.69	233.62
779.01	233.52
779.33	233.37
779.66	233.21
779.98	233.13
780.31	233.08
780.63	233.07
780.95	233.02
781.28	232.98
781.60	232.90
781.92	232.83
782.25	232.73
782.57	232.66
782.89	232.60
783.22	232.55
783.54	232.46
783.86	232.38
784.19	232.32
784.51	232.30
784.83	232.25
785.16	232.16
785.48	232.10
785.80	232.06
786.12	232.02
786.45	231.93
786.77	231.88
787.09	231.83
