SpectraSuite Data File
++++++++++++++++++++++++++++++++++++
Date: Fri Feb 01 16:00:53 EST 2013
User: group
Dark Spectrum Present: No
Reference Spectrum Present: No
Number of Sampled Component Spectra: 1
Spectrometers: USB2E7196
Integration Time (usec): 35000 (USB2E7196)
Spectra Averaged: 100 (USB2E7196)
Boxcar Smoothing: 10 (USB2E7196)
Correct for Electrical Dark: No (USB2E7196)
Strobe/Lamp Enabled: No (USB2E7196)
Correct for Detector Non-linearity: No (USB2E7196)
Correct for Stray Light: No (USB2E7196)
Number of Pixels in Processed Spectrum: 2048
>>>>>Begin Processed Spectral Data<<<<<
339.09	0.00
339.48	214.72
339.86	217.06
340.24	217.81
340.63	219.72
341.01	221.82
341.39	222.25
341.78	223.44
342.16	223.91
342.54	225.18
342.93	213.34
343.31	224.13
343.69	224.69
344.07	225.13
344.46	225.54
344.84	225.92
345.22	226.14
345.60	226.36
345.99	226.54
346.37	226.71
346.75	226.81
347.13	226.91
347.52	226.95
347.90	227.04
348.28	227.06
348.66	227.15
349.05	227.12
349.43	227.18
349.81	227.21
350.19	227.25
350.57	227.31
350.96	227.36
351.34	227.41
351.72	227.47
352.10	227.54
352.48	227.63
352.87	227.68
353.25	227.78
353.63	227.84
354.01	227.91
354.39	227.94
354.77	228.01
355.15	228.10
355.54	228.15
355.92	228.16
356.30	228.26
356.68	228.35
357.06	228.43
357.44	228.48
357.82	228.56
358.20	228.62
358.58	228.68
358.97	228.75
359.35	228.85
359.73	228.94
360.11	229.00
360.49	229.03
360.87	229.06
361.25	229.10
361.63	229.18
362.01	229.21
362.39	229.25
362.77	229.26
363.15	229.29
363.53	229.32
363.91	229.36
364.29	229.37
364.67	229.24
365.05	229.24
365.43	229.23
365.81	229.24
366.19	229.26
366.57	229.27
366.95	229.27
367.33	229.24
367.71	229.21
368.09	229.24
368.47	229.24
368.85	229.24
369.23	229.23
369.61	229.19
369.99	229.20
370.37	229.21
370.75	229.23
371.13	229.15
371.51	229.11
371.89	229.08
372.27	229.03
372.65	229.01
373.03	228.95
373.41	228.88
373.78	228.82
374.16	228.73
374.54	228.67
374.92	228.56
375.30	228.48
375.68	228.41
376.06	228.30
376.44	228.22
376.82	228.13
377.19	228.06
377.57	227.97
377.95	227.87
378.33	227.77
378.71	227.64
379.09	227.59
379.47	227.54
379.84	227.47
380.22	227.42
380.60	227.37
380.98	227.30
381.36	227.23
381.73	227.15
382.11	227.09
382.49	227.04
382.87	226.99
383.25	226.93
383.62	226.99
384.00	226.95
384.38	226.86
384.76	226.84
385.13	226.80
385.51	226.77
385.89	226.71
386.27	226.66
386.64	226.66
387.02	226.61
387.40	226.60
387.78	226.57
388.15	226.52
388.53	226.49
388.91	226.48
389.29	226.48
389.66	226.49
390.04	226.47
390.42	226.43
390.79	226.42
391.17	226.41
391.55	226.29
391.92	226.26
392.30	226.30
392.68	226.28
393.05	226.27
393.43	226.26
393.81	226.28
394.18	226.30
394.56	226.32
394.94	226.36
395.31	226.32
395.69	226.33
396.06	226.38
396.44	226.41
396.82	226.46
397.19	226.53
397.57	226.55
397.95	226.58
398.32	226.62
398.70	226.69
399.07	226.77
399.45	226.83
399.82	226.90
400.20	226.95
400.58	227.01
400.95	227.06
401.33	227.17
401.70	227.30
402.08	227.38
402.45	227.46
402.83	227.55
403.20	227.69
403.58	227.82
403.95	227.96
404.33	228.10
404.71	228.20
405.08	228.39
405.46	228.53
405.83	228.70
406.21	228.85
406.58	229.02
406.96	229.17
407.33	229.33
407.70	229.55
408.08	229.80
408.45	230.03
408.83	230.28
409.20	230.46
409.58	230.64
409.95	230.90
410.33	231.15
410.70	231.41
411.08	231.73
411.45	232.01
411.82	232.27
412.20	232.60
412.57	232.99
412.95	233.27
413.32	233.67
413.69	234.09
414.07	234.53
414.44	235.00
414.82	235.49
415.19	236.06
415.56	236.58
415.94	237.15
416.31	237.78
416.68	238.40
417.06	239.14
417.43	239.80
417.81	240.56
418.18	241.35
418.55	242.20
418.93	243.04
419.30	243.93
419.67	244.88
420.04	245.84
420.42	246.84
420.79	248.05
421.16	249.18
421.54	250.38
421.91	251.58
422.28	252.80
422.66	254.12
423.03	255.39
423.40	256.71
423.77	258.09
424.15	259.54
424.52	260.97
424.89	262.59
425.26	264.14
425.64	265.61
426.01	267.21
426.38	268.84
426.75	270.50
427.13	272.24
427.50	274.01
427.87	275.89
428.24	277.77
428.61	279.47
428.99	281.43
429.36	283.49
429.73	285.55
430.10	287.58
430.47	289.62
430.85	291.79
431.22	294.02
431.59	296.43
431.96	298.67
432.33	301.18
432.70	303.54
433.08	306.34
433.45	308.95
433.82	311.55
434.19	314.46
434.56	317.25
434.93	319.90
435.30	322.59
435.68	325.47
436.05	328.28
436.42	331.07
436.79	333.60
437.16	336.27
437.53	339.12
437.90	341.90
438.27	344.63
438.64	347.44
439.01	350.00
439.38	352.20
439.75	354.35
440.13	356.85
440.50	359.18
440.87	361.05
441.24	363.00
441.61	365.12
441.98	366.56
442.35	368.38
442.72	370.25
443.09	372.02
443.46	372.99
443.83	373.55
444.20	374.06
444.57	374.87
444.94	375.13
445.31	375.46
445.68	375.82
446.05	375.90
446.42	375.50
446.79	375.12
447.16	374.68
447.53	374.36
447.90	373.21
448.27	372.06
448.64	370.48
449.01	369.36
449.37	367.44
449.74	365.55
450.11	363.32
450.48	360.83
450.85	358.31
451.22	356.18
451.59	354.18
451.96	352.26
452.33	349.63
452.70	347.32
453.07	344.50
453.43	341.61
453.80	338.82
454.17	336.14
454.54	333.60
454.91	330.87
455.28	328.19
455.65	325.69
456.02	323.24
456.38	321.06
456.75	318.41
457.12	316.13
457.49	313.94
457.86	311.78
458.23	309.93
458.59	307.89
458.96	305.79
459.33	303.93
459.70	302.05
460.07	300.54
460.43	298.86
460.80	297.25
461.17	295.82
461.54	294.36
461.91	292.97
462.27	291.52
462.64	290.25
463.01	288.91
463.38	287.62
463.74	286.25
464.11	285.10
464.48	284.08
464.85	282.94
465.21	282.09
465.58	281.16
465.95	280.08
466.32	279.16
466.68	278.26
467.05	277.41
467.42	276.50
467.78	275.63
468.15	274.75
468.52	274.10
468.88	273.23
469.25	272.49
469.62	271.87
469.98	271.19
470.35	270.60
470.72	270.00
471.08	269.36
471.45	268.85
471.82	268.30
472.18	267.67
472.55	267.28
472.92	266.72
473.28	266.28
473.65	265.83
474.02	265.40
474.38	265.07
474.75	264.69
475.11	264.39
475.48	264.16
475.85	263.91
476.21	263.66
476.58	263.46
476.94	263.29
477.31	263.11
477.67	262.98
478.04	262.87
478.41	262.79
478.77	262.81
479.14	262.71
479.50	262.74
479.87	262.86
480.23	262.98
480.60	263.11
480.96	263.20
481.33	263.40
481.69	263.59
482.06	263.80
482.42	264.07
482.79	264.33
483.15	264.62
483.52	265.01
483.88	265.38
484.25	265.80
484.61	266.24
484.98	266.68
485.34	267.26
485.71	267.82
486.07	268.51
486.44	269.12
486.80	269.84
487.17	270.61
487.53	271.41
487.90	272.19
488.26	273.13
488.62	274.10
488.99	275.08
489.35	276.15
489.72	277.26
490.08	278.45
490.44	279.68
490.81	281.02
491.17	282.39
491.54	283.86
491.90	285.45
492.26	287.11
492.63	288.89
492.99	290.66
493.36	292.58
493.72	294.61
494.08	296.70
494.45	298.97
494.81	301.29
495.17	303.73
495.54	306.31
495.90	308.99
496.26	311.78
496.63	314.77
496.99	317.87
497.35	321.17
497.72	324.56
498.08	328.06
498.44	331.70
498.80	335.61
499.17	339.66
499.53	343.80
499.89	348.15
500.26	352.67
500.62	357.33
500.98	362.26
501.34	367.32
501.71	372.67
502.07	378.13
502.43	383.72
502.79	389.58
503.16	395.66
503.52	401.99
503.88	408.40
504.24	415.04
504.60	421.92
504.97	429.01
505.33	436.32
505.69	444.04
506.05	451.85
506.41	459.77
506.78	467.92
507.14	476.32
507.50	485.07
507.86	494.03
508.22	503.22
508.59	512.53
508.95	522.14
509.31	532.00
509.67	542.13
510.03	552.38
510.39	562.96
510.75	573.78
511.12	584.67
511.48	595.97
511.84	607.37
512.20	618.89
512.56	630.91
512.92	643.20
513.28	655.59
513.64	668.02
514.00	680.65
514.37	693.51
514.73	706.61
515.09	719.58
515.45	733.00
515.81	746.66
516.17	760.58
516.53	774.65
516.89	788.74
517.25	802.83
517.61	817.27
517.97	831.68
518.33	846.06
518.69	860.88
519.05	875.88
519.41	891.10
519.77	906.67
520.13	922.00
520.49	937.31
520.85	952.64
521.21	968.33
521.57	984.66
521.93	1000.38
522.29	1016.83
522.65	1033.10
523.01	1049.21
523.37	1065.21
523.73	1081.37
524.09	1097.46
524.45	1113.76
524.81	1130.31
525.17	1147.20
525.53	1164.10
525.89	1181.03
526.25	1197.77
526.61	1214.13
526.97	1230.77
527.33	1247.17
527.68	1263.77
528.04	1280.18
528.40	1296.75
528.76	1313.85
529.12	1330.44
529.48	1347.35
529.84	1363.23
530.20	1379.83
530.56	1396.88
530.91	1414.24
531.27	1430.98
531.63	1447.38
531.99	1464.00
532.35	1480.06
532.71	1495.87
533.07	1512.04
533.42	1527.85
533.78	1543.90
534.14	1560.14
534.50	1575.52
534.86	1591.40
535.21	1606.56
535.57	1622.49
535.93	1637.95
536.29	1652.61
536.65	1667.60
537.00	1682.27
537.36	1697.59
537.72	1712.11
538.08	1726.29
538.44	1740.03
538.79	1753.88
539.15	1767.55
539.51	1781.23
539.87	1795.52
540.22	1809.20
540.58	1823.00
540.94	1836.34
541.29	1849.20
541.65	1861.84
542.01	1874.97
542.37	1887.15
542.72	1899.59
543.08	1911.36
543.44	1923.78
543.79	1935.02
544.15	1945.84
544.51	1957.50
544.87	1968.41
545.22	1979.12
545.58	1989.51
545.94	1999.26
546.29	2009.13
546.65	2018.99
547.01	2028.04
547.36	2036.72
547.72	2045.18
548.07	2052.81
548.43	2060.94
548.79	2068.80
549.14	2076.35
549.50	2083.59
549.86	2091.35
550.21	2098.59
550.57	2105.72
550.92	2112.21
551.28	2119.19
551.64	2126.16
551.99	2132.65
552.35	2138.85
552.70	2145.16
553.06	2151.10
553.41	2157.29
553.77	2163.24
554.13	2169.42
554.48	2175.67
554.84	2181.14
555.19	2186.40
555.55	2191.60
555.90	2196.07
556.26	2201.04
556.61	2205.77
556.97	2210.12
557.32	2214.17
557.68	2218.36
558.03	2222.70
558.39	2226.47
558.74	2231.18
559.10	2235.23
559.45	2238.87
559.81	2243.16
560.16	2246.89
560.52	2250.05
560.87	2253.63
561.23	2256.27
561.58	2259.21
561.94	2261.73
562.29	2264.24
562.64	2266.85
563.00	2269.51
563.35	2273.01
563.71	2276.17
564.06	2279.39
564.42	2282.31
564.77	2284.94
565.12	2287.26
565.48	2289.21
565.83	2291.11
566.19	2292.45
566.54	2293.25
566.89	2294.26
567.25	2294.74
567.60	2296.05
567.96	2297.73
568.31	2298.55
568.66	2299.84
569.02	2300.21
569.37	2300.46
569.72	2301.03
570.08	2301.23
570.43	2301.28
570.78	2300.60
571.14	2299.07
571.49	2297.76
571.84	2297.49
572.20	2296.34
572.55	2295.25
572.90	2293.48
573.26	2292.08
573.61	2290.41
573.96	2288.70
574.31	2285.99
574.67	2283.20
575.02	2279.56
575.37	2276.39
575.72	2272.59
576.08	2269.22
576.43	2266.08
576.78	2262.58
577.13	2259.67
577.49	2256.58
577.84	2253.15
578.19	2249.60
578.54	2245.97
578.90	2241.74
579.25	2236.22
579.60	2231.28
579.95	2226.26
580.30	2221.31
580.66	2216.24
581.01	2211.34
581.36	2206.32
581.71	2202.03
582.06	2197.48
582.42	2193.04
582.77	2187.64
583.12	2183.15
583.47	2178.38
583.82	2173.40
584.17	2168.12
584.53	2162.59
584.88	2157.11
585.23	2151.30
585.58	2145.84
585.93	2140.47
586.28	2135.72
586.63	2130.60
586.98	2125.47
587.34	2120.74
587.69	2115.87
588.04	2110.50
588.39	2104.86
588.74	2098.60
589.09	2092.57
589.44	2085.76
589.79	2079.87
590.14	2074.46
590.49	2067.77
590.84	2061.38
591.19	2055.29
591.54	2048.81
591.89	2041.39
592.25	2034.55
592.60	2027.39
592.95	2019.77
593.30	2012.29
593.65	2004.60
594.00	1997.57
594.35	1990.43
594.70	1982.52
595.05	1975.34
595.40	1968.14
595.75	1960.60
596.10	1954.50
596.45	1947.72
596.80	1941.61
597.15	1934.91
597.50	1927.56
597.85	1921.29
598.19	1914.59
598.54	1907.47
598.89	1900.79
599.24	1894.91
599.59	1888.07
599.94	1881.89
600.29	1875.52
600.64	1869.05
600.99	1861.68
601.34	1854.91
601.69	1847.93
602.04	1841.07
602.39	1833.88
602.74	1827.03
603.08	1820.32
603.43	1813.50
603.78	1806.15
604.13	1798.93
604.48	1791.59
604.83	1785.00
605.18	1777.81
605.53	1769.79
605.87	1761.71
606.22	1754.63
606.57	1746.69
606.92	1739.54
607.27	1732.30
607.62	1725.42
607.96	1718.20
608.31	1711.59
608.66	1703.81
609.01	1696.12
609.36	1688.45
609.70	1680.24
610.05	1672.01
610.40	1664.14
610.75	1655.72
611.10	1648.04
611.44	1639.67
611.79	1631.71
612.14	1622.79
612.49	1613.79
612.83	1605.57
613.18	1597.49
613.53	1589.30
613.88	1580.77
614.22	1572.47
614.57	1564.00
614.92	1555.91
615.27	1548.17
615.61	1539.78
615.96	1531.87
616.31	1524.35
616.65	1516.94
617.00	1509.45
617.35	1501.91
617.70	1493.60
618.04	1485.22
618.39	1477.00
618.74	1469.42
619.08	1461.14
619.43	1453.56
619.78	1446.53
620.12	1439.24
620.47	1431.72
620.82	1423.55
621.16	1416.17
621.51	1408.59
621.85	1400.89
622.20	1392.39
622.55	1384.11
622.89	1376.28
623.24	1368.66
623.59	1361.27
623.93	1353.76
624.28	1346.47
624.62	1338.97
624.97	1331.90
625.32	1325.07
625.66	1318.07
626.01	1310.86
626.35	1303.36
626.70	1295.63
627.04	1287.90
627.39	1280.10
627.73	1272.71
628.08	1265.79
628.43	1258.42
628.77	1250.97
629.12	1243.43
629.46	1236.17
629.81	1228.86
630.15	1221.69
630.50	1214.21
630.84	1206.07
631.19	1198.16
631.53	1190.73
631.88	1183.15
632.22	1175.57
632.57	1168.26
632.91	1160.63
633.26	1153.22
633.60	1145.88
633.95	1138.89
634.29	1131.89
634.64	1125.32
634.98	1117.85
635.32	1110.67
635.67	1104.15
636.01	1097.53
636.36	1090.69
636.70	1084.23
637.05	1077.57
637.39	1071.13
637.73	1064.60
638.08	1058.71
638.42	1052.74
638.77	1046.25
639.11	1039.58
639.45	1033.16
639.80	1026.54
640.14	1020.19
640.49	1013.57
640.83	1007.25
641.17	1000.96
641.52	994.66
641.86	988.06
642.20	982.26
642.55	975.93
642.89	969.32
643.23	962.84
643.58	956.99
643.92	950.79
644.26	944.63
644.61	938.51
644.95	932.48
645.29	925.79
645.64	919.02
645.98	912.66
646.32	906.86
646.66	900.75
647.01	894.96
647.35	889.21
647.69	883.43
648.04	877.87
648.38	872.02
648.72	866.02
649.06	860.01
649.41	854.11
649.75	848.22
650.09	842.31
650.43	836.45
650.78	830.31
651.12	824.31
651.46	818.63
651.80	812.87
652.14	807.44
652.49	802.18
652.83	796.98
653.17	791.30
653.51	785.57
653.85	780.19
654.20	774.54
654.54	768.55
654.88	762.81
655.22	756.99
655.56	751.33
655.90	745.81
656.25	740.58
656.59	735.26
656.93	730.18
657.27	725.02
657.61	719.56
657.95	714.48
658.29	709.50
658.64	704.27
658.98	698.97
659.32	693.52
659.66	688.25
660.00	682.96
660.34	678.02
660.68	673.13
661.02	668.12
661.36	663.34
661.70	658.85
662.05	654.51
662.39	650.19
662.73	645.78
663.07	641.48
663.41	636.97
663.75	632.47
664.09	627.92
664.43	623.55
664.77	619.45
665.11	615.22
665.45	611.07
665.79	607.01
666.13	602.92
666.47	598.96
666.81	594.79
667.15	590.68
667.49	586.84
667.83	583.05
668.17	579.16
668.51	575.09
668.85	571.09
669.19	567.23
669.53	563.36
669.87	559.43
670.21	555.68
670.55	552.04
670.89	548.59
671.23	545.17
671.57	541.62
671.91	538.05
672.25	534.57
672.58	531.05
672.92	527.64
673.26	524.48
673.60	521.25
673.94	518.16
674.28	515.32
674.62	512.33
674.96	509.19
675.30	506.23
675.64	503.32
675.97	500.58
676.31	497.66
676.65	494.67
676.99	491.96
677.33	489.10
677.67	486.31
678.01	483.29
678.34	480.21
678.68	477.38
679.02	474.55
679.36	471.79
679.70	468.99
680.04	466.20
680.37	463.30
680.71	460.51
681.05	457.91
681.39	455.09
681.73	452.44
682.06	449.92
682.40	447.38
682.74	444.84
683.08	442.26
683.42	439.67
683.75	437.20
684.09	434.65
684.43	432.17
684.77	429.70
685.10	427.33
685.44	425.06
685.78	422.79
686.12	420.58
686.45	418.26
686.79	416.00
687.13	413.80
687.46	411.63
687.80	409.52
688.14	407.28
688.48	405.25
688.81	402.99
689.15	400.87
689.49	398.69
689.82	396.63
690.16	394.53
690.50	392.57
690.83	390.67
691.17	388.69
691.51	386.76
691.84	384.93
692.18	383.03
692.52	381.04
692.85	379.08
693.19	377.19
693.52	375.36
693.86	373.54
694.20	371.80
694.53	369.95
694.87	368.03
695.21	366.24
695.54	364.42
695.88	362.70
696.21	360.91
696.55	359.24
696.88	357.59
697.22	355.94
697.56	354.31
697.89	352.59
698.23	351.00
698.56	349.45
698.90	347.86
699.23	346.21
699.57	344.69
699.90	343.18
700.24	341.65
700.58	340.14
700.91	338.60
701.25	337.14
701.58	335.81
701.92	334.51
702.25	333.14
702.59	331.74
702.92	330.44
703.26	329.14
703.59	327.82
703.93	326.62
704.26	325.39
704.60	324.07
704.93	322.80
705.26	321.56
705.60	320.40
705.93	319.24
706.27	318.20
706.60	317.16
706.94	316.07
707.27	314.92
707.61	313.85
707.94	312.84
708.27	311.76
708.61	310.67
708.94	309.67
709.28	308.69
709.61	307.71
709.94	306.73
710.28	305.73
710.61	304.79
710.95	303.71
711.28	302.81
711.61	301.89
711.95	301.03
712.28	300.02
712.61	299.01
712.95	298.09
713.28	297.21
713.61	296.30
713.95	295.40
714.28	294.55
714.61	293.73
714.95	292.87
715.28	292.02
715.61	291.15
715.95	290.25
716.28	289.41
716.61	288.61
716.95	287.79
717.28	287.06
717.61	286.29
717.94	285.54
718.28	284.71
718.61	283.96
718.94	283.25
719.27	282.63
719.61	281.98
719.94	281.31
720.27	280.56
720.60	279.88
720.94	279.28
721.27	278.70
721.60	278.09
721.93	277.49
722.27	276.91
722.60	276.36
722.93	275.80
723.26	275.22
723.59	274.64
723.93	274.08
724.26	273.52
724.59	272.97
724.92	272.45
725.25	271.97
725.59	271.47
725.92	270.94
726.25	270.39
726.58	269.88
726.91	269.35
727.24	268.89
727.57	268.43
727.91	267.92
728.24	267.46
728.57	266.97
728.90	266.56
729.23	266.07
729.56	265.64
729.89	265.19
730.22	264.74
730.55	264.28
730.89	263.86
731.22	263.42
731.55	262.96
731.88	262.50
732.21	262.05
732.54	261.63
732.87	261.21
733.20	260.83
733.53	260.46
733.86	260.12
734.19	259.71
734.52	259.36
734.85	259.02
735.18	258.57
735.51	258.23
735.84	257.83
736.17	257.49
736.50	257.11
736.83	256.88
737.16	256.53
737.49	256.20
737.82	255.85
738.15	255.51
738.48	255.20
738.81	254.94
739.14	254.62
739.47	254.29
739.80	254.00
740.13	253.68
740.46	253.36
740.79	253.02
741.12	252.74
741.45	252.38
741.78	252.04
742.11	251.78
742.44	251.43
742.77	251.16
743.10	250.85
743.43	250.52
743.75	250.08
744.08	249.93
744.41	249.63
744.74	249.38
745.07	249.10
745.40	248.85
745.73	248.62
746.06	248.35
746.39	248.07
746.71	247.79
747.04	247.52
747.37	247.28
747.70	247.04
748.03	246.79
748.36	246.58
748.68	246.37
749.01	246.11
749.34	245.88
749.67	245.66
750.00	245.44
750.33	245.30
750.65	245.17
750.98	244.83
751.31	244.61
751.64	244.39
751.97	244.20
752.29	243.97
752.62	243.70
752.95	243.50
753.28	243.32
753.60	243.14
753.93	243.00
754.26	242.81
754.59	242.61
754.91	242.41
755.24	242.20
755.57	241.98
755.90	241.78
756.22	241.62
756.55	241.39
756.88	241.23
757.20	241.00
757.53	240.75
757.86	240.59
758.19	240.46
758.51	240.29
758.84	240.10
759.17	239.96
759.49	239.79
759.82	239.65
760.15	239.49
760.47	239.32
760.80	239.12
761.13	238.96
761.45	238.82
761.78	238.68
762.11	238.55
762.43	238.40
762.76	238.28
763.08	238.14
763.41	238.02
763.74	237.89
764.06	237.72
764.39	237.60
764.71	237.48
765.04	237.33
765.37	237.22
765.69	237.10
766.02	236.95
766.34	236.80
766.67	236.64
767.00	236.54
767.32	236.48
767.65	236.42
767.97	236.31
768.30	236.17
768.62	236.05
768.95	235.90
769.27	235.81
769.60	235.70
769.92	235.58
770.25	235.43
770.57	235.32
770.90	235.23
771.22	235.09
771.55	234.97
771.87	234.89
772.20	234.79
772.52	234.76
772.85	234.78
773.17	234.72
773.50	234.65
773.82	234.53
774.15	234.40
774.47	234.26
774.80	234.15
775.12	234.06
775.45	233.98
775.77	233.92
776.09	233.84
776.42	233.81
776.74	233.75
777.07	233.71
777.39	233.60
777.72	233.51
778.04	233.46
778.36	233.40
778.69	233.32
779.01	233.26
779.33	233.15
779.66	232.98
779.98	232.92
780.31	232.84
780.63	232.82
780.95	232.79
781.28	232.72
781.60	232.64
781.92	232.59
782.25	232.51
782.57	232.44
782.89	232.38
783.22	232.28
783.54	232.21
783.86	232.17
784.19	232.11
784.51	232.09
784.83	232.04
785.16	231.97
785.48	231.94
785.80	231.88
786.12	231.80
786.45	231.77
786.77	231.72
787.09	231.67
