SpectraSuite Data File
++++++++++++++++++++++++++++++++++++
Date: Fri Feb 01 16:58:01 EST 2013
User: group
Dark Spectrum Present: No
Reference Spectrum Present: No
Number of Sampled Component Spectra: 1
Spectrometers: USB2E7196
Integration Time (usec): 35000 (USB2E7196)
Spectra Averaged: 100 (USB2E7196)
Boxcar Smoothing: 10 (USB2E7196)
Correct for Electrical Dark: No (USB2E7196)
Strobe/Lamp Enabled: No (USB2E7196)
Correct for Detector Non-linearity: No (USB2E7196)
Correct for Stray Light: No (USB2E7196)
Number of Pixels in Processed Spectrum: 2048
>>>>>Begin Processed Spectral Data<<<<<
339.09	0.00
339.48	213.44
339.86	214.90
340.24	216.36
340.63	217.17
341.01	220.33
341.39	220.09
341.78	221.73
342.16	223.33
342.54	223.84
342.93	211.79
343.31	222.49
343.69	223.01
344.07	223.48
344.46	223.91
344.84	224.31
345.22	224.54
345.60	224.82
345.99	225.00
346.37	225.10
346.75	225.17
347.13	225.25
347.52	225.28
347.90	225.34
348.28	225.36
348.66	225.41
349.05	225.43
349.43	225.49
349.81	225.55
350.19	225.59
350.57	225.65
350.96	225.73
351.34	225.82
351.72	225.92
352.10	226.04
352.48	226.09
352.87	226.16
353.25	226.24
353.63	226.27
354.01	226.34
354.39	226.41
354.77	226.50
355.15	226.60
355.54	226.68
355.92	226.69
356.30	226.77
356.68	226.86
357.06	226.94
357.44	226.98
357.82	227.02
358.20	227.09
358.58	227.15
358.97	227.21
359.35	227.30
359.73	227.36
360.11	227.35
360.49	227.42
360.87	227.43
361.25	227.52
361.63	227.60
362.01	227.65
362.39	227.68
362.77	227.70
363.15	227.71
363.53	227.69
363.91	227.72
364.29	227.72
364.67	227.66
365.05	227.67
365.43	227.67
365.81	227.71
366.19	227.74
366.57	227.81
366.95	227.80
367.33	227.76
367.71	227.74
368.09	227.77
368.47	227.75
368.85	227.75
369.23	227.70
369.61	227.62
369.99	227.62
370.37	227.59
370.75	227.62
371.13	227.57
371.51	227.54
371.89	227.55
372.27	227.51
372.65	227.50
373.03	227.45
373.41	227.44
373.78	227.36
374.16	227.27
374.54	227.21
374.92	227.15
375.30	227.07
375.68	227.00
376.06	226.91
376.44	226.85
376.82	226.79
377.19	226.71
377.57	226.67
377.95	226.56
378.33	226.48
378.71	226.38
379.09	226.35
379.47	226.31
379.84	226.23
380.22	226.15
380.60	226.05
380.98	225.97
381.36	225.89
381.73	225.83
382.11	225.75
382.49	225.64
382.87	225.56
383.25	225.53
383.62	225.58
384.00	225.52
384.38	225.48
384.76	225.43
385.13	225.41
385.51	225.33
385.89	225.29
386.27	225.26
386.64	225.23
387.02	225.18
387.40	225.12
387.78	225.10
388.15	225.07
388.53	225.04
388.91	224.99
389.29	224.96
389.66	224.94
390.04	224.90
390.42	224.91
390.79	224.88
391.17	224.85
391.55	224.73
391.92	224.72
392.30	224.69
392.68	224.67
393.05	224.68
393.43	224.71
393.81	224.71
394.18	224.70
394.56	224.71
394.94	224.71
395.31	224.71
395.69	224.74
396.06	224.78
396.44	224.82
396.82	224.86
397.19	224.95
397.57	224.95
397.95	225.04
398.32	225.05
398.70	225.12
399.07	225.20
399.45	225.26
399.82	225.31
400.20	225.36
400.58	225.41
400.95	225.43
401.33	225.49
401.70	225.66
402.08	225.75
402.45	225.80
402.83	225.90
403.20	226.00
403.58	226.07
403.95	226.17
404.33	226.30
404.71	226.42
405.08	226.56
405.46	226.71
405.83	226.84
406.21	226.99
406.58	227.13
406.96	227.25
407.33	227.44
407.70	227.61
408.08	227.91
408.45	228.08
408.83	228.29
409.20	228.51
409.58	228.66
409.95	228.89
410.33	229.17
410.70	229.42
411.08	229.70
411.45	229.99
411.82	230.30
412.20	230.63
412.57	231.02
412.95	231.32
413.32	231.70
413.69	232.12
414.07	232.53
414.44	233.00
414.82	233.50
415.19	234.04
415.56	234.59
415.94	235.10
416.31	235.78
416.68	236.40
417.06	237.11
417.43	237.80
417.81	238.58
418.18	239.37
418.55	240.22
418.93	241.09
419.30	241.97
419.67	242.90
420.04	243.86
420.42	244.82
420.79	246.00
421.16	247.15
421.54	248.32
421.91	249.55
422.28	250.78
422.66	252.10
423.03	253.40
423.40	254.72
423.77	256.13
424.15	257.54
424.52	259.08
424.89	260.70
425.26	262.23
425.64	263.68
426.01	265.24
426.38	266.86
426.75	268.57
427.13	270.30
427.50	272.12
427.87	274.00
428.24	275.89
428.61	277.61
428.99	279.57
429.36	281.68
429.73	283.71
430.10	285.75
430.47	287.75
430.85	289.85
431.22	292.09
431.59	294.44
431.96	296.67
432.33	299.09
432.70	301.43
433.08	304.26
433.45	306.89
433.82	309.50
434.19	312.35
434.56	315.13
434.93	317.75
435.30	320.36
435.68	323.20
436.05	325.94
436.42	328.70
436.79	331.17
437.16	333.85
437.53	336.65
437.90	339.45
438.27	342.20
438.64	345.03
439.01	347.60
439.38	349.78
439.75	351.89
440.13	354.37
440.50	356.73
440.87	358.57
441.24	360.52
441.61	362.68
441.98	364.20
442.35	365.99
442.72	367.88
443.09	369.64
443.46	370.60
443.83	371.21
444.20	371.75
444.57	372.58
444.94	372.86
445.31	373.25
445.68	373.55
446.05	373.63
446.42	373.21
446.79	372.79
447.16	372.38
447.53	372.13
447.90	371.00
448.27	369.82
448.64	368.21
449.01	367.05
449.37	365.05
449.74	363.14
450.11	360.90
450.48	358.45
450.85	355.94
451.22	353.88
451.59	351.93
451.96	349.94
452.33	347.36
452.70	345.01
453.07	342.19
453.43	339.33
453.80	336.58
454.17	333.97
454.54	331.44
454.91	328.73
455.28	326.07
455.65	323.59
456.02	321.17
456.38	319.04
456.75	316.38
457.12	314.14
457.49	311.94
457.86	309.78
458.23	307.90
458.59	305.89
458.96	303.83
459.33	301.94
459.70	300.14
460.07	298.64
460.43	296.94
460.80	295.35
461.17	293.99
461.54	292.52
461.91	291.08
462.27	289.67
462.64	288.46
463.01	287.14
463.38	285.88
463.74	284.51
464.11	283.39
464.48	282.39
464.85	281.31
465.21	280.49
465.58	279.59
465.95	278.53
466.32	277.62
466.68	276.69
467.05	275.85
467.42	274.94
467.78	274.04
468.15	273.16
468.52	272.48
468.88	271.62
469.25	270.90
469.62	270.34
469.98	269.68
470.35	269.08
470.72	268.48
471.08	267.84
471.45	267.30
471.82	266.76
472.18	266.21
472.55	265.79
472.92	265.29
473.28	264.88
473.65	264.40
474.02	264.01
474.38	263.63
474.75	263.34
475.11	263.03
475.48	262.78
475.85	262.57
476.21	262.40
476.58	262.21
476.94	262.08
477.31	261.90
477.67	261.76
478.04	261.66
478.41	261.63
478.77	261.71
479.14	261.69
479.50	261.72
479.87	261.80
480.23	261.87
480.60	261.94
480.96	262.03
481.33	262.30
481.69	262.53
482.06	262.79
482.42	262.99
482.79	263.26
483.15	263.61
483.52	264.01
483.88	264.34
484.25	264.76
484.61	265.16
484.98	265.60
485.34	266.16
485.71	266.77
486.07	267.34
486.44	267.89
486.80	268.58
487.17	269.27
487.53	270.07
487.90	270.93
488.26	271.82
488.62	272.81
488.99	273.75
489.35	274.78
489.72	275.87
490.08	277.08
490.44	278.31
490.81	279.66
491.17	280.99
491.54	282.46
491.90	283.96
492.26	285.62
492.63	287.36
492.99	289.15
493.36	290.98
493.72	293.02
494.08	295.14
494.45	297.38
494.81	299.74
495.17	302.13
495.54	304.67
495.90	307.38
496.26	310.15
496.63	313.13
496.99	316.20
497.35	319.43
497.72	322.77
498.08	326.30
498.44	329.91
498.80	333.83
499.17	337.84
499.53	341.99
499.89	346.34
500.26	350.88
500.62	355.54
500.98	360.47
501.34	365.51
501.71	370.80
502.07	376.19
502.43	381.78
502.79	387.61
503.16	393.67
503.52	399.89
503.88	406.22
504.24	412.76
504.60	419.56
504.97	426.66
505.33	433.93
505.69	441.56
506.05	449.29
506.41	457.09
506.78	465.20
507.14	473.56
507.50	482.18
507.86	491.04
508.22	500.20
508.59	509.39
508.95	518.81
509.31	528.56
509.67	538.56
510.03	548.78
510.39	559.20
510.75	569.82
511.12	580.64
511.48	591.82
511.84	603.16
512.20	614.59
512.56	626.39
512.92	638.42
513.28	650.66
513.64	663.03
514.00	675.54
514.37	688.33
514.73	701.31
515.09	714.20
515.45	727.31
515.81	740.64
516.17	754.41
516.53	768.45
516.89	782.34
517.25	796.36
517.61	810.56
517.97	824.85
518.33	839.11
518.69	853.59
519.05	868.39
519.41	883.34
519.77	898.58
520.13	913.78
520.49	928.98
520.85	944.09
521.21	959.48
521.57	975.42
521.93	990.99
522.29	1006.98
522.65	1022.95
523.01	1038.83
523.37	1054.60
523.73	1070.38
524.09	1086.11
524.45	1102.12
524.81	1118.37
525.17	1134.81
525.53	1151.35
525.89	1168.01
526.25	1184.60
526.61	1200.66
526.97	1217.01
527.33	1233.19
527.68	1249.46
528.04	1265.55
528.40	1281.79
528.76	1298.62
529.12	1314.98
529.48	1331.43
529.84	1347.19
530.20	1363.43
530.56	1380.12
530.91	1397.28
531.27	1413.77
531.63	1429.99
531.99	1446.27
532.35	1461.97
532.71	1477.65
533.07	1493.52
533.42	1509.05
533.78	1524.79
534.14	1540.87
534.50	1555.91
534.86	1571.57
535.21	1586.58
535.57	1602.15
535.93	1617.34
536.29	1631.86
536.65	1646.61
537.00	1661.12
537.36	1676.15
537.72	1690.30
538.08	1704.47
538.44	1717.90
538.79	1731.54
539.15	1744.78
539.51	1758.27
539.87	1772.40
540.22	1785.68
540.58	1799.19
540.94	1812.13
541.29	1824.75
541.65	1837.14
542.01	1850.11
542.37	1862.17
542.72	1874.22
543.08	1885.95
543.44	1898.12
543.79	1909.18
544.15	1919.92
544.51	1931.24
544.87	1941.97
545.22	1952.71
545.58	1962.75
545.94	1972.40
546.29	1982.08
546.65	1992.00
547.01	2001.20
547.36	2009.66
547.72	2018.06
548.07	2025.95
548.43	2033.97
548.79	2041.68
549.14	2049.03
549.50	2056.29
549.86	2063.87
550.21	2071.12
550.57	2078.18
550.92	2084.79
551.28	2091.75
551.64	2098.70
551.99	2105.20
552.35	2111.27
552.70	2117.47
553.06	2123.41
553.41	2129.69
553.77	2135.67
554.13	2141.51
554.48	2147.52
554.84	2153.25
555.19	2158.50
555.55	2163.53
555.90	2168.10
556.26	2173.25
556.61	2178.00
556.97	2182.42
557.32	2186.45
557.68	2190.62
558.03	2194.89
558.39	2198.52
558.74	2203.14
559.10	2207.18
559.45	2210.89
559.81	2215.25
560.16	2219.20
560.52	2222.61
560.87	2226.03
561.23	2228.81
561.58	2231.91
561.94	2234.57
562.29	2236.71
562.64	2239.62
563.00	2242.44
563.35	2246.13
563.71	2249.18
564.06	2252.46
564.42	2255.44
564.77	2258.32
565.12	2260.84
565.48	2262.98
565.83	2265.09
566.19	2266.52
566.54	2267.51
566.89	2268.87
567.25	2269.64
567.60	2270.89
567.96	2272.66
568.31	2273.55
568.66	2274.81
569.02	2275.49
569.37	2275.93
569.72	2277.09
570.08	2277.44
570.43	2277.56
570.78	2277.25
571.14	2276.03
571.49	2274.85
571.84	2274.55
572.20	2273.54
572.55	2272.61
572.90	2271.13
573.26	2269.86
573.61	2268.25
573.96	2266.76
574.31	2263.88
574.67	2261.17
575.02	2257.73
575.37	2254.58
575.72	2251.16
576.08	2247.83
576.43	2244.65
576.78	2241.18
577.13	2238.08
577.49	2235.11
577.84	2231.74
578.19	2227.98
578.54	2224.62
578.90	2220.69
579.25	2215.40
579.60	2210.53
579.95	2205.66
580.30	2200.97
580.66	2195.90
581.01	2191.10
581.36	2186.38
581.71	2182.46
582.06	2178.27
582.42	2174.14
582.77	2169.09
583.12	2164.69
583.47	2160.38
583.82	2155.70
584.17	2150.72
584.53	2145.50
584.88	2139.93
585.23	2134.38
585.58	2129.06
585.93	2123.72
586.28	2119.07
586.63	2114.21
586.98	2109.42
587.34	2104.88
587.69	2099.95
588.04	2094.91
588.39	2089.54
588.74	2083.09
589.09	2077.10
589.44	2070.37
589.79	2064.36
590.14	2058.79
590.49	2052.37
590.84	2046.10
591.19	2040.26
591.54	2033.89
591.89	2026.86
592.25	2020.35
592.60	2013.33
592.95	2006.18
593.30	1998.96
593.65	1991.59
594.00	1984.73
594.35	1977.55
594.70	1969.65
595.05	1962.78
595.40	1955.78
595.75	1948.37
596.10	1942.46
596.45	1935.89
596.80	1930.06
597.15	1923.81
597.50	1917.07
597.85	1910.75
598.19	1904.34
598.54	1897.48
598.89	1891.05
599.24	1885.19
599.59	1878.83
599.94	1872.80
600.29	1866.51
600.64	1860.04
600.99	1852.74
601.34	1846.10
601.69	1839.19
602.04	1832.57
602.39	1825.32
602.74	1818.68
603.08	1812.05
603.43	1805.43
603.78	1798.11
604.13	1790.79
604.48	1783.52
604.83	1776.66
605.18	1770.01
605.53	1762.08
605.87	1754.01
606.22	1746.78
606.57	1738.92
606.92	1731.46
607.27	1724.43
607.62	1717.62
607.96	1710.60
608.31	1704.14
608.66	1696.55
609.01	1689.26
609.36	1681.72
609.70	1673.76
610.05	1665.81
610.40	1658.23
610.75	1649.98
611.10	1642.57
611.44	1634.19
611.79	1626.19
612.14	1617.63
612.49	1608.37
612.83	1600.07
613.18	1592.11
613.53	1584.21
613.88	1575.68
614.22	1567.51
614.57	1558.88
614.92	1550.96
615.27	1543.46
615.61	1535.17
615.96	1527.22
616.31	1519.47
616.65	1512.17
617.00	1504.60
617.35	1496.85
617.70	1488.56
618.04	1480.15
618.39	1471.88
618.74	1464.33
619.08	1456.16
619.43	1448.51
619.78	1441.60
620.12	1434.49
620.47	1426.92
620.82	1418.67
621.16	1411.12
621.51	1403.45
621.85	1395.84
622.20	1387.25
622.55	1378.79
622.89	1370.88
623.24	1363.12
623.59	1355.82
623.93	1348.26
624.28	1341.15
624.62	1333.64
624.97	1326.52
625.32	1319.65
625.66	1312.61
626.01	1305.66
626.35	1298.26
626.70	1290.50
627.04	1282.80
627.39	1275.00
627.73	1267.65
628.08	1260.80
628.43	1253.77
628.77	1246.47
629.12	1239.04
629.46	1231.94
629.81	1224.44
630.15	1217.29
630.50	1210.01
630.84	1201.79
631.19	1193.84
631.53	1186.27
631.88	1178.74
632.22	1171.24
632.57	1163.95
632.91	1156.40
633.26	1148.94
633.60	1141.58
633.95	1134.61
634.29	1127.58
634.64	1120.86
634.98	1113.59
635.32	1106.46
635.67	1099.77
636.01	1093.15
636.36	1086.26
636.70	1079.70
637.05	1073.25
637.39	1066.81
637.73	1060.39
638.08	1054.60
638.42	1048.59
638.77	1042.30
639.11	1035.77
639.45	1029.28
639.80	1022.74
640.14	1016.44
640.49	1009.85
640.83	1003.42
641.17	997.23
641.52	990.93
641.86	984.51
642.20	978.61
642.55	972.28
642.89	965.82
643.23	959.34
643.58	953.65
643.92	947.56
644.26	941.56
644.61	935.52
644.95	929.50
645.29	923.00
645.64	916.40
645.98	909.98
646.32	904.07
646.66	898.14
647.01	892.35
647.35	886.65
647.69	880.84
648.04	875.42
648.38	869.57
648.72	863.59
649.06	857.55
649.41	851.72
649.75	845.82
650.09	840.00
650.43	834.27
650.78	828.11
651.12	822.16
651.46	816.40
651.80	810.67
652.14	805.26
652.49	799.83
652.83	794.60
653.17	788.97
653.51	783.41
653.85	777.91
654.20	772.35
654.54	766.36
654.88	760.66
655.22	754.73
655.56	749.05
655.90	743.61
656.25	738.38
656.59	733.00
656.93	727.97
657.27	722.76
657.61	717.29
657.95	712.20
658.29	707.14
658.64	701.89
658.98	696.60
659.32	691.22
659.66	686.05
660.00	680.78
660.34	675.81
660.68	670.88
661.02	665.87
661.36	661.12
661.70	656.66
662.05	652.30
662.39	648.04
662.73	643.60
663.07	639.28
663.41	634.88
663.75	630.41
664.09	625.84
664.43	621.48
664.77	617.45
665.11	613.24
665.45	609.00
665.79	604.91
666.13	600.81
666.47	596.73
666.81	592.60
667.15	588.53
667.49	584.68
667.83	580.84
668.17	577.00
668.51	572.95
668.85	568.95
669.19	565.07
669.53	561.25
669.87	557.43
670.21	553.75
670.55	550.09
670.89	546.70
671.23	543.28
671.57	539.74
671.91	536.15
672.25	532.64
672.58	529.18
672.92	525.79
673.26	522.58
673.60	519.43
673.94	516.34
674.28	513.41
674.62	510.46
674.96	507.36
675.30	504.42
675.64	501.44
675.97	498.66
676.31	495.84
676.65	492.90
676.99	490.12
677.33	487.23
677.67	484.43
678.01	481.39
678.34	478.42
678.68	475.57
679.02	472.77
679.36	470.04
679.70	467.36
680.04	464.63
680.37	461.81
680.71	458.98
681.05	456.35
681.39	453.64
681.73	450.95
682.06	448.40
682.40	445.87
682.74	443.37
683.08	440.77
683.42	438.13
683.75	435.69
684.09	433.17
684.43	430.63
684.77	428.21
685.10	425.83
685.44	423.54
685.78	421.26
686.12	419.01
686.45	416.69
686.79	414.37
687.13	412.19
687.46	410.00
687.80	407.82
688.14	405.61
688.48	403.59
688.81	401.42
689.15	399.28
689.49	397.11
689.82	395.01
690.16	392.91
690.50	390.97
690.83	388.99
691.17	387.01
691.51	385.19
691.84	383.37
692.18	381.51
692.52	379.52
692.85	377.62
693.19	375.76
693.52	373.91
693.86	372.09
694.20	370.28
694.53	368.48
694.87	366.65
695.21	364.83
695.54	362.93
695.88	361.13
696.21	359.41
696.55	357.75
696.88	356.15
697.22	354.48
697.56	352.84
697.89	351.20
698.23	349.67
698.56	348.05
698.90	346.43
699.23	344.80
699.57	343.29
699.90	341.70
700.24	340.12
700.58	338.69
700.91	337.21
701.25	335.76
701.58	334.39
701.92	333.06
702.25	331.74
702.59	330.44
702.92	329.15
703.26	327.84
703.59	326.56
703.93	325.35
704.26	324.18
704.60	322.90
704.93	321.65
705.26	320.38
705.60	319.20
705.93	317.99
706.27	316.91
706.60	315.84
706.94	314.78
707.27	313.68
707.61	312.56
707.94	311.55
708.27	310.53
708.61	309.49
708.94	308.49
709.28	307.47
709.61	306.51
709.94	305.56
710.28	304.56
710.61	303.59
710.95	302.48
711.28	301.51
711.61	300.55
711.95	299.63
712.28	298.69
712.61	297.73
712.95	296.84
713.28	295.94
713.61	295.02
713.95	294.18
714.28	293.35
714.61	292.45
714.95	291.59
715.28	290.71
715.61	289.82
715.95	288.98
716.28	288.09
716.61	287.23
716.95	286.42
717.28	285.72
717.61	284.97
717.94	284.26
718.28	283.49
718.61	282.79
718.94	282.10
719.27	281.44
719.61	280.79
719.94	280.14
720.27	279.43
720.60	278.78
720.94	278.08
721.27	277.47
721.60	276.93
721.93	276.34
722.27	275.77
722.60	275.20
722.93	274.59
723.26	274.07
723.59	273.51
723.93	272.95
724.26	272.37
724.59	271.78
724.92	271.25
725.25	270.75
725.59	270.20
725.92	269.64
726.25	269.12
726.58	268.62
726.91	268.14
727.24	267.68
727.57	267.17
727.91	266.67
728.24	266.20
728.57	265.68
728.90	265.19
729.23	264.71
729.56	264.24
729.89	263.75
730.22	263.25
730.55	262.79
730.89	262.34
731.22	261.88
731.55	261.46
731.88	261.03
732.21	260.56
732.54	260.13
732.87	259.71
733.20	259.30
733.53	258.88
733.86	258.51
734.19	258.07
734.52	257.71
734.85	257.44
735.18	257.02
735.51	256.65
735.84	256.31
736.17	255.94
736.50	255.55
736.83	255.33
737.16	255.01
737.49	254.67
737.82	254.32
738.15	253.99
738.48	253.66
738.81	253.32
739.14	252.99
739.47	252.67
739.80	252.38
740.13	252.07
740.46	251.73
740.79	251.37
741.12	251.06
741.45	250.74
741.78	250.36
742.11	250.06
742.44	249.77
742.77	249.47
743.10	249.19
743.43	248.86
743.75	248.50
744.08	248.35
744.41	248.07
744.74	247.81
745.07	247.51
745.40	247.25
745.73	247.03
746.06	246.76
746.39	246.46
746.71	246.20
747.04	245.91
747.37	245.67
747.70	245.46
748.03	245.22
748.36	244.97
748.68	244.76
749.01	244.52
749.34	244.33
749.67	244.09
750.00	243.89
750.33	243.77
750.65	243.56
750.98	243.21
751.31	243.00
751.64	242.80
751.97	242.64
752.29	242.41
752.62	242.15
752.95	241.95
753.28	241.77
753.60	241.55
753.93	241.41
754.26	241.23
754.59	240.97
754.91	240.79
755.24	240.60
755.57	240.36
755.90	240.18
756.22	239.95
756.55	239.76
756.88	239.53
757.20	239.26
757.53	239.05
757.86	238.88
758.19	238.72
758.51	238.54
758.84	238.33
759.17	238.18
759.49	238.02
759.82	237.92
760.15	237.77
760.47	237.59
760.80	237.44
761.13	237.30
761.45	237.14
761.78	236.98
762.11	236.82
762.43	236.70
762.76	236.54
763.08	236.41
763.41	236.29
763.74	236.18
764.06	236.05
764.39	235.93
764.71	235.81
765.04	235.64
765.37	235.51
765.69	235.39
766.02	235.24
766.34	235.15
766.67	235.01
767.00	234.96
767.32	234.88
767.65	234.81
767.97	234.68
768.30	234.58
768.62	234.46
768.95	234.33
769.27	234.22
769.60	234.15
769.92	234.03
770.25	233.89
770.57	233.81
770.90	233.71
771.22	233.57
771.55	233.45
771.87	233.40
772.20	233.32
772.52	233.33
772.85	233.35
773.17	233.24
773.50	233.11
773.82	232.97
774.15	232.86
774.47	232.68
774.80	232.59
775.12	232.54
775.45	232.45
775.77	232.40
776.09	232.33
776.42	232.27
776.74	232.20
777.07	232.14
777.39	232.04
777.72	231.96
778.04	231.93
778.36	231.89
778.69	231.78
779.01	231.71
779.33	231.54
779.66	231.36
779.98	231.28
780.31	231.23
780.63	231.22
780.95	231.16
781.28	231.11
781.60	231.02
781.92	230.93
782.25	230.88
782.57	230.84
782.89	230.79
783.22	230.70
783.54	230.64
783.86	230.57
784.19	230.51
784.51	230.48
784.83	230.41
785.16	230.33
785.48	230.28
785.80	230.23
786.12	230.16
786.45	230.09
786.77	230.02
787.09	229.96
