SpectraSuite Data File
++++++++++++++++++++++++++++++++++++
Date: Fri Feb 01 15:50:13 EST 2013
User: group
Dark Spectrum Present: No
Reference Spectrum Present: No
Number of Sampled Component Spectra: 1
Spectrometers: USB2E7196
Integration Time (usec): 35000 (USB2E7196)
Spectra Averaged: 100 (USB2E7196)
Boxcar Smoothing: 10 (USB2E7196)
Correct for Electrical Dark: No (USB2E7196)
Strobe/Lamp Enabled: No (USB2E7196)
Correct for Detector Non-linearity: No (USB2E7196)
Correct for Stray Light: No (USB2E7196)
Number of Pixels in Processed Spectrum: 2048
>>>>>Begin Processed Spectral Data<<<<<
339.09	0.00
339.48	214.95
339.86	216.70
340.24	217.41
340.63	219.21
341.01	221.94
341.39	221.90
341.78	223.41
342.16	224.42
342.54	225.08
342.93	213.23
343.31	223.99
343.69	224.52
344.07	224.98
344.46	225.42
344.84	225.77
345.22	226.00
345.60	226.24
345.99	226.42
346.37	226.52
346.75	226.61
347.13	226.69
347.52	226.74
347.90	226.84
348.28	226.86
348.66	226.90
349.05	226.86
349.43	226.89
349.81	226.93
350.19	226.98
350.57	227.06
350.96	227.12
351.34	227.21
351.72	227.32
352.10	227.39
352.48	227.47
352.87	227.54
353.25	227.62
353.63	227.70
354.01	227.75
354.39	227.85
354.77	227.94
355.15	228.04
355.54	228.11
355.92	228.13
356.30	228.23
356.68	228.37
357.06	228.48
357.44	228.55
357.82	228.65
358.20	228.70
358.58	228.77
358.97	228.80
359.35	228.87
359.73	228.93
360.11	228.97
360.49	229.04
360.87	229.10
361.25	229.13
361.63	229.19
362.01	229.25
362.39	229.27
362.77	229.30
363.15	229.30
363.53	229.31
363.91	229.36
364.29	229.35
364.67	229.28
365.05	229.27
365.43	229.27
365.81	229.30
366.19	229.33
366.57	229.37
366.95	229.41
367.33	229.34
367.71	229.36
368.09	229.38
368.47	229.36
368.85	229.33
369.23	229.35
369.61	229.30
369.99	229.30
370.37	229.29
370.75	229.30
371.13	229.26
371.51	229.24
371.89	229.17
372.27	229.16
372.65	229.13
373.03	229.09
373.41	229.04
373.78	228.97
374.16	228.88
374.54	228.78
374.92	228.72
375.30	228.68
375.68	228.57
376.06	228.51
376.44	228.43
376.82	228.38
377.19	228.29
377.57	228.23
377.95	228.13
378.33	228.05
378.71	227.94
379.09	227.86
379.47	227.77
379.84	227.71
380.22	227.62
380.60	227.52
380.98	227.46
381.36	227.38
381.73	227.31
382.11	227.29
382.49	227.23
382.87	227.12
383.25	227.06
383.62	227.11
384.00	227.01
384.38	226.93
384.76	226.94
385.13	226.93
385.51	226.86
385.89	226.80
386.27	226.76
386.64	226.71
387.02	226.70
387.40	226.67
387.78	226.64
388.15	226.59
388.53	226.57
388.91	226.54
389.29	226.54
389.66	226.51
390.04	226.45
390.42	226.43
390.79	226.45
391.17	226.49
391.55	226.38
391.92	226.38
392.30	226.43
392.68	226.35
393.05	226.35
393.43	226.42
393.81	226.43
394.18	226.40
394.56	226.41
394.94	226.43
395.31	226.45
395.69	226.50
396.06	226.56
396.44	226.59
396.82	226.60
397.19	226.69
397.57	226.74
397.95	226.78
398.32	226.82
398.70	226.87
399.07	226.91
399.45	226.95
399.82	227.03
400.20	227.01
400.58	227.07
400.95	227.08
401.33	227.14
401.70	227.26
402.08	227.34
402.45	227.41
402.83	227.55
403.20	227.65
403.58	227.75
403.95	227.88
404.33	228.02
404.71	228.16
405.08	228.29
405.46	228.42
405.83	228.61
406.21	228.71
406.58	228.87
406.96	229.01
407.33	229.21
407.70	229.40
408.08	229.69
408.45	229.93
408.83	230.18
409.20	230.39
409.58	230.60
409.95	230.91
410.33	231.21
410.70	231.42
411.08	231.72
411.45	232.02
411.82	232.34
412.20	232.70
412.57	233.09
412.95	233.43
413.32	233.80
413.69	234.20
414.07	234.68
414.44	235.15
414.82	235.64
415.19	236.17
415.56	236.71
415.94	237.24
416.31	237.90
416.68	238.51
417.06	239.22
417.43	239.87
417.81	240.63
418.18	241.41
418.55	242.26
418.93	243.10
419.30	244.02
419.67	244.94
420.04	245.89
420.42	246.90
420.79	248.09
421.16	249.27
421.54	250.45
421.91	251.65
422.28	252.91
422.66	254.24
423.03	255.57
423.40	256.89
423.77	258.32
424.15	259.71
424.52	261.23
424.89	262.88
425.26	264.46
425.64	265.89
426.01	267.46
426.38	269.10
426.75	270.81
427.13	272.52
427.50	274.31
427.87	276.22
428.24	278.06
428.61	279.80
428.99	281.76
429.36	283.88
429.73	285.96
430.10	287.97
430.47	290.06
430.85	292.21
431.22	294.48
431.59	296.88
431.96	299.14
432.33	301.66
432.70	303.96
433.08	306.78
433.45	309.45
433.82	312.14
434.19	315.06
434.56	317.91
434.93	320.59
435.30	323.23
435.68	326.08
436.05	328.91
436.42	331.70
436.79	334.19
437.16	336.85
437.53	339.67
437.90	342.48
438.27	345.22
438.64	348.02
439.01	350.61
439.38	352.83
439.75	354.98
440.13	357.40
440.50	359.76
440.87	361.63
441.24	363.55
441.61	365.62
441.98	367.04
442.35	368.81
442.72	370.67
443.09	372.47
443.46	373.48
443.83	374.06
444.20	374.62
444.57	375.42
444.94	375.74
445.31	376.03
445.68	376.36
446.05	376.43
446.42	376.05
446.79	375.62
447.16	375.14
447.53	374.87
447.90	373.72
448.27	372.56
448.64	370.93
449.01	369.80
449.37	367.85
449.74	365.99
450.11	363.71
450.48	361.16
450.85	358.61
451.22	356.44
451.59	354.45
451.96	352.45
452.33	349.85
452.70	347.49
453.07	344.69
453.43	341.82
453.80	339.05
454.17	336.33
454.54	333.79
454.91	331.10
455.28	328.38
455.65	325.92
456.02	323.46
456.38	321.30
456.75	318.60
457.12	316.37
457.49	314.16
457.86	311.96
458.23	310.13
458.59	308.08
458.96	306.00
459.33	304.12
459.70	302.24
460.07	300.74
460.43	299.05
460.80	297.44
461.17	296.01
461.54	294.53
461.91	293.12
462.27	291.64
462.64	290.38
463.01	289.05
463.38	287.74
463.74	286.35
464.11	285.19
464.48	284.19
464.85	283.07
465.21	282.21
465.58	281.33
465.95	280.21
466.32	279.32
466.68	278.44
467.05	277.55
467.42	276.65
467.78	275.77
468.15	274.88
468.52	274.21
468.88	273.35
469.25	272.61
469.62	271.97
469.98	271.31
470.35	270.68
470.72	270.06
471.08	269.42
471.45	268.92
471.82	268.40
472.18	267.80
472.55	267.34
472.92	266.82
473.28	266.33
473.65	265.94
474.02	265.53
474.38	265.14
474.75	264.83
475.11	264.49
475.48	264.22
475.85	264.03
476.21	263.78
476.58	263.58
476.94	263.41
477.31	263.25
477.67	263.11
478.04	263.01
478.41	263.00
478.77	263.04
479.14	262.99
479.50	262.97
479.87	263.07
480.23	263.18
480.60	263.25
480.96	263.38
481.33	263.58
481.69	263.74
482.06	263.95
482.42	264.16
482.79	264.44
483.15	264.76
483.52	265.14
483.88	265.51
484.25	265.92
484.61	266.32
484.98	266.79
485.34	267.32
485.71	267.91
486.07	268.48
486.44	269.04
486.80	269.71
487.17	270.47
487.53	271.27
487.90	272.09
488.26	273.01
488.62	273.97
488.99	274.96
489.35	276.01
489.72	277.10
490.08	278.29
490.44	279.50
490.81	280.80
491.17	282.09
491.54	283.56
491.90	285.11
492.26	286.77
492.63	288.52
492.99	290.34
493.36	292.24
493.72	294.29
494.08	296.41
494.45	298.67
494.81	301.06
495.17	303.50
495.54	306.08
495.90	308.75
496.26	311.52
496.63	314.43
496.99	317.50
497.35	320.78
497.72	324.16
498.08	327.65
498.44	331.36
498.80	335.28
499.17	339.29
499.53	343.47
499.89	347.81
500.26	352.30
500.62	356.95
500.98	361.91
501.34	366.94
501.71	372.22
502.07	377.67
502.43	383.25
502.79	389.07
503.16	395.13
503.52	401.40
503.88	407.87
504.24	414.51
504.60	421.46
504.97	428.54
505.33	435.88
505.69	443.62
506.05	451.37
506.41	459.27
506.78	467.51
507.14	475.94
507.50	484.65
507.86	493.68
508.22	502.85
508.59	512.04
508.95	521.67
509.31	531.53
509.67	541.66
510.03	551.98
510.39	562.54
510.75	573.33
511.12	584.33
511.48	595.61
511.84	607.10
512.20	618.51
512.56	630.56
512.92	642.81
513.28	655.19
513.64	667.67
514.00	680.41
514.37	693.28
514.73	706.32
515.09	719.38
515.45	732.66
515.81	746.26
516.17	760.26
516.53	774.43
516.89	788.61
517.25	802.80
517.61	817.25
517.97	831.68
518.33	846.14
518.69	860.87
519.05	875.83
519.41	890.93
519.77	906.52
520.13	921.98
520.49	937.29
520.85	952.70
521.21	968.42
521.57	984.60
521.93	1000.47
522.29	1016.91
522.65	1033.06
523.01	1049.24
523.37	1065.26
523.73	1081.44
524.09	1097.54
524.45	1113.93
524.81	1130.52
525.17	1147.26
525.53	1164.19
525.89	1181.09
526.25	1197.87
526.61	1214.32
526.97	1231.21
527.33	1247.67
527.68	1264.28
528.04	1280.72
528.40	1297.29
528.76	1314.31
529.12	1330.88
529.48	1347.68
529.84	1363.68
530.20	1380.40
530.56	1397.53
530.91	1415.01
531.27	1431.73
531.63	1448.13
531.99	1464.58
532.35	1480.50
532.71	1496.40
533.07	1512.62
533.42	1528.40
533.78	1544.50
534.14	1560.72
534.50	1576.02
534.86	1591.91
535.21	1607.02
535.57	1623.07
535.93	1638.51
536.29	1653.38
536.65	1668.50
537.00	1683.23
537.36	1698.44
537.72	1713.13
538.08	1727.42
538.44	1741.26
538.79	1755.08
539.15	1768.77
539.51	1782.48
539.87	1796.87
540.22	1810.59
540.58	1824.26
540.94	1837.67
541.29	1850.51
541.65	1863.16
542.01	1876.35
542.37	1888.57
542.72	1900.93
543.08	1912.64
543.44	1924.99
543.79	1936.34
544.15	1947.37
544.51	1958.97
544.87	1969.94
545.22	1980.65
545.58	1990.91
545.94	2000.53
546.29	2010.40
546.65	2020.24
547.01	2029.50
547.36	2038.09
547.72	2046.55
548.07	2054.44
548.43	2062.62
548.79	2070.75
549.14	2078.27
549.50	2085.55
549.86	2093.34
550.21	2100.74
550.57	2107.84
550.92	2114.38
551.28	2121.24
551.64	2128.09
551.99	2134.55
552.35	2140.72
552.70	2146.69
553.06	2152.69
553.41	2159.02
553.77	2165.08
554.13	2171.18
554.48	2177.28
554.84	2182.82
555.19	2188.23
555.55	2193.43
555.90	2197.77
556.26	2202.46
556.61	2207.16
556.97	2211.39
557.32	2215.50
557.68	2219.55
558.03	2223.90
558.39	2227.70
558.74	2232.28
559.10	2236.28
559.45	2240.03
559.81	2244.35
560.16	2248.31
560.52	2251.45
560.87	2254.98
561.23	2257.61
561.58	2260.58
561.94	2263.09
562.29	2265.52
562.64	2268.08
563.00	2270.65
563.35	2274.35
563.71	2277.46
564.06	2280.84
564.42	2283.70
564.77	2286.18
565.12	2288.62
565.48	2290.43
565.83	2292.42
566.19	2293.80
566.54	2294.69
566.89	2295.77
567.25	2296.34
567.60	2297.62
567.96	2299.40
568.31	2300.14
568.66	2301.38
569.02	2301.84
569.37	2302.30
569.72	2303.16
570.08	2303.22
570.43	2303.28
570.78	2302.63
571.14	2301.21
571.49	2299.76
571.84	2299.61
572.20	2298.43
572.55	2297.34
572.90	2295.89
573.26	2294.43
573.61	2292.69
573.96	2290.94
574.31	2288.01
574.67	2285.09
575.02	2281.44
575.37	2277.99
575.72	2274.23
576.08	2270.92
576.43	2267.60
576.78	2263.84
577.13	2260.66
577.49	2257.69
577.84	2254.04
578.19	2250.31
578.54	2246.68
578.90	2242.41
579.25	2236.68
579.60	2231.74
579.95	2226.56
580.30	2221.52
580.66	2216.33
581.01	2211.40
581.36	2206.49
581.71	2202.16
582.06	2197.71
582.42	2193.30
582.77	2188.10
583.12	2183.51
583.47	2178.59
583.82	2173.60
584.17	2168.35
584.53	2162.77
584.88	2157.16
585.23	2151.46
585.58	2145.78
585.93	2140.35
586.28	2135.61
586.63	2130.60
586.98	2125.58
587.34	2120.89
587.69	2115.97
588.04	2110.62
588.39	2104.89
588.74	2098.40
589.09	2092.28
589.44	2085.46
589.79	2079.46
590.14	2073.86
590.49	2067.18
590.84	2060.76
591.19	2054.70
591.54	2048.22
591.89	2040.78
592.25	2033.87
592.60	2026.64
592.95	2019.11
593.30	2011.68
593.65	2004.06
594.00	1997.00
594.35	1989.74
594.70	1981.81
595.05	1974.58
595.40	1967.42
595.75	1960.05
596.10	1953.74
596.45	1947.15
596.80	1940.85
597.15	1934.15
597.50	1927.01
597.85	1920.64
598.19	1914.04
598.54	1906.92
598.89	1900.34
599.24	1894.54
599.59	1887.89
599.94	1881.93
600.29	1875.68
600.64	1869.09
600.99	1861.60
601.34	1854.84
601.69	1847.78
602.04	1840.78
602.39	1833.51
602.74	1826.66
603.08	1819.76
603.43	1813.07
603.78	1805.62
604.13	1798.51
604.48	1791.14
604.83	1784.18
605.18	1777.07
605.53	1769.09
605.87	1761.09
606.22	1753.83
606.57	1745.90
606.92	1738.56
607.27	1731.19
607.62	1724.16
607.96	1716.84
608.31	1710.34
608.66	1702.70
609.01	1695.20
609.36	1687.66
609.70	1679.52
610.05	1671.47
610.40	1663.78
610.75	1655.45
611.10	1647.82
611.44	1639.35
611.79	1631.43
612.14	1622.81
612.49	1613.87
612.83	1605.48
613.18	1597.36
613.53	1589.24
613.88	1580.59
614.22	1572.28
614.57	1563.72
614.92	1555.71
615.27	1548.17
615.61	1539.79
615.96	1531.74
616.31	1524.15
616.65	1516.82
617.00	1509.25
617.35	1501.54
617.70	1493.25
618.04	1484.74
618.39	1476.49
618.74	1468.95
619.08	1460.64
619.43	1453.09
619.78	1446.04
620.12	1438.84
620.47	1431.32
620.82	1423.20
621.16	1415.84
621.51	1408.26
621.85	1400.60
622.20	1392.18
622.55	1383.90
622.89	1376.10
623.24	1368.46
623.59	1361.00
623.93	1353.46
624.28	1346.35
624.62	1338.75
624.97	1331.46
625.32	1324.75
625.66	1317.69
626.01	1310.42
626.35	1302.84
626.70	1295.11
627.04	1287.49
627.39	1279.74
627.73	1272.41
628.08	1265.40
628.43	1258.04
628.77	1250.65
629.12	1243.15
629.46	1235.96
629.81	1228.46
630.15	1221.13
630.50	1213.74
630.84	1205.58
631.19	1197.62
631.53	1190.01
631.88	1182.58
632.22	1175.09
632.57	1167.71
632.91	1160.14
633.26	1152.86
633.60	1145.61
633.95	1138.51
634.29	1131.42
634.64	1124.75
634.98	1117.35
635.32	1110.21
635.67	1103.72
636.01	1097.06
636.36	1090.20
636.70	1083.63
637.05	1077.01
637.39	1070.56
637.73	1064.01
638.08	1058.09
638.42	1052.12
638.77	1045.64
639.11	1038.94
639.45	1032.41
639.80	1025.85
640.14	1019.43
640.49	1012.84
640.83	1006.58
641.17	1000.26
641.52	993.91
641.86	987.42
642.20	981.53
642.55	975.32
642.89	968.75
643.23	962.25
643.58	956.44
643.92	950.24
644.26	944.23
644.61	938.18
644.95	932.19
645.29	925.66
645.64	918.97
645.98	912.67
646.32	906.83
646.66	900.99
647.01	895.14
647.35	889.48
647.69	883.55
648.04	877.95
648.38	872.24
648.72	866.20
649.06	860.10
649.41	854.20
649.75	848.13
650.09	842.19
650.43	836.35
650.78	830.23
651.12	824.29
651.46	818.55
651.80	812.81
652.14	807.42
652.49	802.03
652.83	796.82
653.17	791.13
653.51	785.45
653.85	779.99
654.20	774.35
654.54	768.35
654.88	762.64
655.22	756.77
655.56	751.00
655.90	745.64
656.25	740.45
656.59	735.06
656.93	730.00
657.27	724.84
657.61	719.49
657.95	714.39
658.29	709.32
658.64	704.06
658.98	698.81
659.32	693.34
659.66	688.18
660.00	682.83
660.34	677.90
660.68	672.96
661.02	667.95
661.36	663.27
661.70	658.80
662.05	654.49
662.39	650.21
662.73	645.80
663.07	641.40
663.41	636.93
663.75	632.53
664.09	628.00
664.43	623.66
664.77	619.51
665.11	615.33
665.45	611.20
665.79	607.14
666.13	602.98
666.47	598.86
666.81	594.66
667.15	590.58
667.49	586.74
667.83	583.00
668.17	579.00
668.51	574.85
668.85	570.81
669.19	566.95
669.53	563.10
669.87	559.17
670.21	555.44
670.55	551.82
670.89	548.42
671.23	544.91
671.57	541.40
671.91	537.84
672.25	534.29
672.58	530.76
672.92	527.41
673.26	524.22
673.60	521.04
673.94	517.94
674.28	515.05
674.62	512.03
674.96	508.88
675.30	506.01
675.64	503.09
675.97	500.32
676.31	497.47
676.65	494.48
676.99	491.80
677.33	488.92
677.67	486.12
678.01	483.05
678.34	480.13
678.68	477.24
679.02	474.45
679.36	471.67
679.70	469.01
680.04	466.16
680.37	463.30
680.71	460.49
681.05	457.86
681.39	455.13
681.73	452.51
682.06	449.99
682.40	447.47
682.74	444.96
683.08	442.42
683.42	439.80
683.75	437.37
684.09	434.83
684.43	432.37
684.77	429.91
685.10	427.55
685.44	425.26
685.78	422.96
686.12	420.64
686.45	418.33
686.79	415.97
687.13	413.83
687.46	411.66
687.80	409.51
688.14	407.28
688.48	405.26
688.81	403.00
689.15	400.84
689.49	398.66
689.82	396.56
690.16	394.48
690.50	392.52
690.83	390.51
691.17	388.52
691.51	386.65
691.84	384.77
692.18	382.80
692.52	380.77
692.85	378.81
693.19	376.95
693.52	375.11
693.86	373.32
694.20	371.54
694.53	369.76
694.87	367.91
695.21	366.16
695.54	364.28
695.88	362.57
696.21	360.84
696.55	359.18
696.88	357.55
697.22	355.89
697.56	354.28
697.89	352.64
698.23	351.06
698.56	349.47
698.90	347.90
699.23	346.28
699.57	344.77
699.90	343.30
700.24	341.79
700.58	340.30
700.91	338.80
701.25	337.32
701.58	335.96
701.92	334.63
702.25	333.20
702.59	331.84
702.92	330.52
703.26	329.22
703.59	327.94
703.93	326.71
704.26	325.45
704.60	324.14
704.93	322.85
705.26	321.58
705.60	320.37
705.93	319.25
706.27	318.20
706.60	317.11
706.94	316.02
707.27	314.92
707.61	313.88
707.94	312.90
708.27	311.84
708.61	310.72
708.94	309.71
709.28	308.78
709.61	307.81
709.94	306.86
710.28	305.86
710.61	304.86
710.95	303.82
711.28	302.93
711.61	301.97
711.95	301.12
712.28	300.19
712.61	299.21
712.95	298.23
713.28	297.34
713.61	296.46
713.95	295.55
714.28	294.70
714.61	293.84
714.95	292.97
715.28	292.13
715.61	291.29
715.95	290.47
716.28	289.59
716.61	288.76
716.95	287.93
717.28	287.15
717.61	286.38
717.94	285.63
718.28	284.83
718.61	284.12
718.94	283.38
719.27	282.69
719.61	282.04
719.94	281.42
720.27	280.72
720.60	280.06
720.94	279.47
721.27	278.89
721.60	278.29
721.93	277.70
722.27	277.09
722.60	276.55
722.93	275.93
723.26	275.41
723.59	274.85
723.93	274.33
724.26	273.80
724.59	273.29
724.92	272.73
725.25	272.21
725.59	271.71
725.92	271.17
726.25	270.68
726.58	270.22
726.91	269.70
727.24	269.24
727.57	268.78
727.91	268.23
728.24	267.73
728.57	267.27
728.90	266.78
729.23	266.34
729.56	265.86
729.89	265.42
730.22	264.93
730.55	264.48
730.89	263.99
731.22	263.53
731.55	263.07
731.88	262.67
732.21	262.28
732.54	261.83
732.87	261.46
733.20	261.05
733.53	260.66
733.86	260.26
734.19	259.86
734.52	259.46
734.85	259.16
735.18	258.77
735.51	258.35
735.84	258.01
736.17	257.64
736.50	257.28
736.83	257.04
737.16	256.69
737.49	256.37
737.82	256.03
738.15	255.73
738.48	255.40
738.81	255.04
739.14	254.70
739.47	254.37
739.80	254.04
740.13	253.74
740.46	253.39
740.79	253.06
741.12	252.74
741.45	252.42
741.78	252.06
742.11	251.75
742.44	251.45
742.77	251.16
743.10	250.86
743.43	250.54
743.75	250.18
744.08	250.05
744.41	249.74
744.74	249.47
745.07	249.17
745.40	248.93
745.73	248.75
746.06	248.48
746.39	248.21
746.71	247.98
747.04	247.69
747.37	247.42
747.70	247.19
748.03	246.95
748.36	246.71
748.68	246.51
749.01	246.27
749.34	246.06
749.67	245.81
750.00	245.56
750.33	245.41
750.65	245.18
750.98	244.85
751.31	244.64
751.64	244.45
751.97	244.30
752.29	244.08
752.62	243.83
752.95	243.60
753.28	243.40
753.60	243.15
753.93	242.99
754.26	242.80
754.59	242.58
754.91	242.37
755.24	242.18
755.57	241.98
755.90	241.78
756.22	241.57
756.55	241.41
756.88	241.26
757.20	241.07
757.53	240.86
757.86	240.65
758.19	240.52
758.51	240.34
758.84	240.10
759.17	239.92
759.49	239.75
759.82	239.63
760.15	239.50
760.47	239.39
760.80	239.24
761.13	239.15
761.45	239.00
761.78	238.86
762.11	238.71
762.43	238.57
762.76	238.42
763.08	238.32
763.41	238.16
763.74	238.01
764.06	237.84
764.39	237.75
764.71	237.60
765.04	237.44
765.37	237.29
765.69	237.16
766.02	237.04
766.34	236.90
766.67	236.76
767.00	236.64
767.32	236.54
767.65	236.46
767.97	236.31
768.30	236.22
768.62	236.11
768.95	235.96
769.27	235.84
769.60	235.76
769.92	235.61
770.25	235.46
770.57	235.33
770.90	235.24
771.22	235.11
771.55	235.07
771.87	234.97
772.20	234.89
772.52	234.86
772.85	234.85
773.17	234.77
773.50	234.66
773.82	234.55
774.15	234.42
774.47	234.24
774.80	234.13
775.12	234.00
775.45	233.92
775.77	233.85
776.09	233.77
776.42	233.70
776.74	233.66
777.07	233.62
777.39	233.54
777.72	233.42
778.04	233.34
778.36	233.24
778.69	233.18
779.01	233.08
779.33	232.94
779.66	232.80
779.98	232.71
780.31	232.64
780.63	232.62
780.95	232.56
781.28	232.52
781.60	232.45
781.92	232.39
782.25	232.31
782.57	232.23
782.89	232.18
783.22	232.09
783.54	232.01
783.86	231.94
784.19	231.87
784.51	231.81
784.83	231.76
785.16	231.70
785.48	231.63
785.80	231.59
786.12	231.57
786.45	231.49
786.77	231.44
787.09	231.38
