SpectraSuite Data File
++++++++++++++++++++++++++++++++++++
Date: Fri Feb 01 16:02:11 EST 2013
User: group
Dark Spectrum Present: No
Reference Spectrum Present: No
Number of Sampled Component Spectra: 1
Spectrometers: USB2E7196
Integration Time (usec): 35000 (USB2E7196)
Spectra Averaged: 100 (USB2E7196)
Boxcar Smoothing: 10 (USB2E7196)
Correct for Electrical Dark: No (USB2E7196)
Strobe/Lamp Enabled: No (USB2E7196)
Correct for Detector Non-linearity: No (USB2E7196)
Correct for Stray Light: No (USB2E7196)
Number of Pixels in Processed Spectrum: 2048
>>>>>Begin Processed Spectral Data<<<<<
339.09	0.00
339.48	215.32
339.86	216.06
340.24	217.78
340.63	219.09
341.01	221.61
341.39	222.07
341.78	223.46
342.16	224.11
342.54	225.02
342.93	213.35
343.31	224.14
343.69	224.67
344.07	225.12
344.46	225.56
344.84	225.93
345.22	226.18
345.60	226.42
345.99	226.60
346.37	226.75
346.75	226.84
347.13	226.88
347.52	226.96
347.90	227.02
348.28	227.02
348.66	227.04
349.05	227.03
349.43	227.05
349.81	227.07
350.19	227.09
350.57	227.14
350.96	227.18
351.34	227.24
351.72	227.32
352.10	227.44
352.48	227.47
352.87	227.53
353.25	227.63
353.63	227.68
354.01	227.72
354.39	227.77
354.77	227.86
355.15	227.96
355.54	228.00
355.92	228.04
356.30	228.10
356.68	228.25
357.06	228.33
357.44	228.37
357.82	228.47
358.20	228.54
358.58	228.61
358.97	228.67
359.35	228.74
359.73	228.79
360.11	228.85
360.49	228.94
360.87	228.99
361.25	229.06
361.63	229.12
362.01	229.16
362.39	229.18
362.77	229.20
363.15	229.22
363.53	229.27
363.91	229.34
364.29	229.38
364.67	229.31
365.05	229.31
365.43	229.36
365.81	229.38
366.19	229.42
366.57	229.45
366.95	229.43
367.33	229.41
367.71	229.42
368.09	229.41
368.47	229.38
368.85	229.36
369.23	229.31
369.61	229.27
369.99	229.28
370.37	229.27
370.75	229.29
371.13	229.22
371.51	229.12
371.89	229.03
372.27	228.98
372.65	228.91
373.03	228.86
373.41	228.79
373.78	228.69
374.16	228.60
374.54	228.51
374.92	228.46
375.30	228.40
375.68	228.30
376.06	228.23
376.44	228.13
376.82	228.07
377.19	227.99
377.57	227.91
377.95	227.84
378.33	227.71
378.71	227.57
379.09	227.51
379.47	227.45
379.84	227.40
380.22	227.31
380.60	227.22
380.98	227.15
381.36	227.07
381.73	227.03
382.11	226.93
382.49	226.89
382.87	226.81
383.25	226.73
383.62	226.78
384.00	226.70
384.38	226.65
384.76	226.61
385.13	226.62
385.51	226.52
385.89	226.46
386.27	226.45
386.64	226.45
387.02	226.38
387.40	226.35
387.78	226.31
388.15	226.32
388.53	226.31
388.91	226.25
389.29	226.21
389.66	226.18
390.04	226.15
390.42	226.17
390.79	226.13
391.17	226.11
391.55	225.96
391.92	225.95
392.30	225.96
392.68	225.93
393.05	225.90
393.43	225.94
393.81	225.95
394.18	225.94
394.56	225.94
394.94	225.98
395.31	226.00
395.69	226.04
396.06	226.04
396.44	226.06
396.82	226.11
397.19	226.24
397.57	226.28
397.95	226.38
398.32	226.38
398.70	226.48
399.07	226.58
399.45	226.67
399.82	226.75
400.20	226.80
400.58	226.86
400.95	226.91
401.33	227.00
401.70	227.16
402.08	227.27
402.45	227.38
402.83	227.52
403.20	227.64
403.58	227.78
403.95	227.88
404.33	228.04
404.71	228.16
405.08	228.33
405.46	228.46
405.83	228.61
406.21	228.75
406.58	228.92
406.96	229.09
407.33	229.28
407.70	229.50
408.08	229.80
408.45	230.03
408.83	230.27
409.20	230.51
409.58	230.68
409.95	230.94
410.33	231.22
410.70	231.47
411.08	231.80
411.45	232.08
411.82	232.45
412.20	232.78
412.57	233.19
412.95	233.52
413.32	233.94
413.69	234.33
414.07	234.77
414.44	235.21
414.82	235.69
415.19	236.22
415.56	236.77
415.94	237.30
416.31	237.95
416.68	238.60
417.06	239.30
417.43	239.99
417.81	240.80
418.18	241.56
418.55	242.39
418.93	243.24
419.30	244.14
419.67	245.05
420.04	246.02
420.42	247.03
420.79	248.20
421.16	249.33
421.54	250.53
421.91	251.76
422.28	253.03
422.66	254.35
423.03	255.67
423.40	256.96
423.77	258.37
424.15	259.75
424.52	261.20
424.89	262.81
425.26	264.37
425.64	265.80
426.01	267.43
426.38	269.06
426.75	270.75
427.13	272.50
427.50	274.30
427.87	276.18
428.24	278.02
428.61	279.73
428.99	281.69
429.36	283.82
429.73	285.87
430.10	287.85
430.47	289.92
430.85	292.02
431.22	294.29
431.59	296.69
431.96	299.00
432.33	301.52
432.70	303.89
433.08	306.69
433.45	309.27
433.82	311.85
434.19	314.72
434.56	317.53
434.93	320.17
435.30	322.77
435.68	325.63
436.05	328.48
436.42	331.28
436.79	333.80
437.16	336.45
437.53	339.26
437.90	342.09
438.27	344.81
438.64	347.64
439.01	350.20
439.38	352.37
439.75	354.49
440.13	356.93
440.50	359.25
440.87	361.05
441.24	362.99
441.61	365.12
441.98	366.60
442.35	368.37
442.72	370.20
443.09	372.00
443.46	372.99
443.83	373.59
444.20	374.04
444.57	374.88
444.94	375.11
445.31	375.42
445.68	375.79
446.05	375.87
446.42	375.48
446.79	375.06
447.16	374.62
447.53	374.30
447.90	373.13
448.27	371.96
448.64	370.36
449.01	369.22
449.37	367.25
449.74	365.34
450.11	363.05
450.48	360.52
450.85	358.00
451.22	355.87
451.59	353.84
451.96	351.93
452.33	349.25
452.70	346.98
453.07	344.14
453.43	341.22
453.80	338.45
454.17	335.76
454.54	333.22
454.91	330.53
455.28	327.83
455.65	325.37
456.02	322.96
456.38	320.87
456.75	318.20
457.12	315.97
457.49	313.75
457.86	311.63
458.23	309.88
458.59	307.81
458.96	305.68
459.33	303.79
459.70	301.90
460.07	300.44
460.43	298.68
460.80	297.14
461.17	295.68
461.54	294.18
461.91	292.78
462.27	291.33
462.64	290.05
463.01	288.71
463.38	287.43
463.74	286.07
464.11	284.85
464.48	283.85
464.85	282.74
465.21	281.89
465.58	280.96
465.95	279.83
466.32	278.94
466.68	278.07
467.05	277.18
467.42	276.30
467.78	275.35
468.15	274.50
468.52	273.79
468.88	272.97
469.25	272.23
469.62	271.62
469.98	270.96
470.35	270.36
470.72	269.78
471.08	269.11
471.45	268.60
471.82	268.07
472.18	267.52
472.55	267.12
472.92	266.61
473.28	266.17
473.65	265.75
474.02	265.35
474.38	264.99
474.75	264.70
475.11	264.36
475.48	264.14
475.85	263.92
476.21	263.71
476.58	263.56
476.94	263.43
477.31	263.28
477.67	263.13
478.04	263.01
478.41	262.92
478.77	263.00
479.14	262.92
479.50	262.99
479.87	263.09
480.23	263.13
480.60	263.19
480.96	263.26
481.33	263.46
481.69	263.62
482.06	263.82
482.42	264.01
482.79	264.28
483.15	264.55
483.52	264.91
483.88	265.26
484.25	265.58
484.61	265.99
484.98	266.43
485.34	267.02
485.71	267.62
486.07	268.29
486.44	268.83
486.80	269.53
487.17	270.22
487.53	271.02
487.90	271.87
488.26	272.83
488.62	273.78
488.99	274.75
489.35	275.80
489.72	276.89
490.08	278.12
490.44	279.39
490.81	280.76
491.17	282.10
491.54	283.58
491.90	285.18
492.26	286.80
492.63	288.54
492.99	290.31
493.36	292.18
493.72	294.20
494.08	296.29
494.45	298.56
494.81	300.97
495.17	303.39
495.54	305.97
495.90	308.64
496.26	311.48
496.63	314.45
496.99	317.58
497.35	320.88
497.72	324.26
498.08	327.78
498.44	331.47
498.80	335.37
499.17	339.44
499.53	343.52
499.89	347.97
500.26	352.44
500.62	357.10
500.98	362.13
501.34	367.23
501.71	372.55
502.07	378.00
502.43	383.54
502.79	389.36
503.16	395.40
503.52	401.68
503.88	408.08
504.24	414.74
504.60	421.62
504.97	428.75
505.33	436.07
505.69	443.74
506.05	451.52
506.41	459.44
506.78	467.55
507.14	476.03
507.50	484.79
507.86	493.79
508.22	503.01
508.59	512.17
508.95	521.76
509.31	531.60
509.67	541.65
510.03	551.96
510.39	562.50
510.75	573.34
511.12	584.22
511.48	595.58
511.84	607.05
512.20	618.66
512.56	630.61
512.92	642.81
513.28	655.22
513.64	667.68
514.00	680.49
514.37	693.47
514.73	706.51
515.09	719.48
515.45	732.93
515.81	746.54
516.17	760.60
516.53	774.67
516.89	788.78
517.25	803.01
517.61	817.46
517.97	831.94
518.33	846.39
518.69	861.26
519.05	876.19
519.41	891.36
519.77	906.85
520.13	922.28
520.49	937.65
520.85	952.99
521.21	968.73
521.57	984.85
521.93	1000.62
522.29	1017.02
522.65	1033.23
523.01	1049.40
523.37	1065.34
523.73	1081.54
524.09	1097.65
524.45	1114.05
524.81	1130.61
525.17	1147.42
525.53	1164.31
525.89	1181.20
526.25	1197.98
526.61	1214.30
526.97	1231.03
527.33	1247.32
527.68	1263.90
528.04	1280.30
528.40	1296.95
528.76	1313.96
529.12	1330.51
529.48	1347.38
529.84	1363.45
530.20	1380.11
530.56	1397.06
530.91	1414.42
531.27	1431.06
531.63	1447.53
531.99	1464.01
532.35	1479.82
532.71	1495.75
533.07	1511.93
533.42	1527.74
533.78	1543.77
534.14	1560.06
534.50	1575.36
534.86	1591.29
535.21	1606.43
535.57	1622.39
535.93	1637.88
536.29	1652.60
536.65	1667.60
537.00	1682.33
537.36	1697.63
537.72	1712.16
538.08	1726.44
538.44	1740.27
538.79	1754.06
539.15	1767.61
539.51	1781.26
539.87	1795.74
540.22	1809.29
540.58	1823.14
540.94	1836.37
541.29	1849.18
541.65	1861.78
542.01	1874.84
542.37	1887.13
542.72	1899.64
543.08	1911.35
543.44	1923.59
543.79	1934.82
544.15	1945.83
544.51	1957.35
544.87	1968.21
545.22	1978.77
545.58	1988.97
545.94	1998.72
546.29	2008.57
546.65	2018.46
547.01	2027.75
547.36	2036.42
547.72	2044.85
548.07	2052.50
548.43	2060.71
548.79	2068.78
549.14	2076.41
549.50	2083.72
549.86	2091.43
550.21	2098.56
550.57	2105.75
550.92	2112.38
551.28	2119.40
551.64	2126.36
551.99	2132.82
552.35	2138.99
552.70	2145.34
553.06	2151.40
553.41	2157.82
553.77	2163.83
554.13	2169.93
554.48	2176.03
554.84	2181.45
555.19	2186.89
555.55	2192.14
555.90	2196.54
556.26	2201.42
556.61	2206.06
556.97	2210.48
557.32	2214.49
557.68	2218.75
558.03	2222.92
558.39	2226.55
558.74	2231.22
559.10	2235.13
559.45	2238.81
559.81	2243.12
560.16	2246.92
560.52	2250.05
560.87	2253.28
561.23	2256.06
561.58	2259.05
561.94	2261.63
562.29	2264.03
562.64	2266.60
563.00	2269.18
563.35	2272.66
563.71	2275.80
564.06	2279.02
564.42	2281.82
564.77	2284.49
565.12	2286.69
565.48	2288.68
565.83	2290.65
566.19	2291.84
566.54	2292.81
566.89	2293.94
567.25	2294.42
567.60	2295.62
567.96	2297.38
568.31	2298.41
568.66	2299.43
569.02	2299.91
569.37	2300.21
569.72	2301.11
570.08	2301.28
570.43	2301.23
570.78	2300.68
571.14	2299.12
571.49	2297.83
571.84	2297.46
572.20	2296.34
572.55	2295.31
572.90	2293.81
573.26	2292.33
573.61	2290.62
573.96	2288.83
574.31	2285.96
574.67	2283.09
575.02	2279.49
575.37	2276.15
575.72	2272.29
576.08	2269.13
576.43	2265.91
576.78	2262.18
577.13	2259.04
577.49	2255.95
577.84	2252.53
578.19	2249.06
578.54	2245.33
578.90	2241.09
579.25	2235.50
579.60	2230.39
579.95	2225.41
580.30	2220.37
580.66	2215.28
581.01	2210.39
581.36	2205.57
581.71	2201.39
582.06	2196.84
582.42	2192.46
582.77	2187.24
583.12	2182.67
583.47	2177.86
583.82	2172.82
584.17	2167.58
584.53	2162.06
584.88	2156.45
585.23	2150.75
585.58	2145.11
585.93	2139.77
586.28	2135.04
586.63	2130.14
586.98	2125.13
587.34	2120.55
587.69	2115.73
588.04	2110.44
588.39	2104.93
588.74	2098.48
589.09	2092.39
589.44	2085.63
589.79	2079.71
590.14	2074.22
590.49	2067.73
590.84	2061.32
591.19	2055.29
591.54	2048.86
591.89	2041.42
592.25	2034.60
592.60	2027.48
592.95	2019.91
593.30	2012.56
593.65	2004.96
594.00	1997.92
594.35	1990.66
594.70	1982.51
595.05	1975.28
595.40	1968.00
595.75	1960.48
596.10	1954.34
596.45	1947.55
596.80	1941.50
597.15	1934.93
597.50	1927.72
597.85	1921.24
598.19	1914.63
598.54	1907.45
598.89	1900.92
599.24	1895.24
599.59	1888.61
599.94	1882.39
600.29	1876.12
600.64	1869.59
600.99	1862.19
601.34	1855.40
601.69	1848.59
602.04	1841.85
602.39	1834.47
602.74	1827.57
603.08	1820.85
603.43	1813.95
603.78	1806.67
604.13	1799.44
604.48	1791.94
604.83	1785.12
605.18	1778.02
605.53	1769.97
605.87	1762.06
606.22	1754.78
606.57	1746.65
606.92	1739.34
607.27	1732.14
607.62	1725.14
607.96	1717.78
608.31	1711.09
608.66	1703.44
609.01	1695.75
609.36	1688.01
609.70	1679.97
610.05	1671.97
610.40	1664.25
610.75	1656.02
611.10	1648.19
611.44	1639.78
611.79	1631.78
612.14	1622.97
612.49	1613.95
612.83	1605.65
613.18	1597.49
613.53	1589.43
613.88	1580.93
614.22	1572.58
614.57	1563.88
614.92	1555.87
615.27	1548.33
615.61	1540.06
615.96	1532.08
616.31	1524.48
616.65	1517.20
617.00	1509.74
617.35	1502.13
617.70	1493.66
618.04	1485.13
618.39	1476.96
618.74	1469.30
619.08	1461.01
619.43	1453.49
619.78	1446.57
620.12	1439.34
620.47	1431.84
620.82	1423.56
621.16	1416.14
621.51	1408.53
621.85	1400.98
622.20	1392.39
622.55	1384.07
622.89	1376.14
623.24	1368.45
623.59	1361.05
623.93	1353.56
624.28	1346.33
624.62	1338.80
624.97	1331.71
625.32	1325.05
625.66	1318.03
626.01	1310.83
626.35	1303.47
626.70	1295.67
627.04	1287.93
627.39	1280.14
627.73	1272.74
628.08	1265.95
628.43	1258.66
628.77	1251.32
629.12	1243.86
629.46	1236.74
629.81	1229.31
630.15	1222.06
630.50	1214.67
630.84	1206.46
631.19	1198.52
631.53	1191.06
631.88	1183.51
632.22	1175.93
632.57	1168.39
632.91	1160.90
633.26	1153.50
633.60	1146.04
633.95	1138.98
634.29	1131.91
634.64	1125.20
634.98	1117.77
635.32	1110.55
635.67	1103.96
636.01	1097.31
636.36	1090.37
636.70	1083.89
637.05	1077.34
637.39	1070.85
637.73	1064.28
638.08	1058.44
638.42	1052.41
638.77	1045.81
639.11	1039.18
639.45	1032.71
639.80	1026.19
640.14	1019.71
640.49	1013.18
640.83	1006.90
641.17	1000.64
641.52	994.31
641.86	987.92
642.20	982.11
642.55	975.80
642.89	969.28
643.23	962.83
643.58	957.05
643.92	950.85
644.26	944.68
644.61	938.84
644.95	932.79
645.29	926.10
645.64	919.38
645.98	913.14
646.32	907.37
646.66	901.30
647.01	895.49
647.35	889.83
647.69	883.95
648.04	878.44
648.38	872.63
648.72	866.61
649.06	860.53
649.41	854.59
649.75	848.62
650.09	842.66
650.43	836.78
650.78	830.61
651.12	824.62
651.46	818.94
651.80	813.03
652.14	807.72
652.49	802.36
652.83	797.16
653.17	791.39
653.51	785.63
653.85	780.31
654.20	774.66
654.54	768.63
654.88	762.92
655.22	757.06
655.56	751.42
655.90	745.94
656.25	740.76
656.59	735.39
656.93	730.34
657.27	725.19
657.61	719.74
657.95	714.72
658.29	709.69
658.64	704.44
658.98	699.14
659.32	693.66
659.66	688.48
660.00	683.10
660.34	678.21
660.68	673.22
661.02	668.16
661.36	663.38
661.70	658.84
662.05	654.47
662.39	650.06
662.73	645.54
663.07	641.17
663.41	636.56
663.75	632.11
664.09	627.53
664.43	623.04
664.77	618.91
665.11	614.56
665.45	610.36
665.79	606.31
666.13	602.19
666.47	598.09
666.81	593.91
667.15	589.85
667.49	585.91
667.83	582.12
668.17	578.21
668.51	574.21
668.85	570.25
669.19	566.47
669.53	562.64
669.87	558.75
670.21	555.11
670.55	551.54
670.89	548.11
671.23	544.65
671.57	541.24
671.91	537.73
672.25	534.23
672.58	530.78
672.92	527.35
673.26	524.24
673.60	521.08
673.94	518.01
674.28	515.11
674.62	512.18
674.96	509.10
675.30	506.21
675.64	503.22
675.97	500.41
676.31	497.47
676.65	494.56
676.99	491.91
677.33	488.97
677.67	486.13
678.01	483.06
678.34	480.12
678.68	477.28
679.02	474.49
679.36	471.73
679.70	469.03
680.04	466.24
680.37	463.32
680.71	460.50
681.05	457.89
681.39	455.14
681.73	452.48
682.06	449.93
682.40	447.33
682.74	444.87
683.08	442.36
683.42	439.85
683.75	437.35
684.09	434.80
684.43	432.35
684.77	429.90
685.10	427.62
685.44	425.29
685.78	423.02
686.12	420.74
686.45	418.49
686.79	416.14
687.13	413.94
687.46	411.78
687.80	409.65
688.14	407.40
688.48	405.33
688.81	403.09
689.15	400.94
689.49	398.83
689.82	396.71
690.16	394.62
690.50	392.64
690.83	390.68
691.17	388.67
691.51	386.78
691.84	384.96
692.18	383.03
692.52	381.07
692.85	379.13
693.19	377.24
693.52	375.38
693.86	373.55
694.20	371.78
694.53	369.96
694.87	368.12
695.21	366.36
695.54	364.56
695.88	362.85
696.21	361.12
696.55	359.43
696.88	357.78
697.22	356.10
697.56	354.47
697.89	352.83
698.23	351.18
698.56	349.59
698.90	347.96
699.23	346.32
699.57	344.72
699.90	343.16
700.24	341.58
700.58	340.03
700.91	338.54
701.25	337.07
701.58	335.74
701.92	334.36
702.25	332.95
702.59	331.57
702.92	330.22
703.26	328.90
703.59	327.61
703.93	326.38
704.26	325.14
704.60	323.82
704.93	322.53
705.26	321.34
705.60	320.15
705.93	318.99
706.27	317.91
706.60	316.85
706.94	315.77
707.27	314.68
707.61	313.64
707.94	312.60
708.27	311.52
708.61	310.40
708.94	309.39
709.28	308.45
709.61	307.50
709.94	306.57
710.28	305.51
710.61	304.57
710.95	303.53
711.28	302.62
711.61	301.69
711.95	300.79
712.28	299.83
712.61	298.86
712.95	297.94
713.28	297.09
713.61	296.22
713.95	295.31
714.28	294.46
714.61	293.63
714.95	292.82
715.28	291.94
715.61	291.08
715.95	290.22
716.28	289.34
716.61	288.50
716.95	287.67
717.28	286.96
717.61	286.15
717.94	285.38
718.28	284.55
718.61	283.85
718.94	283.14
719.27	282.49
719.61	281.85
719.94	281.21
720.27	280.50
720.60	279.82
720.94	279.23
721.27	278.68
721.60	278.08
721.93	277.46
722.27	276.93
722.60	276.40
722.93	275.82
723.26	275.27
723.59	274.68
723.93	274.15
724.26	273.60
724.59	273.09
724.92	272.62
725.25	272.15
725.59	271.60
725.92	271.09
726.25	270.59
726.58	270.06
726.91	269.57
727.24	269.08
727.57	268.64
727.91	268.17
728.24	267.66
728.57	267.15
728.90	266.72
729.23	266.22
729.56	265.76
729.89	265.34
730.22	264.86
730.55	264.43
730.89	263.99
731.22	263.55
731.55	263.11
731.88	262.66
732.21	262.22
732.54	261.81
732.87	261.39
733.20	260.98
733.53	260.63
733.86	260.22
734.19	259.79
734.52	259.43
734.85	259.06
735.18	258.63
735.51	258.31
735.84	257.94
736.17	257.63
736.50	257.23
736.83	256.97
737.16	256.65
737.49	256.32
737.82	255.95
738.15	255.63
738.48	255.27
738.81	254.94
739.14	254.61
739.47	254.27
739.80	253.97
740.13	253.63
740.46	253.26
740.79	252.92
741.12	252.63
741.45	252.30
741.78	251.94
742.11	251.66
742.44	251.31
742.77	251.03
743.10	250.66
743.43	250.38
743.75	249.99
744.08	249.84
744.41	249.53
744.74	249.28
745.07	248.95
745.40	248.73
745.73	248.50
746.06	248.21
746.39	247.97
746.71	247.70
747.04	247.44
747.37	247.18
747.70	246.93
748.03	246.69
748.36	246.47
748.68	246.24
749.01	246.00
749.34	245.75
749.67	245.49
750.00	245.26
750.33	245.13
750.65	244.93
750.98	244.58
751.31	244.38
751.64	244.17
751.97	244.05
752.29	243.78
752.62	243.51
752.95	243.34
753.28	243.11
753.60	242.89
753.93	242.70
754.26	242.53
754.59	242.36
754.91	242.15
755.24	241.94
755.57	241.77
755.90	241.59
756.22	241.40
756.55	241.20
756.88	241.01
757.20	240.73
757.53	240.53
757.86	240.38
758.19	240.25
758.51	240.05
758.84	239.80
759.17	239.65
759.49	239.50
759.82	239.36
760.15	239.21
760.47	239.06
760.80	238.90
761.13	238.75
761.45	238.56
761.78	238.42
762.11	238.26
762.43	238.11
762.76	237.94
763.08	237.84
763.41	237.70
763.74	237.59
764.06	237.46
764.39	237.35
764.71	237.19
765.04	237.04
765.37	236.96
765.69	236.82
766.02	236.72
766.34	236.60
766.67	236.43
767.00	236.32
767.32	236.26
767.65	236.22
767.97	236.10
768.30	236.04
768.62	235.94
768.95	235.86
769.27	235.77
769.60	235.74
769.92	235.61
770.25	235.51
770.57	235.40
770.90	235.31
771.22	235.18
771.55	235.08
771.87	235.00
772.20	234.86
772.52	234.87
772.85	234.89
773.17	234.80
773.50	234.74
773.82	234.63
774.15	234.51
774.47	234.37
774.80	234.28
775.12	234.16
775.45	234.08
775.77	234.00
776.09	233.91
776.42	233.78
776.74	233.74
777.07	233.68
777.39	233.64
777.72	233.54
778.04	233.48
778.36	233.44
778.69	233.36
779.01	233.32
779.33	233.19
779.66	232.99
779.98	232.93
780.31	232.85
780.63	232.84
780.95	232.79
781.28	232.71
781.60	232.64
781.92	232.56
782.25	232.47
782.57	232.38
782.89	232.30
783.22	232.25
783.54	232.17
783.86	232.12
784.19	232.04
784.51	232.01
784.83	231.93
785.16	231.86
785.48	231.79
785.80	231.73
786.12	231.65
786.45	231.61
786.77	231.57
787.09	231.51
