SpectraSuite Data File
++++++++++++++++++++++++++++++++++++
Date: Fri Feb 01 15:44:21 EST 2013
User: group
Dark Spectrum Present: No
Reference Spectrum Present: No
Number of Sampled Component Spectra: 1
Spectrometers: USB2E7196
Integration Time (usec): 35000 (USB2E7196)
Spectra Averaged: 100 (USB2E7196)
Boxcar Smoothing: 10 (USB2E7196)
Correct for Electrical Dark: No (USB2E7196)
Strobe/Lamp Enabled: No (USB2E7196)
Correct for Detector Non-linearity: No (USB2E7196)
Correct for Stray Light: No (USB2E7196)
Number of Pixels in Processed Spectrum: 2048
>>>>>Begin Processed Spectral Data<<<<<
339.09	0.00
339.48	214.94
339.86	216.29
340.24	217.80
340.63	219.59
341.01	221.67
341.39	221.75
341.78	223.46
342.16	224.80
342.54	224.60
342.93	213.19
343.31	223.97
343.69	224.50
344.07	224.96
344.46	225.37
344.84	225.73
345.22	225.97
345.60	226.23
345.99	226.41
346.37	226.49
346.75	226.58
347.13	226.65
347.52	226.72
347.90	226.83
348.28	226.83
348.66	226.88
349.05	226.85
349.43	226.91
349.81	226.96
350.19	227.00
350.57	227.08
350.96	227.15
351.34	227.24
351.72	227.33
352.10	227.43
352.48	227.50
352.87	227.57
353.25	227.63
353.63	227.67
354.01	227.74
354.39	227.84
354.77	227.92
355.15	228.05
355.54	228.11
355.92	228.13
356.30	228.21
356.68	228.35
357.06	228.46
357.44	228.49
357.82	228.56
358.20	228.63
358.58	228.66
358.97	228.71
359.35	228.78
359.73	228.85
360.11	228.91
360.49	228.99
360.87	229.00
361.25	229.05
361.63	229.13
362.01	229.18
362.39	229.24
362.77	229.31
363.15	229.31
363.53	229.35
363.91	229.38
364.29	229.45
364.67	229.40
365.05	229.39
365.43	229.44
365.81	229.42
366.19	229.49
366.57	229.55
366.95	229.55
367.33	229.54
367.71	229.57
368.09	229.57
368.47	229.55
368.85	229.53
369.23	229.53
369.61	229.48
369.99	229.46
370.37	229.43
370.75	229.41
371.13	229.33
371.51	229.25
371.89	229.20
372.27	229.12
372.65	229.04
373.03	229.00
373.41	228.92
373.78	228.90
374.16	228.80
374.54	228.71
374.92	228.65
375.30	228.61
375.68	228.49
376.06	228.38
376.44	228.29
376.82	228.26
377.19	228.20
377.57	228.13
377.95	228.02
378.33	227.92
378.71	227.81
379.09	227.79
379.47	227.73
379.84	227.64
380.22	227.61
380.60	227.52
380.98	227.44
381.36	227.35
381.73	227.26
382.11	227.23
382.49	227.15
382.87	227.07
383.25	226.98
383.62	227.06
384.00	227.00
384.38	226.97
384.76	226.89
385.13	226.92
385.51	226.88
385.89	226.81
386.27	226.78
386.64	226.76
387.02	226.69
387.40	226.63
387.78	226.65
388.15	226.56
388.53	226.56
388.91	226.55
389.29	226.55
389.66	226.53
390.04	226.45
390.42	226.44
390.79	226.45
391.17	226.49
391.55	226.33
391.92	226.34
392.30	226.35
392.68	226.33
393.05	226.29
393.43	226.29
393.81	226.33
394.18	226.31
394.56	226.31
394.94	226.37
395.31	226.39
395.69	226.45
396.06	226.52
396.44	226.48
396.82	226.51
397.19	226.57
397.57	226.58
397.95	226.65
398.32	226.65
398.70	226.71
399.07	226.76
399.45	226.83
399.82	226.89
400.20	226.92
400.58	227.02
400.95	227.05
401.33	227.18
401.70	227.33
402.08	227.42
402.45	227.53
402.83	227.64
403.20	227.80
403.58	227.84
403.95	227.96
404.33	228.12
404.71	228.21
405.08	228.41
405.46	228.57
405.83	228.69
406.21	228.89
406.58	229.04
406.96	229.18
407.33	229.35
407.70	229.52
408.08	229.82
408.45	230.01
408.83	230.20
409.20	230.39
409.58	230.54
409.95	230.82
410.33	231.06
410.70	231.31
411.08	231.59
411.45	231.90
411.82	232.24
412.20	232.61
412.57	233.05
412.95	233.33
413.32	233.74
413.69	234.20
414.07	234.67
414.44	235.13
414.82	235.61
415.19	236.16
415.56	236.74
415.94	237.28
416.31	237.93
416.68	238.61
417.06	239.36
417.43	240.04
417.81	240.79
418.18	241.58
418.55	242.39
418.93	243.24
419.30	244.16
419.67	245.07
420.04	246.02
420.42	247.01
420.79	248.24
421.16	249.38
421.54	250.58
421.91	251.75
422.28	252.99
422.66	254.34
423.03	255.66
423.40	257.00
423.77	258.42
424.15	259.82
424.52	261.27
424.89	262.84
425.26	264.39
425.64	265.85
426.01	267.44
426.38	269.12
426.75	270.79
427.13	272.48
427.50	274.32
427.87	276.20
428.24	278.08
428.61	279.78
428.99	281.71
429.36	283.78
429.73	285.83
430.10	287.89
430.47	289.94
430.85	292.04
431.22	294.28
431.59	296.64
431.96	298.94
432.33	301.44
432.70	303.86
433.08	306.67
433.45	309.31
433.82	311.94
434.19	314.82
434.56	317.65
434.93	320.31
435.30	322.87
435.68	325.81
436.05	328.64
436.42	331.44
436.79	333.98
437.16	336.69
437.53	339.55
437.90	342.36
438.27	345.15
438.64	347.96
439.01	350.53
439.38	352.76
439.75	354.89
440.13	357.40
440.50	359.74
440.87	361.61
441.24	363.53
441.61	365.70
441.98	367.21
442.35	369.02
442.72	370.83
443.09	372.68
443.46	373.64
443.83	374.20
444.20	374.72
444.57	375.51
444.94	375.80
445.31	376.09
445.68	376.44
446.05	376.44
446.42	376.10
446.79	375.67
447.16	375.21
447.53	374.88
447.90	373.73
448.27	372.53
448.64	370.96
449.01	369.84
449.37	367.87
449.74	365.97
450.11	363.69
450.48	361.31
450.85	358.76
451.22	356.64
451.59	354.63
451.96	352.66
452.33	350.09
452.70	347.73
453.07	344.94
453.43	342.01
453.80	339.30
454.17	336.61
454.54	334.07
454.91	331.39
455.28	328.71
455.65	326.21
456.02	323.78
456.38	321.60
456.75	318.95
457.12	316.68
457.49	314.44
457.86	312.24
458.23	310.35
458.59	308.29
458.96	306.20
459.33	304.35
459.70	302.49
460.07	300.98
460.43	299.27
460.80	297.70
461.17	296.27
461.54	294.74
461.91	293.29
462.27	291.88
462.64	290.61
463.01	289.25
463.38	287.95
463.74	286.58
464.11	285.43
464.48	284.41
464.85	283.28
465.21	282.43
465.58	281.55
465.95	280.42
466.32	279.50
466.68	278.59
467.05	277.69
467.42	276.79
467.78	275.87
468.15	275.02
468.52	274.32
468.88	273.47
469.25	272.69
469.62	272.05
469.98	271.36
470.35	270.74
470.72	270.16
471.08	269.50
471.45	268.96
471.82	268.42
472.18	267.80
472.55	267.37
472.92	266.82
473.28	266.36
473.65	265.94
474.02	265.52
474.38	265.15
474.75	264.82
475.11	264.48
475.48	264.22
475.85	263.99
476.21	263.76
476.58	263.56
476.94	263.41
477.31	263.26
477.67	263.15
478.04	263.03
478.41	262.95
478.77	262.98
479.14	262.93
479.50	262.93
479.87	263.02
480.23	263.11
480.60	263.21
480.96	263.31
481.33	263.56
481.69	263.75
482.06	263.95
482.42	264.17
482.79	264.44
483.15	264.76
483.52	265.14
483.88	265.49
484.25	265.91
484.61	266.33
484.98	266.80
485.34	267.36
485.71	267.99
486.07	268.65
486.44	269.24
486.80	269.95
487.17	270.72
487.53	271.58
487.90	272.42
488.26	273.35
488.62	274.31
488.99	275.24
489.35	276.29
489.72	277.42
490.08	278.61
490.44	279.85
490.81	281.20
491.17	282.55
491.54	284.08
491.90	285.59
492.26	287.25
492.63	288.97
492.99	290.72
493.36	292.60
493.72	294.64
494.08	296.72
494.45	299.00
494.81	301.37
495.17	303.75
495.54	306.32
495.90	309.01
496.26	311.86
496.63	314.85
496.99	317.97
497.35	321.23
497.72	324.63
498.08	328.18
498.44	331.81
498.80	335.76
499.17	339.71
499.53	343.90
499.89	348.27
500.26	352.79
500.62	357.46
500.98	362.38
501.34	367.43
501.71	372.72
502.07	378.10
502.43	383.69
502.79	389.53
503.16	395.58
503.52	401.83
503.88	408.25
504.24	414.89
504.60	421.80
504.97	428.92
505.33	436.16
505.69	443.78
506.05	451.59
506.41	459.42
506.78	467.59
507.14	476.08
507.50	484.83
507.86	493.84
508.22	503.04
508.59	512.29
508.95	521.89
509.31	531.74
509.67	541.83
510.03	552.12
510.39	562.70
510.75	573.42
511.12	584.38
511.48	595.64
511.84	607.05
512.20	618.57
512.56	630.52
512.92	642.74
513.28	655.14
513.64	667.66
514.00	680.34
514.37	693.34
514.73	706.39
515.09	719.42
515.45	732.70
515.81	746.32
516.17	760.34
516.53	774.44
516.89	788.63
517.25	802.82
517.61	817.24
517.97	831.66
518.33	846.23
518.69	861.03
519.05	876.07
519.41	891.18
519.77	906.71
520.13	922.22
520.49	937.66
520.85	953.12
521.21	968.84
521.57	985.15
521.93	1000.88
522.29	1017.32
522.65	1033.48
523.01	1049.63
523.37	1065.64
523.73	1081.72
524.09	1097.77
524.45	1114.07
524.81	1130.74
525.17	1147.54
525.53	1164.47
525.89	1181.34
526.25	1198.02
526.61	1214.35
526.97	1231.21
527.33	1247.61
527.68	1264.16
528.04	1280.58
528.40	1297.16
528.76	1314.20
529.12	1330.75
529.48	1347.62
529.84	1363.52
530.20	1380.20
530.56	1397.37
530.91	1414.76
531.27	1431.62
531.63	1448.27
531.99	1464.81
532.35	1480.72
532.71	1496.68
533.07	1512.94
533.42	1528.77
533.78	1544.92
534.14	1561.31
534.50	1576.59
534.86	1592.49
535.21	1607.71
535.57	1623.76
535.93	1639.22
536.29	1653.95
536.65	1668.99
537.00	1683.79
537.36	1699.18
537.72	1713.69
538.08	1728.05
538.44	1741.87
538.79	1755.75
539.15	1769.44
539.51	1783.18
539.87	1797.48
540.22	1811.14
540.58	1824.90
540.94	1838.31
541.29	1851.21
541.65	1863.84
542.01	1877.05
542.37	1889.53
542.72	1901.84
543.08	1913.57
543.44	1926.10
543.79	1937.41
544.15	1948.38
544.51	1959.97
544.87	1970.79
545.22	1981.60
545.58	1991.89
545.94	2001.68
546.29	2011.41
546.65	2021.14
547.01	2030.49
547.36	2039.27
547.72	2047.75
548.07	2055.54
548.43	2063.67
548.79	2071.71
549.14	2079.25
549.50	2086.72
549.86	2094.27
550.21	2101.63
550.57	2108.85
550.92	2115.32
551.28	2122.36
551.64	2129.46
551.99	2135.98
552.35	2142.22
552.70	2148.39
553.06	2154.35
553.41	2160.69
553.77	2166.74
554.13	2172.87
554.48	2179.10
554.84	2184.53
555.19	2189.80
555.55	2195.14
555.90	2199.66
556.26	2204.43
556.61	2209.16
556.97	2213.40
557.32	2217.47
557.68	2221.68
558.03	2225.98
558.39	2229.69
558.74	2234.24
559.10	2238.13
559.45	2241.69
559.81	2245.98
560.16	2249.74
560.52	2252.88
560.87	2256.25
561.23	2258.96
561.58	2261.82
561.94	2264.18
562.29	2266.48
562.64	2269.27
563.00	2271.70
563.35	2275.01
563.71	2278.11
564.06	2281.38
564.42	2284.13
564.77	2286.78
565.12	2289.04
565.48	2290.91
565.83	2292.77
566.19	2294.11
566.54	2295.03
566.89	2296.18
567.25	2296.76
567.60	2298.19
567.96	2300.00
568.31	2300.90
568.66	2302.07
569.02	2302.70
569.37	2303.00
569.72	2303.84
570.08	2303.91
570.43	2304.01
570.78	2303.54
571.14	2302.11
571.49	2300.51
571.84	2300.24
572.20	2298.88
572.55	2297.77
572.90	2296.09
573.26	2294.54
573.61	2292.85
573.96	2291.07
574.31	2288.12
574.67	2284.99
575.02	2281.33
575.37	2277.91
575.72	2273.95
576.08	2270.57
576.43	2267.06
576.78	2263.38
577.13	2260.30
577.49	2257.17
577.84	2253.55
578.19	2249.80
578.54	2246.21
578.90	2241.98
579.25	2236.40
579.60	2231.57
579.95	2226.60
580.30	2221.54
580.66	2216.51
581.01	2211.61
581.36	2206.72
581.71	2202.61
582.06	2198.17
582.42	2193.53
582.77	2188.17
583.12	2183.65
583.47	2178.94
583.82	2173.96
584.17	2168.71
584.53	2163.17
584.88	2157.59
585.23	2151.83
585.58	2146.42
585.93	2140.86
586.28	2136.27
586.63	2131.19
586.98	2126.02
587.34	2121.32
587.69	2116.49
588.04	2111.16
588.39	2105.49
588.74	2098.89
589.09	2092.72
589.44	2085.96
589.79	2080.17
590.14	2074.58
590.49	2068.01
590.84	2061.39
591.19	2055.44
591.54	2049.04
591.89	2041.50
592.25	2034.60
592.60	2027.31
592.95	2019.61
593.30	2012.25
593.65	2004.54
594.00	1997.45
594.35	1990.25
594.70	1982.08
595.05	1974.78
595.40	1967.42
595.75	1959.81
596.10	1953.59
596.45	1946.77
596.80	1940.62
597.15	1933.81
597.50	1926.56
597.85	1920.18
598.19	1913.66
598.54	1906.59
598.89	1899.88
599.24	1894.21
599.59	1887.56
599.94	1881.51
600.29	1875.19
600.64	1868.66
600.99	1861.28
601.34	1854.40
601.69	1847.52
602.04	1840.72
602.39	1833.42
602.74	1826.68
603.08	1819.92
603.43	1813.37
603.78	1806.00
604.13	1798.85
604.48	1791.55
604.83	1784.70
605.18	1777.66
605.53	1769.63
605.87	1761.51
606.22	1754.28
606.57	1746.19
606.92	1738.80
607.27	1731.52
607.62	1724.59
607.96	1717.23
608.31	1710.48
608.66	1702.86
609.01	1695.22
609.36	1687.49
609.70	1679.39
610.05	1671.25
610.40	1663.52
610.75	1654.97
611.10	1647.41
611.44	1639.03
611.79	1631.08
612.14	1622.50
612.49	1613.29
612.83	1604.88
613.18	1596.75
613.53	1588.66
613.88	1580.15
614.22	1571.87
614.57	1563.28
614.92	1555.26
615.27	1547.71
615.61	1539.39
615.96	1531.38
616.31	1523.73
616.65	1516.44
617.00	1508.93
617.35	1501.26
617.70	1492.88
618.04	1484.42
618.39	1476.06
618.74	1468.32
619.08	1460.09
619.43	1452.49
619.78	1445.63
620.12	1438.51
620.47	1431.03
620.82	1422.86
621.16	1415.54
621.51	1407.99
621.85	1400.35
622.20	1391.64
622.55	1383.24
622.89	1375.46
623.24	1367.93
623.59	1360.58
623.93	1353.07
624.28	1345.97
624.62	1338.42
624.97	1331.27
625.32	1324.52
625.66	1317.58
626.01	1310.50
626.35	1302.88
626.70	1295.21
627.04	1287.41
627.39	1279.58
627.73	1272.21
628.08	1265.24
628.43	1257.81
628.77	1250.50
629.12	1242.92
629.46	1235.88
629.81	1228.61
630.15	1221.30
630.50	1213.87
630.84	1205.63
631.19	1197.69
631.53	1190.12
631.88	1182.63
632.22	1175.03
632.57	1167.70
632.91	1160.16
633.26	1152.75
633.60	1145.54
633.95	1138.31
634.29	1131.36
634.64	1124.77
634.98	1117.38
635.32	1110.23
635.67	1103.72
636.01	1097.02
636.36	1090.20
636.70	1083.71
637.05	1077.16
637.39	1070.73
637.73	1064.22
638.08	1058.41
638.42	1052.38
638.77	1045.91
639.11	1039.32
639.45	1032.97
639.80	1026.34
640.14	1019.92
640.49	1013.35
640.83	1006.99
641.17	1000.81
641.52	994.42
641.86	987.91
642.20	982.07
642.55	975.84
642.89	969.27
643.23	962.69
643.58	956.97
643.92	950.75
644.26	944.64
644.61	938.68
644.95	932.57
645.29	925.92
645.64	919.28
645.98	912.93
646.32	907.05
646.66	900.98
647.01	895.14
647.35	889.42
647.69	883.59
648.04	878.02
648.38	872.18
648.72	866.14
649.06	860.08
649.41	854.12
649.75	848.06
650.09	842.20
650.43	836.39
650.78	830.24
651.12	824.27
651.46	818.46
651.80	812.63
652.14	807.28
652.49	801.92
652.83	796.70
653.17	791.01
653.51	785.26
653.85	779.91
654.20	774.29
654.54	768.26
654.88	762.43
655.22	756.53
655.56	750.82
655.90	745.45
656.25	740.18
656.59	734.84
656.93	729.79
657.27	724.60
657.61	719.19
657.95	714.13
658.29	709.06
658.64	703.79
658.98	698.50
659.32	693.02
659.66	687.88
660.00	682.50
660.34	677.54
660.68	672.73
661.02	667.66
661.36	662.93
661.70	658.41
662.05	654.14
662.39	649.82
662.73	645.35
663.07	640.93
663.41	636.49
663.75	632.03
664.09	627.47
664.43	622.99
664.77	618.89
665.11	614.56
665.45	610.45
665.79	606.37
666.13	602.25
666.47	598.16
666.81	593.94
667.15	589.85
667.49	585.95
667.83	582.09
668.17	578.18
668.51	574.16
668.85	570.20
669.19	566.34
669.53	562.52
669.87	558.72
670.21	554.98
670.55	551.37
670.89	547.97
671.23	544.61
671.57	541.22
671.91	537.65
672.25	534.17
672.58	530.67
672.92	527.32
673.26	524.19
673.60	521.04
673.94	517.91
674.28	515.01
674.62	512.09
674.96	508.98
675.30	506.06
675.64	503.08
675.97	500.30
676.31	497.42
676.65	494.45
676.99	491.71
677.33	488.92
677.67	486.09
678.01	483.03
678.34	480.03
678.68	477.10
679.02	474.30
679.36	471.54
679.70	468.80
680.04	466.05
680.37	463.11
680.71	460.38
681.05	457.76
681.39	455.08
681.73	452.41
682.06	449.87
682.40	447.33
682.74	444.82
683.08	442.33
683.42	439.76
683.75	437.29
684.09	434.78
684.43	432.29
684.77	429.86
685.10	427.54
685.44	425.17
685.78	422.92
686.12	420.68
686.45	418.40
686.79	416.06
687.13	413.87
687.46	411.73
687.80	409.57
688.14	407.35
688.48	405.22
688.81	403.00
689.15	400.86
689.49	398.67
689.82	396.63
690.16	394.49
690.50	392.57
690.83	390.63
691.17	388.66
691.51	386.74
691.84	384.89
692.18	382.91
692.52	380.94
692.85	379.00
693.19	377.12
693.52	375.30
693.86	373.52
694.20	371.78
694.53	370.00
694.87	368.13
695.21	366.41
695.54	364.64
695.88	362.89
696.21	361.17
696.55	359.55
696.88	357.85
697.22	356.17
697.56	354.49
697.89	352.86
698.23	351.23
698.56	349.64
698.90	348.02
699.23	346.38
699.57	344.85
699.90	343.32
700.24	341.76
700.58	340.19
700.91	338.70
701.25	337.20
701.58	335.81
701.92	334.45
702.25	333.07
702.59	331.71
702.92	330.37
703.26	329.00
703.59	327.66
703.93	326.46
704.26	325.27
704.60	323.97
704.93	322.68
705.26	321.43
705.60	320.24
705.93	319.07
706.27	318.05
706.60	316.95
706.94	315.85
707.27	314.74
707.61	313.72
707.94	312.68
708.27	311.64
708.61	310.55
708.94	309.55
709.28	308.52
709.61	307.54
709.94	306.62
710.28	305.63
710.61	304.65
710.95	303.59
711.28	302.64
711.61	301.70
711.95	300.82
712.28	299.88
712.61	298.88
712.95	297.95
713.28	297.04
713.61	296.14
713.95	295.29
714.28	294.48
714.61	293.61
714.95	292.77
715.28	291.90
715.61	291.05
715.95	290.20
716.28	289.33
716.61	288.50
716.95	287.71
717.28	287.01
717.61	286.28
717.94	285.54
718.28	284.75
718.61	284.00
718.94	283.29
719.27	282.64
719.61	282.02
719.94	281.34
720.27	280.67
720.60	280.06
720.94	279.43
721.27	278.82
721.60	278.22
721.93	277.61
722.27	277.06
722.60	276.47
722.93	275.93
723.26	275.43
723.59	274.88
723.93	274.33
724.26	273.74
724.59	273.21
724.92	272.67
725.25	272.18
725.59	271.66
725.92	271.15
726.25	270.65
726.58	270.12
726.91	269.67
727.24	269.17
727.57	268.69
727.91	268.18
728.24	267.70
728.57	267.25
728.90	266.82
729.23	266.31
729.56	265.90
729.89	265.40
730.22	264.94
730.55	264.45
730.89	264.00
731.22	263.58
731.55	263.16
731.88	262.72
732.21	262.31
732.54	261.89
732.87	261.46
733.20	261.05
733.53	260.71
733.86	260.35
734.19	259.96
734.52	259.57
734.85	259.24
735.18	258.83
735.51	258.45
735.84	258.07
736.17	257.74
736.50	257.34
736.83	257.10
737.16	256.76
737.49	256.42
737.82	256.05
738.15	255.73
738.48	255.38
738.81	255.04
739.14	254.70
739.47	254.41
739.80	254.09
740.13	253.80
740.46	253.43
740.79	253.09
741.12	252.76
741.45	252.46
741.78	252.10
742.11	251.80
742.44	251.48
742.77	251.18
743.10	250.85
743.43	250.53
743.75	250.17
744.08	250.02
744.41	249.76
744.74	249.49
745.07	249.18
745.40	248.93
745.73	248.73
746.06	248.44
746.39	248.21
746.71	247.94
747.04	247.64
747.37	247.39
747.70	247.13
748.03	246.91
748.36	246.67
748.68	246.41
749.01	246.19
749.34	245.97
749.67	245.75
750.00	245.57
750.33	245.42
750.65	245.17
750.98	244.79
751.31	244.58
751.64	244.37
751.97	244.22
752.29	244.01
752.62	243.75
752.95	243.54
753.28	243.28
753.60	243.09
753.93	242.91
754.26	242.69
754.59	242.50
754.91	242.29
755.24	242.11
755.57	241.93
755.90	241.72
756.22	241.55
756.55	241.33
756.88	241.12
757.20	240.89
757.53	240.73
757.86	240.60
758.19	240.44
758.51	240.31
758.84	240.10
759.17	239.91
759.49	239.75
759.82	239.63
760.15	239.50
760.47	239.35
760.80	239.20
761.13	239.07
761.45	238.91
761.78	238.77
762.11	238.63
762.43	238.50
762.76	238.41
763.08	238.23
763.41	238.14
763.74	238.00
764.06	237.89
764.39	237.75
764.71	237.62
765.04	237.48
765.37	237.33
765.69	237.19
766.02	237.08
766.34	236.96
766.67	236.85
767.00	236.77
767.32	236.70
767.65	236.63
767.97	236.54
768.30	236.42
768.62	236.30
768.95	236.18
769.27	236.05
769.60	235.95
769.92	235.85
770.25	235.73
770.57	235.62
770.90	235.48
771.22	235.39
771.55	235.29
771.87	235.22
772.20	235.12
772.52	235.11
772.85	235.11
773.17	235.01
773.50	234.89
773.82	234.79
774.15	234.62
774.47	234.50
774.80	234.40
775.12	234.30
775.45	234.23
775.77	234.16
776.09	234.09
776.42	233.96
776.74	233.93
777.07	233.86
777.39	233.82
777.72	233.73
778.04	233.68
778.36	233.61
778.69	233.51
779.01	233.45
779.33	233.29
779.66	233.12
779.98	233.05
780.31	232.98
780.63	232.94
780.95	232.92
781.28	232.82
781.60	232.77
781.92	232.70
782.25	232.62
782.57	232.55
782.89	232.50
783.22	232.44
783.54	232.36
783.86	232.29
784.19	232.22
784.51	232.20
784.83	232.11
785.16	232.04
785.48	231.98
785.80	231.92
786.12	231.88
786.45	231.84
786.77	231.79
787.09	231.75
