SpectraSuite Data File
++++++++++++++++++++++++++++++++++++
Date: Fri Feb 01 17:53:48 EST 2013
User: group
Dark Spectrum Present: No
Reference Spectrum Present: No
Number of Sampled Component Spectra: 1
Spectrometers: USB2E7196
Integration Time (usec): 35000 (USB2E7196)
Spectra Averaged: 100 (USB2E7196)
Boxcar Smoothing: 10 (USB2E7196)
Correct for Electrical Dark: No (USB2E7196)
Strobe/Lamp Enabled: No (USB2E7196)
Correct for Detector Non-linearity: No (USB2E7196)
Correct for Stray Light: No (USB2E7196)
Number of Pixels in Processed Spectrum: 2048
>>>>>Begin Processed Spectral Data<<<<<
339.09	0.00
339.48	212.93
339.86	214.00
340.24	215.87
340.63	217.06
341.01	220.11
341.39	219.48
341.78	222.05
342.16	222.25
342.54	222.88
342.93	211.34
343.31	222.02
343.69	222.57
344.07	223.05
344.46	223.47
344.84	223.84
345.22	224.09
345.60	224.37
345.99	224.56
346.37	224.69
346.75	224.81
347.13	224.86
347.52	224.92
347.90	225.02
348.28	225.07
348.66	225.14
349.05	225.17
349.43	225.23
349.81	225.26
350.19	225.33
350.57	225.39
350.96	225.49
351.34	225.59
351.72	225.70
352.10	225.78
352.48	225.86
352.87	225.92
353.25	225.98
353.63	226.03
354.01	226.06
354.39	226.13
354.77	226.20
355.15	226.28
355.54	226.33
355.92	226.36
356.30	226.45
356.68	226.57
357.06	226.65
357.44	226.69
357.82	226.78
358.20	226.83
358.58	226.89
358.97	226.93
359.35	227.02
359.73	227.06
360.11	227.11
360.49	227.15
360.87	227.20
361.25	227.22
361.63	227.30
362.01	227.33
362.39	227.35
362.77	227.36
363.15	227.36
363.53	227.41
363.91	227.42
364.29	227.40
364.67	227.31
365.05	227.30
365.43	227.31
365.81	227.30
366.19	227.33
366.57	227.38
366.95	227.37
367.33	227.30
367.71	227.29
368.09	227.30
368.47	227.31
368.85	227.26
369.23	227.26
369.61	227.20
369.99	227.22
370.37	227.21
370.75	227.21
371.13	227.16
371.51	227.11
371.89	227.05
372.27	227.03
372.65	227.02
373.03	226.96
373.41	226.89
373.78	226.81
374.16	226.72
374.54	226.61
374.92	226.58
375.30	226.55
375.68	226.47
376.06	226.40
376.44	226.33
376.82	226.28
377.19	226.19
377.57	226.12
377.95	226.01
378.33	225.95
378.71	225.85
379.09	225.80
379.47	225.73
379.84	225.66
380.22	225.57
380.60	225.46
380.98	225.38
381.36	225.34
381.73	225.30
382.11	225.26
382.49	225.24
382.87	225.15
383.25	225.05
383.62	225.10
384.00	225.04
384.38	224.97
384.76	224.95
385.13	224.95
385.51	224.90
385.89	224.83
386.27	224.77
386.64	224.76
387.02	224.71
387.40	224.66
387.78	224.64
388.15	224.63
388.53	224.62
388.91	224.60
389.29	224.54
389.66	224.53
390.04	224.51
390.42	224.47
390.79	224.44
391.17	224.46
391.55	224.36
391.92	224.37
392.30	224.37
392.68	224.37
393.05	224.35
393.43	224.37
393.81	224.37
394.18	224.38
394.56	224.37
394.94	224.42
395.31	224.45
395.69	224.51
396.06	224.54
396.44	224.57
396.82	224.61
397.19	224.72
397.57	224.70
397.95	224.74
398.32	224.76
398.70	224.82
399.07	224.88
399.45	224.92
399.82	224.97
400.20	225.06
400.58	225.11
400.95	225.16
401.33	225.25
401.70	225.44
402.08	225.50
402.45	225.60
402.83	225.72
403.20	225.79
403.58	225.88
403.95	226.02
404.33	226.16
404.71	226.28
405.08	226.46
405.46	226.63
405.83	226.79
406.21	226.99
406.58	227.20
406.96	227.39
407.33	227.61
407.70	227.84
408.08	228.15
408.45	228.42
408.83	228.71
409.20	228.97
409.58	229.17
409.95	229.50
410.33	229.83
410.70	230.10
411.08	230.48
411.45	230.87
411.82	231.25
412.20	231.71
412.57	232.28
412.95	232.67
413.32	233.20
413.69	233.73
414.07	234.27
414.44	234.85
414.82	235.48
415.19	236.20
415.56	236.91
415.94	237.61
416.31	238.43
416.68	239.23
417.06	240.17
417.43	241.08
417.81	242.09
418.18	243.09
418.55	244.24
418.93	245.42
419.30	246.60
419.67	247.84
420.04	249.09
420.42	250.39
420.79	251.94
421.16	253.46
421.54	255.02
421.91	256.64
422.28	258.35
422.66	260.09
423.03	261.79
423.40	263.55
423.77	265.42
424.15	267.31
424.52	269.30
424.89	271.44
425.26	273.48
425.64	275.46
426.01	277.60
426.38	279.81
426.75	281.97
427.13	284.26
427.50	286.66
427.87	289.12
428.24	291.58
428.61	293.91
428.99	296.50
429.36	299.26
429.73	302.02
430.10	304.66
430.47	307.38
430.85	310.23
431.22	313.21
431.59	316.36
431.96	319.35
432.33	322.64
432.70	325.77
433.08	329.54
433.45	333.01
433.82	336.49
434.19	340.32
434.56	344.11
434.93	347.67
435.30	351.10
435.68	354.98
436.05	358.76
436.42	362.48
436.79	365.81
437.16	369.43
437.53	373.21
437.90	376.98
438.27	380.67
438.64	384.40
439.01	387.86
439.38	390.83
439.75	393.70
440.13	397.07
440.50	400.20
440.87	402.69
441.24	405.30
441.61	408.19
441.98	410.18
442.35	412.58
442.72	415.09
443.09	417.54
443.46	418.89
443.83	419.70
444.20	420.38
444.57	421.55
444.94	421.99
445.31	422.44
445.68	422.94
446.05	423.02
446.42	422.52
446.79	421.96
447.16	421.43
447.53	421.02
447.90	419.46
448.27	417.96
448.64	415.83
449.01	414.33
449.37	411.67
449.74	409.17
450.11	406.19
450.48	402.91
450.85	399.56
451.22	396.74
451.59	394.08
451.96	391.55
452.33	388.09
452.70	384.96
453.07	381.14
453.43	377.34
453.80	373.66
454.17	370.12
454.54	366.75
454.91	363.13
455.28	359.61
455.65	356.28
456.02	352.94
456.38	350.08
456.75	346.56
457.12	343.59
457.49	340.64
457.86	337.74
458.23	335.23
458.59	332.49
458.96	329.70
459.33	327.19
459.70	324.69
460.07	322.67
460.43	320.34
460.80	318.21
461.17	316.20
461.54	314.22
461.91	312.31
462.27	310.40
462.64	308.72
463.01	306.93
463.38	305.20
463.74	303.43
464.11	301.86
464.48	300.44
464.85	298.97
465.21	297.72
465.58	296.44
465.95	294.98
466.32	293.74
466.68	292.52
467.05	291.32
467.42	290.12
467.78	288.83
468.15	287.67
468.52	286.75
468.88	285.62
469.25	284.56
469.62	283.71
469.98	282.81
470.35	281.94
470.72	281.07
471.08	280.19
471.45	279.43
471.82	278.67
472.18	277.86
472.55	277.24
472.92	276.58
473.28	275.96
473.65	275.36
474.02	274.75
474.38	274.18
474.75	273.66
475.11	273.12
475.48	272.77
475.85	272.42
476.21	272.12
476.58	271.83
476.94	271.59
477.31	271.30
477.67	271.02
478.04	270.79
478.41	270.68
478.77	270.65
479.14	270.53
479.50	270.49
479.87	270.53
480.23	270.56
480.60	270.57
480.96	270.60
481.33	270.74
481.69	270.88
482.06	271.08
482.42	271.24
482.79	271.44
483.15	271.68
483.52	272.03
483.88	272.29
484.25	272.64
484.61	273.05
484.98	273.49
485.34	274.04
485.71	274.66
486.07	275.27
486.44	275.82
486.80	276.55
487.17	277.29
487.53	278.10
487.90	278.94
488.26	279.91
488.62	280.96
488.99	281.96
489.35	283.07
489.72	284.29
490.08	285.57
490.44	286.90
490.81	288.30
491.17	289.69
491.54	291.23
491.90	292.81
492.26	294.56
492.63	296.37
492.99	298.22
493.36	300.15
493.72	302.31
494.08	304.56
494.45	306.92
494.81	309.42
495.17	311.98
495.54	314.67
495.90	317.50
496.26	320.47
496.63	323.61
496.99	326.89
497.35	330.23
497.72	333.81
498.08	337.54
498.44	341.45
498.80	345.62
499.17	349.92
499.53	354.34
499.89	358.92
500.26	363.68
500.62	368.64
500.98	373.86
501.34	379.17
501.71	384.74
502.07	390.47
502.43	396.41
502.79	402.56
503.16	409.01
503.52	415.62
503.88	422.38
504.24	429.34
504.60	436.57
504.97	444.15
505.33	451.93
505.69	460.08
506.05	468.31
506.41	476.61
506.78	485.25
507.14	494.32
507.50	503.57
507.86	513.11
508.22	522.90
508.59	532.73
508.95	542.88
509.31	553.31
509.67	564.10
510.03	575.08
510.39	586.29
510.75	597.78
511.12	609.46
511.48	621.41
511.84	633.62
512.20	645.90
512.56	658.57
512.92	671.48
513.28	684.63
513.64	697.88
514.00	711.51
514.37	725.36
514.73	739.24
515.09	753.18
515.45	767.35
515.81	781.84
516.17	796.82
516.53	812.05
516.89	827.29
517.25	842.42
517.61	857.93
517.97	873.54
518.33	888.97
518.69	904.87
519.05	921.13
519.41	937.55
519.77	954.27
520.13	971.00
520.49	987.66
520.85	1004.27
521.21	1021.24
521.57	1038.81
521.93	1055.91
522.29	1073.64
522.65	1091.38
523.01	1109.06
523.37	1126.69
523.73	1144.27
524.09	1161.77
524.45	1179.47
524.81	1197.68
525.17	1215.85
525.53	1234.22
525.89	1252.80
526.25	1271.27
526.61	1289.34
526.97	1307.74
527.33	1325.96
527.68	1344.21
528.04	1362.28
528.40	1380.63
528.76	1399.55
529.12	1417.98
529.48	1436.64
529.84	1454.41
530.20	1472.82
530.56	1491.63
530.91	1510.75
531.27	1529.46
531.63	1547.77
531.99	1566.40
532.35	1584.39
532.71	1602.36
533.07	1620.66
533.42	1638.45
533.78	1656.41
534.14	1674.58
534.50	1691.91
534.86	1709.78
535.21	1727.00
535.57	1745.04
535.93	1762.57
536.29	1779.23
536.65	1796.20
537.00	1813.07
537.36	1830.60
537.72	1847.09
538.08	1863.74
538.44	1879.57
538.79	1895.47
539.15	1911.12
539.51	1926.78
539.87	1943.10
540.22	1958.81
540.58	1974.53
540.94	1989.90
541.29	2004.69
541.65	2019.50
542.01	2034.79
542.37	2049.31
542.72	2063.76
543.08	2077.60
543.44	2092.25
543.79	2105.70
544.15	2118.67
544.51	2132.28
544.87	2145.25
545.22	2158.26
545.58	2170.56
545.94	2182.49
546.29	2194.36
546.65	2206.48
547.01	2217.97
547.36	2228.73
547.72	2239.34
548.07	2249.31
548.43	2259.45
548.79	2269.39
549.14	2279.00
549.50	2288.08
549.86	2297.36
550.21	2306.56
550.57	2315.72
550.92	2324.21
551.28	2333.10
551.64	2342.21
551.99	2350.52
552.35	2358.55
552.70	2366.48
553.06	2374.23
553.41	2382.38
553.77	2390.27
554.13	2398.00
554.48	2405.86
554.84	2413.24
555.19	2420.02
555.55	2426.70
555.90	2432.86
556.26	2439.65
556.61	2445.73
556.97	2451.92
557.32	2457.82
557.68	2463.66
558.03	2469.48
558.39	2474.56
558.74	2480.81
559.10	2486.19
559.45	2491.28
559.81	2496.80
560.16	2502.09
560.52	2506.64
560.87	2511.45
561.23	2515.43
561.58	2519.60
561.94	2523.43
562.29	2526.87
562.64	2531.07
563.00	2534.95
563.35	2539.81
563.71	2544.23
564.06	2548.67
564.42	2552.87
564.77	2556.75
565.12	2560.37
565.48	2563.40
565.83	2566.37
566.19	2568.78
566.54	2570.50
566.89	2572.81
567.25	2574.60
567.60	2576.82
567.96	2579.57
568.31	2581.31
568.66	2583.33
569.02	2584.87
569.37	2586.08
569.72	2587.76
570.08	2588.76
570.43	2589.53
570.78	2589.64
571.14	2588.60
571.49	2587.77
571.84	2587.61
572.20	2586.89
572.55	2586.22
572.90	2585.06
573.26	2584.08
573.61	2582.69
573.96	2581.57
574.31	2578.71
574.67	2575.97
575.02	2572.45
575.37	2569.13
575.72	2565.56
576.08	2562.26
576.43	2558.86
576.78	2555.35
577.13	2552.18
577.49	2548.87
577.84	2545.57
578.19	2541.74
578.54	2538.24
578.90	2534.19
579.25	2528.61
579.60	2523.63
579.95	2518.44
580.30	2513.27
580.66	2507.88
581.01	2502.53
581.36	2497.19
581.71	2493.05
582.06	2488.60
582.42	2484.01
582.77	2478.49
583.12	2473.34
583.47	2468.59
583.82	2463.48
584.17	2457.80
584.53	2451.96
584.88	2445.91
585.23	2439.68
585.58	2433.64
585.93	2427.65
586.28	2422.22
586.63	2416.84
586.98	2411.28
587.34	2406.13
587.69	2400.67
588.04	2395.02
588.39	2389.04
588.74	2381.91
589.09	2375.01
589.44	2367.39
589.79	2360.53
590.14	2354.26
590.49	2347.11
590.84	2339.69
591.19	2333.01
591.54	2325.70
591.89	2317.59
592.25	2310.27
592.60	2302.36
592.95	2294.05
593.30	2285.86
593.65	2277.51
594.00	2269.50
594.35	2261.21
594.70	2251.99
595.05	2244.11
595.40	2235.83
595.75	2227.31
596.10	2220.35
596.45	2212.88
596.80	2205.77
597.15	2198.44
597.50	2190.69
597.85	2183.24
598.19	2175.72
598.54	2167.93
598.89	2160.33
599.24	2153.57
599.59	2146.06
599.94	2138.72
600.29	2131.48
600.64	2123.84
600.99	2115.32
601.34	2107.41
601.69	2099.38
602.04	2091.68
602.39	2083.14
602.74	2075.36
603.08	2067.64
603.43	2059.94
603.78	2051.41
604.13	2043.00
604.48	2034.74
604.83	2026.68
605.18	2019.02
605.53	2009.94
605.87	2000.50
606.22	1992.16
606.57	1982.82
606.92	1973.95
607.27	1965.74
607.62	1957.85
607.96	1949.52
608.31	1942.10
608.66	1933.41
609.01	1924.72
609.36	1915.96
609.70	1906.69
610.05	1897.44
610.40	1888.51
610.75	1878.85
611.10	1870.01
611.44	1860.22
611.79	1850.72
612.14	1840.66
612.49	1829.74
612.83	1819.86
613.18	1810.41
613.53	1800.82
613.88	1790.94
614.22	1781.41
614.57	1771.27
614.92	1761.72
615.27	1753.07
615.61	1743.14
615.96	1733.75
616.31	1724.79
616.65	1716.10
617.00	1707.21
617.35	1698.07
617.70	1688.37
618.04	1678.51
618.39	1668.76
618.74	1659.96
619.08	1650.40
619.43	1641.50
619.78	1633.42
620.12	1625.08
620.47	1616.19
620.82	1606.68
621.16	1597.96
621.51	1589.07
621.85	1580.18
622.20	1570.23
622.55	1560.32
622.89	1551.15
623.24	1542.13
623.59	1533.35
623.93	1524.60
624.28	1516.16
624.62	1507.40
624.97	1498.97
625.32	1490.91
625.66	1482.66
626.01	1474.37
626.35	1465.81
626.70	1456.63
627.04	1447.75
627.39	1438.71
627.73	1430.11
628.08	1422.20
628.43	1413.81
628.77	1405.27
629.12	1396.54
629.46	1388.21
629.81	1379.38
630.15	1370.95
630.50	1362.46
630.84	1352.97
631.19	1343.62
631.53	1334.84
631.88	1326.00
632.22	1317.25
632.57	1308.78
632.91	1300.09
633.26	1291.48
633.60	1282.73
633.95	1274.48
634.29	1266.06
634.64	1258.28
634.98	1249.77
635.32	1241.31
635.67	1233.53
636.01	1225.73
636.36	1217.80
636.70	1210.22
637.05	1202.71
637.39	1195.27
637.73	1187.64
638.08	1180.78
638.42	1173.94
638.77	1166.51
639.11	1159.04
639.45	1151.52
639.80	1143.76
640.14	1136.30
640.49	1128.70
640.83	1121.34
641.17	1114.22
641.52	1107.07
641.86	1099.55
642.20	1092.68
642.55	1085.34
642.89	1077.90
643.23	1070.26
643.58	1063.52
643.92	1056.43
644.26	1049.48
644.61	1042.30
644.95	1035.40
645.29	1028.03
645.64	1020.18
645.98	1012.84
646.32	1005.83
646.66	998.83
647.01	992.18
647.35	985.66
647.69	978.80
648.04	972.37
648.38	965.65
648.72	958.80
649.06	951.96
649.41	945.17
649.75	938.39
650.09	931.58
650.43	925.00
650.78	918.06
651.12	911.14
651.46	904.47
651.80	898.05
652.14	891.80
652.49	885.57
652.83	879.62
653.17	873.20
653.51	866.87
653.85	860.70
654.20	854.26
654.54	847.38
654.88	840.87
655.22	834.18
655.56	827.59
655.90	821.25
656.25	815.18
656.59	809.02
656.93	803.22
657.27	797.35
657.61	791.09
657.95	785.19
658.29	779.41
658.64	773.38
658.98	767.24
659.32	760.94
659.66	754.93
660.00	748.89
660.34	743.13
660.68	737.45
661.02	731.63
661.36	726.19
661.70	720.99
662.05	715.99
662.39	711.12
662.73	705.97
663.07	700.88
663.41	695.75
663.75	690.66
664.09	685.40
664.43	680.29
664.77	675.65
665.11	670.77
665.45	666.02
665.79	661.42
666.13	656.76
666.47	652.11
666.81	647.40
667.15	642.68
667.49	638.18
667.83	633.68
668.17	629.21
668.51	624.57
668.85	619.96
669.19	615.43
669.53	610.93
669.87	606.66
670.21	602.45
670.55	598.21
670.89	594.30
671.23	590.36
671.57	586.34
671.91	582.27
672.25	578.19
672.58	574.17
672.92	570.16
673.26	566.46
673.60	562.83
673.94	559.27
674.28	555.95
674.62	552.55
674.96	549.11
675.30	545.80
675.64	542.49
675.97	539.29
676.31	536.09
676.65	532.78
676.99	529.61
677.33	526.32
677.67	523.16
678.01	519.76
678.34	516.41
678.68	513.14
679.02	509.89
679.36	506.80
679.70	503.69
680.04	500.62
680.37	497.39
680.71	494.24
681.05	491.19
681.39	488.08
681.73	485.12
682.06	482.23
682.40	479.36
682.74	476.48
683.08	473.56
683.42	470.62
683.75	467.75
684.09	464.82
684.43	462.01
684.77	459.19
685.10	456.44
685.44	453.73
685.78	451.12
686.12	448.51
686.45	445.85
686.79	443.22
687.13	440.68
687.46	438.20
687.80	435.66
688.14	433.15
688.48	430.76
688.81	428.21
689.15	425.71
689.49	423.18
689.82	420.75
690.16	418.29
690.50	416.00
690.83	413.83
691.17	411.53
691.51	409.34
691.84	407.23
692.18	404.98
692.52	402.78
692.85	400.54
693.19	398.40
693.52	396.27
693.86	394.12
694.20	392.05
694.53	389.99
694.87	387.89
695.21	385.78
695.54	383.65
695.88	381.57
696.21	379.57
696.55	377.64
696.88	375.70
697.22	373.81
697.56	371.95
697.89	370.00
698.23	368.15
698.56	366.26
698.90	364.43
699.23	362.57
699.57	360.78
699.90	359.02
700.24	357.26
700.58	355.57
700.91	353.92
701.25	352.25
701.58	350.64
701.92	349.07
702.25	347.53
702.59	346.02
702.92	344.53
703.26	343.03
703.59	341.58
703.93	340.18
704.26	338.75
704.60	337.28
704.93	335.85
705.26	334.41
705.60	332.99
705.93	331.62
706.27	330.42
706.60	329.18
706.94	327.88
707.27	326.54
707.61	325.25
707.94	324.01
708.27	322.78
708.61	321.51
708.94	320.31
709.28	319.15
709.61	318.00
709.94	316.88
710.28	315.68
710.61	314.47
710.95	313.24
711.28	312.19
711.61	311.07
711.95	310.00
712.28	308.95
712.61	307.91
712.95	306.84
713.28	305.76
713.61	304.70
713.95	303.74
714.28	302.76
714.61	301.77
714.95	300.80
715.28	299.77
715.61	298.76
715.95	297.78
716.28	296.79
716.61	295.79
716.95	294.85
717.28	294.01
717.61	293.15
717.94	292.31
718.28	291.34
718.61	290.50
718.94	289.67
719.27	288.88
719.61	288.12
719.94	287.33
720.27	286.57
720.60	285.84
720.94	285.09
721.27	284.42
721.60	283.76
721.93	283.04
722.27	282.40
722.60	281.76
722.93	281.08
723.26	280.46
723.59	279.82
723.93	279.16
724.26	278.56
724.59	277.87
724.92	277.26
725.25	276.68
725.59	276.06
725.92	275.46
726.25	274.87
726.58	274.26
726.91	273.75
727.24	273.17
727.57	272.61
727.91	272.01
728.24	271.46
728.57	270.90
728.90	270.43
729.23	269.85
729.56	269.38
729.89	268.87
730.22	268.32
730.55	267.80
730.89	267.30
731.22	266.75
731.55	266.31
731.88	265.83
732.21	265.36
732.54	264.88
732.87	264.41
733.20	263.98
733.53	263.53
733.86	263.05
734.19	262.55
734.52	262.11
734.85	261.73
735.18	261.21
735.51	260.76
735.84	260.30
736.17	259.90
736.50	259.45
736.83	259.16
737.16	258.80
737.49	258.41
737.82	258.05
738.15	257.63
738.48	257.22
738.81	256.83
739.14	256.45
739.47	256.10
739.80	255.77
740.13	255.38
740.46	254.98
740.79	254.63
741.12	254.28
741.45	253.91
741.78	253.52
742.11	253.23
742.44	252.85
742.77	252.52
743.10	252.19
743.43	251.84
743.75	251.36
744.08	251.13
744.41	250.82
744.74	250.45
745.07	250.17
745.40	249.85
745.73	249.56
746.06	249.23
746.39	248.91
746.71	248.57
747.04	248.25
747.37	247.97
747.70	247.67
748.03	247.37
748.36	247.07
748.68	246.79
749.01	246.48
749.34	246.23
749.67	245.93
750.00	245.63
750.33	245.38
750.65	245.15
750.98	244.77
751.31	244.50
751.64	244.25
751.97	244.03
752.29	243.75
752.62	243.46
752.95	243.23
753.28	242.95
753.60	242.73
753.93	242.55
754.26	242.34
754.59	242.07
754.91	241.83
755.24	241.63
755.57	241.38
755.90	241.19
756.22	240.98
756.55	240.76
756.88	240.57
757.20	240.34
757.53	240.12
757.86	239.93
758.19	239.75
758.51	239.56
758.84	239.37
759.17	239.23
759.49	239.07
759.82	238.92
760.15	238.81
760.47	238.62
760.80	238.41
761.13	238.24
761.45	238.09
761.78	237.95
762.11	237.78
762.43	237.66
762.76	237.51
763.08	237.39
763.41	237.25
763.74	237.12
764.06	236.94
764.39	236.78
764.71	236.65
765.04	236.51
765.37	236.37
765.69	236.19
766.02	236.03
766.34	235.88
766.67	235.71
767.00	235.59
767.32	235.53
767.65	235.50
767.97	235.41
768.30	235.29
768.62	235.18
768.95	235.07
769.27	234.96
769.60	234.84
769.92	234.69
770.25	234.59
770.57	234.46
770.90	234.38
771.22	234.27
771.55	234.17
771.87	234.03
772.20	233.96
772.52	233.95
772.85	233.99
773.17	233.91
773.50	233.79
773.82	233.67
774.15	233.52
774.47	233.35
774.80	233.20
775.12	233.11
775.45	233.06
775.77	232.97
776.09	232.85
776.42	232.77
776.74	232.73
777.07	232.64
777.39	232.55
777.72	232.49
778.04	232.42
778.36	232.34
778.69	232.26
779.01	232.16
779.33	231.99
779.66	231.80
779.98	231.75
780.31	231.69
780.63	231.63
780.95	231.54
781.28	231.44
781.60	231.36
781.92	231.30
782.25	231.20
782.57	231.12
782.89	231.03
783.22	230.93
783.54	230.79
783.86	230.74
784.19	230.66
784.51	230.60
784.83	230.53
785.16	230.46
785.48	230.42
785.80	230.37
786.12	230.32
786.45	230.22
