SpectraSuite Data File
++++++++++++++++++++++++++++++++++++
Date: Fri Feb 01 16:14:35 EST 2013
User: group
Dark Spectrum Present: No
Reference Spectrum Present: No
Number of Sampled Component Spectra: 1
Spectrometers: USB2E7196
Integration Time (usec): 35000 (USB2E7196)
Spectra Averaged: 100 (USB2E7196)
Boxcar Smoothing: 10 (USB2E7196)
Correct for Electrical Dark: No (USB2E7196)
Strobe/Lamp Enabled: No (USB2E7196)
Correct for Detector Non-linearity: No (USB2E7196)
Correct for Stray Light: No (USB2E7196)
Number of Pixels in Processed Spectrum: 2048
>>>>>Begin Processed Spectral Data<<<<<
339.09	0.00
339.48	213.53
339.86	215.20
340.24	216.72
340.63	218.60
341.01	221.59
341.39	220.99
341.78	222.38
342.16	223.62
342.54	224.12
342.93	212.40
343.31	223.13
343.69	223.66
344.07	224.15
344.46	224.57
344.84	224.92
345.22	225.11
345.60	225.34
345.99	225.53
346.37	225.62
346.75	225.69
347.13	225.74
347.52	225.80
347.90	225.86
348.28	225.87
348.66	225.90
349.05	225.91
349.43	225.95
349.81	226.00
350.19	226.08
350.57	226.11
350.96	226.22
351.34	226.27
351.72	226.40
352.10	226.48
352.48	226.57
352.87	226.66
353.25	226.75
353.63	226.84
354.01	226.92
354.39	227.02
354.77	227.14
355.15	227.26
355.54	227.33
355.92	227.41
356.30	227.53
356.68	227.68
357.06	227.79
357.44	227.84
357.82	227.89
358.20	227.93
358.58	228.02
358.97	228.04
359.35	228.17
359.73	228.25
360.11	228.28
360.49	228.36
360.87	228.42
361.25	228.49
361.63	228.57
362.01	228.61
362.39	228.65
362.77	228.70
363.15	228.74
363.53	228.75
363.91	228.76
364.29	228.77
364.67	228.66
365.05	228.66
365.43	228.66
365.81	228.72
366.19	228.79
366.57	228.84
366.95	228.87
367.33	228.84
367.71	228.84
368.09	228.88
368.47	228.86
368.85	228.81
369.23	228.83
369.61	228.78
369.99	228.79
370.37	228.80
370.75	228.80
371.13	228.76
371.51	228.76
371.89	228.75
372.27	228.74
372.65	228.74
373.03	228.69
373.41	228.66
373.78	228.57
374.16	228.45
374.54	228.35
374.92	228.30
375.30	228.22
375.68	228.17
376.06	228.09
376.44	228.05
376.82	228.03
377.19	227.93
377.57	227.85
377.95	227.77
378.33	227.64
378.71	227.53
379.09	227.45
379.47	227.37
379.84	227.30
380.22	227.22
380.60	227.13
380.98	227.06
381.36	226.99
381.73	226.93
382.11	226.91
382.49	226.84
382.87	226.75
383.25	226.72
383.62	226.74
384.00	226.67
384.38	226.58
384.76	226.50
385.13	226.48
385.51	226.44
385.89	226.37
386.27	226.35
386.64	226.29
387.02	226.23
387.40	226.17
387.78	226.13
388.15	226.09
388.53	226.05
388.91	226.01
389.29	225.98
389.66	225.97
390.04	225.90
390.42	225.90
390.79	225.87
391.17	225.82
391.55	225.68
391.92	225.68
392.30	225.67
392.68	225.66
393.05	225.64
393.43	225.62
393.81	225.61
394.18	225.59
394.56	225.64
394.94	225.65
395.31	225.67
395.69	225.69
396.06	225.74
396.44	225.78
396.82	225.81
397.19	225.89
397.57	225.88
397.95	225.93
398.32	225.94
398.70	226.01
399.07	226.10
399.45	226.17
399.82	226.22
400.20	226.28
400.58	226.36
400.95	226.38
401.33	226.49
401.70	226.64
402.08	226.76
402.45	226.81
402.83	226.97
403.20	227.06
403.58	227.17
403.95	227.27
404.33	227.39
404.71	227.51
405.08	227.69
405.46	227.82
405.83	227.95
406.21	228.11
406.58	228.24
406.96	228.39
407.33	228.57
407.70	228.75
408.08	229.03
408.45	229.25
408.83	229.51
409.20	229.68
409.58	229.86
409.95	230.07
410.33	230.35
410.70	230.57
411.08	230.88
411.45	231.15
411.82	231.43
412.20	231.77
412.57	232.19
412.95	232.44
413.32	232.87
413.69	233.28
414.07	233.74
414.44	234.20
414.82	234.66
415.19	235.18
415.56	235.73
415.94	236.27
416.31	236.87
416.68	237.47
417.06	238.22
417.43	238.93
417.81	239.72
418.18	240.51
418.55	241.35
418.93	242.23
419.30	243.13
419.67	244.10
420.04	245.05
420.42	246.04
420.79	247.28
421.16	248.41
421.54	249.66
421.91	250.86
422.28	252.17
422.66	253.54
423.03	254.85
423.40	256.16
423.77	257.58
424.15	259.01
424.52	260.56
424.89	262.15
425.26	263.67
425.64	265.10
426.01	266.71
426.38	268.38
426.75	270.07
427.13	271.81
427.50	273.62
427.87	275.53
428.24	277.37
428.61	279.10
428.99	281.08
429.36	283.14
429.73	285.21
430.10	287.21
430.47	289.25
430.85	291.35
431.22	293.63
431.59	295.97
431.96	298.20
432.33	300.64
432.70	303.06
433.08	305.89
433.45	308.56
433.82	311.14
434.19	314.01
434.56	316.82
434.93	319.47
435.30	322.11
435.68	325.02
436.05	327.82
436.42	330.60
436.79	333.09
437.16	335.78
437.53	338.57
437.90	341.36
438.27	344.06
438.64	346.91
439.01	349.50
439.38	351.76
439.75	353.92
440.13	356.38
440.50	358.65
440.87	360.51
441.24	362.39
441.61	364.56
441.98	366.00
442.35	367.79
442.72	369.63
443.09	371.35
443.46	372.32
443.83	372.91
444.20	373.39
444.57	374.22
444.94	374.47
445.31	374.81
445.68	375.12
446.05	375.20
446.42	374.75
446.79	374.37
447.16	373.88
447.53	373.58
447.90	372.44
448.27	371.31
448.64	369.69
449.01	368.57
449.37	366.59
449.74	364.73
450.11	362.50
450.48	360.01
450.85	357.53
451.22	355.37
451.59	353.37
451.96	351.47
452.33	348.84
452.70	346.55
453.07	343.77
453.43	340.89
453.80	338.13
454.17	335.46
454.54	332.87
454.91	330.19
455.28	327.53
455.65	325.02
456.02	322.55
456.38	320.37
456.75	317.68
457.12	315.41
457.49	313.18
457.86	310.97
458.23	309.17
458.59	307.07
458.96	304.97
459.33	303.12
459.70	301.24
460.07	299.75
460.43	298.00
460.80	296.33
461.17	294.93
461.54	293.47
461.91	292.09
462.27	290.64
462.64	289.37
463.01	288.01
463.38	286.73
463.74	285.38
464.11	284.25
464.48	283.27
464.85	282.17
465.21	281.34
465.58	280.44
465.95	279.33
466.32	278.49
466.68	277.60
467.05	276.74
467.42	275.84
467.78	274.92
468.15	274.07
468.52	273.43
468.88	272.56
469.25	271.78
469.62	271.18
469.98	270.54
470.35	269.95
470.72	269.36
471.08	268.72
471.45	268.18
471.82	267.67
472.18	267.10
472.55	266.70
472.92	266.16
473.28	265.72
473.65	265.28
474.02	264.86
474.38	264.52
474.75	264.17
475.11	263.86
475.48	263.58
475.85	263.35
476.21	263.13
476.58	262.97
476.94	262.88
477.31	262.75
477.67	262.60
478.04	262.46
478.41	262.47
478.77	262.53
479.14	262.49
479.50	262.49
479.87	262.54
480.23	262.64
480.60	262.72
480.96	262.82
481.33	263.04
481.69	263.24
482.06	263.43
482.42	263.64
482.79	263.92
483.15	264.29
483.52	264.70
483.88	265.03
484.25	265.42
484.61	265.82
484.98	266.24
485.34	266.81
485.71	267.41
486.07	267.97
486.44	268.53
486.80	269.22
487.17	269.99
487.53	270.83
487.90	271.66
488.26	272.57
488.62	273.54
488.99	274.47
489.35	275.47
489.72	276.61
490.08	277.82
490.44	279.05
490.81	280.37
491.17	281.68
491.54	283.20
491.90	284.71
492.26	286.36
492.63	288.09
492.99	289.85
493.36	291.76
493.72	293.80
494.08	295.92
494.45	298.18
494.81	300.56
495.17	302.97
495.54	305.52
495.90	308.21
496.26	311.05
496.63	314.07
496.99	317.20
497.35	320.44
497.72	323.80
498.08	327.32
498.44	330.98
498.80	334.94
499.17	338.96
499.53	343.11
499.89	347.47
500.26	351.97
500.62	356.61
500.98	361.58
501.34	366.62
501.71	371.91
502.07	377.39
502.43	382.99
502.79	388.79
503.16	394.93
503.52	401.19
503.88	407.62
504.24	414.27
504.60	421.15
504.97	428.30
505.33	435.73
505.69	443.45
506.05	451.28
506.41	459.11
506.78	467.24
507.14	475.77
507.50	484.50
507.86	493.57
508.22	502.88
508.59	512.10
508.95	521.71
509.31	531.51
509.67	541.63
510.03	551.89
510.39	562.47
510.75	573.23
511.12	584.18
511.48	595.42
511.84	606.84
512.20	618.45
512.56	630.35
512.92	642.42
513.28	654.78
513.64	667.27
514.00	680.05
514.37	693.04
514.73	705.99
515.09	718.98
515.45	732.22
515.81	745.79
516.17	759.71
516.53	773.82
516.89	788.11
517.25	802.20
517.61	816.62
517.97	831.05
518.33	845.42
518.69	860.19
519.05	875.18
519.41	890.27
519.77	905.58
520.13	921.03
520.49	936.41
520.85	951.76
521.21	967.37
521.57	983.65
521.93	999.37
522.29	1015.77
522.65	1032.04
523.01	1048.19
523.37	1064.13
523.73	1080.15
524.09	1096.24
524.45	1112.41
524.81	1129.03
525.17	1145.71
525.53	1162.50
525.89	1179.41
526.25	1196.15
526.61	1212.41
526.97	1229.09
527.33	1245.66
527.68	1262.22
528.04	1278.65
528.40	1295.13
528.76	1312.16
529.12	1328.50
529.48	1345.27
529.84	1361.24
530.20	1377.75
530.56	1394.56
530.91	1411.89
531.27	1428.69
531.63	1445.06
531.99	1461.53
532.35	1477.39
532.71	1493.38
533.07	1509.64
533.42	1525.43
533.78	1541.49
534.14	1557.89
534.50	1573.25
534.86	1589.02
535.21	1604.16
535.57	1619.99
535.93	1635.33
536.29	1650.00
536.65	1664.95
537.00	1679.74
537.36	1695.01
537.72	1709.40
538.08	1723.84
538.44	1737.61
538.79	1751.42
539.15	1765.00
539.51	1778.71
539.87	1793.01
540.22	1806.43
540.58	1820.03
540.94	1833.18
541.29	1845.83
541.65	1858.29
542.01	1871.31
542.37	1883.50
542.72	1895.74
543.08	1907.48
543.44	1919.88
543.79	1931.18
544.15	1942.10
544.51	1953.56
544.87	1964.41
545.22	1975.21
545.58	1985.48
545.94	1995.09
546.29	2004.90
546.65	2014.65
547.01	2023.86
547.36	2032.49
547.72	2041.06
548.07	2048.92
548.43	2057.12
548.79	2065.13
549.14	2072.83
549.50	2080.09
549.86	2087.60
550.21	2094.91
550.57	2102.07
550.92	2108.76
551.28	2115.73
551.64	2122.90
551.99	2129.35
552.35	2135.36
552.70	2141.53
553.06	2147.41
553.41	2153.71
553.77	2159.71
554.13	2165.68
554.48	2171.76
554.84	2177.28
555.19	2182.40
555.55	2187.55
555.90	2191.99
556.26	2197.04
556.61	2201.48
556.97	2205.97
557.32	2210.33
557.68	2214.53
558.03	2218.85
558.39	2222.39
558.74	2226.89
559.10	2230.74
559.45	2234.44
559.81	2238.88
560.16	2242.69
560.52	2245.90
560.87	2249.45
561.23	2252.12
561.58	2255.20
561.94	2257.78
562.29	2260.01
562.64	2262.84
563.00	2265.46
563.35	2268.92
563.71	2271.93
564.06	2275.15
564.42	2278.05
564.77	2280.52
565.12	2282.84
565.48	2284.71
565.83	2286.59
566.19	2288.01
566.54	2288.94
566.89	2290.05
567.25	2290.70
567.60	2291.96
567.96	2293.87
568.31	2294.66
568.66	2295.80
569.02	2296.38
569.37	2296.59
569.72	2297.61
570.08	2297.93
570.43	2298.01
570.78	2297.46
571.14	2296.07
571.49	2294.73
571.84	2294.27
572.20	2293.21
572.55	2292.16
572.90	2290.46
573.26	2289.11
573.61	2287.39
573.96	2285.71
574.31	2282.84
574.67	2279.73
575.02	2276.10
575.37	2272.40
575.72	2268.68
576.08	2265.29
576.43	2261.91
576.78	2258.43
577.13	2255.11
577.49	2251.85
577.84	2248.47
578.19	2244.81
578.54	2241.16
578.90	2237.15
579.25	2231.74
579.60	2226.86
579.95	2221.86
580.30	2216.88
580.66	2211.67
581.01	2206.74
581.36	2201.78
581.71	2197.67
582.06	2193.30
582.42	2189.00
582.77	2183.91
583.12	2179.41
583.47	2174.95
583.82	2170.15
584.17	2164.97
584.53	2159.58
584.88	2153.95
585.23	2148.25
585.58	2142.73
585.93	2137.13
586.28	2132.30
586.63	2127.26
586.98	2122.14
587.34	2117.40
587.69	2112.51
588.04	2107.44
588.39	2101.85
588.74	2095.40
589.09	2089.13
589.44	2082.36
589.79	2076.26
590.14	2070.63
590.49	2063.99
590.84	2057.36
591.19	2051.23
591.54	2044.75
591.89	2037.52
592.25	2030.92
592.60	2023.65
592.95	2016.16
593.30	2009.04
593.65	2001.40
594.00	1994.32
594.35	1987.06
594.70	1978.99
595.05	1972.02
595.40	1964.72
595.75	1957.17
596.10	1951.12
596.45	1944.60
596.80	1938.56
597.15	1932.00
597.50	1925.06
597.85	1918.66
598.19	1912.04
598.54	1905.11
598.89	1898.56
599.24	1892.63
599.59	1885.94
599.94	1879.66
600.29	1873.35
600.64	1866.68
600.99	1859.28
601.34	1852.55
601.69	1845.71
602.04	1838.98
602.39	1831.64
602.74	1824.90
603.08	1818.29
603.43	1811.47
603.78	1804.04
604.13	1796.79
604.48	1789.59
604.83	1782.72
605.18	1775.84
605.53	1768.15
605.87	1760.04
606.22	1752.72
606.57	1744.80
606.92	1737.26
607.27	1730.23
607.62	1723.38
607.96	1716.25
608.31	1709.81
608.66	1702.23
609.01	1694.66
609.36	1687.24
609.70	1679.35
610.05	1671.38
610.40	1663.88
610.75	1655.63
611.10	1648.08
611.44	1639.66
611.79	1631.60
612.14	1623.07
612.49	1613.81
612.83	1605.24
613.18	1597.16
613.53	1589.11
613.88	1580.60
614.22	1572.46
614.57	1563.79
614.92	1555.78
615.27	1548.20
615.61	1539.82
615.96	1531.77
616.31	1524.06
616.65	1516.58
617.00	1508.83
617.35	1501.00
617.70	1492.53
618.04	1483.92
618.39	1475.63
618.74	1468.05
619.08	1459.79
619.43	1452.23
619.78	1445.36
620.12	1438.29
620.47	1430.81
620.82	1422.58
621.16	1415.13
621.51	1407.46
621.85	1399.85
622.20	1391.39
622.55	1382.97
622.89	1375.09
623.24	1367.42
623.59	1360.05
623.93	1352.49
624.28	1345.26
624.62	1337.78
624.97	1330.56
625.32	1323.75
625.66	1316.69
626.01	1309.64
626.35	1302.26
626.70	1294.42
627.04	1286.68
627.39	1278.84
627.73	1271.53
628.08	1264.65
628.43	1257.33
628.77	1250.12
629.12	1242.62
629.46	1235.39
629.81	1227.96
630.15	1220.73
630.50	1213.24
630.84	1205.01
631.19	1197.07
631.53	1189.55
631.88	1182.04
632.22	1174.45
632.57	1167.17
632.91	1159.67
633.26	1152.24
633.60	1144.79
633.95	1137.59
634.29	1130.54
634.64	1123.89
634.98	1116.46
635.32	1109.28
635.67	1102.69
636.01	1096.00
636.36	1089.16
636.70	1082.61
637.05	1076.03
637.39	1069.67
637.73	1063.27
638.08	1057.43
638.42	1051.53
638.77	1045.15
639.11	1038.58
639.45	1032.18
639.80	1025.62
640.14	1019.28
640.49	1012.74
640.83	1006.48
641.17	1000.37
641.52	994.12
641.86	987.68
642.20	981.84
642.55	975.42
642.89	969.02
643.23	962.36
643.58	956.66
643.92	950.54
644.26	944.53
644.61	938.33
644.95	932.29
645.29	925.68
645.64	918.90
645.98	912.58
646.32	906.67
646.66	900.67
647.01	894.98
647.35	889.19
647.69	883.30
648.04	877.73
648.38	871.93
648.72	865.96
649.06	859.85
649.41	853.94
649.75	848.13
650.09	842.17
650.43	836.47
650.78	830.31
651.12	824.33
651.46	818.66
651.80	813.03
652.14	807.64
652.49	802.31
652.83	797.22
653.17	791.60
653.51	785.94
653.85	780.50
654.20	774.76
654.54	768.80
654.88	763.03
655.22	757.15
655.56	751.40
655.90	745.92
656.25	740.73
656.59	735.31
656.93	730.20
657.27	725.02
657.61	719.58
657.95	714.44
658.29	709.32
658.64	704.01
658.98	698.64
659.32	693.17
659.66	688.03
660.00	682.66
660.34	677.65
660.68	672.68
661.02	667.67
661.36	662.96
661.70	658.53
662.05	654.23
662.39	649.89
662.73	645.40
663.07	641.00
663.41	636.57
663.75	632.15
664.09	627.60
664.43	623.19
664.77	619.05
665.11	614.84
665.45	610.66
665.79	606.63
666.13	602.54
666.47	598.43
666.81	594.21
667.15	590.10
667.49	586.20
667.83	582.39
668.17	578.44
668.51	574.29
668.85	570.15
669.19	566.23
669.53	562.40
669.87	558.56
670.21	554.82
670.55	551.07
670.89	547.59
671.23	544.14
671.57	540.69
671.91	537.18
672.25	533.60
672.58	530.10
672.92	526.66
673.26	523.51
673.60	520.35
673.94	517.25
674.28	514.29
674.62	511.29
674.96	508.13
675.30	505.25
675.64	502.40
675.97	499.63
676.31	496.77
676.65	493.85
676.99	491.14
677.33	488.29
677.67	485.50
678.01	482.49
678.34	479.53
678.68	476.64
679.02	473.88
679.36	471.12
679.70	468.35
680.04	465.60
680.37	462.68
680.71	459.91
681.05	457.26
681.39	454.58
681.73	451.89
682.06	449.41
682.40	446.87
682.74	444.32
683.08	441.76
683.42	439.20
683.75	436.71
684.09	434.13
684.43	431.69
684.77	429.27
685.10	426.92
685.44	424.57
685.78	422.25
686.12	419.93
686.45	417.65
686.79	415.45
687.13	413.26
687.46	411.14
687.80	408.99
688.14	406.79
688.48	404.73
688.81	402.56
689.15	400.40
689.49	398.22
689.82	396.14
690.16	394.07
690.50	392.08
690.83	390.16
691.17	388.24
691.51	386.29
691.84	384.40
692.18	382.49
692.52	380.56
692.85	378.65
693.19	376.78
693.52	374.94
693.86	373.08
694.20	371.30
694.53	369.51
694.87	367.67
695.21	365.88
695.54	364.07
695.88	362.31
696.21	360.55
696.55	358.85
696.88	357.17
697.22	355.54
697.56	353.91
697.89	352.25
698.23	350.64
698.56	349.05
698.90	347.52
699.23	345.90
699.57	344.35
699.90	342.76
700.24	341.21
700.58	339.74
700.91	338.27
701.25	336.81
701.58	335.43
701.92	334.07
702.25	332.66
702.59	331.29
702.92	329.99
703.26	328.72
703.59	327.46
703.93	326.29
704.26	325.07
704.60	323.79
704.93	322.52
705.26	321.26
705.60	320.03
705.93	318.85
706.27	317.78
706.60	316.72
706.94	315.68
707.27	314.57
707.61	313.46
707.94	312.43
708.27	311.34
708.61	310.24
708.94	309.20
709.28	308.27
709.61	307.28
709.94	306.33
710.28	305.31
710.61	304.31
710.95	303.20
711.28	302.23
711.61	301.28
711.95	300.35
712.28	299.40
712.61	298.44
712.95	297.48
713.28	296.61
713.61	295.67
713.95	294.75
714.28	293.93
714.61	293.07
714.95	292.22
715.28	291.34
715.61	290.46
715.95	289.62
716.28	288.71
716.61	287.88
716.95	287.04
717.28	286.29
717.61	285.49
717.94	284.75
718.28	283.94
718.61	283.21
718.94	282.52
719.27	281.88
719.61	281.25
719.94	280.59
720.27	279.82
720.60	279.17
720.94	278.52
721.27	277.90
721.60	277.31
721.93	276.69
722.27	276.13
722.60	275.58
722.93	274.96
723.26	274.47
723.59	273.93
723.93	273.37
724.26	272.80
724.59	272.25
724.92	271.72
725.25	271.21
725.59	270.67
725.92	270.16
726.25	269.61
726.58	269.11
726.91	268.62
727.24	268.20
727.57	267.76
727.91	267.25
728.24	266.79
728.57	266.34
728.90	265.90
729.23	265.42
729.56	265.03
729.89	264.61
730.22	264.14
730.55	263.69
730.89	263.27
731.22	262.82
731.55	262.43
731.88	262.03
732.21	261.61
732.54	261.18
732.87	260.75
733.20	260.36
733.53	259.95
733.86	259.59
734.19	259.20
734.52	258.82
734.85	258.51
735.18	258.07
735.51	257.71
735.84	257.35
736.17	257.05
736.50	256.62
736.83	256.36
737.16	256.05
737.49	255.70
737.82	255.36
738.15	255.03
738.48	254.69
738.81	254.36
739.14	254.04
739.47	253.74
739.80	253.45
740.13	253.14
740.46	252.84
740.79	252.50
741.12	252.18
741.45	251.84
741.78	251.53
742.11	251.31
742.44	250.96
742.77	250.66
743.10	250.34
743.43	250.02
743.75	249.63
744.08	249.49
744.41	249.21
744.74	248.92
745.07	248.65
745.40	248.41
745.73	248.13
746.06	247.88
746.39	247.64
746.71	247.35
747.04	247.10
747.37	246.84
747.70	246.61
748.03	246.36
748.36	246.14
748.68	245.87
749.01	245.55
749.34	245.33
749.67	245.09
750.00	244.86
750.33	244.75
750.65	244.52
750.98	244.13
751.31	243.92
751.64	243.71
751.97	243.55
752.29	243.32
752.62	243.13
752.95	242.91
753.28	242.68
753.60	242.44
753.93	242.28
754.26	242.07
754.59	241.84
754.91	241.59
755.24	241.40
755.57	241.23
755.90	241.06
756.22	240.86
756.55	240.68
756.88	240.48
757.20	240.21
757.53	240.05
757.86	239.91
758.19	239.73
758.51	239.57
758.84	239.36
759.17	239.18
759.49	239.00
759.82	238.87
760.15	238.74
760.47	238.61
760.80	238.42
761.13	238.29
761.45	238.15
761.78	238.04
762.11	237.91
762.43	237.77
762.76	237.61
763.08	237.47
763.41	237.32
763.74	237.18
764.06	237.05
764.39	236.90
764.71	236.73
765.04	236.63
765.37	236.47
765.69	236.32
766.02	236.21
766.34	236.08
766.67	235.95
767.00	235.82
767.32	235.79
767.65	235.74
767.97	235.61
768.30	235.53
768.62	235.42
768.95	235.31
769.27	235.20
769.60	235.13
769.92	235.04
770.25	234.91
770.57	234.78
770.90	234.73
771.22	234.63
771.55	234.55
771.87	234.45
772.20	234.40
772.52	234.40
772.85	234.41
773.17	234.32
773.50	234.22
773.82	234.14
774.15	234.00
774.47	233.85
774.80	233.73
775.12	233.63
775.45	233.56
775.77	233.48
776.09	233.40
776.42	233.34
776.74	233.33
777.07	233.26
777.39	233.21
777.72	233.12
778.04	233.07
778.36	232.95
778.69	232.91
779.01	232.84
779.33	232.69
779.66	232.52
779.98	232.46
780.31	232.40
780.63	232.36
780.95	232.29
781.28	232.23
781.60	232.16
781.92	232.10
782.25	232.02
782.57	231.97
782.89	231.90
783.22	231.80
783.54	231.71
783.86	231.71
784.19	231.66
784.51	231.61
784.83	231.53
785.16	231.51
785.48	231.44
785.80	231.41
786.12	231.39
786.45	231.36
786.77	231.28
787.09	231.22
