SpectraSuite Data File
++++++++++++++++++++++++++++++++++++
Date: Fri Feb 01 16:45:11 EST 2013
User: group
Dark Spectrum Present: No
Reference Spectrum Present: No
Number of Sampled Component Spectra: 1
Spectrometers: USB2E7196
Integration Time (usec): 35000 (USB2E7196)
Spectra Averaged: 100 (USB2E7196)
Boxcar Smoothing: 10 (USB2E7196)
Correct for Electrical Dark: No (USB2E7196)
Strobe/Lamp Enabled: No (USB2E7196)
Correct for Detector Non-linearity: No (USB2E7196)
Correct for Stray Light: No (USB2E7196)
Number of Pixels in Processed Spectrum: 2048
>>>>>Begin Processed Spectral Data<<<<<
339.09	0.00
339.48	213.33
339.86	214.52
340.24	215.96
340.63	217.17
341.01	219.68
341.39	219.99
341.78	221.23
342.16	222.33
342.54	223.22
342.93	211.55
343.31	222.25
343.69	222.80
344.07	223.29
344.46	223.71
344.84	224.11
345.22	224.37
345.60	224.60
345.99	224.81
346.37	224.96
346.75	225.05
347.13	225.12
347.52	225.16
347.90	225.22
348.28	225.27
348.66	225.31
349.05	225.30
349.43	225.34
349.81	225.40
350.19	225.46
350.57	225.50
350.96	225.55
351.34	225.63
351.72	225.71
352.10	225.78
352.48	225.86
352.87	225.89
353.25	225.97
353.63	226.05
354.01	226.12
354.39	226.23
354.77	226.32
355.15	226.40
355.54	226.46
355.92	226.51
356.30	226.60
356.68	226.77
357.06	226.83
357.44	226.89
357.82	226.92
358.20	226.99
358.58	227.06
358.97	227.14
359.35	227.18
359.73	227.24
360.11	227.28
360.49	227.35
360.87	227.42
361.25	227.50
361.63	227.62
362.01	227.66
362.39	227.68
362.77	227.71
363.15	227.75
363.53	227.80
363.91	227.84
364.29	227.88
364.67	227.78
365.05	227.80
365.43	227.82
365.81	227.87
366.19	227.90
366.57	227.92
366.95	227.91
367.33	227.90
367.71	227.91
368.09	227.95
368.47	227.92
368.85	227.90
369.23	227.88
369.61	227.79
369.99	227.78
370.37	227.75
370.75	227.78
371.13	227.75
371.51	227.71
371.89	227.68
372.27	227.61
372.65	227.62
373.03	227.60
373.41	227.55
373.78	227.51
374.16	227.42
374.54	227.34
374.92	227.30
375.30	227.28
375.68	227.21
376.06	227.14
376.44	227.08
376.82	227.04
377.19	226.96
377.57	226.93
377.95	226.84
378.33	226.78
378.71	226.65
379.09	226.59
379.47	226.54
379.84	226.47
380.22	226.39
380.60	226.27
380.98	226.21
381.36	226.13
381.73	226.05
382.11	226.03
382.49	225.99
382.87	225.92
383.25	225.82
383.62	225.88
384.00	225.80
384.38	225.75
384.76	225.69
385.13	225.65
385.51	225.56
385.89	225.51
386.27	225.47
386.64	225.44
387.02	225.40
387.40	225.36
387.78	225.34
388.15	225.32
388.53	225.28
388.91	225.25
389.29	225.24
389.66	225.22
390.04	225.15
390.42	225.14
390.79	225.12
391.17	225.10
391.55	224.97
391.92	224.98
392.30	225.01
392.68	224.98
393.05	224.99
393.43	225.00
393.81	225.02
394.18	225.00
394.56	224.98
394.94	225.02
395.31	225.03
395.69	225.05
396.06	225.08
396.44	225.11
396.82	225.11
397.19	225.21
397.57	225.22
397.95	225.29
398.32	225.29
398.70	225.35
399.07	225.41
399.45	225.49
399.82	225.51
400.20	225.52
400.58	225.59
400.95	225.61
401.33	225.71
401.70	225.82
402.08	225.92
402.45	226.02
402.83	226.09
403.20	226.18
403.58	226.25
403.95	226.34
404.33	226.46
404.71	226.58
405.08	226.72
405.46	226.82
405.83	226.98
406.21	227.14
406.58	227.28
406.96	227.43
407.33	227.59
407.70	227.81
408.08	228.06
408.45	228.28
408.83	228.54
409.20	228.74
409.58	228.95
409.95	229.16
410.33	229.41
410.70	229.67
411.08	229.97
411.45	230.29
411.82	230.60
412.20	230.96
412.57	231.37
412.95	231.65
413.32	232.11
413.69	232.49
414.07	232.93
414.44	233.41
414.82	233.89
415.19	234.45
415.56	234.98
415.94	235.57
416.31	236.23
416.68	236.85
417.06	237.55
417.43	238.23
417.81	239.02
418.18	239.83
418.55	240.65
418.93	241.54
419.30	242.43
419.67	243.37
420.04	244.33
420.42	245.32
420.79	246.54
421.16	247.69
421.54	248.87
421.91	250.07
422.28	251.31
422.66	252.64
423.03	253.93
423.40	255.22
423.77	256.57
424.15	257.99
424.52	259.47
424.89	261.10
425.26	262.62
425.64	264.07
426.01	265.64
426.38	267.29
426.75	268.93
427.13	270.62
427.50	272.41
427.87	274.30
428.24	276.15
428.61	277.87
428.99	279.79
429.36	281.87
429.73	283.89
430.10	285.92
430.47	287.94
430.85	289.99
431.22	292.24
431.59	294.61
431.96	296.81
432.33	299.26
432.70	301.58
433.08	304.38
433.45	306.97
433.82	309.55
434.19	312.40
434.56	315.21
434.93	317.88
435.30	320.47
435.68	323.31
436.05	326.09
436.42	328.81
436.79	331.27
437.16	333.95
437.53	336.75
437.90	339.51
438.27	342.24
438.64	345.04
439.01	347.60
439.38	349.77
439.75	351.90
440.13	354.35
440.50	356.66
440.87	358.44
441.24	360.38
441.61	362.50
441.98	363.99
442.35	365.75
442.72	367.54
443.09	369.31
443.46	370.29
443.83	370.88
444.20	371.44
444.57	372.27
444.94	372.53
445.31	372.86
445.68	373.19
446.05	373.29
446.42	372.96
446.79	372.56
447.16	372.15
447.53	371.84
447.90	370.68
448.27	369.53
448.64	367.99
449.01	366.86
449.37	364.93
449.74	363.02
450.11	360.81
450.48	358.41
450.85	355.88
451.22	353.77
451.59	351.79
451.96	349.83
452.33	347.28
452.70	344.99
453.07	342.24
453.43	339.38
453.80	336.59
454.17	333.93
454.54	331.44
454.91	328.77
455.28	326.12
455.65	323.66
456.02	321.25
456.38	319.11
456.75	316.45
457.12	314.21
457.49	312.01
457.86	309.85
458.23	307.99
458.59	306.01
458.96	303.95
459.33	302.14
459.70	300.29
460.07	298.81
460.43	297.09
460.80	295.46
461.17	294.06
461.54	292.59
461.91	291.20
462.27	289.75
462.64	288.52
463.01	287.20
463.38	285.98
463.74	284.63
464.11	283.52
464.48	282.55
464.85	281.45
465.21	280.61
465.58	279.69
465.95	278.65
466.32	277.74
466.68	276.81
467.05	275.86
467.42	275.03
467.78	274.11
468.15	273.25
468.52	272.61
468.88	271.75
469.25	271.02
469.62	270.38
469.98	269.69
470.35	269.11
470.72	268.52
471.08	267.87
471.45	267.34
471.82	266.83
472.18	266.24
472.55	265.83
472.92	265.35
473.28	264.92
473.65	264.46
474.02	264.04
474.38	263.76
474.75	263.52
475.11	263.17
475.48	262.94
475.85	262.74
476.21	262.56
476.58	262.40
476.94	262.28
477.31	262.15
477.67	262.05
478.04	261.92
478.41	261.87
478.77	261.90
479.14	261.86
479.50	261.86
479.87	261.96
480.23	262.06
480.60	262.11
480.96	262.22
481.33	262.46
481.69	262.67
482.06	262.82
482.42	263.00
482.79	263.24
483.15	263.55
483.52	263.94
483.88	264.27
484.25	264.65
484.61	265.05
484.98	265.50
485.34	266.08
485.71	266.67
486.07	267.28
486.44	267.84
486.80	268.56
487.17	269.27
487.53	270.04
487.90	270.89
488.26	271.83
488.62	272.78
488.99	273.76
489.35	274.82
489.72	275.96
490.08	277.18
490.44	278.44
490.81	279.75
491.17	281.05
491.54	282.53
491.90	284.07
492.26	285.74
492.63	287.46
492.99	289.22
493.36	291.10
493.72	293.14
494.08	295.24
494.45	297.48
494.81	299.83
495.17	302.28
495.54	304.89
495.90	307.60
496.26	310.42
496.63	313.37
496.99	316.45
497.35	319.67
497.72	323.05
498.08	326.53
498.44	330.24
498.80	334.17
499.17	338.18
499.53	342.33
499.89	346.69
500.26	351.15
500.62	355.83
500.98	360.76
501.34	365.87
501.71	371.21
502.07	376.58
502.43	382.22
502.79	388.00
503.16	394.02
503.52	400.20
503.88	406.60
504.24	413.23
504.60	420.17
504.97	427.31
505.33	434.65
505.69	442.36
506.05	450.11
506.41	458.01
506.78	466.18
507.14	474.65
507.50	483.36
507.86	492.40
508.22	501.54
508.59	510.68
508.95	520.13
509.31	529.94
509.67	540.06
510.03	550.33
510.39	560.84
510.75	571.52
511.12	582.49
511.48	593.71
511.84	605.12
512.20	616.52
512.56	628.39
512.92	640.55
513.28	652.87
513.64	665.29
514.00	677.86
514.37	690.78
514.73	703.70
515.09	716.65
515.45	729.99
515.81	743.52
516.17	757.39
516.53	771.53
516.89	785.58
517.25	799.69
517.61	814.03
517.97	828.45
518.33	842.87
518.69	857.51
519.05	872.40
519.41	887.44
519.77	902.85
520.13	918.21
520.49	933.45
520.85	948.69
521.21	964.29
521.57	980.46
521.93	995.95
522.29	1012.21
522.65	1028.48
523.01	1044.46
523.37	1060.36
523.73	1076.44
524.09	1092.35
524.45	1108.49
524.81	1124.99
525.17	1141.55
525.53	1158.34
525.89	1175.04
526.25	1191.73
526.61	1207.90
526.97	1224.55
527.33	1240.88
527.68	1257.24
528.04	1273.55
528.40	1289.99
528.76	1306.81
529.12	1323.16
529.48	1340.05
529.84	1355.97
530.20	1372.27
530.56	1389.03
530.91	1406.22
531.27	1422.91
531.63	1439.25
531.99	1455.71
532.35	1471.50
532.71	1487.27
533.07	1503.23
533.42	1518.97
533.78	1534.90
534.14	1551.07
534.50	1566.29
534.86	1582.07
535.21	1597.17
535.57	1612.94
535.93	1628.24
536.29	1642.88
536.65	1657.81
537.00	1672.26
537.36	1687.31
537.72	1701.67
538.08	1715.98
538.44	1729.58
538.79	1743.29
539.15	1756.61
539.51	1770.09
539.87	1784.26
540.22	1797.90
540.58	1811.56
540.94	1824.62
541.29	1837.42
541.65	1850.01
542.01	1862.97
542.37	1875.16
542.72	1887.34
543.08	1898.90
543.44	1911.14
543.79	1922.41
544.15	1933.21
544.51	1944.67
544.87	1955.54
545.22	1966.26
545.58	1976.45
545.94	1986.12
546.29	1995.73
546.65	2005.68
547.01	2014.88
547.36	2023.49
547.72	2031.74
548.07	2039.50
548.43	2047.70
548.79	2055.45
549.14	2062.86
549.50	2069.98
549.86	2077.46
550.21	2084.89
550.57	2092.14
550.92	2098.68
551.28	2105.47
551.64	2112.46
551.99	2118.91
552.35	2125.06
552.70	2131.16
553.06	2137.02
553.41	2143.32
553.77	2149.41
554.13	2155.30
554.48	2161.53
554.84	2167.14
555.19	2172.38
555.55	2177.49
555.90	2182.05
556.26	2187.10
556.61	2191.68
556.97	2196.01
557.32	2200.11
557.68	2204.00
558.03	2208.15
558.39	2211.85
558.74	2216.55
559.10	2220.54
559.45	2224.25
559.81	2228.38
560.16	2232.25
560.52	2235.58
560.87	2239.08
561.23	2241.69
561.58	2244.59
561.94	2247.14
562.29	2249.26
562.64	2252.09
563.00	2254.76
563.35	2258.09
563.71	2261.15
564.06	2264.38
564.42	2267.37
564.77	2270.00
565.12	2272.53
565.48	2274.58
565.83	2276.48
566.19	2277.96
566.54	2278.80
566.89	2280.15
567.25	2280.84
567.60	2282.11
567.96	2283.70
568.31	2284.60
568.66	2285.85
569.02	2286.65
569.37	2287.02
569.72	2288.11
570.08	2288.25
570.43	2288.32
570.78	2287.94
571.14	2286.53
571.49	2285.29
571.84	2285.12
572.20	2284.19
572.55	2283.19
572.90	2281.59
573.26	2280.26
573.61	2278.54
573.96	2277.01
574.31	2273.97
574.67	2271.26
575.02	2267.73
575.37	2264.56
575.72	2260.80
576.08	2257.37
576.43	2254.24
576.78	2250.54
577.13	2247.42
577.49	2244.36
577.84	2241.07
578.19	2237.41
578.54	2233.93
578.90	2230.04
579.25	2224.63
579.60	2219.69
579.95	2214.80
580.30	2209.76
580.66	2204.80
581.01	2199.98
581.36	2195.13
581.71	2191.19
582.06	2186.73
582.42	2182.46
582.77	2177.38
583.12	2173.14
583.47	2168.79
583.82	2163.92
584.17	2158.93
584.53	2153.40
584.88	2147.90
585.23	2142.31
585.58	2136.83
585.93	2131.32
586.28	2126.38
586.63	2121.35
586.98	2116.49
587.34	2111.92
587.69	2107.19
588.04	2101.98
588.39	2096.34
588.74	2089.90
589.09	2083.77
589.44	2077.08
589.79	2071.08
590.14	2065.43
590.49	2058.75
590.84	2052.25
591.19	2046.14
591.54	2039.77
591.89	2032.69
592.25	2026.04
592.60	2018.79
592.95	2011.37
593.30	2004.18
593.65	1996.77
594.00	1989.70
594.35	1982.36
594.70	1974.33
595.05	1967.37
595.40	1960.27
595.75	1952.86
596.10	1946.88
596.45	1940.23
596.80	1934.29
597.15	1927.80
597.50	1920.88
597.85	1914.55
598.19	1908.11
598.54	1901.15
598.89	1894.41
599.24	1888.47
599.59	1881.90
599.94	1875.87
600.29	1869.59
600.64	1862.94
600.99	1855.77
601.34	1849.16
601.69	1842.27
602.04	1835.44
602.39	1828.01
602.74	1821.11
603.08	1814.57
603.43	1807.72
603.78	1800.49
604.13	1793.21
604.48	1786.00
604.83	1779.00
605.18	1772.04
605.53	1764.07
605.87	1756.10
606.22	1749.05
606.57	1741.27
606.92	1733.98
607.27	1726.77
607.62	1719.95
607.96	1712.69
608.31	1706.11
608.66	1698.50
609.01	1691.15
609.36	1683.63
609.70	1675.71
610.05	1667.80
610.40	1660.06
610.75	1651.81
611.10	1644.20
611.44	1635.88
611.79	1627.88
612.14	1619.42
612.49	1610.34
612.83	1602.01
613.18	1594.02
613.53	1585.86
613.88	1577.33
614.22	1569.07
614.57	1560.54
614.92	1552.37
615.27	1545.08
615.61	1536.66
615.96	1528.65
616.31	1520.87
616.65	1513.64
617.00	1506.20
617.35	1498.50
617.70	1490.23
618.04	1481.84
618.39	1473.59
618.74	1466.01
619.08	1457.81
619.43	1450.18
619.78	1443.30
620.12	1436.25
620.47	1428.66
620.82	1420.55
621.16	1413.04
621.51	1405.45
621.85	1397.83
622.20	1389.55
622.55	1381.08
622.89	1373.36
623.24	1365.67
623.59	1358.18
623.93	1350.55
624.28	1343.31
624.62	1335.90
624.97	1328.73
625.32	1321.90
625.66	1314.90
626.01	1307.71
626.35	1300.22
626.70	1292.50
627.04	1284.78
627.39	1276.93
627.73	1269.55
628.08	1262.73
628.43	1255.53
628.77	1248.20
629.12	1240.72
629.46	1233.51
629.81	1226.08
630.15	1218.69
630.50	1211.45
630.84	1203.41
631.19	1195.58
631.53	1188.04
631.88	1180.30
632.22	1172.71
632.57	1165.45
632.91	1157.94
633.26	1150.55
633.60	1143.14
633.95	1136.04
634.29	1129.00
634.64	1122.44
634.98	1115.14
635.32	1107.94
635.67	1101.39
636.01	1094.68
636.36	1087.82
636.70	1081.28
637.05	1074.74
637.39	1068.37
637.73	1061.77
638.08	1055.92
638.42	1049.94
638.77	1043.60
639.11	1037.17
639.45	1030.87
639.80	1024.30
640.14	1017.97
640.49	1011.48
640.83	1005.25
641.17	999.02
641.52	992.67
641.86	986.07
642.20	980.17
642.55	973.79
642.89	967.25
643.23	960.86
643.58	955.16
643.92	949.05
644.26	943.06
644.61	936.99
644.95	931.04
645.29	924.48
645.64	917.72
645.98	911.40
646.32	905.60
646.66	899.47
647.01	893.64
647.35	887.90
647.69	882.01
648.04	876.53
648.38	870.82
648.72	864.90
649.06	858.93
649.41	853.05
649.75	847.17
650.09	841.28
650.43	835.50
650.78	829.32
651.12	823.34
651.46	817.63
651.80	812.09
652.14	806.73
652.49	801.37
652.83	796.21
653.17	790.48
653.51	784.75
653.85	779.39
654.20	773.77
654.54	767.66
654.88	761.91
655.22	755.93
655.56	750.19
655.90	744.75
656.25	739.53
656.59	734.24
656.93	729.17
657.27	724.02
657.61	718.50
657.95	713.46
658.29	708.44
658.64	703.14
658.98	697.66
659.32	692.15
659.66	686.91
660.00	681.61
660.34	676.65
660.68	671.72
661.02	666.70
661.36	662.01
661.70	657.65
662.05	653.36
662.39	649.07
662.73	644.58
663.07	640.25
663.41	635.80
663.75	631.27
664.09	626.63
664.43	622.26
664.77	618.11
665.11	613.79
665.45	609.60
665.79	605.58
666.13	601.53
666.47	597.39
666.81	593.35
667.15	589.21
667.49	585.34
667.83	581.45
668.17	577.57
668.51	573.43
668.85	569.36
669.19	565.52
669.53	561.71
669.87	557.89
670.21	554.11
670.55	550.44
670.89	546.95
671.23	543.61
671.57	540.01
671.91	536.51
672.25	533.02
672.58	529.57
672.92	526.13
673.26	522.91
673.60	519.75
673.94	516.57
674.28	513.65
674.62	510.68
674.96	507.60
675.30	504.67
675.64	501.73
675.97	498.90
676.31	496.02
676.65	493.04
676.99	490.30
677.33	487.45
677.67	484.61
678.01	481.68
678.34	478.67
678.68	475.84
679.02	472.99
679.36	470.24
679.70	467.46
680.04	464.71
680.37	461.87
680.71	459.08
681.05	456.41
681.39	453.74
681.73	451.08
682.06	448.56
682.40	445.96
682.74	443.43
683.08	440.92
683.42	438.32
683.75	435.86
684.09	433.32
684.43	430.88
684.77	428.41
685.10	426.00
685.44	423.74
685.78	421.46
686.12	419.25
686.45	416.95
686.79	414.69
687.13	412.51
687.46	410.35
687.80	408.24
688.14	406.05
688.48	403.96
688.81	401.71
689.15	399.59
689.49	397.47
689.82	395.44
690.16	393.37
690.50	391.42
690.83	389.47
691.17	387.48
691.51	385.58
691.84	383.71
692.18	381.80
692.52	379.82
692.85	377.85
693.19	376.03
693.52	374.21
693.86	372.33
694.20	370.52
694.53	368.72
694.87	366.85
695.21	365.08
695.54	363.24
695.88	361.56
696.21	359.83
696.55	358.12
696.88	356.45
697.22	354.77
697.56	353.13
697.89	351.51
698.23	349.87
698.56	348.25
698.90	346.73
699.23	345.10
699.57	343.53
699.90	342.06
700.24	340.46
700.58	338.94
700.91	337.49
701.25	336.04
701.58	334.66
701.92	333.34
702.25	331.92
702.59	330.57
702.92	329.20
703.26	327.93
703.59	326.66
703.93	325.46
704.26	324.24
704.60	322.92
704.93	321.58
705.26	320.36
705.60	319.17
705.93	317.97
706.27	316.94
706.60	315.89
706.94	314.77
707.27	313.64
707.61	312.53
707.94	311.51
708.27	310.41
708.61	309.31
708.94	308.28
709.28	307.32
709.61	306.34
709.94	305.41
710.28	304.37
710.61	303.41
710.95	302.29
711.28	301.36
711.61	300.48
711.95	299.62
712.28	298.65
712.61	297.69
712.95	296.78
713.28	295.86
713.61	294.93
713.95	294.03
714.28	293.17
714.61	292.32
714.95	291.43
715.28	290.55
715.61	289.67
715.95	288.80
716.28	287.91
716.61	287.06
716.95	286.24
717.28	285.45
717.61	284.72
717.94	283.99
718.28	283.16
718.61	282.39
718.94	281.68
719.27	281.03
719.61	280.36
719.94	279.67
720.27	278.96
720.60	278.30
720.94	277.69
721.27	277.11
721.60	276.51
721.93	275.94
722.27	275.43
722.60	274.87
722.93	274.34
723.26	273.84
723.59	273.31
723.93	272.77
724.26	272.24
724.59	271.63
724.92	271.07
725.25	270.59
725.59	270.08
725.92	269.58
726.25	269.07
726.58	268.58
726.91	268.09
727.24	267.63
727.57	267.19
727.91	266.66
728.24	266.19
728.57	265.72
728.90	265.27
729.23	264.79
729.56	264.40
729.89	263.91
730.22	263.43
730.55	262.95
730.89	262.51
731.22	262.07
731.55	261.64
731.88	261.25
732.21	260.81
732.54	260.44
732.87	260.00
733.20	259.62
733.53	259.25
733.86	258.86
734.19	258.47
734.52	258.08
734.85	257.79
735.18	257.41
735.51	257.07
735.84	256.67
736.17	256.35
736.50	255.95
736.83	255.76
737.16	255.42
737.49	255.11
737.82	254.78
738.15	254.44
738.48	254.11
738.81	253.78
739.14	253.46
739.47	253.10
739.80	252.80
740.13	252.47
740.46	252.12
740.79	251.81
741.12	251.49
741.45	251.19
741.78	250.82
742.11	250.53
742.44	250.19
742.77	249.92
743.10	249.59
743.43	249.30
743.75	248.90
744.08	248.71
744.41	248.42
744.74	248.12
745.07	247.83
745.40	247.60
745.73	247.37
746.06	247.10
746.39	246.81
746.71	246.54
747.04	246.25
747.37	245.97
747.70	245.71
748.03	245.45
748.36	245.23
748.68	245.01
749.01	244.73
749.34	244.51
749.67	244.26
750.00	244.04
750.33	243.85
750.65	243.62
750.98	243.27
751.31	243.08
751.64	242.89
751.97	242.74
752.29	242.50
752.62	242.23
752.95	242.04
753.28	241.84
753.60	241.62
753.93	241.46
754.26	241.26
754.59	241.00
754.91	240.80
755.24	240.57
755.57	240.34
755.90	240.13
756.22	239.92
756.55	239.69
756.88	239.47
757.20	239.26
757.53	239.06
757.86	238.91
758.19	238.72
758.51	238.47
758.84	238.23
759.17	238.05
759.49	237.90
759.82	237.76
760.15	237.61
760.47	237.44
760.80	237.24
761.13	237.09
761.45	236.96
761.78	236.81
762.11	236.65
762.43	236.53
762.76	236.38
763.08	236.27
763.41	236.17
763.74	236.06
764.06	235.88
764.39	235.72
764.71	235.59
765.04	235.44
765.37	235.36
765.69	235.23
766.02	235.11
766.34	234.95
766.67	234.77
767.00	234.67
767.32	234.62
767.65	234.62
767.97	234.49
768.30	234.39
768.62	234.27
768.95	234.17
769.27	234.08
769.60	234.01
769.92	233.87
770.25	233.77
770.57	233.66
770.90	233.60
771.22	233.50
771.55	233.38
771.87	233.33
772.20	233.21
772.52	233.23
772.85	233.29
773.17	233.22
773.50	233.15
773.82	233.02
774.15	232.90
774.47	232.73
774.80	232.67
775.12	232.61
775.45	232.56
775.77	232.49
776.09	232.38
776.42	232.29
776.74	232.24
777.07	232.14
777.39	232.06
777.72	231.99
778.04	231.93
778.36	231.88
778.69	231.81
779.01	231.74
779.33	231.56
779.66	231.38
779.98	231.31
780.31	231.25
780.63	231.26
780.95	231.23
781.28	231.17
781.60	231.11
781.92	231.04
782.25	231.00
782.57	230.94
782.89	230.86
783.22	230.82
783.54	230.77
783.86	230.74
784.19	230.67
784.51	230.62
784.83	230.58
785.16	230.50
785.48	230.48
785.80	230.45
786.12	230.45
786.45	230.37
786.77	230.35
787.09	230.32
