SpectraSuite Data File
++++++++++++++++++++++++++++++++++++
Date: Fri Feb 01 15:41:48 EST 2013
User: group
Dark Spectrum Present: No
Reference Spectrum Present: No
Number of Sampled Component Spectra: 1
Spectrometers: USB2E7196
Integration Time (usec): 35000 (USB2E7196)
Spectra Averaged: 100 (USB2E7196)
Boxcar Smoothing: 10 (USB2E7196)
Correct for Electrical Dark: No (USB2E7196)
Strobe/Lamp Enabled: No (USB2E7196)
Correct for Detector Non-linearity: No (USB2E7196)
Correct for Stray Light: No (USB2E7196)
Number of Pixels in Processed Spectrum: 2048
>>>>>Begin Processed Spectral Data<<<<<
339.09	0.00
339.48	214.67
339.86	216.25
340.24	217.88
340.63	218.50
341.01	221.42
341.39	222.06
341.78	223.41
342.16	224.60
342.54	224.89
342.93	213.23
343.31	224.04
343.69	224.60
344.07	225.07
344.46	225.50
344.84	225.94
345.22	226.21
345.60	226.47
345.99	226.66
346.37	226.78
346.75	226.87
347.13	226.95
347.52	227.01
347.90	227.08
348.28	227.09
348.66	227.16
349.05	227.18
349.43	227.21
349.81	227.27
350.19	227.32
350.57	227.38
350.96	227.43
351.34	227.47
351.72	227.54
352.10	227.64
352.48	227.72
352.87	227.77
353.25	227.83
353.63	227.89
354.01	227.95
354.39	228.02
354.77	228.15
355.15	228.24
355.54	228.30
355.92	228.38
356.30	228.47
356.68	228.62
357.06	228.70
357.44	228.75
357.82	228.79
358.20	228.82
358.58	228.87
358.97	228.95
359.35	229.04
359.73	229.10
360.11	229.15
360.49	229.20
360.87	229.22
361.25	229.32
361.63	229.36
362.01	229.42
362.39	229.42
362.77	229.44
363.15	229.46
363.53	229.49
363.91	229.51
364.29	229.52
364.67	229.41
365.05	229.43
365.43	229.50
365.81	229.50
366.19	229.54
366.57	229.55
366.95	229.52
367.33	229.47
367.71	229.46
368.09	229.49
368.47	229.45
368.85	229.43
369.23	229.37
369.61	229.33
369.99	229.33
370.37	229.29
370.75	229.29
371.13	229.24
371.51	229.18
371.89	229.14
372.27	229.07
372.65	229.01
373.03	228.92
373.41	228.82
373.78	228.76
374.16	228.68
374.54	228.60
374.92	228.52
375.30	228.46
375.68	228.37
376.06	228.28
376.44	228.19
376.82	228.13
377.19	228.03
377.57	227.93
377.95	227.78
378.33	227.74
378.71	227.63
379.09	227.55
379.47	227.49
379.84	227.41
380.22	227.35
380.60	227.26
380.98	227.18
381.36	227.08
381.73	227.02
382.11	226.93
382.49	226.87
382.87	226.82
383.25	226.76
383.62	226.82
384.00	226.77
384.38	226.72
384.76	226.67
385.13	226.66
385.51	226.61
385.89	226.58
386.27	226.52
386.64	226.45
387.02	226.41
387.40	226.34
387.78	226.31
388.15	226.30
388.53	226.27
388.91	226.25
389.29	226.25
389.66	226.22
390.04	226.20
390.42	226.20
390.79	226.18
391.17	226.18
391.55	226.07
391.92	226.01
392.30	226.03
392.68	225.98
393.05	226.00
393.43	226.01
393.81	226.00
394.18	226.03
394.56	226.05
394.94	226.07
395.31	226.10
395.69	226.13
396.06	226.18
396.44	226.24
396.82	226.26
397.19	226.36
397.57	226.41
397.95	226.48
398.32	226.49
398.70	226.57
399.07	226.64
399.45	226.69
399.82	226.77
400.20	226.85
400.58	226.96
400.95	226.99
401.33	227.11
401.70	227.30
402.08	227.38
402.45	227.51
402.83	227.61
403.20	227.74
403.58	227.85
403.95	227.93
404.33	228.05
404.71	228.20
405.08	228.38
405.46	228.50
405.83	228.68
406.21	228.82
406.58	228.95
406.96	229.10
407.33	229.30
407.70	229.51
408.08	229.78
408.45	230.01
408.83	230.27
409.20	230.45
409.58	230.62
409.95	230.90
410.33	231.16
410.70	231.44
411.08	231.75
411.45	232.08
411.82	232.40
412.20	232.79
412.57	233.21
412.95	233.51
413.32	233.95
413.69	234.35
414.07	234.81
414.44	235.30
414.82	235.80
415.19	236.34
415.56	236.91
415.94	237.44
416.31	238.05
416.68	238.66
417.06	239.39
417.43	240.05
417.81	240.81
418.18	241.60
418.55	242.42
418.93	243.28
419.30	244.18
419.67	245.12
420.04	246.01
420.42	246.97
420.79	248.13
421.16	249.23
421.54	250.39
421.91	251.61
422.28	252.87
422.66	254.21
423.03	255.51
423.40	256.84
423.77	258.23
424.15	259.66
424.52	261.13
424.89	262.75
425.26	264.32
425.64	265.75
426.01	267.31
426.38	268.99
426.75	270.63
427.13	272.32
427.50	274.15
427.87	276.07
428.24	277.95
428.61	279.70
428.99	281.68
429.36	283.81
429.73	285.88
430.10	287.88
430.47	289.97
430.85	292.08
431.22	294.32
431.59	296.72
431.96	298.97
432.33	301.52
432.70	303.87
433.08	306.71
433.45	309.37
433.82	312.00
434.19	314.85
434.56	317.73
434.93	320.38
435.30	322.97
435.68	325.84
436.05	328.65
436.42	331.45
436.79	333.93
437.16	336.59
437.53	339.41
437.90	342.25
438.27	344.97
438.64	347.79
439.01	350.35
439.38	352.58
439.75	354.73
440.13	357.21
440.50	359.53
440.87	361.37
441.24	363.29
441.61	365.45
441.98	367.01
442.35	368.78
442.72	370.66
443.09	372.49
443.46	373.47
443.83	374.09
444.20	374.60
444.57	375.44
444.94	375.74
445.31	376.08
445.68	376.47
446.05	376.57
446.42	376.16
446.79	375.77
447.16	375.32
447.53	375.00
447.90	373.82
448.27	372.69
448.64	371.10
449.01	369.96
449.37	368.03
449.74	366.10
450.11	363.85
450.48	361.37
450.85	358.85
451.22	356.69
451.59	354.67
451.96	352.71
452.33	350.10
452.70	347.81
453.07	344.97
453.43	342.06
453.80	339.28
454.17	336.62
454.54	334.06
454.91	331.34
455.28	328.69
455.65	326.20
456.02	323.76
456.38	321.59
456.75	318.96
457.12	316.67
457.49	314.46
457.86	312.30
458.23	310.42
458.59	308.32
458.96	306.25
459.33	304.40
459.70	302.55
460.07	301.07
460.43	299.30
460.80	297.69
461.17	296.23
461.54	294.74
461.91	293.33
462.27	291.91
462.64	290.67
463.01	289.30
463.38	288.00
463.74	286.61
464.11	285.47
464.48	284.40
464.85	283.31
465.21	282.42
465.58	281.47
465.95	280.38
466.32	279.50
466.68	278.61
467.05	277.69
467.42	276.80
467.78	275.84
468.15	274.94
468.52	274.29
468.88	273.44
469.25	272.62
469.62	271.97
469.98	271.29
470.35	270.64
470.72	270.06
471.08	269.39
471.45	268.85
471.82	268.33
472.18	267.77
472.55	267.36
472.92	266.84
473.28	266.40
473.65	265.94
474.02	265.50
474.38	265.17
474.75	264.83
475.11	264.47
475.48	264.22
475.85	264.05
476.21	263.80
476.58	263.60
476.94	263.47
477.31	263.32
477.67	263.14
478.04	263.01
478.41	262.94
478.77	263.03
479.14	262.98
479.50	262.99
479.87	263.06
480.23	263.13
480.60	263.21
480.96	263.33
481.33	263.58
481.69	263.81
482.06	264.01
482.42	264.25
482.79	264.51
483.15	264.85
483.52	265.23
483.88	265.59
484.25	266.00
484.61	266.42
484.98	266.90
485.34	267.48
485.71	268.10
486.07	268.70
486.44	269.23
486.80	269.93
487.17	270.66
487.53	271.49
487.90	272.35
488.26	273.27
488.62	274.20
488.99	275.12
489.35	276.14
489.72	277.23
490.08	278.46
490.44	279.70
490.81	281.04
491.17	282.37
491.54	283.83
491.90	285.40
492.26	287.05
492.63	288.78
492.99	290.56
493.36	292.44
493.72	294.45
494.08	296.56
494.45	298.81
494.81	301.12
495.17	303.53
495.54	306.09
495.90	308.75
496.26	311.55
496.63	314.57
496.99	317.69
497.35	320.98
497.72	324.41
498.08	327.93
498.44	331.59
498.80	335.49
499.17	339.50
499.53	343.68
499.89	348.04
500.26	352.54
500.62	357.17
500.98	362.16
501.34	367.25
501.71	372.59
502.07	378.04
502.43	383.66
502.79	389.48
503.16	395.51
503.52	401.79
503.88	408.24
504.24	414.87
504.60	421.72
504.97	428.84
505.33	436.09
505.69	443.79
506.05	451.54
506.41	459.44
506.78	467.65
507.14	476.04
507.50	484.80
507.86	493.77
508.22	503.03
508.59	512.20
508.95	521.81
509.31	531.56
509.67	541.65
510.03	551.98
510.39	562.48
510.75	573.26
511.12	584.17
511.48	595.40
511.84	606.81
512.20	618.35
512.56	630.33
512.92	642.54
513.28	654.88
513.64	667.44
514.00	680.19
514.37	693.15
514.73	706.25
515.09	719.30
515.45	732.62
515.81	746.21
516.17	760.19
516.53	774.33
516.89	788.61
517.25	802.80
517.61	817.22
517.97	831.71
518.33	846.11
518.69	860.89
519.05	875.95
519.41	891.17
519.77	906.68
520.13	922.10
520.49	937.47
520.85	952.88
521.21	968.58
521.57	984.75
521.93	1000.48
522.29	1016.76
522.65	1032.87
523.01	1049.16
523.37	1065.19
523.73	1081.48
524.09	1097.52
524.45	1113.81
524.81	1130.37
525.17	1147.26
525.53	1164.13
525.89	1181.10
526.25	1197.88
526.61	1214.24
526.97	1231.05
527.33	1247.50
527.68	1264.24
528.04	1280.65
528.40	1297.37
528.76	1314.46
529.12	1331.13
529.48	1348.01
529.84	1364.20
530.20	1380.98
530.56	1398.01
530.91	1415.46
531.27	1432.13
531.63	1448.58
531.99	1465.17
532.35	1481.09
532.71	1496.91
533.07	1513.20
533.42	1529.02
533.78	1545.13
534.14	1561.46
534.50	1576.62
534.86	1592.59
535.21	1607.73
535.57	1623.86
535.93	1639.22
536.29	1653.97
536.65	1669.10
537.00	1684.05
537.36	1699.25
537.72	1713.79
538.08	1728.10
538.44	1741.88
538.79	1755.87
539.15	1769.65
539.51	1783.45
539.87	1797.98
540.22	1811.73
540.58	1825.56
540.94	1839.08
541.29	1852.03
541.65	1864.75
542.01	1877.98
542.37	1890.22
542.72	1902.59
543.08	1914.13
543.44	1926.52
543.79	1937.81
544.15	1948.79
544.51	1960.18
544.87	1971.27
545.22	1981.98
545.58	1992.23
545.94	2001.93
546.29	2011.76
546.65	2021.52
547.01	2030.60
547.36	2039.18
547.72	2047.80
548.07	2055.63
548.43	2063.84
548.79	2071.91
549.14	2079.37
549.50	2086.80
549.86	2094.53
550.21	2101.94
550.57	2109.16
550.92	2115.76
551.28	2122.77
551.64	2129.78
551.99	2136.32
552.35	2142.45
552.70	2148.72
553.06	2154.85
553.41	2161.27
553.77	2167.22
554.13	2173.36
554.48	2179.63
554.84	2185.05
555.19	2190.21
555.55	2195.28
555.90	2199.63
556.26	2204.27
556.61	2209.06
556.97	2213.20
557.32	2217.44
557.68	2221.53
558.03	2225.93
558.39	2229.60
558.74	2234.21
559.10	2238.06
559.45	2241.83
559.81	2246.12
560.16	2249.89
560.52	2252.98
560.87	2256.46
561.23	2259.10
561.58	2262.03
561.94	2264.57
562.29	2267.08
562.64	2269.73
563.00	2272.32
563.35	2275.90
563.71	2279.18
564.06	2282.45
564.42	2285.46
564.77	2287.97
565.12	2290.11
565.48	2291.89
565.83	2293.88
566.19	2295.14
566.54	2296.06
566.89	2297.15
567.25	2297.74
567.60	2299.05
567.96	2300.76
568.31	2301.36
568.66	2302.40
569.02	2303.01
569.37	2303.23
569.72	2303.87
570.08	2303.99
570.43	2303.99
570.78	2303.45
571.14	2301.87
571.49	2300.39
571.84	2300.00
572.20	2298.70
572.55	2297.66
572.90	2296.20
573.26	2294.82
573.61	2293.15
573.96	2291.27
574.31	2288.26
574.67	2285.27
575.02	2281.58
575.37	2278.11
575.72	2274.45
576.08	2271.21
576.43	2267.87
576.78	2264.15
577.13	2261.14
577.49	2258.19
577.84	2254.71
578.19	2250.77
578.54	2247.11
578.90	2242.86
579.25	2237.24
579.60	2232.37
579.95	2227.36
580.30	2222.28
580.66	2217.03
581.01	2212.04
581.36	2207.22
581.71	2203.06
582.06	2198.50
582.42	2194.03
582.77	2188.86
583.12	2184.08
583.47	2179.37
583.82	2174.28
584.17	2169.10
584.53	2163.60
584.88	2157.78
585.23	2151.91
585.58	2146.43
585.93	2141.10
586.28	2136.35
586.63	2131.30
586.98	2126.10
587.34	2121.42
587.69	2116.58
588.04	2111.22
588.39	2105.54
588.74	2098.97
589.09	2092.67
589.44	2085.87
589.79	2079.85
590.14	2074.27
590.49	2067.81
590.84	2061.25
591.19	2055.19
591.54	2048.73
591.89	2041.23
592.25	2034.37
592.60	2027.25
592.95	2019.55
593.30	2012.09
593.65	2004.47
594.00	1997.46
594.35	1990.25
594.70	1982.16
595.05	1974.83
595.40	1967.52
595.75	1959.96
596.10	1953.71
596.45	1947.01
596.80	1940.75
597.15	1934.01
597.50	1926.77
597.85	1920.32
598.19	1913.70
598.54	1906.53
598.89	1899.80
599.24	1893.96
599.59	1887.18
599.94	1881.00
600.29	1874.64
600.64	1867.93
600.99	1860.39
601.34	1853.49
601.69	1846.54
602.04	1839.58
602.39	1832.28
602.74	1825.40
603.08	1818.65
603.43	1811.87
603.78	1804.55
604.13	1797.35
604.48	1790.07
604.83	1783.18
605.18	1776.05
605.53	1768.02
605.87	1760.01
606.22	1752.83
606.57	1744.68
606.92	1737.42
607.27	1730.09
607.62	1723.28
607.96	1716.09
608.31	1709.46
608.66	1701.78
609.01	1694.05
609.36	1686.54
609.70	1678.56
610.05	1670.57
610.40	1662.80
610.75	1654.59
611.10	1646.91
611.44	1638.55
611.79	1630.54
612.14	1621.88
612.49	1612.88
612.83	1604.63
613.18	1596.60
613.53	1588.43
613.88	1580.12
614.22	1571.81
614.57	1563.31
614.92	1555.19
615.27	1547.50
615.61	1539.15
615.96	1531.17
616.31	1523.60
616.65	1516.17
617.00	1508.45
617.35	1500.75
617.70	1492.42
618.04	1483.78
618.39	1475.65
618.74	1468.03
619.08	1459.76
619.43	1452.20
619.78	1445.26
620.12	1438.02
620.47	1430.47
620.82	1422.37
621.16	1414.96
621.51	1407.42
621.85	1399.75
622.20	1391.29
622.55	1382.98
622.89	1375.20
623.24	1367.66
623.59	1360.40
623.93	1352.91
624.28	1345.68
624.62	1338.15
624.97	1331.02
625.32	1324.27
625.66	1317.12
626.01	1309.91
626.35	1302.46
626.70	1294.75
627.04	1286.88
627.39	1279.10
627.73	1271.65
628.08	1264.69
628.43	1257.39
628.77	1249.99
629.12	1242.43
629.46	1235.31
629.81	1228.01
630.15	1220.75
630.50	1213.25
630.84	1205.05
631.19	1197.13
631.53	1189.69
631.88	1182.13
632.22	1174.65
632.57	1167.38
632.91	1159.83
633.26	1152.35
633.60	1144.95
633.95	1137.76
634.29	1130.83
634.64	1124.14
634.98	1116.80
635.32	1109.60
635.67	1102.99
636.01	1096.34
636.36	1089.56
636.70	1083.01
637.05	1076.36
637.39	1069.89
637.73	1063.37
638.08	1057.52
638.42	1051.52
638.77	1045.06
639.11	1038.45
639.45	1031.99
639.80	1025.33
640.14	1018.95
640.49	1012.48
640.83	1006.25
641.17	1000.04
641.52	993.72
641.86	987.32
642.20	981.46
642.55	975.24
642.89	968.68
643.23	962.11
643.58	956.35
643.92	950.19
644.26	944.10
644.61	938.07
644.95	932.08
645.29	925.36
645.64	918.56
645.98	912.32
646.32	906.56
646.66	900.56
647.01	894.71
647.35	889.03
647.69	883.21
648.04	877.62
648.38	871.76
648.72	865.83
649.06	859.68
649.41	853.80
649.75	847.83
650.09	841.94
650.43	836.20
650.78	829.98
651.12	823.94
651.46	818.25
651.80	812.56
652.14	807.13
652.49	801.86
652.83	796.73
653.17	790.95
653.51	785.18
653.85	779.80
654.20	774.20
654.54	768.21
654.88	762.52
655.22	756.71
655.56	751.12
655.90	745.65
656.25	740.52
656.59	735.18
656.93	730.02
657.27	724.92
657.61	719.51
657.95	714.55
658.29	709.57
658.64	704.36
658.98	699.07
659.32	693.64
659.66	688.32
660.00	682.97
660.34	678.08
660.68	673.17
661.02	668.11
661.36	663.43
661.70	658.85
662.05	654.45
662.39	650.13
662.73	645.65
663.07	641.25
663.41	636.72
663.75	632.25
664.09	627.74
664.43	623.35
664.77	619.23
665.11	614.87
665.45	610.75
665.79	606.64
666.13	602.50
666.47	598.37
666.81	594.26
667.15	590.14
667.49	586.22
667.83	582.45
668.17	578.60
668.51	574.50
668.85	570.52
669.19	566.69
669.53	562.83
669.87	559.00
670.21	555.31
670.55	551.69
670.89	548.23
671.23	544.83
671.57	541.32
671.91	537.77
672.25	534.30
672.58	530.76
672.92	527.39
673.26	524.27
673.60	521.19
673.94	518.10
674.28	515.25
674.62	512.31
674.96	509.14
675.30	506.14
675.64	503.26
675.97	500.46
676.31	497.60
676.65	494.65
676.99	491.91
677.33	489.00
677.67	486.21
678.01	483.17
678.34	480.16
678.68	477.27
679.02	474.43
679.36	471.66
679.70	468.96
680.04	466.14
680.37	463.23
680.71	460.43
681.05	457.77
681.39	455.06
681.73	452.35
682.06	449.82
682.40	447.26
682.74	444.71
683.08	442.18
683.42	439.60
683.75	437.10
684.09	434.57
684.43	432.14
684.77	429.64
685.10	427.28
685.44	424.99
685.78	422.69
686.12	420.46
686.45	418.18
686.79	415.85
687.13	413.63
687.46	411.48
687.80	409.33
688.14	407.11
688.48	405.02
688.81	402.84
689.15	400.75
689.49	398.65
689.82	396.57
690.16	394.51
690.50	392.56
690.83	390.65
691.17	388.63
691.51	386.72
691.84	384.91
692.18	383.00
692.52	381.02
692.85	379.12
693.19	377.25
693.52	375.49
693.86	373.71
694.20	371.96
694.53	370.11
694.87	368.25
695.21	366.55
695.54	364.76
695.88	363.03
696.21	361.26
696.55	359.57
696.88	357.85
697.22	356.23
697.56	354.59
697.89	352.96
698.23	351.37
698.56	349.74
698.90	348.15
699.23	346.46
699.57	344.97
699.90	343.45
700.24	341.86
700.58	340.28
700.91	338.79
701.25	337.37
701.58	336.07
701.92	334.75
702.25	333.37
702.59	331.99
702.92	330.67
703.26	329.37
703.59	328.06
703.93	326.92
704.26	325.65
704.60	324.35
704.93	323.06
705.26	321.78
705.60	320.65
705.93	319.48
706.27	318.46
706.60	317.41
706.94	316.31
707.27	315.19
707.61	314.10
707.94	313.07
708.27	311.95
708.61	310.87
708.94	309.83
709.28	308.83
709.61	307.88
709.94	306.94
710.28	305.97
710.61	305.03
710.95	303.95
711.28	303.07
711.61	302.12
711.95	301.19
712.28	300.26
712.61	299.23
712.95	298.32
713.28	297.44
713.61	296.50
713.95	295.59
714.28	294.75
714.61	293.92
714.95	293.07
715.28	292.22
715.61	291.28
715.95	290.39
716.28	289.54
716.61	288.71
716.95	287.85
717.28	287.07
717.61	286.26
717.94	285.50
718.28	284.64
718.61	283.89
718.94	283.18
719.27	282.56
719.61	281.93
719.94	281.24
720.27	280.54
720.60	279.87
720.94	279.24
721.27	278.66
721.60	278.08
721.93	277.49
722.27	276.93
722.60	276.39
722.93	275.86
723.26	275.31
723.59	274.70
723.93	274.18
724.26	273.62
724.59	273.08
724.92	272.57
725.25	272.05
725.59	271.54
725.92	271.03
726.25	270.48
726.58	270.00
726.91	269.51
727.24	269.00
727.57	268.53
727.91	268.03
728.24	267.50
728.57	267.00
728.90	266.54
729.23	266.06
729.56	265.65
729.89	265.19
730.22	264.71
730.55	264.26
730.89	263.82
731.22	263.38
731.55	262.96
731.88	262.52
732.21	262.11
732.54	261.66
732.87	261.24
733.20	260.88
733.53	260.50
733.86	260.14
734.19	259.74
734.52	259.33
734.85	259.03
735.18	258.66
735.51	258.31
735.84	257.92
736.17	257.58
736.50	257.20
736.83	256.96
737.16	256.66
737.49	256.34
737.82	256.00
738.15	255.68
738.48	255.34
738.81	255.06
739.14	254.77
739.47	254.51
739.80	254.21
740.13	253.89
740.46	253.57
740.79	253.22
741.12	252.93
741.45	252.66
741.78	252.32
742.11	252.02
742.44	251.64
742.77	251.38
743.10	251.10
743.43	250.81
743.75	250.45
744.08	250.27
744.41	249.99
744.74	249.73
745.07	249.46
745.40	249.21
745.73	248.95
746.06	248.69
746.39	248.42
746.71	248.16
747.04	247.88
747.37	247.58
747.70	247.36
748.03	247.12
748.36	246.89
748.68	246.64
749.01	246.43
749.34	246.26
749.67	246.05
750.00	245.83
750.33	245.64
750.65	245.41
750.98	245.06
751.31	244.82
751.64	244.58
751.97	244.42
752.29	244.20
752.62	243.96
752.95	243.72
753.28	243.52
753.60	243.29
753.93	243.12
754.26	242.95
754.59	242.73
754.91	242.54
755.24	242.33
755.57	242.09
755.90	241.88
756.22	241.68
756.55	241.48
756.88	241.25
757.20	241.02
757.53	240.78
757.86	240.61
758.19	240.45
758.51	240.28
758.84	240.05
759.17	239.86
759.49	239.67
759.82	239.56
760.15	239.39
760.47	239.22
760.80	239.03
761.13	238.87
761.45	238.74
761.78	238.58
762.11	238.44
762.43	238.34
762.76	238.16
763.08	238.05
763.41	237.87
763.74	237.74
764.06	237.58
764.39	237.43
764.71	237.26
765.04	237.12
765.37	236.98
765.69	236.86
766.02	236.74
766.34	236.64
766.67	236.48
767.00	236.37
767.32	236.31
767.65	236.24
767.97	236.12
768.30	235.95
768.62	235.82
768.95	235.66
769.27	235.53
769.60	235.45
769.92	235.29
770.25	235.19
770.57	235.06
770.90	235.01
771.22	234.93
771.55	234.87
771.87	234.79
772.20	234.68
772.52	234.67
772.85	234.68
773.17	234.58
773.50	234.50
773.82	234.39
774.15	234.28
774.47	234.15
774.80	234.08
775.12	234.03
775.45	233.95
775.77	233.92
776.09	233.84
776.42	233.77
776.74	233.77
777.07	233.67
777.39	233.65
777.72	233.53
778.04	233.50
778.36	233.42
778.69	233.37
779.01	233.31
779.33	233.17
779.66	233.00
779.98	232.93
780.31	232.86
780.63	232.87
780.95	232.80
781.28	232.77
781.60	232.70
781.92	232.65
782.25	232.62
782.57	232.56
782.89	232.50
783.22	232.40
783.54	232.31
783.86	232.30
784.19	232.24
784.51	232.24
784.83	232.17
785.16	232.14
785.48	232.11
785.80	232.11
786.12	232.08
786.45	232.03
786.77	232.03
787.09	231.98
