SpectraSuite Data File
++++++++++++++++++++++++++++++++++++
Date: Fri Feb 01 14:57:09 EST 2013
User: group
Dark Spectrum Present: No
Reference Spectrum Present: No
Number of Sampled Component Spectra: 1
Spectrometers: USB2E7196
Integration Time (usec): 35000 (USB2E7196)
Spectra Averaged: 100 (USB2E7196)
Boxcar Smoothing: 10 (USB2E7196)
Correct for Electrical Dark: No (USB2E7196)
Strobe/Lamp Enabled: No (USB2E7196)
Correct for Detector Non-linearity: No (USB2E7196)
Correct for Stray Light: No (USB2E7196)
Number of Pixels in Processed Spectrum: 2048
>>>>>Begin Processed Spectral Data<<<<<
339.09	0.00
339.48	215.63
339.86	216.85
340.24	218.27
340.63	219.38
341.01	222.32
341.39	222.18
341.78	223.52
342.16	224.66
342.54	225.23
342.93	213.56
343.31	224.35
343.69	224.86
344.07	225.31
344.46	225.73
344.84	226.12
345.22	226.34
345.60	226.61
345.99	226.79
346.37	226.92
346.75	227.00
347.13	227.06
347.52	227.14
347.90	227.23
348.28	227.27
348.66	227.31
349.05	227.29
349.43	227.31
349.81	227.37
350.19	227.43
350.57	227.47
350.96	227.53
351.34	227.64
351.72	227.70
352.10	227.78
352.48	227.82
352.87	227.87
353.25	227.93
353.63	227.98
354.01	228.05
354.39	228.13
354.77	228.20
355.15	228.29
355.54	228.34
355.92	228.37
356.30	228.47
356.68	228.61
357.06	228.69
357.44	228.77
357.82	228.84
358.20	228.92
358.58	228.98
358.97	229.01
359.35	229.09
359.73	229.18
360.11	229.28
360.49	229.39
360.87	229.42
361.25	229.49
361.63	229.55
362.01	229.60
362.39	229.64
362.77	229.71
363.15	229.71
363.53	229.73
363.91	229.77
364.29	229.77
364.67	229.68
365.05	229.71
365.43	229.68
365.81	229.69
366.19	229.71
366.57	229.76
366.95	229.75
367.33	229.72
367.71	229.72
368.09	229.67
368.47	229.61
368.85	229.55
369.23	229.56
369.61	229.50
369.99	229.45
370.37	229.46
370.75	229.45
371.13	229.36
371.51	229.30
371.89	229.26
372.27	229.22
372.65	229.18
373.03	229.09
373.41	229.07
373.78	228.99
374.16	228.87
374.54	228.77
374.92	228.69
375.30	228.58
375.68	228.49
376.06	228.45
376.44	228.39
376.82	228.36
377.19	228.27
377.57	228.22
377.95	228.13
378.33	227.98
378.71	227.86
379.09	227.85
379.47	227.77
379.84	227.68
380.22	227.58
380.60	227.52
380.98	227.45
381.36	227.34
381.73	227.25
382.11	227.23
382.49	227.14
382.87	227.11
383.25	227.09
383.62	227.15
384.00	227.07
384.38	226.99
384.76	226.97
385.13	226.90
385.51	226.80
385.89	226.73
386.27	226.72
386.64	226.68
387.02	226.58
387.40	226.54
387.78	226.52
388.15	226.48
388.53	226.41
388.91	226.41
389.29	226.38
389.66	226.38
390.04	226.35
390.42	226.39
390.79	226.35
391.17	226.29
391.55	226.16
391.92	226.17
392.30	226.18
392.68	226.16
393.05	226.18
393.43	226.19
393.81	226.22
394.18	226.20
394.56	226.20
394.94	226.28
395.31	226.26
395.69	226.34
396.06	226.40
396.44	226.45
396.82	226.50
397.19	226.61
397.57	226.65
397.95	226.72
398.32	226.75
398.70	226.81
399.07	226.91
399.45	226.99
399.82	227.07
400.20	227.12
400.58	227.19
400.95	227.26
401.33	227.40
401.70	227.59
402.08	227.72
402.45	227.84
402.83	227.97
403.20	228.14
403.58	228.23
403.95	228.37
404.33	228.54
404.71	228.65
405.08	228.86
405.46	229.01
405.83	229.18
406.21	229.31
406.58	229.49
406.96	229.67
407.33	229.83
407.70	229.99
408.08	230.33
408.45	230.52
408.83	230.76
409.20	230.97
409.58	231.15
409.95	231.46
410.33	231.74
410.70	231.97
411.08	232.27
411.45	232.58
411.82	232.90
412.20	233.26
412.57	233.70
412.95	234.01
413.32	234.41
413.69	234.81
414.07	235.29
414.44	235.79
414.82	236.25
415.19	236.83
415.56	237.42
415.94	237.95
416.31	238.64
416.68	239.31
417.06	240.03
417.43	240.71
417.81	241.42
418.18	242.21
418.55	243.06
418.93	243.94
419.30	244.82
419.67	245.76
420.04	246.72
420.42	247.69
420.79	248.88
421.16	250.04
421.54	251.22
421.91	252.39
422.28	253.62
422.66	254.96
423.03	256.24
423.40	257.56
423.77	258.96
424.15	260.34
424.52	261.80
424.89	263.42
425.26	264.93
425.64	266.39
426.01	267.93
426.38	269.58
426.75	271.25
427.13	272.95
427.50	274.74
427.87	276.60
428.24	278.43
428.61	280.14
428.99	282.07
429.36	284.18
429.73	286.28
430.10	288.27
430.47	290.32
430.85	292.42
431.22	294.65
431.59	297.06
431.96	299.32
432.33	301.79
432.70	304.16
433.08	307.01
433.45	309.64
433.82	312.28
434.19	315.17
434.56	317.97
434.93	320.65
435.30	323.29
435.68	326.18
436.05	329.04
436.42	331.86
436.79	334.38
437.16	337.10
437.53	339.92
437.90	342.76
438.27	345.48
438.64	348.32
439.01	350.92
439.38	353.13
439.75	355.28
440.13	357.79
440.50	360.09
440.87	361.94
441.24	363.85
441.61	365.99
441.98	367.50
442.35	369.33
442.72	371.15
443.09	372.94
443.46	373.91
443.83	374.50
444.20	375.02
444.57	375.87
444.94	376.12
445.31	376.42
445.68	376.78
446.05	376.91
446.42	376.56
446.79	376.20
447.16	375.76
447.53	375.51
447.90	374.37
448.27	373.23
448.64	371.65
449.01	370.55
449.37	368.61
449.74	366.65
450.11	364.41
450.48	361.95
450.85	359.44
451.22	357.31
451.59	355.24
451.96	353.29
452.33	350.67
452.70	348.34
453.07	345.54
453.43	342.65
453.80	339.87
454.17	337.23
454.54	334.65
454.91	331.95
455.28	329.19
455.65	326.69
456.02	324.25
456.38	322.06
456.75	319.40
457.12	317.16
457.49	314.99
457.86	312.80
458.23	310.95
458.59	308.93
458.96	306.85
459.33	305.05
459.70	303.19
460.07	301.66
460.43	299.94
460.80	298.34
461.17	296.90
461.54	295.38
461.91	293.92
462.27	292.49
462.64	291.19
463.01	289.88
463.38	288.57
463.74	287.22
464.11	286.12
464.48	285.10
464.85	283.96
465.21	283.04
465.58	282.14
465.95	281.02
466.32	280.07
466.68	279.12
467.05	278.21
467.42	277.30
467.78	276.39
468.15	275.48
468.52	274.80
468.88	273.94
469.25	273.15
469.62	272.51
469.98	271.82
470.35	271.19
470.72	270.57
471.08	269.90
471.45	269.30
471.82	268.70
472.18	268.11
472.55	267.68
472.92	267.16
473.28	266.71
473.65	266.28
474.02	265.83
474.38	265.47
474.75	265.10
475.11	264.73
475.48	264.44
475.85	264.22
476.21	263.96
476.58	263.72
476.94	263.58
477.31	263.38
477.67	263.22
478.04	263.09
478.41	262.98
478.77	262.98
479.14	262.92
479.50	262.92
479.87	262.98
480.23	263.05
480.60	263.11
480.96	263.15
481.33	263.37
481.69	263.55
482.06	263.75
482.42	263.95
482.79	264.21
483.15	264.52
483.52	264.87
483.88	265.23
484.25	265.64
484.61	266.04
484.98	266.50
485.34	267.05
485.71	267.63
486.07	268.23
486.44	268.80
486.80	269.51
487.17	270.23
487.53	271.01
487.90	271.82
488.26	272.77
488.62	273.75
488.99	274.65
489.35	275.68
489.72	276.78
490.08	278.00
490.44	279.21
490.81	280.51
491.17	281.83
491.54	283.30
491.90	284.82
492.26	286.49
492.63	288.19
492.99	289.92
493.36	291.81
493.72	293.83
494.08	295.94
494.45	298.18
494.81	300.58
495.17	303.05
495.54	305.63
495.90	308.24
496.26	311.00
496.63	313.96
496.99	317.06
497.35	320.31
497.72	323.66
498.08	327.19
498.44	330.86
498.80	334.76
499.17	338.76
499.53	342.94
499.89	347.30
500.26	351.79
500.62	356.44
500.98	361.38
501.34	366.43
501.71	371.72
502.07	377.12
502.43	382.67
502.79	388.39
503.16	394.46
503.52	400.72
503.88	407.14
504.24	413.80
504.60	420.67
504.97	427.84
505.33	435.17
505.69	442.89
506.05	450.61
506.41	458.55
506.78	466.66
507.14	475.09
507.50	483.76
507.86	492.76
508.22	501.99
508.59	511.16
508.95	520.73
509.31	530.50
509.67	540.54
510.03	550.85
510.39	561.47
510.75	572.22
511.12	583.16
511.48	594.48
511.84	605.86
512.20	617.40
512.56	629.33
512.92	641.49
513.28	653.74
513.64	666.24
514.00	678.89
514.37	691.84
514.73	704.81
515.09	717.91
515.45	731.20
515.81	744.79
516.17	758.82
516.53	773.02
516.89	787.16
517.25	801.41
517.61	815.88
517.97	830.29
518.33	844.71
518.69	859.47
519.05	874.39
519.41	889.62
519.77	905.11
520.13	920.56
520.49	935.95
520.85	951.46
521.21	967.19
521.57	983.53
521.93	999.46
522.29	1015.94
522.65	1032.21
523.01	1048.47
523.37	1064.56
523.73	1080.83
524.09	1096.83
524.45	1113.29
524.81	1129.97
525.17	1146.79
525.53	1163.71
525.89	1180.65
526.25	1197.53
526.61	1214.01
526.97	1230.89
527.33	1247.50
527.68	1264.20
528.04	1280.76
528.40	1297.46
528.76	1314.65
529.12	1331.28
529.48	1348.21
529.84	1364.39
530.20	1381.17
530.56	1398.30
530.91	1415.71
531.27	1432.43
531.63	1449.04
531.99	1465.66
532.35	1481.73
532.71	1497.67
533.07	1514.07
533.42	1530.07
533.78	1546.26
534.14	1562.72
534.50	1578.00
534.86	1593.84
535.21	1609.02
535.57	1625.16
535.93	1640.66
536.29	1655.52
536.65	1670.79
537.00	1685.51
537.36	1700.79
537.72	1715.39
538.08	1729.83
538.44	1743.79
538.79	1757.88
539.15	1771.77
539.51	1785.78
539.87	1800.20
540.22	1814.02
540.58	1827.98
540.94	1841.47
541.29	1854.51
541.65	1867.31
542.01	1880.60
542.37	1893.08
542.72	1905.58
543.08	1917.23
543.44	1929.72
543.79	1940.94
544.15	1951.88
544.51	1963.58
544.87	1974.68
545.22	1985.38
545.58	1995.63
545.94	2005.47
546.29	2015.34
546.65	2025.18
547.01	2034.24
547.36	2043.00
547.72	2051.47
548.07	2059.15
548.43	2067.30
548.79	2075.29
549.14	2082.70
549.50	2090.20
549.86	2097.99
550.21	2105.42
550.57	2112.77
550.92	2119.45
551.28	2126.61
551.64	2133.61
551.99	2140.24
552.35	2146.29
552.70	2152.47
553.06	2158.54
553.41	2164.71
553.77	2170.65
554.13	2176.68
554.48	2182.88
554.84	2188.13
555.19	2193.56
555.55	2198.75
555.90	2203.18
556.26	2207.95
556.61	2212.68
556.97	2216.80
557.32	2220.86
557.68	2225.01
558.03	2229.20
558.39	2232.80
558.74	2237.42
559.10	2241.21
559.45	2244.64
559.81	2249.00
560.16	2252.80
560.52	2255.85
560.87	2259.19
561.23	2261.86
561.58	2264.68
561.94	2267.05
562.29	2269.50
562.64	2272.00
563.00	2274.60
563.35	2278.05
563.71	2281.13
564.06	2284.15
564.42	2286.90
564.77	2289.32
565.12	2291.20
565.48	2292.96
565.83	2294.65
566.19	2295.60
566.54	2296.56
566.89	2297.64
567.25	2297.90
567.60	2299.14
567.96	2300.60
568.31	2301.45
568.66	2302.28
569.02	2302.70
569.37	2302.77
569.72	2303.43
570.08	2303.28
570.43	2303.06
570.78	2302.05
571.14	2300.34
571.49	2298.90
571.84	2298.53
572.20	2297.10
572.55	2295.96
572.90	2294.32
573.26	2292.75
573.61	2291.01
573.96	2288.80
574.31	2285.51
574.67	2282.37
575.02	2278.50
575.37	2275.02
575.72	2270.84
576.08	2267.47
576.43	2264.10
576.78	2260.37
577.13	2257.09
577.49	2254.05
577.84	2250.54
578.19	2246.86
578.54	2242.94
578.90	2238.53
579.25	2232.74
579.60	2227.56
579.95	2222.43
580.30	2217.21
580.66	2211.93
581.01	2206.89
581.36	2201.93
581.71	2197.72
582.06	2193.23
582.42	2188.65
582.77	2183.28
583.12	2178.58
583.47	2173.65
583.82	2168.37
584.17	2162.96
584.53	2157.34
584.88	2151.41
585.23	2145.40
585.58	2139.77
585.93	2134.39
586.28	2129.64
586.63	2124.43
586.98	2119.35
587.34	2114.49
587.69	2109.47
588.04	2104.08
588.39	2098.23
588.74	2091.82
589.09	2085.49
589.44	2078.47
589.79	2072.31
590.14	2066.59
590.49	2060.03
590.84	2053.47
591.19	2047.36
591.54	2040.81
591.89	2033.13
592.25	2026.16
592.60	2018.86
592.95	2011.09
593.30	2003.52
593.65	1995.76
594.00	1988.65
594.35	1981.33
594.70	1973.34
595.05	1966.06
595.40	1958.72
595.75	1951.20
596.10	1944.70
596.45	1937.76
596.80	1931.62
597.15	1924.80
597.50	1917.53
597.85	1911.07
598.19	1904.44
598.54	1897.31
598.89	1890.69
599.24	1884.85
599.59	1878.08
599.94	1871.70
600.29	1865.43
600.64	1858.83
600.99	1851.18
601.34	1844.25
601.69	1837.30
602.04	1830.29
602.39	1822.81
602.74	1815.87
603.08	1809.05
603.43	1802.45
603.78	1795.28
604.13	1788.05
604.48	1780.74
604.83	1773.98
605.18	1766.82
605.53	1758.72
605.87	1750.65
606.22	1743.38
606.57	1735.48
606.92	1728.32
607.27	1721.19
607.62	1714.31
607.96	1706.96
608.31	1700.43
608.66	1692.79
609.01	1685.16
609.36	1677.58
609.70	1669.69
610.05	1661.67
610.40	1653.99
610.75	1645.54
611.10	1637.98
611.44	1629.72
611.79	1621.86
612.14	1613.16
612.49	1604.14
612.83	1595.82
613.18	1587.77
613.53	1579.63
613.88	1571.10
614.22	1562.84
614.57	1554.30
614.92	1546.22
615.27	1538.68
615.61	1530.38
615.96	1522.42
616.31	1514.74
616.65	1507.48
617.00	1500.01
617.35	1492.29
617.70	1484.04
618.04	1475.54
618.39	1467.33
618.74	1459.62
619.08	1451.32
619.43	1443.77
619.78	1436.94
620.12	1429.79
620.47	1422.27
620.82	1414.25
621.16	1406.90
621.51	1399.29
621.85	1391.73
622.20	1383.39
622.55	1375.22
622.89	1367.52
623.24	1360.03
623.59	1352.85
623.93	1345.30
624.28	1337.90
624.62	1330.51
624.97	1323.34
625.32	1316.71
625.66	1309.68
626.01	1302.55
626.35	1295.05
626.70	1287.48
627.04	1279.80
627.39	1272.21
627.73	1264.88
628.08	1258.03
628.43	1250.71
628.77	1243.38
629.12	1235.83
629.46	1228.60
629.81	1221.23
630.15	1214.02
630.50	1206.68
630.84	1198.55
631.19	1190.84
631.53	1183.49
631.88	1175.96
632.22	1168.46
632.57	1161.29
632.91	1153.84
633.26	1146.40
633.60	1139.25
633.95	1132.20
634.29	1125.25
634.64	1118.57
634.98	1111.26
635.32	1104.15
635.67	1097.77
636.01	1091.19
636.36	1084.42
636.70	1078.05
637.05	1071.50
637.39	1065.12
637.73	1058.58
638.08	1052.70
638.42	1046.60
638.77	1040.14
639.11	1033.61
639.45	1027.19
639.80	1020.45
640.14	1014.04
640.49	1007.60
640.83	1001.34
641.17	995.11
641.52	988.80
641.86	982.44
642.20	976.72
642.55	970.48
642.89	963.90
643.23	957.45
643.58	951.70
643.92	945.44
644.26	939.34
644.61	933.36
644.95	927.42
645.29	920.79
645.64	914.11
645.98	907.86
646.32	902.16
646.66	896.25
647.01	890.54
647.35	884.87
647.69	879.10
648.04	873.57
648.38	867.76
648.72	861.72
649.06	855.60
649.41	849.68
649.75	843.63
650.09	837.75
650.43	831.94
650.78	825.93
651.12	820.02
651.46	814.35
651.80	808.53
652.14	803.09
652.49	797.80
652.83	792.65
653.17	786.98
653.51	781.13
653.85	775.71
654.20	770.06
654.54	764.06
654.88	758.41
655.22	752.57
655.56	746.94
655.90	741.55
656.25	736.32
656.59	730.95
656.93	725.98
657.27	720.84
657.61	715.45
657.95	710.27
658.29	705.29
658.64	700.07
658.98	694.82
659.32	689.42
659.66	684.29
660.00	679.06
660.34	674.23
660.68	669.45
661.02	664.43
661.36	659.77
661.70	655.30
662.05	650.93
662.39	646.59
662.73	642.19
663.07	637.85
663.41	633.46
663.75	629.04
664.09	624.47
664.43	620.12
664.77	616.07
665.11	611.88
665.45	607.71
665.79	603.68
666.13	599.57
666.47	595.54
666.81	591.40
667.15	587.25
667.49	583.31
667.83	579.53
668.17	575.63
668.51	571.58
668.85	567.59
669.19	563.82
669.53	560.09
669.87	556.24
670.21	552.60
670.55	549.02
670.89	545.65
671.23	542.28
671.57	538.80
671.91	535.31
672.25	531.92
672.58	528.43
672.92	525.08
673.26	521.99
673.60	518.80
673.94	515.73
674.28	512.87
674.62	509.96
674.96	506.88
675.30	503.97
675.64	501.11
675.97	498.43
676.31	495.56
676.65	492.60
676.99	489.87
677.33	487.01
677.67	484.19
678.01	481.14
678.34	478.13
678.68	475.31
679.02	472.50
679.36	469.74
679.70	467.08
680.04	464.29
680.37	461.49
680.71	458.76
681.05	456.16
681.39	453.46
681.73	450.86
682.06	448.30
682.40	445.82
682.74	443.35
683.08	440.78
683.42	438.22
683.75	435.81
684.09	433.33
684.43	430.90
684.77	428.48
685.10	426.18
685.44	423.95
685.78	421.66
686.12	419.46
686.45	417.22
686.79	414.98
687.13	412.86
687.46	410.72
687.80	408.62
688.14	406.44
688.48	404.40
688.81	402.15
689.15	400.10
689.49	397.98
689.82	395.87
690.16	393.80
690.50	391.87
690.83	389.93
691.17	388.01
691.51	386.13
691.84	384.30
692.18	382.37
692.52	380.39
692.85	378.47
693.19	376.60
693.52	374.81
693.86	372.98
694.20	371.25
694.53	369.42
694.87	367.61
695.21	365.85
695.54	364.09
695.88	362.40
696.21	360.65
696.55	359.00
696.88	357.33
697.22	355.76
697.56	354.17
697.89	352.50
698.23	350.89
698.56	349.26
698.90	347.68
699.23	346.06
699.57	344.50
699.90	342.93
700.24	341.36
700.58	339.76
700.91	338.27
701.25	336.78
701.58	335.43
701.92	334.07
702.25	332.67
702.59	331.27
702.92	329.95
703.26	328.66
703.59	327.41
703.93	326.23
704.26	324.98
704.60	323.66
704.93	322.36
705.26	321.11
705.60	319.96
705.93	318.79
706.27	317.74
706.60	316.72
706.94	315.70
707.27	314.62
707.61	313.62
707.94	312.58
708.27	311.52
708.61	310.43
708.94	309.42
709.28	308.45
709.61	307.51
709.94	306.55
710.28	305.50
710.61	304.52
710.95	303.48
711.28	302.52
711.61	301.61
711.95	300.74
712.28	299.78
712.61	298.79
712.95	297.86
713.28	297.02
713.61	296.12
713.95	295.21
714.28	294.37
714.61	293.53
714.95	292.70
715.28	291.81
715.61	290.96
715.95	290.09
716.28	289.26
716.61	288.43
716.95	287.58
717.28	286.85
717.61	286.07
717.94	285.32
718.28	284.54
718.61	283.83
718.94	283.13
719.27	282.50
719.61	281.87
719.94	281.27
720.27	280.56
720.60	279.91
720.94	279.30
721.27	278.74
721.60	278.15
721.93	277.59
722.27	277.07
722.60	276.51
722.93	275.98
723.26	275.44
723.59	274.92
723.93	274.45
724.26	273.92
724.59	273.40
724.92	272.90
725.25	272.40
725.59	271.88
725.92	271.41
726.25	270.90
726.58	270.44
726.91	269.94
727.24	269.47
727.57	269.04
727.91	268.56
728.24	268.08
728.57	267.58
728.90	267.14
729.23	266.65
729.56	266.22
729.89	265.76
730.22	265.28
730.55	264.80
730.89	264.33
731.22	263.89
731.55	263.44
731.88	263.03
732.21	262.60
732.54	262.14
732.87	261.72
733.20	261.31
733.53	260.89
733.86	260.53
734.19	260.15
734.52	259.77
734.85	259.46
735.18	259.05
735.51	258.68
735.84	258.27
736.17	257.94
736.50	257.54
736.83	257.28
737.16	256.95
737.49	256.65
737.82	256.30
738.15	255.95
738.48	255.61
738.81	255.26
739.14	254.93
739.47	254.62
739.80	254.29
740.13	253.99
740.46	253.66
740.79	253.29
741.12	252.97
741.45	252.65
741.78	252.27
742.11	251.96
742.44	251.63
742.77	251.37
743.10	251.07
743.43	250.77
743.75	250.37
744.08	250.19
744.41	249.89
744.74	249.63
745.07	249.33
745.40	249.06
745.73	248.86
746.06	248.57
746.39	248.29
746.71	248.04
747.04	247.77
747.37	247.48
747.70	247.24
748.03	246.95
748.36	246.70
748.68	246.49
749.01	246.24
749.34	245.99
749.67	245.74
750.00	245.51
750.33	245.35
750.65	245.17
750.98	244.87
751.31	244.65
751.64	244.44
751.97	244.33
752.29	244.14
752.62	243.84
752.95	243.65
753.28	243.46
753.60	243.23
753.93	243.06
754.26	242.90
754.59	242.67
754.91	242.52
755.24	242.35
755.57	242.17
755.90	241.99
756.22	241.84
756.55	241.63
756.88	241.42
757.20	241.21
757.53	241.01
757.86	240.82
758.19	240.65
758.51	240.49
758.84	240.28
759.17	240.12
759.49	239.98
759.82	239.85
760.15	239.72
760.47	239.61
760.80	239.41
761.13	239.30
761.45	239.19
761.78	239.03
762.11	238.92
762.43	238.78
762.76	238.66
763.08	238.53
763.41	238.42
763.74	238.31
764.06	238.20
764.39	238.05
764.71	237.93
765.04	237.79
765.37	237.65
765.69	237.54
766.02	237.41
766.34	237.29
766.67	237.17
767.00	237.09
767.32	236.98
767.65	236.96
767.97	236.82
768.30	236.71
768.62	236.61
768.95	236.45
769.27	236.33
769.60	236.24
769.92	236.15
770.25	236.03
770.57	235.92
770.90	235.82
771.22	235.73
771.55	235.61
771.87	235.55
772.20	235.49
772.52	235.46
772.85	235.48
773.17	235.44
773.50	235.33
773.82	235.22
774.15	235.11
774.47	234.93
774.80	234.83
775.12	234.72
775.45	234.65
775.77	234.58
776.09	234.53
776.42	234.46
776.74	234.37
777.07	234.26
777.39	234.16
777.72	234.07
778.04	234.02
778.36	233.96
778.69	233.85
779.01	233.77
779.33	233.60
779.66	233.41
779.98	233.31
780.31	233.24
780.63	233.19
780.95	233.15
781.28	233.10
781.60	233.03
781.92	232.99
782.25	232.91
782.57	232.82
782.89	232.70
783.22	232.63
783.54	232.57
783.86	232.53
784.19	232.50
784.51	232.43
784.83	232.33
785.16	232.25
785.48	232.23
785.80	232.15
786.12	232.11
786.45	232.07
786.77	232.00
787.09	231.93
