SpectraSuite Data File
++++++++++++++++++++++++++++++++++++
Date: Fri Feb 01 18:12:26 EST 2013
User: group
Dark Spectrum Present: No
Reference Spectrum Present: No
Number of Sampled Component Spectra: 1
Spectrometers: USB2E7196
Integration Time (usec): 35000 (USB2E7196)
Spectra Averaged: 100 (USB2E7196)
Boxcar Smoothing: 10 (USB2E7196)
Correct for Electrical Dark: No (USB2E7196)
Strobe/Lamp Enabled: No (USB2E7196)
Correct for Detector Non-linearity: No (USB2E7196)
Correct for Stray Light: No (USB2E7196)
Number of Pixels in Processed Spectrum: 2048
>>>>>Begin Processed Spectral Data<<<<<
339.09	0.00
339.48	213.08
339.86	214.73
340.24	216.16
340.63	216.97
341.01	220.36
341.39	220.31
341.78	221.51
342.16	222.42
342.54	222.84
342.93	211.41
343.31	222.08
343.69	222.61
344.07	223.09
344.46	223.49
344.84	223.88
345.22	224.11
345.60	224.33
345.99	224.52
346.37	224.66
346.75	224.76
347.13	224.80
347.52	224.82
347.90	224.91
348.28	224.96
348.66	225.05
349.05	225.05
349.43	225.12
349.81	225.16
350.19	225.20
350.57	225.25
350.96	225.37
351.34	225.47
351.72	225.56
352.10	225.61
352.48	225.71
352.87	225.76
353.25	225.84
353.63	225.93
354.01	225.96
354.39	226.05
354.77	226.14
355.15	226.24
355.54	226.32
355.92	226.36
356.30	226.45
356.68	226.58
357.06	226.66
357.44	226.69
357.82	226.81
358.20	226.89
358.58	226.94
358.97	227.01
359.35	227.09
359.73	227.15
360.11	227.23
360.49	227.28
360.87	227.31
361.25	227.39
361.63	227.46
362.01	227.55
362.39	227.57
362.77	227.63
363.15	227.70
363.53	227.73
363.91	227.77
364.29	227.77
364.67	227.70
365.05	227.71
365.43	227.75
365.81	227.75
366.19	227.82
366.57	227.91
366.95	227.92
367.33	227.90
367.71	227.93
368.09	227.95
368.47	227.94
368.85	227.97
369.23	227.95
369.61	227.91
369.99	227.90
370.37	227.90
370.75	227.89
371.13	227.82
371.51	227.82
371.89	227.79
372.27	227.78
372.65	227.78
373.03	227.78
373.41	227.71
373.78	227.67
374.16	227.57
374.54	227.49
374.92	227.42
375.30	227.39
375.68	227.33
376.06	227.28
376.44	227.20
376.82	227.18
377.19	227.13
377.57	227.06
377.95	226.96
378.33	226.88
378.71	226.78
379.09	226.74
379.47	226.66
379.84	226.61
380.22	226.53
380.60	226.43
380.98	226.38
381.36	226.33
381.73	226.24
382.11	226.20
382.49	226.13
382.87	226.03
383.25	225.92
383.62	225.97
384.00	225.90
384.38	225.86
384.76	225.76
385.13	225.72
385.51	225.68
385.89	225.65
386.27	225.62
386.64	225.61
387.02	225.54
387.40	225.50
387.78	225.44
388.15	225.39
388.53	225.35
388.91	225.28
389.29	225.23
389.66	225.24
390.04	225.20
390.42	225.18
390.79	225.20
391.17	225.20
391.55	225.03
391.92	225.01
392.30	224.99
392.68	224.97
393.05	224.97
393.43	224.96
393.81	224.95
394.18	224.95
394.56	224.93
394.94	224.97
395.31	224.97
395.69	225.02
396.06	225.06
396.44	225.12
396.82	225.15
397.19	225.24
397.57	225.26
397.95	225.29
398.32	225.30
398.70	225.36
399.07	225.43
399.45	225.52
399.82	225.57
400.20	225.65
400.58	225.73
400.95	225.79
401.33	225.85
401.70	226.01
402.08	226.10
402.45	226.21
402.83	226.32
403.20	226.43
403.58	226.54
403.95	226.68
404.33	226.79
404.71	226.94
405.08	227.11
405.46	227.26
405.83	227.47
406.21	227.61
406.58	227.79
406.96	228.01
407.33	228.23
407.70	228.51
408.08	228.84
408.45	229.14
408.83	229.44
409.20	229.78
409.58	230.03
409.95	230.37
410.33	230.72
410.70	231.05
411.08	231.44
411.45	231.82
411.82	232.21
412.20	232.73
412.57	233.28
412.95	233.68
413.32	234.24
413.69	234.78
414.07	235.41
414.44	236.04
414.82	236.68
415.19	237.45
415.56	238.20
415.94	238.96
416.31	239.81
416.68	240.66
417.06	241.63
417.43	242.58
417.81	243.62
418.18	244.70
418.55	245.86
418.93	247.10
419.30	248.40
419.67	249.73
420.04	251.03
420.42	252.44
420.79	254.12
421.16	255.74
421.54	257.39
421.91	259.08
422.28	260.86
422.66	262.71
423.03	264.51
423.40	266.41
423.77	268.40
424.15	270.40
424.52	272.45
424.89	274.68
425.26	276.88
425.64	278.94
426.01	281.23
426.38	283.58
426.75	285.92
427.13	288.35
427.50	290.87
427.87	293.56
428.24	296.16
428.61	298.60
428.99	301.32
429.36	304.31
429.73	307.21
430.10	310.08
430.47	313.02
430.85	316.01
431.22	319.13
431.59	322.42
431.96	325.57
432.33	329.12
432.70	332.44
433.08	336.36
433.45	340.07
433.82	343.69
434.19	347.75
434.56	351.70
434.93	355.44
435.30	359.14
435.68	363.21
436.05	367.17
436.42	371.10
436.79	374.66
437.16	378.42
437.53	382.40
437.90	386.33
438.27	390.19
438.64	394.17
439.01	397.78
439.38	401.02
439.75	404.11
440.13	407.63
440.50	410.97
440.87	413.57
441.24	416.30
441.61	419.35
441.98	421.50
442.35	424.09
442.72	426.73
443.09	429.27
443.46	430.65
443.83	431.48
444.20	432.19
444.57	433.43
444.94	433.88
445.31	434.37
445.68	434.84
446.05	434.94
446.42	434.36
446.79	433.78
447.16	433.13
447.53	432.66
447.90	431.02
448.27	429.38
448.64	427.17
449.01	425.58
449.37	422.80
449.74	420.11
450.11	416.86
450.48	413.35
450.85	409.85
451.22	406.83
451.59	404.01
451.96	401.31
452.33	397.61
452.70	394.29
453.07	390.31
453.43	386.25
453.80	382.34
454.17	378.62
454.54	375.04
454.91	371.20
455.28	367.43
455.65	363.92
456.02	360.40
456.38	357.37
456.75	353.62
457.12	350.43
457.49	347.30
457.86	344.29
458.23	341.64
458.59	338.71
458.96	335.75
459.33	333.10
459.70	330.46
460.07	328.33
460.43	325.88
460.80	323.56
461.17	321.49
461.54	319.36
461.91	317.33
462.27	315.25
462.64	313.44
463.01	311.52
463.38	309.66
463.74	307.77
464.11	306.09
464.48	304.60
464.85	303.03
465.21	301.73
465.58	300.41
465.95	298.85
466.32	297.53
466.68	296.23
467.05	294.95
467.42	293.69
467.78	292.33
468.15	291.10
468.52	290.11
468.88	288.93
469.25	287.84
469.62	286.92
469.98	285.99
470.35	285.09
470.72	284.22
471.08	283.27
471.45	282.48
471.82	281.72
472.18	280.87
472.55	280.23
472.92	279.49
473.28	278.77
473.65	278.12
474.02	277.48
474.38	276.91
474.75	276.41
475.11	275.85
475.48	275.39
475.85	275.03
476.21	274.72
476.58	274.41
476.94	274.11
477.31	273.79
477.67	273.52
478.04	273.30
478.41	273.11
478.77	273.07
479.14	272.89
479.50	272.79
479.87	272.78
480.23	272.79
480.60	272.77
480.96	272.76
481.33	272.92
481.69	273.05
482.06	273.19
482.42	273.32
482.79	273.53
483.15	273.83
483.52	274.14
483.88	274.43
484.25	274.77
484.61	275.19
484.98	275.64
485.34	276.18
485.71	276.78
486.07	277.38
486.44	277.96
486.80	278.68
487.17	279.46
487.53	280.30
487.90	281.16
488.26	282.13
488.62	283.19
488.99	284.19
489.35	285.26
489.72	286.45
490.08	287.75
490.44	289.07
490.81	290.47
491.17	291.92
491.54	293.47
491.90	295.08
492.26	296.85
492.63	298.65
492.99	300.56
493.36	302.56
493.72	304.72
494.08	306.94
494.45	309.37
494.81	311.85
495.17	314.47
495.54	317.24
495.90	320.12
496.26	323.16
496.63	326.33
496.99	329.69
497.35	333.19
497.72	336.85
498.08	340.59
498.44	344.52
498.80	348.70
499.17	353.03
499.53	357.54
499.89	362.26
500.26	367.14
500.62	372.13
500.98	377.46
501.34	382.95
501.71	388.66
502.07	394.47
502.43	400.49
502.79	406.74
503.16	413.27
503.52	420.03
503.88	426.87
504.24	433.99
504.60	441.39
504.97	449.13
505.33	457.06
505.69	465.41
506.05	473.75
506.41	482.22
506.78	491.06
507.14	500.23
507.50	509.60
507.86	519.36
508.22	529.33
508.59	539.26
508.95	549.64
509.31	560.33
509.67	571.30
510.03	582.49
510.39	593.92
510.75	605.67
511.12	617.47
511.48	629.79
511.84	642.30
512.20	654.78
512.56	667.68
512.92	680.89
513.28	694.32
513.64	708.04
514.00	722.01
514.37	736.09
514.73	750.35
515.09	764.66
515.45	779.24
515.81	794.14
516.17	809.55
516.53	825.05
516.89	840.64
517.25	856.20
517.61	872.08
517.97	888.01
518.33	903.94
518.69	920.35
519.05	936.85
519.41	953.60
519.77	970.84
520.13	987.91
520.49	1005.02
520.85	1022.05
521.21	1039.42
521.57	1057.44
521.93	1074.94
522.29	1093.16
522.65	1111.24
523.01	1129.20
523.37	1147.17
523.73	1165.25
524.09	1183.20
524.45	1201.32
524.81	1219.87
525.17	1238.61
525.53	1257.53
525.89	1276.36
526.25	1295.15
526.61	1313.58
526.97	1332.44
527.33	1350.99
527.68	1369.71
528.04	1388.23
528.40	1407.10
528.76	1426.37
529.12	1445.19
529.48	1464.42
529.84	1482.59
530.20	1501.51
530.56	1520.88
530.91	1540.64
531.27	1559.81
531.63	1578.66
531.99	1597.76
532.35	1616.19
532.71	1634.49
533.07	1653.11
533.42	1671.45
533.78	1690.14
534.14	1708.88
534.50	1726.56
534.86	1744.98
535.21	1762.73
535.57	1781.34
535.93	1799.32
536.29	1816.75
536.65	1834.37
537.00	1851.60
537.36	1869.52
537.72	1886.48
538.08	1903.56
538.44	1919.85
538.79	1936.17
539.15	1952.31
539.51	1968.52
539.87	1985.51
540.22	2002.04
540.58	2018.63
540.94	2034.57
541.29	2050.00
541.65	2065.46
542.01	2081.37
542.37	2096.34
542.72	2111.40
543.08	2125.77
543.44	2140.94
543.79	2154.76
544.15	2168.22
544.51	2182.42
544.87	2196.08
545.22	2209.65
545.58	2222.33
545.94	2234.49
546.29	2246.89
546.65	2259.41
547.01	2271.15
547.36	2282.28
547.72	2293.01
548.07	2303.18
548.43	2313.60
548.79	2323.99
549.14	2333.75
549.50	2343.42
549.86	2353.31
550.21	2362.82
550.57	2372.21
550.92	2380.89
551.28	2389.98
551.64	2399.32
551.99	2408.10
552.35	2416.31
552.70	2424.56
553.06	2432.83
553.41	2441.37
553.77	2449.51
554.13	2457.66
554.48	2466.09
554.84	2473.69
555.19	2480.93
555.55	2488.04
555.90	2494.66
556.26	2501.58
556.61	2508.30
556.97	2514.46
557.32	2520.41
557.68	2526.36
558.03	2532.53
558.39	2537.94
558.74	2544.71
559.10	2550.38
559.45	2555.77
559.81	2561.81
560.16	2567.30
560.52	2572.06
560.87	2577.21
561.23	2581.38
561.58	2585.70
561.94	2589.60
562.29	2593.29
562.64	2597.55
563.00	2601.58
563.35	2606.40
563.71	2610.85
564.06	2615.45
564.42	2619.87
564.77	2623.90
565.12	2627.75
565.48	2630.96
565.83	2634.31
566.19	2636.73
566.54	2638.65
566.89	2641.03
567.25	2642.85
567.60	2645.28
567.96	2648.22
568.31	2650.10
568.66	2652.35
569.02	2654.15
569.37	2655.49
569.72	2657.49
570.08	2658.46
570.43	2659.22
570.78	2659.77
571.14	2658.92
571.49	2658.09
571.84	2658.40
572.20	2657.99
572.55	2657.46
572.90	2656.32
573.26	2655.46
573.61	2654.19
573.96	2652.83
574.31	2650.28
574.67	2647.42
575.02	2643.90
575.37	2640.64
575.72	2637.00
576.08	2633.69
576.43	2630.44
576.78	2626.77
577.13	2623.61
577.49	2620.54
577.84	2617.09
578.19	2613.13
578.54	2609.32
578.90	2605.09
579.25	2599.14
579.60	2593.81
579.95	2588.36
580.30	2583.08
580.66	2577.29
581.01	2571.99
581.36	2566.75
581.71	2562.09
582.06	2557.32
582.42	2552.70
582.77	2547.05
583.12	2542.02
583.47	2536.96
583.82	2531.49
584.17	2525.67
584.53	2519.54
584.88	2513.34
585.23	2507.14
585.58	2500.97
585.93	2495.03
586.28	2489.69
586.63	2484.21
586.98	2478.58
587.34	2473.41
587.69	2467.84
588.04	2462.07
588.39	2455.72
588.74	2448.38
589.09	2441.44
589.44	2433.68
589.79	2426.57
590.14	2419.92
590.49	2412.25
590.84	2404.96
591.19	2397.91
591.54	2390.44
591.89	2382.12
592.25	2374.37
592.60	2365.97
592.95	2357.43
593.30	2348.81
593.65	2340.02
594.00	2331.73
594.35	2323.07
594.70	2313.67
595.05	2305.47
595.40	2296.94
595.75	2288.05
596.10	2280.87
596.45	2273.03
596.80	2265.93
597.15	2258.37
597.50	2250.20
597.85	2242.67
598.19	2234.81
598.54	2226.61
598.89	2218.95
599.24	2212.02
599.59	2204.27
599.94	2196.97
600.29	2189.20
600.64	2181.61
600.99	2172.83
601.34	2164.72
601.69	2156.59
602.04	2148.68
602.39	2139.84
602.74	2131.81
603.08	2123.79
603.43	2115.67
603.78	2106.75
604.13	2098.12
604.48	2089.31
604.83	2081.15
605.18	2073.09
605.53	2063.67
605.87	2054.00
606.22	2045.20
606.57	2035.46
606.92	2026.37
607.27	2017.78
607.62	2009.59
607.96	2000.83
608.31	1992.88
608.66	1983.75
609.01	1974.78
609.36	1965.51
609.70	1955.98
610.05	1946.30
610.40	1937.17
610.75	1927.27
611.10	1918.22
611.44	1908.06
611.79	1898.59
612.14	1888.19
612.49	1877.03
612.83	1866.83
613.18	1857.16
613.53	1847.62
613.88	1837.55
614.22	1827.74
614.57	1817.47
614.92	1807.88
615.27	1798.79
615.61	1788.95
615.96	1779.35
616.31	1770.18
616.65	1761.27
617.00	1752.17
617.35	1742.91
617.70	1733.08
618.04	1722.90
618.39	1713.03
618.74	1703.94
619.08	1693.95
619.43	1684.84
619.78	1676.66
620.12	1668.17
620.47	1659.01
620.82	1648.98
621.16	1639.95
621.51	1630.66
621.85	1621.41
622.20	1611.15
622.55	1600.96
622.89	1591.35
623.24	1582.10
623.59	1573.02
623.93	1564.00
624.28	1555.23
624.62	1546.16
624.97	1537.32
625.32	1529.16
625.66	1520.67
626.01	1511.95
626.35	1502.91
626.70	1493.51
627.04	1484.16
627.39	1474.59
627.73	1465.80
628.08	1457.61
628.43	1448.97
628.77	1440.28
629.12	1431.21
629.46	1422.65
629.81	1413.67
630.15	1405.02
630.50	1396.17
630.84	1386.48
631.19	1377.00
631.53	1367.98
631.88	1358.96
632.22	1349.79
632.57	1340.92
632.91	1331.83
633.26	1323.02
633.60	1314.08
633.95	1305.47
634.29	1296.86
634.64	1288.90
634.98	1280.08
635.32	1271.41
635.67	1263.39
636.01	1255.36
636.36	1247.26
636.70	1239.42
637.05	1231.73
637.39	1223.97
637.73	1216.21
638.08	1208.99
638.42	1201.77
638.77	1194.10
639.11	1186.27
639.45	1178.68
639.80	1170.78
640.14	1163.14
640.49	1155.28
640.83	1147.87
641.17	1140.49
641.52	1132.98
641.86	1125.22
642.20	1118.23
642.55	1110.71
642.89	1103.00
643.23	1095.23
643.58	1088.37
643.92	1080.97
644.26	1073.74
644.61	1066.49
644.95	1059.33
645.29	1051.71
645.64	1043.73
645.98	1036.15
646.32	1029.07
646.66	1021.95
647.01	1015.20
647.35	1008.51
647.69	1001.59
648.04	994.94
648.38	988.18
648.72	981.18
649.06	974.08
649.41	967.05
649.75	960.00
650.09	953.02
650.43	946.20
650.78	938.84
651.12	931.93
651.46	925.13
651.80	918.43
652.14	911.98
652.49	905.54
652.83	899.39
653.17	892.76
653.51	886.06
653.85	879.64
654.20	872.91
654.54	865.69
654.88	858.88
655.22	851.96
655.56	845.18
655.90	838.67
656.25	832.46
656.59	826.22
656.93	820.24
657.27	814.13
657.61	807.70
657.95	801.66
658.29	795.49
658.64	789.21
658.98	782.92
659.32	776.49
659.66	770.37
660.00	764.05
660.34	758.13
660.68	752.32
661.02	746.37
661.36	740.74
661.70	735.52
662.05	730.39
662.39	725.31
662.73	720.02
663.07	714.85
663.41	709.62
663.75	704.31
664.09	698.86
664.43	693.63
664.77	688.69
665.11	683.69
665.45	678.85
665.79	674.07
666.13	669.17
666.47	664.39
666.81	659.44
667.15	654.64
667.49	650.06
667.83	645.57
668.17	640.90
668.51	636.15
668.85	631.36
669.19	626.85
669.53	622.33
669.87	617.81
670.21	613.44
670.55	609.09
670.89	605.03
671.23	601.04
671.57	596.87
671.91	592.77
672.25	588.57
672.58	584.41
672.92	580.37
673.26	576.65
673.60	572.92
673.94	569.26
674.28	565.82
674.62	562.36
674.96	558.67
675.30	555.25
675.64	551.81
675.97	548.55
676.31	545.22
676.65	541.77
676.99	538.56
677.33	535.21
677.67	531.97
678.01	528.44
678.34	524.94
678.68	521.56
679.02	518.23
679.36	515.02
679.70	511.83
680.04	508.64
680.37	505.31
680.71	502.00
681.05	498.93
681.39	495.78
681.73	492.68
682.06	489.71
682.40	486.73
682.74	483.74
683.08	480.66
683.42	477.53
683.75	474.57
684.09	471.51
684.43	468.61
684.77	465.68
685.10	462.85
685.44	460.09
685.78	457.42
686.12	454.72
686.45	452.02
686.79	449.31
687.13	446.68
687.46	444.08
687.80	441.51
688.14	438.90
688.48	436.46
688.81	433.81
689.15	431.23
689.49	428.67
689.82	426.17
690.16	423.72
690.50	421.44
690.83	419.15
691.17	416.81
691.51	414.53
691.84	412.28
692.18	410.00
692.52	407.65
692.85	405.30
693.19	403.08
693.52	400.88
693.86	398.71
694.20	396.61
694.53	394.46
694.87	392.24
695.21	390.07
695.54	387.83
695.88	385.68
696.21	383.65
696.55	381.65
696.88	379.67
697.22	377.68
697.56	375.72
697.89	373.75
698.23	371.89
698.56	369.97
698.90	368.11
699.23	366.18
699.57	364.36
699.90	362.60
700.24	360.79
700.58	358.93
700.91	357.16
701.25	355.42
701.58	353.80
701.92	352.25
702.25	350.64
702.59	349.05
702.92	347.53
703.26	346.03
703.59	344.50
703.93	343.09
704.26	341.63
704.60	340.10
704.93	338.62
705.26	337.16
705.60	335.75
705.93	334.36
706.27	333.14
706.60	331.90
706.94	330.60
707.27	329.27
707.61	328.03
707.94	326.82
708.27	325.51
708.61	324.23
708.94	322.99
709.28	321.81
709.61	320.68
709.94	319.55
710.28	318.30
710.61	317.12
710.95	315.85
711.28	314.77
711.61	313.67
711.95	312.57
712.28	311.41
712.61	310.29
712.95	309.20
713.28	308.14
713.61	307.05
713.95	306.05
714.28	305.06
714.61	304.07
714.95	303.07
715.28	302.07
715.61	301.05
715.95	300.03
716.28	299.05
716.61	298.04
716.95	297.05
717.28	296.16
717.61	295.26
717.94	294.42
718.28	293.48
718.61	292.59
718.94	291.76
719.27	291.03
719.61	290.22
719.94	289.42
720.27	288.57
720.60	287.82
720.94	287.08
721.27	286.39
721.60	285.71
721.93	285.01
722.27	284.38
722.60	283.75
722.93	283.12
723.26	282.47
723.59	281.77
723.93	281.13
724.26	280.47
724.59	279.81
724.92	279.20
725.25	278.60
725.59	278.01
725.92	277.41
726.25	276.74
726.58	276.17
726.91	275.59
727.24	275.04
727.57	274.47
727.91	273.83
728.24	273.26
728.57	272.68
728.90	272.13
729.23	271.55
729.56	271.00
729.89	270.42
730.22	269.82
730.55	269.34
730.89	268.83
731.22	268.33
731.55	267.81
731.88	267.25
732.21	266.73
732.54	266.20
732.87	265.67
733.20	265.24
733.53	264.76
733.86	264.32
734.19	263.87
734.52	263.41
734.85	263.00
735.18	262.52
735.51	262.09
735.84	261.64
736.17	261.23
736.50	260.78
736.83	260.48
737.16	260.10
737.49	259.68
737.82	259.23
738.15	258.86
738.48	258.44
738.81	258.05
739.14	257.71
739.47	257.37
739.80	256.98
740.13	256.61
740.46	256.25
740.79	255.88
741.12	255.52
741.45	255.17
741.78	254.81
742.11	254.49
742.44	254.07
742.77	253.73
743.10	253.34
743.43	253.02
743.75	252.60
744.08	252.43
744.41	252.14
744.74	251.87
745.07	251.52
745.40	251.24
745.73	250.96
746.06	250.59
746.39	250.26
746.71	250.00
747.04	249.66
747.37	249.33
747.70	249.00
748.03	248.68
748.36	248.42
748.68	248.11
749.01	247.81
749.34	247.58
749.67	247.31
750.00	247.06
750.33	246.83
750.65	246.58
750.98	246.20
751.31	245.89
751.64	245.65
751.97	245.45
752.29	245.19
752.62	244.92
752.95	244.69
753.28	244.46
753.60	244.19
753.93	244.00
754.26	243.75
754.59	243.54
754.91	243.31
755.24	243.07
755.57	242.84
755.90	242.63
756.22	242.38
756.55	242.16
756.88	241.92
757.20	241.66
757.53	241.41
757.86	241.18
758.19	241.04
758.51	240.85
758.84	240.60
759.17	240.37
759.49	240.18
759.82	240.06
760.15	239.84
760.47	239.69
760.80	239.48
761.13	239.34
761.45	239.16
761.78	238.99
762.11	238.83
762.43	238.70
762.76	238.52
763.08	238.40
763.41	238.24
763.74	238.11
764.06	237.96
764.39	237.82
764.71	237.66
765.04	237.44
765.37	237.27
765.69	237.12
766.02	236.99
766.34	236.81
766.67	236.65
767.00	236.57
767.32	236.43
767.65	236.38
767.97	236.24
768.30	236.10
768.62	235.98
768.95	235.84
769.27	235.68
769.60	235.58
769.92	235.44
770.25	235.33
770.57	235.20
770.90	235.11
771.22	235.01
771.55	234.88
771.87	234.80
772.20	234.68
772.52	234.66
772.85	234.68
773.17	234.59
773.50	234.46
773.82	234.33
774.15	234.24
774.47	234.05
774.80	233.94
775.12	233.83
775.45	233.71
775.77	233.58
776.09	233.50
776.42	233.38
776.74	233.29
777.07	233.14
777.39	233.01
777.72	232.89
778.04	232.81
778.36	232.72
778.69	232.62
779.01	232.54
779.33	232.39
779.66	232.19
779.98	232.08
780.31	232.00
780.63	231.94
780.95	231.85
781.28	231.77
781.60	231.69
781.92	231.60
782.25	231.50
782.57	231.45
782.89	231.33
783.22	231.23
783.54	231.14
783.86	231.08
784.19	231.02
784.51	230.98
784.83	230.85
785.16	230.77
785.48	230.73
785.80	230.69
786.12	230.59
786.45	230.52
