SpectraSuite Data File
++++++++++++++++++++++++++++++++++++
Date: Fri Feb 01 17:13:12 EST 2013
User: group
Dark Spectrum Present: No
Reference Spectrum Present: No
Number of Sampled Component Spectra: 1
Spectrometers: USB2E7196
Integration Time (usec): 35000 (USB2E7196)
Spectra Averaged: 100 (USB2E7196)
Boxcar Smoothing: 10 (USB2E7196)
Correct for Electrical Dark: No (USB2E7196)
Strobe/Lamp Enabled: No (USB2E7196)
Correct for Detector Non-linearity: No (USB2E7196)
Correct for Stray Light: No (USB2E7196)
Number of Pixels in Processed Spectrum: 2048
>>>>>Begin Processed Spectral Data<<<<<
339.09	0.00
339.48	213.51
339.86	214.35
340.24	215.65
340.63	217.27
341.01	219.97
341.39	220.40
341.78	221.73
342.16	222.10
342.54	223.27
342.93	211.53
343.31	222.23
343.69	222.74
344.07	223.22
344.46	223.63
344.84	224.02
345.22	224.26
345.60	224.48
345.99	224.66
346.37	224.81
346.75	224.89
347.13	224.94
347.52	225.02
347.90	225.08
348.28	225.07
348.66	225.12
349.05	225.10
349.43	225.12
349.81	225.17
350.19	225.21
350.57	225.29
350.96	225.38
351.34	225.46
351.72	225.58
352.10	225.68
352.48	225.77
352.87	225.81
353.25	225.88
353.63	225.96
354.01	226.02
354.39	226.07
354.77	226.16
355.15	226.29
355.54	226.36
355.92	226.44
356.30	226.51
356.68	226.62
357.06	226.69
357.44	226.77
357.82	226.85
358.20	226.92
358.58	226.99
358.97	227.02
359.35	227.11
359.73	227.20
360.11	227.22
360.49	227.30
360.87	227.38
361.25	227.45
361.63	227.54
362.01	227.58
362.39	227.63
362.77	227.67
363.15	227.69
363.53	227.72
363.91	227.73
364.29	227.77
364.67	227.72
365.05	227.76
365.43	227.78
365.81	227.78
366.19	227.79
366.57	227.82
366.95	227.84
367.33	227.80
367.71	227.75
368.09	227.78
368.47	227.76
368.85	227.73
369.23	227.73
369.61	227.70
369.99	227.67
370.37	227.66
370.75	227.72
371.13	227.67
371.51	227.62
371.89	227.60
372.27	227.57
372.65	227.56
373.03	227.56
373.41	227.52
373.78	227.47
374.16	227.41
374.54	227.35
374.92	227.28
375.30	227.25
375.68	227.18
376.06	227.13
376.44	227.09
376.82	227.02
377.19	226.96
377.57	226.88
377.95	226.83
378.33	226.75
378.71	226.64
379.09	226.61
379.47	226.57
379.84	226.50
380.22	226.42
380.60	226.33
380.98	226.25
381.36	226.17
381.73	226.14
382.11	226.08
382.49	226.00
382.87	225.95
383.25	225.84
383.62	225.91
384.00	225.84
384.38	225.77
384.76	225.72
385.13	225.70
385.51	225.67
385.89	225.60
386.27	225.57
386.64	225.52
387.02	225.47
387.40	225.41
387.78	225.37
388.15	225.35
388.53	225.30
388.91	225.23
389.29	225.18
389.66	225.14
390.04	225.13
390.42	225.14
390.79	225.10
391.17	225.09
391.55	224.96
391.92	224.94
392.30	224.92
392.68	224.91
393.05	224.90
393.43	224.87
393.81	224.85
394.18	224.82
394.56	224.82
394.94	224.82
395.31	224.79
395.69	224.86
396.06	224.88
396.44	224.92
396.82	224.95
397.19	225.04
397.57	225.04
397.95	225.08
398.32	225.07
398.70	225.13
399.07	225.19
399.45	225.26
399.82	225.29
400.20	225.37
400.58	225.40
400.95	225.38
401.33	225.45
401.70	225.61
402.08	225.68
402.45	225.75
402.83	225.86
403.20	225.96
403.58	226.03
403.95	226.14
404.33	226.25
404.71	226.37
405.08	226.53
405.46	226.69
405.83	226.81
406.21	226.92
406.58	227.05
406.96	227.21
407.33	227.39
407.70	227.61
408.08	227.88
408.45	228.11
408.83	228.38
409.20	228.59
409.58	228.78
409.95	229.06
410.33	229.35
410.70	229.58
411.08	229.91
411.45	230.20
411.82	230.51
412.20	230.86
412.57	231.31
412.95	231.62
413.32	232.04
413.69	232.49
414.07	232.98
414.44	233.48
414.82	233.98
415.19	234.53
415.56	235.08
415.94	235.57
416.31	236.25
416.68	236.89
417.06	237.61
417.43	238.32
417.81	239.07
418.18	239.88
418.55	240.77
418.93	241.68
419.30	242.57
419.67	243.54
420.04	244.50
420.42	245.52
420.79	246.72
421.16	247.89
421.54	249.09
421.91	250.35
422.28	251.61
422.66	252.98
423.03	254.28
423.40	255.65
423.77	257.10
424.15	258.55
424.52	260.06
424.89	261.71
425.26	263.30
425.64	264.80
426.01	266.42
426.38	268.08
426.75	269.75
427.13	271.54
427.50	273.37
427.87	275.30
428.24	277.19
428.61	278.93
428.99	280.92
429.36	283.07
429.73	285.11
430.10	287.18
430.47	289.27
430.85	291.45
431.22	293.72
431.59	296.19
431.96	298.47
432.33	300.99
432.70	303.41
433.08	306.23
433.45	308.92
433.82	311.60
434.19	314.55
434.56	317.38
434.93	320.06
435.30	322.72
435.68	325.68
436.05	328.48
436.42	331.36
436.79	333.93
437.16	336.61
437.53	339.50
437.90	342.34
438.27	345.13
438.64	347.97
439.01	350.57
439.38	352.81
439.75	354.98
440.13	357.49
440.50	359.91
440.87	361.80
441.24	363.76
441.61	365.87
441.98	367.35
442.35	369.19
442.72	371.09
443.09	372.93
443.46	373.88
443.83	374.57
444.20	375.07
444.57	375.90
444.94	376.25
445.31	376.60
445.68	376.95
446.05	377.04
446.42	376.68
446.79	376.29
447.16	375.81
447.53	375.56
447.90	374.46
448.27	373.24
448.64	371.63
449.01	370.47
449.37	368.55
449.74	366.67
450.11	364.36
450.48	361.85
450.85	359.30
451.22	357.16
451.59	355.08
451.96	353.12
452.33	350.44
452.70	348.04
453.07	345.17
453.43	342.25
453.80	339.42
454.17	336.67
454.54	334.07
454.91	331.32
455.28	328.52
455.65	325.96
456.02	323.49
456.38	321.32
456.75	318.62
457.12	316.30
457.49	313.99
457.86	311.84
458.23	309.94
458.59	307.82
458.96	305.68
459.33	303.78
459.70	301.89
460.07	300.40
460.43	298.66
460.80	297.00
461.17	295.55
461.54	294.01
461.91	292.58
462.27	291.13
462.64	289.88
463.01	288.56
463.38	287.22
463.74	285.84
464.11	284.66
464.48	283.60
464.85	282.47
465.21	281.60
465.58	280.64
465.95	279.55
466.32	278.67
466.68	277.78
467.05	276.92
467.42	276.03
467.78	275.05
468.15	274.19
468.52	273.54
468.88	272.64
469.25	271.91
469.62	271.31
469.98	270.64
470.35	269.99
470.72	269.36
471.08	268.69
471.45	268.14
471.82	267.56
472.18	266.97
472.55	266.49
472.92	266.00
473.28	265.57
473.65	265.13
474.02	264.66
474.38	264.28
474.75	263.94
475.11	263.58
475.48	263.36
475.85	263.11
476.21	262.87
476.58	262.73
476.94	262.60
477.31	262.45
477.67	262.28
478.04	262.21
478.41	262.12
478.77	262.25
479.14	262.22
479.50	262.24
479.87	262.36
480.23	262.49
480.60	262.53
480.96	262.57
481.33	262.79
481.69	263.02
482.06	263.20
482.42	263.38
482.79	263.63
483.15	263.89
483.52	264.24
483.88	264.57
484.25	264.94
484.61	265.33
484.98	265.75
485.34	266.28
485.71	266.82
486.07	267.45
486.44	267.95
486.80	268.62
487.17	269.30
487.53	270.08
487.90	270.93
488.26	271.86
488.62	272.84
488.99	273.79
489.35	274.82
489.72	275.97
490.08	277.14
490.44	278.39
490.81	279.71
491.17	281.08
491.54	282.57
491.90	284.09
492.26	285.73
492.63	287.44
492.99	289.27
493.36	291.14
493.72	293.21
494.08	295.30
494.45	297.58
494.81	299.99
495.17	302.40
495.54	305.00
495.90	307.68
496.26	310.50
496.63	313.41
496.99	316.55
497.35	319.78
497.72	323.19
498.08	326.66
498.44	330.36
498.80	334.28
499.17	338.31
499.53	342.51
499.89	346.86
500.26	351.36
500.62	356.00
500.98	360.98
501.34	366.02
501.71	371.33
502.07	376.78
502.43	382.37
502.79	388.21
503.16	394.24
503.52	400.47
503.88	406.86
504.24	413.47
504.60	420.30
504.97	427.42
505.33	434.75
505.69	442.43
506.05	450.17
506.41	457.97
506.78	466.05
507.14	474.36
507.50	483.06
507.86	491.94
508.22	501.03
508.59	510.15
508.95	519.57
509.31	529.24
509.67	539.20
510.03	549.36
510.39	559.82
510.75	570.41
511.12	581.20
511.48	592.39
511.84	603.75
512.20	615.17
512.56	626.94
512.92	638.94
513.28	651.16
513.64	663.43
514.00	676.01
514.37	688.76
514.73	701.70
515.09	714.55
515.45	727.69
515.81	741.10
516.17	754.90
516.53	768.92
516.89	782.92
517.25	796.88
517.61	811.07
517.97	825.26
518.33	839.60
518.69	854.18
519.05	868.88
519.41	883.75
519.77	898.82
520.13	913.94
520.49	929.12
520.85	944.16
521.21	959.64
521.57	975.55
521.93	991.01
522.29	1006.99
522.65	1022.90
523.01	1038.83
523.37	1054.55
523.73	1070.41
524.09	1086.10
524.45	1102.00
524.81	1118.32
525.17	1134.64
525.53	1151.13
525.89	1167.55
526.25	1184.10
526.61	1200.29
526.97	1216.69
527.33	1233.00
527.68	1249.37
528.04	1265.37
528.40	1281.62
528.76	1298.32
529.12	1314.58
529.48	1331.21
529.84	1346.94
530.20	1363.19
530.56	1379.81
530.91	1396.81
531.27	1413.28
531.63	1429.57
531.99	1445.86
532.35	1461.56
532.71	1477.35
533.07	1493.35
533.42	1509.06
533.78	1524.88
534.14	1540.80
534.50	1555.93
534.86	1571.56
535.21	1586.53
535.57	1602.24
535.93	1617.46
536.29	1631.92
536.65	1646.69
537.00	1661.15
537.36	1676.23
537.72	1690.45
538.08	1704.61
538.44	1718.17
538.79	1731.83
539.15	1744.95
539.51	1758.39
539.87	1772.44
540.22	1785.79
540.58	1799.21
540.94	1812.08
541.29	1824.43
541.65	1836.69
542.01	1849.62
542.37	1861.76
542.72	1873.74
543.08	1885.38
543.44	1897.62
543.79	1908.73
544.15	1919.53
544.51	1931.02
544.87	1941.75
545.22	1952.75
545.58	1963.00
545.94	1972.90
546.29	1982.74
546.65	1992.89
547.01	2002.30
547.36	2011.14
547.72	2019.72
548.07	2027.90
548.43	2036.30
548.79	2044.50
549.14	2052.35
549.50	2059.74
549.86	2067.26
550.21	2074.71
550.57	2081.96
550.92	2088.75
551.28	2096.03
551.64	2103.22
551.99	2109.71
552.35	2116.16
552.70	2122.32
553.06	2128.48
553.41	2134.82
553.77	2140.78
554.13	2146.86
554.48	2153.09
554.84	2158.86
555.19	2164.16
555.55	2169.42
555.90	2173.94
556.26	2178.98
556.61	2183.76
556.97	2188.51
557.32	2193.10
557.68	2197.54
558.03	2201.98
558.39	2205.75
558.74	2210.49
559.10	2214.66
559.45	2218.62
559.81	2222.97
560.16	2227.03
560.52	2230.45
560.87	2234.04
561.23	2237.03
561.58	2240.09
561.94	2242.82
562.29	2245.10
562.64	2248.25
563.00	2251.09
563.35	2254.89
563.71	2258.40
564.06	2261.77
564.42	2264.70
564.77	2267.45
565.12	2270.07
565.48	2272.27
565.83	2274.41
566.19	2276.15
566.54	2277.23
566.89	2278.65
567.25	2279.44
567.60	2280.88
567.96	2282.85
568.31	2283.95
568.66	2285.42
569.02	2286.31
569.37	2286.99
569.72	2288.27
570.08	2288.62
570.43	2288.89
570.78	2288.68
571.14	2287.34
571.49	2286.26
571.84	2286.05
572.20	2285.17
572.55	2284.42
572.90	2282.93
573.26	2281.96
573.61	2280.29
573.96	2278.95
574.31	2276.25
574.67	2273.80
575.02	2270.44
575.37	2267.12
575.72	2263.75
576.08	2260.46
576.43	2257.26
576.78	2253.98
577.13	2250.80
577.49	2247.71
577.84	2244.41
578.19	2240.68
578.54	2237.41
578.90	2233.69
579.25	2228.55
579.60	2223.91
579.95	2218.96
580.30	2214.26
580.66	2209.30
581.01	2204.58
581.36	2199.78
581.71	2195.91
582.06	2191.70
582.42	2187.68
582.77	2182.86
583.12	2178.59
583.47	2174.25
583.82	2169.76
584.17	2164.70
584.53	2159.56
584.88	2154.28
585.23	2148.87
585.58	2143.66
585.93	2138.22
586.28	2133.38
586.63	2128.54
586.98	2123.48
587.34	2119.02
587.69	2114.31
588.04	2109.40
588.39	2104.02
588.74	2097.69
589.09	2091.69
589.44	2085.08
589.79	2078.85
590.14	2073.30
590.49	2066.74
590.84	2060.41
591.19	2054.46
591.54	2048.13
591.89	2041.13
592.25	2034.68
592.60	2027.58
592.95	2020.33
593.30	2013.28
593.65	2005.84
594.00	1998.81
594.35	1991.78
594.70	1983.78
595.05	1976.95
595.40	1969.62
595.75	1962.29
596.10	1956.35
596.45	1949.79
596.80	1943.77
597.15	1937.52
597.50	1930.77
597.85	1924.46
598.19	1918.10
598.54	1911.31
598.89	1904.88
599.24	1898.90
599.59	1892.46
599.94	1886.26
600.29	1879.94
600.64	1873.33
600.99	1866.23
601.34	1859.54
601.69	1852.63
602.04	1845.97
602.39	1838.68
602.74	1832.10
603.08	1825.48
603.43	1818.73
603.78	1811.52
604.13	1804.28
604.48	1797.18
604.83	1790.31
605.18	1783.65
605.53	1775.64
605.87	1767.38
606.22	1760.03
606.57	1752.05
606.92	1744.44
607.27	1737.26
607.62	1730.44
607.96	1723.32
608.31	1716.71
608.66	1709.20
609.01	1701.74
609.36	1694.25
609.70	1686.19
610.05	1677.98
610.40	1670.26
610.75	1662.06
611.10	1654.37
611.44	1645.93
611.79	1637.69
612.14	1629.01
612.49	1619.65
612.83	1611.22
613.18	1603.10
613.53	1594.96
613.88	1586.49
614.22	1578.30
614.57	1569.63
614.92	1561.64
615.27	1554.19
615.61	1545.79
615.96	1537.67
616.31	1529.94
616.65	1522.46
617.00	1514.95
617.35	1507.29
617.70	1499.00
618.04	1490.49
618.39	1482.14
618.74	1474.68
619.08	1466.42
619.43	1458.79
619.78	1451.74
620.12	1444.61
620.47	1437.13
620.82	1428.89
621.16	1421.37
621.51	1413.66
621.85	1406.05
622.20	1397.53
622.55	1388.99
622.89	1381.14
623.24	1373.45
623.59	1365.95
623.93	1358.43
624.28	1350.97
624.62	1343.52
624.97	1336.17
625.32	1329.27
625.66	1322.11
626.01	1314.82
626.35	1307.50
626.70	1299.66
627.04	1292.01
627.39	1284.21
627.73	1276.75
628.08	1269.90
628.43	1262.76
628.77	1255.49
629.12	1247.99
629.46	1240.71
629.81	1233.10
630.15	1225.80
630.50	1218.35
630.84	1210.16
631.19	1202.19
631.53	1194.55
631.88	1186.82
632.22	1179.20
632.57	1171.78
632.91	1164.35
633.26	1156.92
633.60	1149.31
633.95	1142.00
634.29	1134.82
634.64	1127.98
634.98	1120.58
635.32	1113.19
635.67	1106.31
636.01	1099.57
636.36	1092.64
636.70	1086.11
637.05	1079.59
637.39	1073.07
637.73	1066.71
638.08	1060.76
638.42	1054.70
638.77	1048.31
639.11	1041.84
639.45	1035.44
639.80	1028.81
640.14	1022.30
640.49	1015.76
640.83	1009.49
641.17	1003.37
641.52	997.15
641.86	990.68
642.20	984.79
642.55	978.51
642.89	972.15
643.23	965.47
643.58	959.74
643.92	953.51
644.26	947.51
644.61	941.35
644.95	935.23
645.29	928.75
645.64	922.00
645.98	915.70
646.32	909.62
646.66	903.66
647.01	897.86
647.35	892.26
647.69	886.24
648.04	880.67
648.38	874.83
648.72	868.85
649.06	862.81
649.41	856.89
649.75	851.13
650.09	845.20
650.43	839.48
650.78	833.32
651.12	827.31
651.46	821.58
651.80	816.03
652.14	810.59
652.49	805.19
652.83	799.99
653.17	794.36
653.51	788.76
653.85	783.26
654.20	777.58
654.54	771.53
654.88	765.83
655.22	759.89
655.56	754.17
655.90	748.62
656.25	743.39
656.59	738.04
656.93	732.82
657.27	727.63
657.61	722.21
657.95	717.08
658.29	712.04
658.64	706.59
658.98	701.15
659.32	695.59
659.66	690.41
660.00	685.14
660.34	680.11
660.68	675.10
661.02	670.03
661.36	665.34
661.70	660.82
662.05	656.44
662.39	652.19
662.73	647.72
663.07	643.29
663.41	638.83
663.75	634.35
664.09	629.72
664.43	625.33
664.77	621.19
665.11	616.99
665.45	612.82
665.79	608.82
666.13	604.76
666.47	600.68
666.81	596.48
667.15	592.32
667.49	588.37
667.83	584.47
668.17	580.51
668.51	576.37
668.85	572.29
669.19	568.37
669.53	564.54
669.87	560.74
670.21	557.02
670.55	553.32
670.89	549.81
671.23	546.38
671.57	542.81
671.91	539.31
672.25	535.70
672.58	532.16
672.92	528.68
673.26	525.40
673.60	522.26
673.94	519.15
674.28	516.18
674.62	513.21
674.96	510.19
675.30	507.28
675.64	504.38
675.97	501.57
676.31	498.75
676.65	495.73
676.99	492.93
677.33	490.01
677.67	487.18
678.01	484.11
678.34	481.13
678.68	478.25
679.02	475.32
679.36	472.51
679.70	469.72
680.04	467.00
680.37	464.14
680.71	461.28
681.05	458.56
681.39	455.86
681.73	453.19
682.06	450.63
682.40	448.09
682.74	445.52
683.08	442.98
683.42	440.30
683.75	437.78
684.09	435.24
684.43	432.80
684.77	430.33
685.10	428.04
685.44	425.70
685.78	423.42
686.12	421.20
686.45	418.94
686.79	416.63
687.13	414.45
687.46	412.25
687.80	410.09
688.14	407.84
688.48	405.79
688.81	403.60
689.15	401.44
689.49	399.23
689.82	397.11
690.16	394.99
690.50	393.05
690.83	391.10
691.17	389.05
691.51	387.15
691.84	385.28
692.18	383.30
692.52	381.31
692.85	379.29
693.19	377.36
693.52	375.49
693.86	373.68
694.20	371.82
694.53	370.02
694.87	368.18
695.21	366.44
695.54	364.56
695.88	362.81
696.21	361.06
696.55	359.41
696.88	357.70
697.22	355.99
697.56	354.33
697.89	352.70
698.23	351.15
698.56	349.51
698.90	347.92
699.23	346.34
699.57	344.80
699.90	343.27
700.24	341.73
700.58	340.24
700.91	338.74
701.25	337.28
701.58	335.87
701.92	334.49
702.25	333.05
702.59	331.69
702.92	330.33
703.26	328.98
703.59	327.65
703.93	326.45
704.26	325.25
704.60	323.97
704.93	322.67
705.26	321.31
705.60	320.07
705.93	318.85
706.27	317.76
706.60	316.67
706.94	315.57
707.27	314.38
707.61	313.29
707.94	312.22
708.27	311.15
708.61	310.05
708.94	309.00
709.28	308.01
709.61	307.04
709.94	306.10
710.28	305.09
710.61	304.09
710.95	303.01
711.28	302.06
711.61	301.06
711.95	300.11
712.28	299.19
712.61	298.20
712.95	297.30
713.28	296.38
713.61	295.47
713.95	294.59
714.28	293.74
714.61	292.86
714.95	291.98
715.28	291.12
715.61	290.26
715.95	289.40
716.28	288.52
716.61	287.65
716.95	286.80
717.28	286.03
717.61	285.27
717.94	284.53
718.28	283.72
718.61	282.98
718.94	282.23
719.27	281.58
719.61	280.94
719.94	280.22
720.27	279.51
720.60	278.80
720.94	278.17
721.27	277.59
721.60	276.97
721.93	276.41
722.27	275.80
722.60	275.26
722.93	274.66
723.26	274.11
723.59	273.55
723.93	273.00
724.26	272.45
724.59	271.86
724.92	271.32
725.25	270.82
725.59	270.30
725.92	269.80
726.25	269.28
726.58	268.76
726.91	268.25
727.24	267.73
727.57	267.27
727.91	266.75
728.24	266.27
728.57	265.82
728.90	265.32
729.23	264.85
729.56	264.38
729.89	263.96
730.22	263.49
730.55	263.05
730.89	262.56
731.22	262.10
731.55	261.67
731.88	261.27
732.21	260.83
732.54	260.41
732.87	259.99
733.20	259.61
733.53	259.22
733.86	258.87
734.19	258.53
734.52	258.18
734.85	257.85
735.18	257.42
735.51	257.04
735.84	256.70
736.17	256.35
736.50	255.96
736.83	255.69
737.16	255.34
737.49	254.98
737.82	254.66
738.15	254.30
738.48	253.98
738.81	253.62
739.14	253.29
739.47	252.99
739.80	252.68
740.13	252.38
740.46	252.07
740.79	251.74
741.12	251.43
741.45	251.08
741.78	250.78
742.11	250.53
742.44	250.21
742.77	249.93
743.10	249.59
743.43	249.31
743.75	248.96
744.08	248.84
744.41	248.58
744.74	248.29
745.07	248.03
745.40	247.78
745.73	247.56
746.06	247.32
746.39	247.01
746.71	246.73
747.04	246.43
747.37	246.15
747.70	245.91
748.03	245.66
748.36	245.43
748.68	245.18
749.01	244.90
749.34	244.67
749.67	244.43
750.00	244.25
750.33	244.09
750.65	243.84
750.98	243.49
751.31	243.29
751.64	243.10
751.97	242.91
752.29	242.70
752.62	242.41
752.95	242.18
753.28	241.98
753.60	241.77
753.93	241.61
754.26	241.45
754.59	241.22
754.91	241.00
755.24	240.75
755.57	240.55
755.90	240.38
756.22	240.18
756.55	239.93
756.88	239.73
757.20	239.47
757.53	239.29
757.86	239.09
758.19	238.89
758.51	238.71
758.84	238.53
759.17	238.33
759.49	238.20
759.82	238.07
760.15	237.95
760.47	237.82
760.80	237.63
761.13	237.48
761.45	237.36
761.78	237.22
762.11	237.11
762.43	236.96
762.76	236.80
763.08	236.67
763.41	236.55
763.74	236.42
764.06	236.26
764.39	236.09
764.71	235.99
765.04	235.87
765.37	235.73
765.69	235.57
766.02	235.45
766.34	235.28
766.67	235.15
767.00	235.01
767.32	234.89
767.65	234.83
767.97	234.69
768.30	234.56
768.62	234.45
768.95	234.33
769.27	234.24
769.60	234.15
769.92	234.05
770.25	233.94
770.57	233.82
770.90	233.76
771.22	233.68
771.55	233.55
771.87	233.42
772.20	233.34
772.52	233.34
772.85	233.39
773.17	233.34
773.50	233.20
773.82	233.10
774.15	233.01
774.47	232.85
774.80	232.76
775.12	232.70
775.45	232.61
775.77	232.54
776.09	232.44
776.42	232.38
776.74	232.31
777.07	232.22
777.39	232.17
777.72	232.07
778.04	231.99
778.36	231.90
778.69	231.88
779.01	231.81
779.33	231.65
779.66	231.49
779.98	231.40
780.31	231.39
780.63	231.40
780.95	231.36
781.28	231.34
781.60	231.27
781.92	231.19
782.25	231.13
782.57	231.08
782.89	231.02
783.22	230.93
783.54	230.85
783.86	230.82
784.19	230.77
784.51	230.74
784.83	230.69
785.16	230.66
785.48	230.60
785.80	230.55
786.12	230.53
786.45	230.46
786.77	230.45
787.09	230.38
