SpectraSuite Data File
++++++++++++++++++++++++++++++++++++
Date: Fri Feb 01 18:02:43 EST 2013
User: group
Dark Spectrum Present: No
Reference Spectrum Present: No
Number of Sampled Component Spectra: 1
Spectrometers: USB2E7196
Integration Time (usec): 35000 (USB2E7196)
Spectra Averaged: 100 (USB2E7196)
Boxcar Smoothing: 10 (USB2E7196)
Correct for Electrical Dark: No (USB2E7196)
Strobe/Lamp Enabled: No (USB2E7196)
Correct for Detector Non-linearity: No (USB2E7196)
Correct for Stray Light: No (USB2E7196)
Number of Pixels in Processed Spectrum: 2048
>>>>>Begin Processed Spectral Data<<<<<
339.09	0.00
339.48	212.73
339.86	214.17
340.24	215.62
340.63	217.86
341.01	220.26
341.39	219.75
341.78	220.93
342.16	222.14
342.54	222.64
342.93	211.44
343.31	222.12
343.69	222.68
344.07	223.17
344.46	223.61
344.84	223.98
345.22	224.20
345.60	224.47
345.99	224.66
346.37	224.79
346.75	224.90
347.13	224.97
347.52	225.01
347.90	225.13
348.28	225.16
348.66	225.21
349.05	225.20
349.43	225.23
349.81	225.26
350.19	225.30
350.57	225.38
350.96	225.46
351.34	225.55
351.72	225.61
352.10	225.71
352.48	225.78
352.87	225.83
353.25	225.91
353.63	225.98
354.01	226.06
354.39	226.18
354.77	226.28
355.15	226.35
355.54	226.42
355.92	226.46
356.30	226.54
356.68	226.64
357.06	226.73
357.44	226.78
357.82	226.85
358.20	226.91
358.58	226.96
358.97	227.00
359.35	227.10
359.73	227.19
360.11	227.21
360.49	227.25
360.87	227.29
361.25	227.33
361.63	227.38
362.01	227.45
362.39	227.44
362.77	227.48
363.15	227.50
363.53	227.48
363.91	227.49
364.29	227.49
364.67	227.45
365.05	227.46
365.43	227.50
365.81	227.51
366.19	227.57
366.57	227.62
366.95	227.63
367.33	227.59
367.71	227.57
368.09	227.60
368.47	227.59
368.85	227.59
369.23	227.57
369.61	227.55
369.99	227.51
370.37	227.53
370.75	227.52
371.13	227.49
371.51	227.46
371.89	227.46
372.27	227.44
372.65	227.38
373.03	227.33
373.41	227.27
373.78	227.20
374.16	227.08
374.54	226.99
374.92	226.93
375.30	226.89
375.68	226.82
376.06	226.76
376.44	226.72
376.82	226.66
377.19	226.61
377.57	226.54
377.95	226.47
378.33	226.38
378.71	226.28
379.09	226.22
379.47	226.20
379.84	226.12
380.22	226.05
380.60	225.97
380.98	225.92
381.36	225.88
381.73	225.83
382.11	225.82
382.49	225.75
382.87	225.68
383.25	225.60
383.62	225.65
384.00	225.57
384.38	225.55
384.76	225.53
385.13	225.53
385.51	225.51
385.89	225.41
386.27	225.36
386.64	225.34
387.02	225.30
387.40	225.22
387.78	225.20
388.15	225.19
388.53	225.18
388.91	225.15
389.29	225.11
389.66	225.09
390.04	225.02
390.42	225.01
390.79	224.98
391.17	224.99
391.55	224.87
391.92	224.85
392.30	224.82
392.68	224.76
393.05	224.77
393.43	224.76
393.81	224.81
394.18	224.81
394.56	224.79
394.94	224.84
395.31	224.87
395.69	224.94
396.06	224.97
396.44	224.97
396.82	224.98
397.19	225.05
397.57	225.08
397.95	225.18
398.32	225.19
398.70	225.27
399.07	225.36
399.45	225.43
399.82	225.50
400.20	225.57
400.58	225.65
400.95	225.65
401.33	225.73
401.70	225.85
402.08	225.93
402.45	226.02
402.83	226.10
403.20	226.20
403.58	226.25
403.95	226.39
404.33	226.55
404.71	226.69
405.08	226.87
405.46	226.99
405.83	227.12
406.21	227.27
406.58	227.46
406.96	227.62
407.33	227.81
407.70	228.04
408.08	228.34
408.45	228.62
408.83	228.89
409.20	229.15
409.58	229.37
409.95	229.72
410.33	230.06
410.70	230.40
411.08	230.75
411.45	231.14
411.82	231.52
412.20	231.92
412.57	232.44
412.95	232.83
413.32	233.39
413.69	233.91
414.07	234.53
414.44	235.15
414.82	235.76
415.19	236.47
415.56	237.20
415.94	237.93
416.31	238.78
416.68	239.63
417.06	240.58
417.43	241.50
417.81	242.53
418.18	243.58
418.55	244.70
418.93	245.88
419.30	247.11
419.67	248.37
420.04	249.69
420.42	251.05
420.79	252.62
421.16	254.16
421.54	255.77
421.91	257.42
422.28	259.10
422.66	260.93
423.03	262.72
423.40	264.51
423.77	266.43
424.15	268.32
424.52	270.34
424.89	272.51
425.26	274.68
425.64	276.62
426.01	278.79
426.38	281.03
426.75	283.29
427.13	285.64
427.50	288.09
427.87	290.66
428.24	293.17
428.61	295.58
428.99	298.21
429.36	301.06
429.73	303.85
430.10	306.57
430.47	309.42
430.85	312.28
431.22	315.32
431.59	318.51
431.96	321.57
432.33	324.96
432.70	328.18
433.08	332.00
433.45	335.55
433.82	339.08
434.19	343.00
434.56	346.77
434.93	350.40
435.30	353.98
435.68	357.88
436.05	361.75
436.42	365.52
436.79	368.94
437.16	372.61
437.53	376.45
437.90	380.25
438.27	383.95
438.64	387.80
439.01	391.32
439.38	394.33
439.75	397.26
440.13	400.60
440.50	403.74
440.87	406.17
441.24	408.89
441.61	411.85
441.98	413.89
442.35	416.43
442.72	418.89
443.09	421.35
443.46	422.70
443.83	423.54
444.20	424.25
444.57	425.43
444.94	425.82
445.31	426.32
445.68	426.80
446.05	426.93
446.42	426.40
446.79	425.84
447.16	425.31
447.53	424.88
447.90	423.39
448.27	421.84
448.64	419.75
449.01	418.16
449.37	415.47
449.74	412.92
450.11	409.76
450.48	406.40
450.85	402.96
451.22	400.08
451.59	397.30
451.96	394.66
452.33	391.08
452.70	387.89
453.07	384.02
453.43	380.11
453.80	376.33
454.17	372.72
454.54	369.28
454.91	365.54
455.28	361.91
455.65	358.47
456.02	355.08
456.38	352.10
456.75	348.45
457.12	345.35
457.49	342.28
457.86	339.37
458.23	336.82
458.59	334.00
458.96	331.15
459.33	328.59
459.70	326.00
460.07	323.96
460.43	321.61
460.80	319.38
461.17	317.39
461.54	315.30
461.91	313.33
462.27	311.33
462.64	309.64
463.01	307.80
463.38	306.01
463.74	304.22
464.11	302.64
464.48	301.25
464.85	299.73
465.21	298.53
465.58	297.25
465.95	295.77
466.32	294.55
466.68	293.30
467.05	292.08
467.42	290.86
467.78	289.58
468.15	288.39
468.52	287.50
468.88	286.36
469.25	285.29
469.62	284.41
469.98	283.52
470.35	282.60
470.72	281.76
471.08	280.89
471.45	280.16
471.82	279.43
472.18	278.61
472.55	278.05
472.92	277.33
473.28	276.73
473.65	276.11
474.02	275.48
474.38	274.97
474.75	274.55
475.11	274.09
475.48	273.71
475.85	273.37
476.21	273.00
476.58	272.71
476.94	272.50
477.31	272.24
477.67	272.00
478.04	271.85
478.41	271.68
478.77	271.61
479.14	271.45
479.50	271.39
479.87	271.42
480.23	271.45
480.60	271.48
480.96	271.51
481.33	271.69
481.69	271.83
482.06	271.97
482.42	272.10
482.79	272.33
483.15	272.65
483.52	273.01
483.88	273.36
484.25	273.73
484.61	274.13
484.98	274.55
485.34	275.10
485.71	275.66
486.07	276.28
486.44	276.87
486.80	277.61
487.17	278.35
487.53	279.23
487.90	280.09
488.26	281.07
488.62	282.12
488.99	283.15
489.35	284.29
489.72	285.45
490.08	286.73
490.44	287.99
490.81	289.35
491.17	290.74
491.54	292.26
491.90	293.88
492.26	295.62
492.63	297.47
492.99	299.33
493.36	301.33
493.72	303.50
494.08	305.76
494.45	308.11
494.81	310.57
495.17	313.09
495.54	315.79
495.90	318.61
496.26	321.53
496.63	324.65
496.99	327.93
497.35	331.42
497.72	334.97
498.08	338.74
498.44	342.64
498.80	346.82
499.17	351.09
499.53	355.49
499.89	360.08
500.26	364.81
500.62	369.76
500.98	375.03
501.34	380.40
501.71	386.01
502.07	391.78
502.43	397.80
502.79	403.94
503.16	410.41
503.52	417.08
503.88	423.86
504.24	430.89
504.60	438.14
504.97	445.67
505.33	453.46
505.69	461.58
506.05	469.80
506.41	478.19
506.78	486.87
507.14	495.90
507.50	505.18
507.86	514.82
508.22	524.66
508.59	534.50
508.95	544.75
509.31	555.27
509.67	566.04
510.03	577.01
510.39	588.43
510.75	599.97
511.12	611.63
511.48	623.79
511.84	636.07
512.20	648.54
512.56	661.41
512.92	674.55
513.28	687.89
513.64	701.38
514.00	715.04
514.37	729.07
514.73	743.13
515.09	757.27
515.45	771.70
515.81	786.34
516.17	801.46
516.53	816.79
516.89	832.13
517.25	847.57
517.61	863.21
517.97	878.85
518.33	894.39
518.69	910.51
519.05	926.75
519.41	943.30
519.77	960.25
520.13	977.05
520.49	993.82
520.85	1010.60
521.21	1027.70
521.57	1045.50
521.93	1062.74
522.29	1080.59
522.65	1098.43
523.01	1116.19
523.37	1133.73
523.73	1151.43
524.09	1169.08
524.45	1186.95
524.81	1205.27
525.17	1223.70
525.53	1242.32
525.89	1261.16
526.25	1279.84
526.61	1297.95
526.97	1316.50
527.33	1334.64
527.68	1353.07
528.04	1371.36
528.40	1389.75
528.76	1408.74
529.12	1427.15
529.48	1445.99
529.84	1463.95
530.20	1482.55
530.56	1501.47
530.91	1521.13
531.27	1539.95
531.63	1558.42
531.99	1577.01
532.35	1595.07
532.71	1613.08
533.07	1631.34
533.42	1649.13
533.78	1667.25
534.14	1685.69
534.50	1703.19
534.86	1721.42
535.21	1738.79
535.57	1756.91
535.93	1774.61
536.29	1791.58
536.65	1808.94
537.00	1825.83
537.36	1843.48
537.72	1860.11
538.08	1876.74
538.44	1892.49
538.79	1908.64
539.15	1924.43
539.51	1940.34
539.87	1956.89
540.22	1972.86
540.58	1989.14
540.94	2004.86
541.29	2019.99
541.65	2034.85
542.01	2050.25
542.37	2064.73
542.72	2079.33
543.08	2093.31
543.44	2108.11
543.79	2121.66
544.15	2134.84
544.51	2148.83
544.87	2161.93
545.22	2175.02
545.58	2187.53
545.94	2199.55
546.29	2211.49
546.65	2223.70
547.01	2235.49
547.36	2246.25
547.72	2256.87
548.07	2266.78
548.43	2277.03
548.79	2286.95
549.14	2296.69
549.50	2306.07
549.86	2315.62
550.21	2325.02
550.57	2334.28
550.92	2342.81
551.28	2351.77
551.64	2360.87
551.99	2369.29
552.35	2377.42
552.70	2385.53
553.06	2393.41
553.41	2401.85
553.77	2409.84
554.13	2417.74
554.48	2425.75
554.84	2433.43
555.19	2440.48
555.55	2447.25
555.90	2453.45
556.26	2460.33
556.61	2466.75
556.97	2472.89
557.32	2478.90
557.68	2484.87
558.03	2490.77
558.39	2496.01
558.74	2502.45
559.10	2507.84
559.45	2513.07
559.81	2518.93
560.16	2524.27
560.52	2528.93
560.87	2533.80
561.23	2538.01
561.58	2542.30
561.94	2546.12
562.29	2549.45
562.64	2553.61
563.00	2557.62
563.35	2562.59
563.71	2567.05
564.06	2571.56
564.42	2575.74
564.77	2579.55
565.12	2582.99
565.48	2586.22
565.83	2589.38
566.19	2591.76
566.54	2593.59
566.89	2595.83
567.25	2597.57
567.60	2599.92
567.96	2602.93
568.31	2604.70
568.66	2606.83
569.02	2608.35
569.37	2609.43
569.72	2611.21
570.08	2612.20
570.43	2613.00
570.78	2613.16
571.14	2612.15
571.49	2611.44
571.84	2611.58
572.20	2610.99
572.55	2610.45
572.90	2609.28
573.26	2608.39
573.61	2607.13
573.96	2606.09
574.31	2603.19
574.67	2600.37
575.02	2596.81
575.37	2593.48
575.72	2589.91
576.08	2586.39
576.43	2583.17
576.78	2579.68
577.13	2576.71
577.49	2573.47
577.84	2570.08
578.19	2566.20
578.54	2562.72
578.90	2558.53
579.25	2552.84
579.60	2547.62
579.95	2542.30
580.30	2536.93
580.66	2531.47
581.01	2526.10
581.36	2520.83
581.71	2516.63
582.06	2511.99
582.42	2507.45
582.77	2501.77
583.12	2496.87
583.47	2492.04
583.82	2486.87
584.17	2481.12
584.53	2475.20
584.88	2469.09
585.23	2462.79
585.58	2456.94
585.93	2450.89
586.28	2445.54
586.63	2440.03
586.98	2434.57
587.34	2429.41
587.69	2424.09
588.04	2418.28
588.39	2412.19
588.74	2404.95
589.09	2398.01
589.44	2390.39
589.79	2383.49
590.14	2377.30
590.49	2369.81
590.84	2362.48
591.19	2355.66
591.54	2348.41
591.89	2340.13
592.25	2332.75
592.60	2324.54
592.95	2315.94
593.30	2307.57
593.65	2298.91
594.00	2290.82
594.35	2282.51
594.70	2273.25
595.05	2265.24
595.40	2257.02
595.75	2248.28
596.10	2241.15
596.45	2233.54
596.80	2226.58
597.15	2219.06
597.50	2211.05
597.85	2203.56
598.19	2196.01
598.54	2187.79
598.89	2180.09
599.24	2173.38
599.59	2165.73
599.94	2158.78
600.29	2151.50
600.64	2143.91
600.99	2135.47
601.34	2127.62
601.69	2119.51
602.04	2111.88
602.39	2103.26
602.74	2095.23
603.08	2087.57
603.43	2079.73
603.78	2071.22
604.13	2062.78
604.48	2054.32
604.83	2046.14
605.18	2038.28
605.53	2028.94
605.87	2019.62
606.22	2011.15
606.57	2001.66
606.92	1992.78
607.27	1984.30
607.62	1976.12
607.96	1967.53
608.31	1959.85
608.66	1950.83
609.01	1942.05
609.36	1933.03
609.70	1923.64
610.05	1914.19
610.40	1905.15
610.75	1895.34
611.10	1886.33
611.44	1876.26
611.79	1866.83
612.14	1856.82
612.49	1845.88
612.83	1836.20
613.18	1826.56
613.53	1817.11
613.88	1807.22
614.22	1797.51
614.57	1787.19
614.92	1777.85
615.27	1769.09
615.61	1759.21
615.96	1749.83
616.31	1740.81
616.65	1732.08
617.00	1723.14
617.35	1714.04
617.70	1704.30
618.04	1694.43
618.39	1684.64
618.74	1675.83
619.08	1666.08
619.43	1656.96
619.78	1648.86
620.12	1640.30
620.47	1631.50
620.82	1621.82
621.16	1612.91
621.51	1603.86
621.85	1594.94
622.20	1584.79
622.55	1574.84
622.89	1565.50
623.24	1556.42
623.59	1547.53
623.93	1538.67
624.28	1530.08
624.62	1521.23
624.97	1512.64
625.32	1504.49
625.66	1496.15
626.01	1487.61
626.35	1478.83
626.70	1469.73
627.04	1460.60
627.39	1451.36
627.73	1442.60
628.08	1434.59
628.43	1425.99
628.77	1417.46
629.12	1408.59
629.46	1400.16
629.81	1391.38
630.15	1382.89
630.50	1374.18
630.84	1364.60
631.19	1355.21
631.53	1346.40
631.88	1337.41
632.22	1328.50
632.57	1319.92
632.91	1311.06
633.26	1302.29
633.60	1293.53
633.95	1285.06
634.29	1276.73
634.64	1268.94
634.98	1260.34
635.32	1251.85
635.67	1244.05
636.01	1236.27
636.36	1228.28
636.70	1220.51
637.05	1212.90
637.39	1205.33
637.73	1197.78
638.08	1190.81
638.42	1183.76
638.77	1176.25
639.11	1168.70
639.45	1161.14
639.80	1153.40
640.14	1145.97
640.49	1138.44
640.83	1131.15
641.17	1123.91
641.52	1116.47
641.86	1108.82
642.20	1101.91
642.55	1094.42
642.89	1086.98
643.23	1079.21
643.58	1072.52
643.92	1065.37
644.26	1058.27
644.61	1051.15
644.95	1044.14
645.29	1036.51
645.64	1028.70
645.98	1021.22
646.32	1014.28
646.66	1007.21
647.01	1000.47
647.35	993.86
647.69	986.97
648.04	980.41
648.38	973.66
648.72	966.82
649.06	959.87
649.41	953.03
649.75	946.13
650.09	939.20
650.43	932.60
650.78	925.47
651.12	918.58
651.46	911.90
651.80	905.40
652.14	899.06
652.49	892.85
652.83	886.85
653.17	880.37
653.51	873.81
653.85	867.61
654.20	861.05
654.54	854.05
654.88	847.43
655.22	840.61
655.56	834.08
655.90	827.66
656.25	821.56
656.59	815.32
656.93	809.53
657.27	803.57
657.61	797.22
657.95	791.27
658.29	785.38
658.64	779.31
658.98	773.07
659.32	766.74
659.66	760.73
660.00	754.60
660.34	748.78
660.68	743.06
661.02	737.21
661.36	731.69
661.70	726.46
662.05	721.44
662.39	716.51
662.73	711.30
663.07	706.21
663.41	701.06
663.75	695.87
664.09	690.47
664.43	685.40
664.77	680.63
665.11	675.67
665.45	670.80
665.79	665.98
666.13	661.23
666.47	656.55
666.81	651.74
667.15	646.98
667.49	642.48
667.83	638.01
668.17	633.42
668.51	628.79
668.85	624.16
669.19	619.62
669.53	615.19
669.87	610.76
670.21	606.50
670.55	602.25
670.89	598.26
671.23	594.28
671.57	590.14
671.91	586.05
672.25	582.01
672.58	577.98
672.92	574.06
673.26	570.36
673.60	566.70
673.94	563.14
674.28	559.72
674.62	556.38
674.96	552.80
675.30	549.51
675.64	546.15
675.97	542.89
676.31	539.60
676.65	536.22
676.99	533.06
677.33	529.72
677.67	526.47
678.01	523.06
678.34	519.71
678.68	516.37
679.02	513.15
679.36	509.92
679.70	506.75
680.04	503.62
680.37	500.28
680.71	496.99
681.05	493.94
681.39	490.83
681.73	487.63
682.06	484.78
682.40	481.82
682.74	478.84
683.08	475.88
683.42	472.91
683.75	470.04
684.09	467.08
684.43	464.18
684.77	461.33
685.10	458.53
685.44	455.78
685.78	453.15
686.12	450.49
686.45	447.88
686.79	445.26
687.13	442.70
687.46	440.15
687.80	437.65
688.14	435.05
688.48	432.69
688.81	430.12
689.15	427.52
689.49	425.03
689.82	422.57
690.16	420.13
690.50	417.87
690.83	415.63
691.17	413.34
691.51	411.18
691.84	409.02
692.18	406.85
692.52	404.57
692.85	402.28
693.19	400.09
693.52	397.93
693.86	395.79
694.20	393.73
694.53	391.62
694.87	389.47
695.21	387.39
695.54	385.24
695.88	383.25
696.21	381.28
696.55	379.31
696.88	377.36
697.22	375.39
697.56	373.45
697.89	371.54
698.23	369.66
698.56	367.77
698.90	365.95
699.23	364.03
699.57	362.25
699.90	360.45
700.24	358.67
700.58	356.92
700.91	355.16
701.25	353.41
701.58	351.83
701.92	350.28
702.25	348.71
702.59	347.13
702.92	345.62
703.26	344.09
703.59	342.59
703.93	341.22
704.26	339.82
704.60	338.34
704.93	336.84
705.26	335.35
705.60	333.99
705.93	332.62
706.27	331.38
706.60	330.13
706.94	328.90
707.27	327.58
707.61	326.31
707.94	325.14
708.27	323.91
708.61	322.65
708.94	321.46
709.28	320.29
709.61	319.14
709.94	318.00
710.28	316.79
710.61	315.63
710.95	314.36
711.28	313.27
711.61	312.17
711.95	311.06
712.28	309.98
712.61	308.79
712.95	307.65
713.28	306.61
713.61	305.59
713.95	304.57
714.28	303.58
714.61	302.57
714.95	301.56
715.28	300.54
715.61	299.54
715.95	298.54
716.28	297.54
716.61	296.55
716.95	295.60
717.28	294.77
717.61	293.89
717.94	293.07
718.28	292.12
718.61	291.25
718.94	290.46
719.27	289.69
719.61	288.98
719.94	288.27
720.27	287.46
720.60	286.68
720.94	285.94
721.27	285.26
721.60	284.59
721.93	283.89
722.27	283.28
722.60	282.65
722.93	281.96
723.26	281.33
723.59	280.68
723.93	280.02
724.26	279.33
724.59	278.65
724.92	278.00
725.25	277.44
725.59	276.81
725.92	276.18
726.25	275.57
726.58	274.96
726.91	274.38
727.24	273.80
727.57	273.25
727.91	272.65
728.24	272.11
728.57	271.51
728.90	270.96
729.23	270.34
729.56	269.79
729.89	269.24
730.22	268.70
730.55	268.18
730.89	267.65
731.22	267.15
731.55	266.67
731.88	266.18
732.21	265.68
732.54	265.17
732.87	264.70
733.20	264.20
733.53	263.78
733.86	263.31
734.19	262.88
734.52	262.43
734.85	262.08
735.18	261.56
735.51	261.14
735.84	260.71
736.17	260.35
736.50	259.90
736.83	259.65
737.16	259.28
737.49	258.89
737.82	258.50
738.15	258.11
738.48	257.75
738.81	257.37
739.14	256.99
739.47	256.70
739.80	256.37
740.13	256.03
740.46	255.64
740.79	255.25
741.12	254.89
741.45	254.50
741.78	254.08
742.11	253.79
742.44	253.44
742.77	253.13
743.10	252.79
743.43	252.41
743.75	252.00
744.08	251.79
744.41	251.50
744.74	251.16
745.07	250.87
745.40	250.56
745.73	250.32
746.06	249.97
746.39	249.63
746.71	249.31
747.04	248.99
747.37	248.67
747.70	248.42
748.03	248.17
748.36	247.92
748.68	247.66
749.01	247.35
749.34	247.09
749.67	246.81
750.00	246.56
750.33	246.41
750.65	246.14
750.98	245.74
751.31	245.45
751.64	245.24
751.97	245.06
752.29	244.82
752.62	244.50
752.95	244.29
753.28	244.05
753.60	243.81
753.93	243.59
754.26	243.39
754.59	243.12
754.91	242.88
755.24	242.69
755.57	242.43
755.90	242.23
756.22	242.01
756.55	241.78
756.88	241.58
757.20	241.32
757.53	241.07
757.86	240.88
758.19	240.71
758.51	240.52
758.84	240.28
759.17	240.09
759.49	239.91
759.82	239.79
760.15	239.59
760.47	239.43
760.80	239.25
761.13	239.12
761.45	238.94
761.78	238.74
762.11	238.51
762.43	238.36
762.76	238.18
763.08	238.04
763.41	237.88
763.74	237.69
764.06	237.52
764.39	237.39
764.71	237.21
765.04	237.07
765.37	236.93
765.69	236.76
766.02	236.60
766.34	236.45
766.67	236.22
767.00	236.08
767.32	235.99
767.65	235.88
767.97	235.72
768.30	235.58
768.62	235.43
768.95	235.33
769.27	235.21
769.60	235.14
769.92	235.01
770.25	234.88
770.57	234.76
770.90	234.64
771.22	234.49
771.55	234.41
771.87	234.28
772.20	234.15
772.52	234.11
772.85	234.10
773.17	233.99
773.50	233.90
773.82	233.81
774.15	233.65
774.47	233.52
774.80	233.42
775.12	233.33
775.45	233.25
775.77	233.15
776.09	233.07
776.42	232.94
776.74	232.86
777.07	232.80
777.39	232.71
777.72	232.62
778.04	232.55
778.36	232.47
778.69	232.38
779.01	232.30
779.33	232.13
779.66	231.98
779.98	231.91
780.31	231.86
780.63	231.85
780.95	231.79
781.28	231.72
781.60	231.66
781.92	231.59
782.25	231.52
782.57	231.44
782.89	231.38
783.22	231.30
783.54	231.22
783.86	231.16
784.19	231.10
784.51	231.06
784.83	230.98
785.16	230.91
785.48	230.89
785.80	230.88
786.12	230.83
786.45	230.79
