SpectraSuite Data File
++++++++++++++++++++++++++++++++++++
Date: Fri Feb 01 16:33:56 EST 2013
User: group
Dark Spectrum Present: No
Reference Spectrum Present: No
Number of Sampled Component Spectra: 1
Spectrometers: USB2E7196
Integration Time (usec): 35000 (USB2E7196)
Spectra Averaged: 100 (USB2E7196)
Boxcar Smoothing: 10 (USB2E7196)
Correct for Electrical Dark: No (USB2E7196)
Strobe/Lamp Enabled: No (USB2E7196)
Correct for Detector Non-linearity: No (USB2E7196)
Correct for Stray Light: No (USB2E7196)
Number of Pixels in Processed Spectrum: 2048
>>>>>Begin Processed Spectral Data<<<<<
339.09	0.00
339.48	214.23
339.86	215.59
340.24	216.66
340.63	219.22
341.01	221.27
341.39	221.06
341.78	221.80
342.16	223.20
342.54	224.06
342.93	212.40
343.31	223.11
343.69	223.64
344.07	224.08
344.46	224.51
344.84	224.84
345.22	225.07
345.60	225.30
345.99	225.48
346.37	225.60
346.75	225.68
347.13	225.78
347.52	225.81
347.90	225.88
348.28	225.88
348.66	225.92
349.05	225.88
349.43	225.89
349.81	225.94
350.19	225.98
350.57	226.03
350.96	226.10
351.34	226.20
351.72	226.27
352.10	226.39
352.48	226.46
352.87	226.54
353.25	226.61
353.63	226.69
354.01	226.77
354.39	226.86
354.77	226.93
355.15	226.97
355.54	227.07
355.92	227.10
356.30	227.20
356.68	227.34
357.06	227.43
357.44	227.51
357.82	227.57
358.20	227.64
358.58	227.72
358.97	227.76
359.35	227.83
359.73	227.92
360.11	227.96
360.49	228.01
360.87	228.07
361.25	228.12
361.63	228.19
362.01	228.27
362.39	228.30
362.77	228.36
363.15	228.44
363.53	228.49
363.91	228.53
364.29	228.54
364.67	228.48
365.05	228.50
365.43	228.48
365.81	228.53
366.19	228.60
366.57	228.65
366.95	228.64
367.33	228.61
367.71	228.59
368.09	228.60
368.47	228.59
368.85	228.55
369.23	228.58
369.61	228.52
369.99	228.49
370.37	228.47
370.75	228.49
371.13	228.39
371.51	228.32
371.89	228.30
372.27	228.23
372.65	228.22
373.03	228.18
373.41	228.14
373.78	228.07
374.16	227.95
374.54	227.84
374.92	227.77
375.30	227.70
375.68	227.63
376.06	227.57
376.44	227.52
376.82	227.45
377.19	227.36
377.57	227.29
377.95	227.18
378.33	227.12
378.71	227.01
379.09	226.98
379.47	226.95
379.84	226.84
380.22	226.78
380.60	226.67
380.98	226.58
381.36	226.51
381.73	226.43
382.11	226.39
382.49	226.35
382.87	226.27
383.25	226.23
383.62	226.30
384.00	226.22
384.38	226.15
384.76	226.11
385.13	226.08
385.51	226.03
385.89	225.97
386.27	225.90
386.64	225.85
387.02	225.79
387.40	225.70
387.78	225.65
388.15	225.60
388.53	225.59
388.91	225.57
389.29	225.54
389.66	225.53
390.04	225.47
390.42	225.47
390.79	225.46
391.17	225.43
391.55	225.27
391.92	225.25
392.30	225.23
392.68	225.22
393.05	225.18
393.43	225.17
393.81	225.21
394.18	225.18
394.56	225.20
394.94	225.24
395.31	225.28
395.69	225.36
396.06	225.36
396.44	225.41
396.82	225.45
397.19	225.50
397.57	225.54
397.95	225.59
398.32	225.60
398.70	225.66
399.07	225.74
399.45	225.80
399.82	225.86
400.20	225.91
400.58	225.97
400.95	226.00
401.33	226.13
401.70	226.28
402.08	226.41
402.45	226.48
402.83	226.60
403.20	226.72
403.58	226.83
403.95	227.00
404.33	227.11
404.71	227.21
405.08	227.39
405.46	227.51
405.83	227.67
406.21	227.83
406.58	228.03
406.96	228.22
407.33	228.39
407.70	228.62
408.08	228.90
408.45	229.12
408.83	229.41
409.20	229.60
409.58	229.76
409.95	230.01
410.33	230.32
410.70	230.58
411.08	230.84
411.45	231.16
411.82	231.47
412.20	231.82
412.57	232.26
412.95	232.54
413.32	232.93
413.69	233.38
414.07	233.85
414.44	234.29
414.82	234.75
415.19	235.30
415.56	235.85
415.94	236.39
416.31	237.06
416.68	237.68
417.06	238.42
417.43	239.12
417.81	239.89
418.18	240.63
418.55	241.46
418.93	242.35
419.30	243.22
419.67	244.17
420.04	245.11
420.42	246.10
420.79	247.27
421.16	248.42
421.54	249.59
421.91	250.77
422.28	252.02
422.66	253.35
423.03	254.67
423.40	255.99
423.77	257.41
424.15	258.80
424.52	260.27
424.89	261.86
425.26	263.41
425.64	264.83
426.01	266.39
426.38	268.00
426.75	269.68
427.13	271.37
427.50	273.17
427.87	275.05
428.24	276.88
428.61	278.65
428.99	280.58
429.36	282.69
429.73	284.74
430.10	286.77
430.47	288.81
430.85	290.86
431.22	293.09
431.59	295.43
431.96	297.66
432.33	300.10
432.70	302.40
433.08	305.18
433.45	307.80
433.82	310.42
434.19	313.33
434.56	316.11
434.93	318.76
435.30	321.29
435.68	324.15
436.05	326.97
436.42	329.70
436.79	332.19
437.16	334.84
437.53	337.57
437.90	340.33
438.27	343.05
438.64	345.90
439.01	348.44
439.38	350.65
439.75	352.80
440.13	355.33
440.50	357.71
440.87	359.52
441.24	361.46
441.61	363.55
441.98	365.01
442.35	366.77
442.72	368.58
443.09	370.36
443.46	371.34
443.83	371.92
444.20	372.42
444.57	373.23
444.94	373.52
445.31	373.90
445.68	374.29
446.05	374.34
446.42	373.94
446.79	373.51
447.16	373.04
447.53	372.71
447.90	371.50
448.27	370.28
448.64	368.74
449.01	367.64
449.37	365.75
449.74	363.84
450.11	361.58
450.48	359.15
450.85	356.66
451.22	354.53
451.59	352.53
451.96	350.64
452.33	348.10
452.70	345.72
453.07	342.91
453.43	340.03
453.80	337.29
454.17	334.62
454.54	332.09
454.91	329.42
455.28	326.77
455.65	324.32
456.02	321.95
456.38	319.80
456.75	317.14
457.12	314.87
457.49	312.67
457.86	310.52
458.23	308.70
458.59	306.68
458.96	304.64
459.33	302.79
459.70	300.92
460.07	299.42
460.43	297.76
460.80	296.15
461.17	294.73
461.54	293.26
461.91	291.87
462.27	290.50
462.64	289.29
463.01	287.97
463.38	286.66
463.74	285.31
464.11	284.13
464.48	283.10
464.85	282.02
465.21	281.18
465.58	280.30
465.95	279.23
466.32	278.33
466.68	277.44
467.05	276.56
467.42	275.68
467.78	274.74
468.15	273.85
468.52	273.19
468.88	272.34
469.25	271.58
469.62	270.95
469.98	270.25
470.35	269.61
470.72	269.01
471.08	268.40
471.45	267.87
471.82	267.36
472.18	266.81
472.55	266.41
472.92	265.88
473.28	265.43
473.65	264.97
474.02	264.57
474.38	264.20
474.75	263.90
475.11	263.59
475.48	263.34
475.85	263.13
476.21	262.88
476.58	262.71
476.94	262.55
477.31	262.38
477.67	262.23
478.04	262.11
478.41	262.01
478.77	262.04
479.14	261.93
479.50	261.95
479.87	261.98
480.23	262.03
480.60	262.09
480.96	262.21
481.33	262.39
481.69	262.54
482.06	262.71
482.42	262.91
482.79	263.15
483.15	263.45
483.52	263.82
483.88	264.18
484.25	264.54
484.61	265.00
484.98	265.45
485.34	266.02
485.71	266.59
486.07	267.20
486.44	267.73
486.80	268.47
487.17	269.19
487.53	270.03
487.90	270.87
488.26	271.79
488.62	272.77
488.99	273.76
489.35	274.81
489.72	275.94
490.08	277.11
490.44	278.34
490.81	279.69
491.17	281.01
491.54	282.50
491.90	284.02
492.26	285.67
492.63	287.43
492.99	289.22
493.36	291.16
493.72	293.22
494.08	295.38
494.45	297.66
494.81	300.08
495.17	302.50
495.54	305.07
495.90	307.80
496.26	310.59
496.63	313.57
496.99	316.73
497.35	320.02
497.72	323.47
498.08	327.03
498.44	330.78
498.80	334.73
499.17	338.79
499.53	342.98
499.89	347.40
500.26	351.92
500.62	356.65
500.98	361.65
501.34	366.75
501.71	372.12
502.07	377.55
502.43	383.17
502.79	389.04
503.16	395.16
503.52	401.45
503.88	407.90
504.24	414.62
504.60	421.47
504.97	428.68
505.33	436.04
505.69	443.77
506.05	451.53
506.41	459.44
506.78	467.60
507.14	476.07
507.50	484.72
507.86	493.76
508.22	502.93
508.59	512.15
508.95	521.75
509.31	531.57
509.67	541.72
510.03	551.98
510.39	562.49
510.75	573.29
511.12	584.22
511.48	595.55
511.84	606.91
512.20	618.39
512.56	630.26
512.92	642.42
513.28	654.79
513.64	667.22
514.00	679.97
514.37	692.94
514.73	706.01
515.09	719.04
515.45	732.32
515.81	745.88
516.17	759.82
516.53	773.95
516.89	788.08
517.25	802.14
517.61	816.61
517.97	831.00
518.33	845.47
518.69	860.16
519.05	875.07
519.41	890.28
519.77	905.81
520.13	921.17
520.49	936.52
520.85	951.77
521.21	967.31
521.57	983.46
521.93	999.09
522.29	1015.44
522.65	1031.66
523.01	1047.78
523.37	1063.69
523.73	1079.78
524.09	1095.69
524.45	1111.79
524.81	1128.32
525.17	1144.86
525.53	1161.66
525.89	1178.33
526.25	1195.15
526.61	1211.43
526.97	1228.04
527.33	1244.48
527.68	1261.02
528.04	1277.35
528.40	1293.83
528.76	1310.84
529.12	1327.30
529.48	1344.21
529.84	1359.97
530.20	1376.50
530.56	1393.35
530.91	1410.76
531.27	1427.45
531.63	1443.91
531.99	1460.54
532.35	1476.46
532.71	1492.38
533.07	1508.65
533.42	1524.56
533.78	1540.50
534.14	1556.59
534.50	1571.78
534.86	1587.49
535.21	1602.52
535.57	1618.26
535.93	1633.60
536.29	1648.30
536.65	1663.19
537.00	1677.74
537.36	1692.88
537.72	1707.18
538.08	1721.52
538.44	1735.00
538.79	1748.60
539.15	1762.01
539.51	1775.53
539.87	1789.67
540.22	1803.05
540.58	1816.50
540.94	1829.43
541.29	1842.17
541.65	1854.70
542.01	1867.84
542.37	1880.07
542.72	1892.37
543.08	1904.10
543.44	1916.43
543.79	1927.69
544.15	1938.49
544.51	1950.02
544.87	1960.98
545.22	1971.89
545.58	1982.02
545.94	1991.91
546.29	2001.80
546.65	2011.69
547.01	2020.91
547.36	2029.64
547.72	2038.24
548.07	2046.24
548.43	2054.53
548.79	2062.40
549.14	2070.11
549.50	2077.37
549.86	2084.97
550.21	2092.25
550.57	2099.49
550.92	2106.06
551.28	2112.99
551.64	2120.12
551.99	2126.61
552.35	2132.81
552.70	2138.78
553.06	2144.78
553.41	2151.06
553.77	2157.04
554.13	2162.99
554.48	2169.05
554.84	2174.69
555.19	2179.93
555.55	2185.11
555.90	2189.70
556.26	2194.69
556.61	2199.33
556.97	2203.71
557.32	2207.96
557.68	2212.10
558.03	2216.34
558.39	2219.92
558.74	2224.54
559.10	2228.49
559.45	2231.97
559.81	2236.21
560.16	2240.17
560.52	2243.44
560.87	2246.88
561.23	2249.59
561.58	2252.56
561.94	2255.05
562.29	2257.23
562.64	2260.11
563.00	2262.60
563.35	2265.99
563.71	2269.01
564.06	2272.22
564.42	2275.13
564.77	2277.64
565.12	2280.07
565.48	2282.03
565.83	2284.17
566.19	2285.42
566.54	2286.23
566.89	2287.58
567.25	2288.38
567.60	2289.66
567.96	2291.30
568.31	2292.10
568.66	2293.36
569.02	2294.08
569.37	2294.56
569.72	2295.44
570.08	2295.41
570.43	2295.55
570.78	2295.06
571.14	2293.54
571.49	2292.12
571.84	2291.72
572.20	2290.55
572.55	2289.38
572.90	2287.83
573.26	2286.31
573.61	2284.63
573.96	2283.08
574.31	2280.20
574.67	2277.07
575.02	2273.40
575.37	2270.07
575.72	2266.42
576.08	2262.91
576.43	2259.49
576.78	2255.96
577.13	2252.66
577.49	2249.72
577.84	2246.18
578.19	2242.42
578.54	2239.10
578.90	2235.07
579.25	2229.58
579.60	2224.76
579.95	2219.93
580.30	2214.86
580.66	2209.76
581.01	2204.79
581.36	2199.97
581.71	2195.84
582.06	2191.69
582.42	2187.47
582.77	2182.39
583.12	2177.94
583.47	2173.40
583.82	2168.64
584.17	2163.40
584.53	2158.15
584.88	2152.63
585.23	2147.04
585.58	2141.70
585.93	2136.21
586.28	2131.44
586.63	2126.58
586.98	2121.59
587.34	2116.90
587.69	2112.18
588.04	2107.17
588.39	2101.83
588.74	2095.28
589.09	2089.21
589.44	2082.31
589.79	2076.15
590.14	2070.44
590.49	2063.88
590.84	2057.53
591.19	2051.52
591.54	2045.18
591.89	2037.99
592.25	2031.30
592.60	2024.22
592.95	2016.74
593.30	2009.54
593.65	2001.99
594.00	1994.89
594.35	1987.54
594.70	1979.48
595.05	1972.50
595.40	1965.28
595.75	1957.83
596.10	1951.85
596.45	1945.17
596.80	1939.17
597.15	1932.74
597.50	1925.90
597.85	1919.52
598.19	1912.99
598.54	1906.10
598.89	1899.58
599.24	1893.65
599.59	1887.00
599.94	1880.77
600.29	1874.50
600.64	1867.90
600.99	1860.60
601.34	1853.82
601.69	1846.94
602.04	1840.30
602.39	1832.97
602.74	1826.16
603.08	1819.42
603.43	1812.66
603.78	1805.32
604.13	1798.05
604.48	1790.86
604.83	1783.94
605.18	1777.11
605.53	1769.03
605.87	1760.86
606.22	1753.42
606.57	1745.45
606.92	1737.99
607.27	1730.84
607.62	1724.07
607.96	1716.75
608.31	1710.37
608.66	1702.77
609.01	1695.30
609.36	1687.73
609.70	1679.63
610.05	1671.61
610.40	1664.05
610.75	1655.70
611.10	1648.03
611.44	1639.53
611.79	1631.39
612.14	1622.70
612.49	1613.35
612.83	1604.98
613.18	1596.89
613.53	1588.89
613.88	1580.37
614.22	1572.21
614.57	1563.57
614.92	1555.43
615.27	1548.04
615.61	1539.63
615.96	1531.61
616.31	1523.93
616.65	1516.55
617.00	1509.08
617.35	1501.30
617.70	1492.98
618.04	1484.56
618.39	1476.37
618.74	1469.04
619.08	1460.77
619.43	1453.22
619.78	1446.29
620.12	1439.25
620.47	1431.81
620.82	1423.64
621.16	1416.18
621.51	1408.54
621.85	1400.88
622.20	1392.28
622.55	1383.75
622.89	1375.84
623.24	1368.22
623.59	1360.84
623.93	1353.29
624.28	1346.02
624.62	1338.55
624.97	1331.29
625.32	1324.42
625.66	1317.40
626.01	1310.15
626.35	1302.82
626.70	1295.06
627.04	1287.48
627.39	1279.67
627.73	1272.24
628.08	1265.43
628.43	1258.27
628.77	1250.92
629.12	1243.46
629.46	1236.35
629.81	1228.95
630.15	1221.64
630.50	1214.23
630.84	1206.05
631.19	1197.97
631.53	1190.38
631.88	1182.77
632.22	1175.18
632.57	1167.97
632.91	1160.36
633.26	1152.93
633.60	1145.46
633.95	1138.27
634.29	1131.21
634.64	1124.48
634.98	1117.08
635.32	1109.85
635.67	1103.15
636.01	1096.48
636.36	1089.64
636.70	1083.09
637.05	1076.54
637.39	1070.15
637.73	1063.65
638.08	1057.71
638.42	1051.76
638.77	1045.36
639.11	1038.92
639.45	1032.54
639.80	1025.87
640.14	1019.63
640.49	1013.06
640.83	1006.85
641.17	1000.75
641.52	994.36
641.86	988.00
642.20	982.15
642.55	975.84
642.89	969.52
643.23	962.92
643.58	957.10
643.92	950.91
644.26	944.95
644.61	938.85
644.95	932.86
645.29	926.42
645.64	919.77
645.98	913.47
646.32	907.45
646.66	901.39
647.01	895.55
647.35	889.74
647.69	883.89
648.04	878.26
648.38	872.46
648.72	866.54
649.06	860.47
649.41	854.50
649.75	848.52
650.09	842.54
650.43	836.85
650.78	830.73
651.12	824.73
651.46	818.88
651.80	813.19
652.14	807.82
652.49	802.41
652.83	797.22
653.17	791.56
653.51	785.91
653.85	780.43
654.20	774.77
654.54	768.74
654.88	762.96
655.22	757.06
655.56	751.23
655.90	745.71
656.25	740.42
656.59	735.14
656.93	730.06
657.27	724.86
657.61	719.37
657.95	714.25
658.29	709.23
658.64	704.01
658.98	698.69
659.32	693.20
659.66	687.96
660.00	682.74
660.34	677.74
660.68	672.82
661.02	667.87
661.36	663.12
661.70	658.72
662.05	654.43
662.39	650.16
662.73	645.70
663.07	641.28
663.41	636.83
663.75	632.30
664.09	627.69
664.43	623.27
664.77	619.16
665.11	614.93
665.45	610.79
665.79	606.67
666.13	602.51
666.47	598.33
666.81	594.15
667.15	589.89
667.49	585.98
667.83	582.07
668.17	578.09
668.51	574.08
668.85	569.97
669.19	566.10
669.53	562.22
669.87	558.47
670.21	554.84
670.55	551.20
670.89	547.77
671.23	544.35
671.57	540.82
671.91	537.32
672.25	533.83
672.58	530.27
672.92	526.87
673.26	523.66
673.60	520.54
673.94	517.47
674.28	514.58
674.62	511.60
674.96	508.57
675.30	505.64
675.64	502.72
675.97	499.96
676.31	497.05
676.65	494.13
676.99	491.42
677.33	488.54
677.67	485.70
678.01	482.66
678.34	479.75
678.68	476.84
679.02	474.02
679.36	471.24
679.70	468.56
680.04	465.85
680.37	463.06
680.71	460.23
681.05	457.60
681.39	454.88
681.73	452.26
682.06	449.73
682.40	447.21
682.74	444.68
683.08	442.08
683.42	439.51
683.75	436.96
684.09	434.32
684.43	431.85
684.77	429.44
685.10	427.15
685.44	424.80
685.78	422.57
686.12	420.24
686.45	417.93
686.79	415.59
687.13	413.42
687.46	411.17
687.80	409.03
688.14	406.81
688.48	404.79
688.81	402.55
689.15	400.35
689.49	398.23
689.82	396.11
690.16	394.06
690.50	392.08
690.83	390.24
691.17	388.24
691.51	386.30
691.84	384.41
692.18	382.47
692.52	380.54
692.85	378.58
693.19	376.79
693.52	374.96
693.86	373.18
694.20	371.34
694.53	369.61
694.87	367.77
695.21	365.97
695.54	364.12
695.88	362.38
696.21	360.70
696.55	359.01
696.88	357.31
697.22	355.62
697.56	354.00
697.89	352.25
698.23	350.66
698.56	349.12
698.90	347.53
699.23	345.85
699.57	344.22
699.90	342.70
700.24	341.09
700.58	339.56
700.91	338.03
701.25	336.54
701.58	335.16
701.92	333.81
702.25	332.46
702.59	331.08
702.92	329.76
703.26	328.44
703.59	327.09
703.93	325.94
704.26	324.71
704.60	323.40
704.93	322.19
705.26	320.97
705.60	319.73
705.93	318.56
706.27	317.49
706.60	316.44
706.94	315.35
707.27	314.24
707.61	313.18
707.94	312.14
708.27	311.10
708.61	309.99
708.94	309.01
709.28	307.98
709.61	307.03
709.94	306.07
710.28	305.05
710.61	304.09
710.95	303.02
711.28	302.08
711.61	301.18
711.95	300.29
712.28	299.31
712.61	298.32
712.95	297.40
713.28	296.52
713.61	295.62
713.95	294.73
714.28	293.89
714.61	293.03
714.95	292.19
715.28	291.32
715.61	290.45
715.95	289.55
716.28	288.70
716.61	287.83
716.95	286.98
717.28	286.21
717.61	285.48
717.94	284.75
718.28	283.97
718.61	283.21
718.94	282.50
719.27	281.84
719.61	281.19
719.94	280.52
720.27	279.81
720.60	279.19
720.94	278.54
721.27	277.92
721.60	277.33
721.93	276.71
722.27	276.16
722.60	275.59
722.93	275.02
723.26	274.49
723.59	273.93
723.93	273.40
724.26	272.84
724.59	272.25
724.92	271.70
725.25	271.15
725.59	270.64
725.92	270.13
726.25	269.62
726.58	269.14
726.91	268.66
727.24	268.23
727.57	267.76
727.91	267.29
728.24	266.84
728.57	266.35
728.90	265.93
729.23	265.47
729.56	265.02
729.89	264.55
730.22	264.06
730.55	263.62
730.89	263.18
731.22	262.74
731.55	262.30
731.88	261.88
732.21	261.52
732.54	261.11
732.87	260.66
733.20	260.29
733.53	259.88
733.86	259.51
734.19	259.08
734.52	258.68
734.85	258.32
735.18	257.92
735.51	257.57
735.84	257.18
736.17	256.81
736.50	256.42
736.83	256.22
737.16	255.91
737.49	255.54
737.82	255.22
738.15	254.91
738.48	254.58
738.81	254.23
739.14	253.87
739.47	253.54
739.80	253.25
740.13	252.91
740.46	252.60
740.79	252.23
741.12	251.97
741.45	251.64
741.78	251.34
742.11	251.04
742.44	250.69
742.77	250.43
743.10	250.10
743.43	249.81
743.75	249.40
744.08	249.22
744.41	248.95
744.74	248.71
745.07	248.41
745.40	248.17
745.73	247.94
746.06	247.69
746.39	247.42
746.71	247.16
747.04	246.89
747.37	246.62
747.70	246.39
748.03	246.10
748.36	245.89
748.68	245.62
749.01	245.31
749.34	245.13
749.67	244.88
750.00	244.67
750.33	244.54
750.65	244.30
750.98	243.99
751.31	243.76
751.64	243.49
751.97	243.32
752.29	243.09
752.62	242.81
752.95	242.60
753.28	242.38
753.60	242.13
753.93	241.94
754.26	241.74
754.59	241.52
754.91	241.30
755.24	241.06
755.57	240.86
755.90	240.73
756.22	240.51
756.55	240.30
756.88	240.10
757.20	239.85
757.53	239.66
757.86	239.48
758.19	239.34
758.51	239.18
758.84	238.97
759.17	238.79
759.49	238.67
759.82	238.55
760.15	238.38
760.47	238.23
760.80	238.07
761.13	237.96
761.45	237.80
761.78	237.66
762.11	237.56
762.43	237.40
762.76	237.25
763.08	237.13
763.41	236.99
763.74	236.86
764.06	236.71
764.39	236.58
764.71	236.46
765.04	236.31
765.37	236.17
765.69	236.00
766.02	235.84
766.34	235.69
766.67	235.53
767.00	235.44
767.32	235.40
767.65	235.36
767.97	235.21
768.30	235.13
768.62	235.02
768.95	234.89
769.27	234.80
769.60	234.69
769.92	234.58
770.25	234.47
770.57	234.38
770.90	234.25
771.22	234.15
771.55	234.05
771.87	233.96
772.20	233.85
772.52	233.89
772.85	233.95
773.17	233.87
773.50	233.78
773.82	233.67
774.15	233.52
774.47	233.34
774.80	233.24
775.12	233.14
775.45	233.02
775.77	232.96
776.09	232.87
776.42	232.83
776.74	232.77
777.07	232.71
777.39	232.66
777.72	232.60
778.04	232.54
778.36	232.48
778.69	232.42
779.01	232.39
779.33	232.22
779.66	232.06
779.98	231.97
780.31	231.91
780.63	231.88
780.95	231.85
781.28	231.83
781.60	231.80
781.92	231.74
782.25	231.70
782.57	231.64
782.89	231.58
783.22	231.48
783.54	231.41
783.86	231.36
784.19	231.28
784.51	231.28
784.83	231.21
785.16	231.18
785.48	231.16
785.80	231.12
786.12	231.11
786.45	231.03
786.77	230.99
787.09	230.93
