SpectraSuite Data File
++++++++++++++++++++++++++++++++++++
Date: Fri Feb 01 17:36:27 EST 2013
User: group
Dark Spectrum Present: No
Reference Spectrum Present: No
Number of Sampled Component Spectra: 1
Spectrometers: USB2E7196
Integration Time (usec): 35000 (USB2E7196)
Spectra Averaged: 100 (USB2E7196)
Boxcar Smoothing: 10 (USB2E7196)
Correct for Electrical Dark: No (USB2E7196)
Strobe/Lamp Enabled: No (USB2E7196)
Correct for Detector Non-linearity: No (USB2E7196)
Correct for Stray Light: No (USB2E7196)
Number of Pixels in Processed Spectrum: 2048
>>>>>Begin Processed Spectral Data<<<<<
339.09	0.00
339.48	212.89
339.86	214.24
340.24	216.04
340.63	217.10
341.01	220.19
341.39	219.69
341.78	221.18
342.16	222.11
342.54	222.53
342.93	211.25
343.31	221.96
343.69	222.53
344.07	222.98
344.46	223.35
344.84	223.71
345.22	223.90
345.60	224.11
345.99	224.26
346.37	224.39
346.75	224.50
347.13	224.57
347.52	224.61
347.90	224.67
348.28	224.74
348.66	224.77
349.05	224.75
349.43	224.79
349.81	224.81
350.19	224.86
350.57	224.91
350.96	225.02
351.34	225.07
351.72	225.11
352.10	225.24
352.48	225.34
352.87	225.39
353.25	225.48
353.63	225.58
354.01	225.68
354.39	225.78
354.77	225.85
355.15	226.00
355.54	226.08
355.92	226.12
356.30	226.16
356.68	226.32
357.06	226.43
357.44	226.49
357.82	226.59
358.20	226.65
358.58	226.73
358.97	226.79
359.35	226.90
359.73	226.99
360.11	227.05
360.49	227.13
360.87	227.25
361.25	227.33
361.63	227.42
362.01	227.47
362.39	227.49
362.77	227.55
363.15	227.57
363.53	227.61
363.91	227.66
364.29	227.70
364.67	227.61
365.05	227.64
365.43	227.66
365.81	227.69
366.19	227.77
366.57	227.84
366.95	227.85
367.33	227.79
367.71	227.76
368.09	227.78
368.47	227.78
368.85	227.75
369.23	227.75
369.61	227.72
369.99	227.73
370.37	227.72
370.75	227.74
371.13	227.70
371.51	227.66
371.89	227.64
372.27	227.61
372.65	227.60
373.03	227.57
373.41	227.55
373.78	227.51
374.16	227.38
374.54	227.26
374.92	227.18
375.30	227.15
375.68	227.10
376.06	227.02
376.44	226.92
376.82	226.86
377.19	226.80
377.57	226.72
377.95	226.63
378.33	226.57
378.71	226.45
379.09	226.39
379.47	226.33
379.84	226.26
380.22	226.18
380.60	226.11
380.98	226.00
381.36	225.90
381.73	225.80
382.11	225.77
382.49	225.72
382.87	225.65
383.25	225.62
383.62	225.64
384.00	225.56
384.38	225.52
384.76	225.47
385.13	225.47
385.51	225.41
385.89	225.35
386.27	225.31
386.64	225.23
387.02	225.13
387.40	225.06
387.78	225.02
388.15	225.02
388.53	224.96
388.91	224.89
389.29	224.86
389.66	224.84
390.04	224.78
390.42	224.76
390.79	224.75
391.17	224.68
391.55	224.58
391.92	224.58
392.30	224.56
392.68	224.52
393.05	224.46
393.43	224.43
393.81	224.42
394.18	224.40
394.56	224.45
394.94	224.50
395.31	224.53
395.69	224.57
396.06	224.54
396.44	224.56
396.82	224.62
397.19	224.71
397.57	224.75
397.95	224.83
398.32	224.82
398.70	224.87
399.07	224.97
399.45	225.00
399.82	225.07
400.20	225.09
400.58	225.14
400.95	225.17
401.33	225.27
401.70	225.42
402.08	225.50
402.45	225.55
402.83	225.65
403.20	225.76
403.58	225.84
403.95	225.98
404.33	226.11
404.71	226.22
405.08	226.37
405.46	226.49
405.83	226.60
406.21	226.73
406.58	226.90
406.96	227.04
407.33	227.21
407.70	227.39
408.08	227.68
408.45	227.91
408.83	228.19
409.20	228.40
409.58	228.58
409.95	228.85
410.33	229.15
410.70	229.40
411.08	229.69
411.45	229.99
411.82	230.32
412.20	230.67
412.57	231.09
412.95	231.37
413.32	231.81
413.69	232.26
414.07	232.73
414.44	233.20
414.82	233.69
415.19	234.29
415.56	234.86
415.94	235.42
416.31	236.10
416.68	236.73
417.06	237.48
417.43	238.18
417.81	238.97
418.18	239.77
418.55	240.64
418.93	241.54
419.30	242.51
419.67	243.50
420.04	244.49
420.42	245.54
420.79	246.82
421.16	248.01
421.54	249.25
421.91	250.54
422.28	251.86
422.66	253.27
423.03	254.63
423.40	256.01
423.77	257.53
424.15	259.03
424.52	260.56
424.89	262.25
425.26	263.88
425.64	265.40
426.01	267.07
426.38	268.81
426.75	270.52
427.13	272.33
427.50	274.18
427.87	276.17
428.24	278.12
428.61	279.92
428.99	281.91
429.36	284.07
429.73	286.20
430.10	288.28
430.47	290.42
430.85	292.63
431.22	294.97
431.59	297.42
431.96	299.74
432.33	302.34
432.70	304.83
433.08	307.76
433.45	310.53
433.82	313.22
434.19	316.22
434.56	319.14
434.93	321.89
435.30	324.61
435.68	327.60
436.05	330.57
436.42	333.51
436.79	336.14
437.16	338.98
437.53	341.94
437.90	344.86
438.27	347.73
438.64	350.68
439.01	353.37
439.38	355.72
439.75	358.02
440.13	360.63
440.50	363.04
440.87	364.95
441.24	366.98
441.61	369.27
441.98	370.84
442.35	372.75
442.72	374.68
443.09	376.62
443.46	377.64
443.83	378.24
444.20	378.78
444.57	379.70
444.94	380.00
445.31	380.37
445.68	380.77
446.05	380.90
446.42	380.49
446.79	380.07
447.16	379.60
447.53	379.26
447.90	378.07
448.27	376.91
448.64	375.30
449.01	374.13
449.37	372.09
449.74	370.13
450.11	367.82
450.48	365.22
450.85	362.55
451.22	360.41
451.59	358.29
451.96	356.29
452.33	353.55
452.70	351.08
453.07	348.11
453.43	345.11
453.80	342.19
454.17	339.46
454.54	336.85
454.91	334.04
455.28	331.22
455.65	328.61
456.02	326.05
456.38	323.79
456.75	321.01
457.12	318.69
457.49	316.37
457.86	314.08
458.23	312.20
458.59	310.09
458.96	307.85
459.33	305.93
459.70	303.94
460.07	302.37
460.43	300.62
460.80	298.94
461.17	297.42
461.54	295.86
461.91	294.34
462.27	292.81
462.64	291.49
463.01	290.10
463.38	288.81
463.74	287.38
464.11	286.17
464.48	285.08
464.85	283.90
465.21	283.02
465.58	282.07
465.95	280.92
466.32	279.97
466.68	279.04
467.05	278.07
467.42	277.18
467.78	276.21
468.15	275.28
468.52	274.60
468.88	273.69
469.25	272.87
469.62	272.21
469.98	271.51
470.35	270.87
470.72	270.23
471.08	269.51
471.45	268.95
471.82	268.38
472.18	267.77
472.55	267.33
472.92	266.78
473.28	266.29
473.65	265.84
474.02	265.38
474.38	265.02
474.75	264.72
475.11	264.37
475.48	264.09
475.85	263.84
476.21	263.61
476.58	263.45
476.94	263.25
477.31	263.06
477.67	262.87
478.04	262.74
478.41	262.68
478.77	262.70
479.14	262.63
479.50	262.62
479.87	262.70
480.23	262.79
480.60	262.88
480.96	262.95
481.33	263.20
481.69	263.41
482.06	263.60
482.42	263.76
482.79	263.99
483.15	264.34
483.52	264.74
483.88	265.11
484.25	265.50
484.61	265.98
484.98	266.44
485.34	267.04
485.71	267.63
486.07	268.25
486.44	268.83
486.80	269.53
487.17	270.33
487.53	271.15
487.90	271.95
488.26	272.85
488.62	273.84
488.99	274.79
489.35	275.81
489.72	276.92
490.08	278.15
490.44	279.44
490.81	280.78
491.17	282.12
491.54	283.58
491.90	285.07
492.26	286.69
492.63	288.40
492.99	290.18
493.36	292.02
493.72	294.05
494.08	296.11
494.45	298.39
494.81	300.73
495.17	303.16
495.54	305.71
495.90	308.37
496.26	311.15
496.63	314.08
496.99	317.17
497.35	320.40
497.72	323.78
498.08	327.17
498.44	330.74
498.80	334.66
499.17	338.66
499.53	342.80
499.89	347.11
500.26	351.54
500.62	356.09
500.98	361.01
501.34	365.99
501.71	371.28
502.07	376.54
502.43	382.03
502.79	387.70
503.16	393.63
503.52	399.84
503.88	406.13
504.24	412.54
504.60	419.26
504.97	426.21
505.33	433.36
505.69	441.02
506.05	448.69
506.41	456.34
506.78	464.29
507.14	472.56
507.50	481.11
507.86	490.00
508.22	499.04
508.59	508.00
508.95	517.35
509.31	526.93
509.67	536.86
510.03	546.87
510.39	557.20
510.75	567.75
511.12	578.34
511.48	589.35
511.84	600.67
512.20	611.95
512.56	623.63
512.92	635.49
513.28	647.44
513.64	659.47
514.00	671.83
514.37	684.41
514.73	697.15
515.09	709.83
515.45	722.75
515.81	735.88
516.17	749.47
516.53	763.21
516.89	776.96
517.25	790.68
517.61	804.65
517.97	818.71
518.33	832.72
518.69	847.06
519.05	861.52
519.41	876.11
519.77	891.09
520.13	906.06
520.49	921.02
520.85	935.87
521.21	951.11
521.57	966.82
521.93	982.04
522.29	997.84
522.65	1013.64
523.01	1029.22
523.37	1044.86
523.73	1060.51
524.09	1076.03
524.45	1091.73
524.81	1107.87
525.17	1124.06
525.53	1140.34
525.89	1156.67
526.25	1173.01
526.61	1188.87
526.97	1205.12
527.33	1221.17
527.68	1237.23
528.04	1253.15
528.40	1269.15
528.76	1285.70
529.12	1301.74
529.48	1318.12
529.84	1333.62
530.20	1349.72
530.56	1366.20
530.91	1383.01
531.27	1399.28
531.63	1415.34
531.99	1431.52
532.35	1447.00
532.71	1462.55
533.07	1478.41
533.42	1493.93
533.78	1509.64
534.14	1525.53
534.50	1540.49
534.86	1555.85
535.21	1570.69
535.57	1586.26
535.93	1601.43
536.29	1615.90
536.65	1630.60
537.00	1645.11
537.36	1660.07
537.72	1674.08
538.08	1688.20
538.44	1701.78
538.79	1715.46
539.15	1728.65
539.51	1742.08
539.87	1756.30
540.22	1769.75
540.58	1783.17
540.94	1796.26
541.29	1808.65
541.65	1821.14
542.01	1834.18
542.37	1846.47
542.72	1858.61
543.08	1870.37
543.44	1882.72
543.79	1894.00
544.15	1904.95
544.51	1916.41
544.87	1927.41
545.22	1938.46
545.58	1948.71
545.94	1958.60
546.29	1968.41
546.65	1978.53
547.01	1987.93
547.36	1996.56
547.72	2005.21
548.07	2013.29
548.43	2021.52
548.79	2029.68
549.14	2037.54
549.50	2044.83
549.86	2052.53
550.21	2060.09
550.57	2067.37
550.92	2074.20
551.28	2081.21
551.64	2088.42
551.99	2095.21
552.35	2101.59
552.70	2107.87
553.06	2114.05
553.41	2120.60
553.77	2126.94
554.13	2133.20
554.48	2139.39
554.84	2145.44
555.19	2150.81
555.55	2156.36
555.90	2161.17
556.26	2166.51
556.61	2171.42
556.97	2176.38
557.32	2180.84
557.68	2185.33
558.03	2189.82
558.39	2193.78
558.74	2198.86
559.10	2203.14
559.45	2207.02
559.81	2211.47
560.16	2215.62
560.52	2219.26
560.87	2222.89
561.23	2225.83
561.58	2228.90
561.94	2231.88
562.29	2234.37
562.64	2237.79
563.00	2240.59
563.35	2244.45
563.71	2247.99
564.06	2251.37
564.42	2254.59
564.77	2257.74
565.12	2260.54
565.48	2263.05
565.83	2265.40
566.19	2267.31
566.54	2268.59
566.89	2270.32
567.25	2271.54
567.60	2273.23
567.96	2275.58
568.31	2276.86
568.66	2278.56
569.02	2279.72
569.37	2280.70
569.72	2282.11
570.08	2282.71
570.43	2283.29
570.78	2283.27
571.14	2282.19
571.49	2281.40
571.84	2281.41
572.20	2280.60
572.55	2280.02
572.90	2278.71
573.26	2277.82
573.61	2276.28
573.96	2275.17
574.31	2272.75
574.67	2270.12
575.02	2267.00
575.37	2263.77
575.72	2260.61
576.08	2257.50
576.43	2254.53
576.78	2251.34
577.13	2248.46
577.49	2245.40
577.84	2242.46
578.19	2238.97
578.54	2236.03
578.90	2232.34
579.25	2227.15
579.60	2222.72
579.95	2218.10
580.30	2213.64
580.66	2208.82
581.01	2204.25
581.36	2199.69
581.71	2195.82
582.06	2191.95
582.42	2188.04
582.77	2183.25
583.12	2178.90
583.47	2174.78
583.82	2170.42
584.17	2165.47
584.53	2160.42
584.88	2155.19
585.23	2149.72
585.58	2144.61
585.93	2139.18
586.28	2134.57
586.63	2130.00
586.98	2125.07
587.34	2120.46
587.69	2115.62
588.04	2110.90
588.39	2105.56
588.74	2099.25
589.09	2093.36
589.44	2086.84
589.79	2080.78
590.14	2075.39
590.49	2069.00
590.84	2062.72
591.19	2056.89
591.54	2050.62
591.89	2043.62
592.25	2037.26
592.60	2030.22
592.95	2023.09
593.30	2016.09
593.65	2008.70
594.00	2001.61
594.35	1994.66
594.70	1986.83
595.05	1980.23
595.40	1972.84
595.75	1965.59
596.10	1959.64
596.45	1953.12
596.80	1947.17
597.15	1940.77
597.50	1934.14
597.85	1927.94
598.19	1921.51
598.54	1914.78
598.89	1908.32
599.24	1902.37
599.59	1896.06
599.94	1889.94
600.29	1883.49
600.64	1876.88
600.99	1869.65
601.34	1863.01
601.69	1856.01
602.04	1849.31
602.39	1841.87
602.74	1835.16
603.08	1828.65
603.43	1821.95
603.78	1814.61
604.13	1807.24
604.48	1800.16
604.83	1793.23
605.18	1786.41
605.53	1778.61
605.87	1770.50
606.22	1763.24
606.57	1755.37
606.92	1747.60
607.27	1740.50
607.62	1733.73
607.96	1726.62
608.31	1720.26
608.66	1712.82
609.01	1705.52
609.36	1698.09
609.70	1690.13
610.05	1682.16
610.40	1674.51
610.75	1666.13
611.10	1658.42
611.44	1650.09
611.79	1641.96
612.14	1633.25
612.49	1623.96
612.83	1615.30
613.18	1606.97
613.53	1598.87
613.88	1590.27
614.22	1582.23
614.57	1573.48
614.92	1565.36
615.27	1557.72
615.61	1549.37
615.96	1541.12
616.31	1533.22
616.65	1525.74
617.00	1518.17
617.35	1510.44
617.70	1502.03
618.04	1493.67
618.39	1485.40
618.74	1477.81
619.08	1469.40
619.43	1461.67
619.78	1454.66
620.12	1447.59
620.47	1440.14
620.82	1431.82
621.16	1424.25
621.51	1416.41
621.85	1408.72
622.20	1400.27
622.55	1391.78
622.89	1383.63
623.24	1375.95
623.59	1368.39
623.93	1360.81
624.28	1353.32
624.62	1345.76
624.97	1338.38
625.32	1331.38
625.66	1324.22
626.01	1316.97
626.35	1309.66
626.70	1301.85
627.04	1294.18
627.39	1286.18
627.73	1278.62
628.08	1271.68
628.43	1264.45
628.77	1257.14
629.12	1249.71
629.46	1242.39
629.81	1234.81
630.15	1227.46
630.50	1220.04
630.84	1211.92
631.19	1203.72
631.53	1196.23
631.88	1188.52
632.22	1180.84
632.57	1173.38
632.91	1165.78
633.26	1158.28
633.60	1150.78
633.95	1143.48
634.29	1136.20
634.64	1129.46
634.98	1122.06
635.32	1114.78
635.67	1108.02
636.01	1101.24
636.36	1094.28
636.70	1087.60
637.05	1080.99
637.39	1074.59
637.73	1068.04
638.08	1061.99
638.42	1056.06
638.77	1049.51
639.11	1043.03
639.45	1036.62
639.80	1030.09
640.14	1023.69
640.49	1017.17
640.83	1010.82
641.17	1004.63
641.52	998.38
641.86	991.91
642.20	986.00
642.55	979.48
642.89	973.14
643.23	966.50
643.58	960.69
643.92	954.58
644.26	948.66
644.61	942.51
644.95	936.53
645.29	929.99
645.64	923.33
645.98	916.95
646.32	910.81
646.66	904.71
647.01	898.76
647.35	893.08
647.69	887.20
648.04	881.57
648.38	875.84
648.72	869.90
649.06	863.83
649.41	857.89
649.75	852.13
650.09	846.10
650.43	840.34
650.78	834.22
651.12	828.15
651.46	822.40
651.80	816.75
652.14	811.29
652.49	805.90
652.83	800.62
653.17	795.07
653.51	789.52
653.85	784.08
654.20	778.56
654.54	772.51
654.88	766.72
655.22	760.77
655.56	754.99
655.90	749.42
656.25	744.25
656.59	738.95
656.93	733.83
657.27	728.67
657.61	723.19
657.95	718.02
658.29	713.02
658.64	707.64
658.98	702.21
659.32	696.67
659.66	691.48
660.00	686.21
660.34	681.19
660.68	676.16
661.02	671.13
661.36	666.41
661.70	661.89
662.05	657.48
662.39	653.23
662.73	648.83
663.07	644.41
663.41	639.85
663.75	635.34
664.09	630.73
664.43	626.35
664.77	622.32
665.11	618.09
665.45	613.84
665.79	609.87
666.13	605.85
666.47	601.72
666.81	597.57
667.15	593.41
667.49	589.42
667.83	585.63
668.17	581.69
668.51	577.54
668.85	573.45
669.19	569.56
669.53	565.72
669.87	561.83
670.21	558.13
670.55	554.49
670.89	551.11
671.23	547.68
671.57	544.08
671.91	540.50
672.25	536.89
672.58	533.37
672.92	529.79
673.26	526.54
673.60	523.39
673.94	520.31
674.28	517.36
674.62	514.41
674.96	511.30
675.30	508.34
675.64	505.46
675.97	502.70
676.31	499.82
676.65	496.83
676.99	494.08
677.33	491.18
677.67	488.36
678.01	485.20
678.34	482.30
678.68	479.42
679.02	476.57
679.36	473.82
679.70	471.09
680.04	468.34
680.37	465.46
680.71	462.64
681.05	459.93
681.39	457.19
681.73	454.53
682.06	451.95
682.40	449.42
682.74	446.79
683.08	444.22
683.42	441.60
683.75	439.07
684.09	436.46
684.43	433.93
684.77	431.44
685.10	429.12
685.44	426.66
685.78	424.32
686.12	422.05
686.45	419.74
686.79	417.42
687.13	415.22
687.46	413.03
687.80	410.83
688.14	408.54
688.48	406.48
688.81	404.21
689.15	402.05
689.49	399.84
689.82	397.75
690.16	395.57
690.50	393.56
690.83	391.59
691.17	389.58
691.51	387.69
691.84	385.81
692.18	383.85
692.52	381.91
692.85	379.98
693.19	378.05
693.52	376.17
693.86	374.28
694.20	372.44
694.53	370.64
694.87	368.80
695.21	367.03
695.54	365.16
695.88	363.38
696.21	361.65
696.55	359.96
696.88	358.25
697.22	356.59
697.56	354.93
697.89	353.25
698.23	351.61
698.56	349.98
698.90	348.38
699.23	346.79
699.57	345.21
699.90	343.65
700.24	342.07
700.58	340.52
700.91	339.03
701.25	337.57
701.58	336.16
701.92	334.78
702.25	333.37
702.59	331.98
702.92	330.67
703.26	329.28
703.59	328.03
703.93	326.85
704.26	325.67
704.60	324.40
704.93	323.14
705.26	321.91
705.60	320.67
705.93	319.48
706.27	318.39
706.60	317.29
706.94	316.16
707.27	315.04
707.61	313.96
707.94	312.91
708.27	311.81
708.61	310.71
708.94	309.66
709.28	308.67
709.61	307.70
709.94	306.70
710.28	305.69
710.61	304.61
710.95	303.49
711.28	302.50
711.61	301.49
711.95	300.51
712.28	299.55
712.61	298.60
712.95	297.62
713.28	296.68
713.61	295.77
713.95	294.90
714.28	294.02
714.61	293.14
714.95	292.28
715.28	291.41
715.61	290.53
715.95	289.61
716.28	288.73
716.61	287.87
716.95	287.02
717.28	286.27
717.61	285.50
717.94	284.76
718.28	283.95
718.61	283.23
718.94	282.55
719.27	281.91
719.61	281.22
719.94	280.55
720.27	279.82
720.60	279.11
720.94	278.44
721.27	277.84
721.60	277.24
721.93	276.62
722.27	276.06
722.60	275.48
722.93	274.95
723.26	274.44
723.59	273.87
723.93	273.31
724.26	272.72
724.59	272.13
724.92	271.59
725.25	271.09
725.59	270.54
725.92	270.01
726.25	269.47
726.58	268.93
726.91	268.40
727.24	267.92
727.57	267.48
727.91	266.96
728.24	266.49
728.57	265.98
728.90	265.52
729.23	265.01
729.56	264.59
729.89	264.07
730.22	263.54
730.55	263.11
730.89	262.72
731.22	262.30
731.55	261.88
731.88	261.43
732.21	260.95
732.54	260.51
732.87	260.09
733.20	259.69
733.53	259.31
733.86	258.95
734.19	258.56
734.52	258.15
734.85	257.85
735.18	257.42
735.51	257.05
735.84	256.68
736.17	256.35
736.50	255.93
736.83	255.73
737.16	255.43
737.49	255.03
737.82	254.66
738.15	254.31
738.48	253.97
738.81	253.67
739.14	253.35
739.47	253.05
739.80	252.71
740.13	252.39
740.46	252.07
740.79	251.77
741.12	251.46
741.45	251.15
741.78	250.79
742.11	250.50
742.44	250.17
742.77	249.88
743.10	249.59
743.43	249.31
743.75	248.91
744.08	248.73
744.41	248.45
744.74	248.13
745.07	247.89
745.40	247.66
745.73	247.42
746.06	247.15
746.39	246.90
746.71	246.61
747.04	246.31
747.37	246.06
747.70	245.81
748.03	245.51
748.36	245.31
748.68	245.06
749.01	244.81
749.34	244.60
749.67	244.33
750.00	244.07
750.33	243.89
750.65	243.66
750.98	243.33
751.31	243.10
751.64	242.92
751.97	242.72
752.29	242.49
752.62	242.24
752.95	242.05
753.28	241.82
753.60	241.68
753.93	241.50
754.26	241.31
754.59	241.05
754.91	240.87
755.24	240.63
755.57	240.45
755.90	240.24
756.22	240.05
756.55	239.88
756.88	239.66
757.20	239.43
757.53	239.23
757.86	239.03
758.19	238.88
758.51	238.71
758.84	238.51
759.17	238.33
759.49	238.17
759.82	238.01
760.15	237.86
760.47	237.67
760.80	237.50
761.13	237.33
761.45	237.16
761.78	237.01
762.11	236.91
762.43	236.76
762.76	236.63
763.08	236.49
763.41	236.35
763.74	236.22
764.06	236.08
764.39	235.96
764.71	235.80
765.04	235.64
765.37	235.48
765.69	235.32
766.02	235.19
766.34	235.04
766.67	234.88
767.00	234.74
767.32	234.65
767.65	234.58
767.97	234.47
768.30	234.37
768.62	234.27
768.95	234.12
769.27	233.99
769.60	233.85
769.92	233.73
770.25	233.60
770.57	233.48
770.90	233.36
771.22	233.26
771.55	233.18
771.87	233.11
772.20	233.03
772.52	233.03
772.85	233.05
773.17	232.99
773.50	232.92
773.82	232.85
774.15	232.75
774.47	232.62
774.80	232.52
775.12	232.45
775.45	232.36
775.77	232.30
776.09	232.22
776.42	232.17
776.74	232.13
777.07	232.06
777.39	232.00
777.72	231.95
778.04	231.87
778.36	231.78
778.69	231.72
779.01	231.66
779.33	231.51
779.66	231.33
779.98	231.25
780.31	231.17
780.63	231.12
780.95	231.05
781.28	230.97
781.60	230.87
781.92	230.81
782.25	230.77
782.57	230.70
782.89	230.68
783.22	230.63
783.54	230.55
783.86	230.51
784.19	230.46
784.51	230.42
784.83	230.38
785.16	230.31
785.48	230.22
785.80	230.17
786.12	230.14
786.45	230.10
786.77	230.05
787.09	230.03
