SpectraSuite Data File
++++++++++++++++++++++++++++++++++++
Date: Fri Feb 01 17:17:29 EST 2013
User: group
Dark Spectrum Present: No
Reference Spectrum Present: No
Number of Sampled Component Spectra: 1
Spectrometers: USB2E7196
Integration Time (usec): 35000 (USB2E7196)
Spectra Averaged: 100 (USB2E7196)
Boxcar Smoothing: 10 (USB2E7196)
Correct for Electrical Dark: No (USB2E7196)
Strobe/Lamp Enabled: No (USB2E7196)
Correct for Detector Non-linearity: No (USB2E7196)
Correct for Stray Light: No (USB2E7196)
Number of Pixels in Processed Spectrum: 2048
>>>>>Begin Processed Spectral Data<<<<<
339.09	0.00
339.48	212.69
339.86	214.38
340.24	215.72
340.63	217.47
341.01	219.89
341.39	219.91
341.78	221.55
342.16	222.79
342.54	222.37
342.93	211.44
343.31	222.11
343.69	222.69
344.07	223.18
344.46	223.64
344.84	224.03
345.22	224.29
345.60	224.56
345.99	224.73
346.37	224.84
346.75	224.99
347.13	225.07
347.52	225.16
347.90	225.22
348.28	225.23
348.66	225.28
349.05	225.31
349.43	225.34
349.81	225.38
350.19	225.44
350.57	225.50
350.96	225.58
351.34	225.69
351.72	225.76
352.10	225.84
352.48	225.87
352.87	225.92
353.25	226.02
353.63	226.10
354.01	226.15
354.39	226.25
354.77	226.30
355.15	226.38
355.54	226.41
355.92	226.47
356.30	226.56
356.68	226.68
357.06	226.76
357.44	226.80
357.82	226.86
358.20	226.95
358.58	227.03
358.97	227.09
359.35	227.16
359.73	227.25
360.11	227.29
360.49	227.36
360.87	227.40
361.25	227.44
361.63	227.50
362.01	227.56
362.39	227.58
362.77	227.66
363.15	227.71
363.53	227.74
363.91	227.74
364.29	227.77
364.67	227.71
365.05	227.70
365.43	227.73
365.81	227.75
366.19	227.77
366.57	227.82
366.95	227.80
367.33	227.79
367.71	227.75
368.09	227.75
368.47	227.77
368.85	227.77
369.23	227.74
369.61	227.67
369.99	227.66
370.37	227.64
370.75	227.62
371.13	227.56
371.51	227.51
371.89	227.47
372.27	227.42
372.65	227.36
373.03	227.31
373.41	227.25
373.78	227.18
374.16	227.07
374.54	226.96
374.92	226.86
375.30	226.77
375.68	226.69
376.06	226.62
376.44	226.51
376.82	226.46
377.19	226.40
377.57	226.34
377.95	226.26
378.33	226.20
378.71	226.07
379.09	226.03
379.47	226.01
379.84	225.95
380.22	225.84
380.60	225.78
380.98	225.71
381.36	225.63
381.73	225.59
382.11	225.53
382.49	225.50
382.87	225.47
383.25	225.41
383.62	225.48
384.00	225.43
384.38	225.38
384.76	225.33
385.13	225.30
385.51	225.21
385.89	225.15
386.27	225.11
386.64	225.07
387.02	225.00
387.40	224.92
387.78	224.87
388.15	224.87
388.53	224.85
388.91	224.84
389.29	224.82
389.66	224.78
390.04	224.73
390.42	224.71
390.79	224.68
391.17	224.66
391.55	224.53
391.92	224.53
392.30	224.53
392.68	224.49
393.05	224.49
393.43	224.52
393.81	224.55
394.18	224.53
394.56	224.55
394.94	224.59
395.31	224.61
395.69	224.67
396.06	224.70
396.44	224.71
396.82	224.74
397.19	224.81
397.57	224.83
397.95	224.88
398.32	224.86
398.70	224.91
399.07	224.96
399.45	225.00
399.82	225.05
400.20	225.09
400.58	225.14
400.95	225.21
401.33	225.28
401.70	225.40
402.08	225.46
402.45	225.56
402.83	225.67
403.20	225.74
403.58	225.84
403.95	225.94
404.33	226.06
404.71	226.16
405.08	226.33
405.46	226.47
405.83	226.62
406.21	226.80
406.58	226.95
406.96	227.14
407.33	227.31
407.70	227.49
408.08	227.76
408.45	227.97
408.83	228.17
409.20	228.38
409.58	228.55
409.95	228.83
410.33	229.05
410.70	229.31
411.08	229.62
411.45	229.89
411.82	230.22
412.20	230.58
412.57	231.00
412.95	231.29
413.32	231.69
413.69	232.14
414.07	232.59
414.44	233.11
414.82	233.57
415.19	234.13
415.56	234.70
415.94	235.29
416.31	235.94
416.68	236.57
417.06	237.33
417.43	238.05
417.81	238.86
418.18	239.67
418.55	240.54
418.93	241.48
419.30	242.43
419.67	243.34
420.04	244.32
420.42	245.35
420.79	246.59
421.16	247.78
421.54	248.99
421.91	250.23
422.28	251.47
422.66	252.87
423.03	254.24
423.40	255.63
423.77	257.04
424.15	258.53
424.52	260.10
424.89	261.77
425.26	263.33
425.64	264.78
426.01	266.42
426.38	268.13
426.75	269.81
427.13	271.61
427.50	273.45
427.87	275.41
428.24	277.36
428.61	279.15
428.99	281.16
429.36	283.30
429.73	285.44
430.10	287.56
430.47	289.66
430.85	291.84
431.22	294.12
431.59	296.60
431.96	298.91
432.33	301.42
432.70	303.86
433.08	306.76
433.45	309.53
433.82	312.25
434.19	315.22
434.56	318.14
434.93	320.83
435.30	323.54
435.68	326.45
436.05	329.32
436.42	332.24
436.79	334.84
437.16	337.63
437.53	340.53
437.90	343.41
438.27	346.25
438.64	349.11
439.01	351.77
439.38	354.04
439.75	356.28
440.13	358.85
440.50	361.20
440.87	363.13
441.24	365.10
441.61	367.31
441.98	368.82
442.35	370.70
442.72	372.70
443.09	374.60
443.46	375.68
443.83	376.31
444.20	376.78
444.57	377.62
444.94	377.89
445.31	378.28
445.68	378.65
446.05	378.78
446.42	378.44
446.79	378.05
447.16	377.62
447.53	377.30
447.90	376.13
448.27	374.96
448.64	373.38
449.01	372.23
449.37	370.20
449.74	368.26
450.11	365.96
450.48	363.39
450.85	360.83
451.22	358.61
451.59	356.60
451.96	354.67
452.33	352.05
452.70	349.72
453.07	346.82
453.43	343.82
453.80	340.96
454.17	338.25
454.54	335.65
454.91	332.91
455.28	330.17
455.65	327.63
456.02	325.13
456.38	322.90
456.75	320.12
457.12	317.84
457.49	315.55
457.86	313.30
458.23	311.39
458.59	309.29
458.96	307.15
459.33	305.20
459.70	303.26
460.07	301.68
460.43	299.87
460.80	298.19
461.17	296.77
461.54	295.19
461.91	293.69
462.27	292.17
462.64	290.84
463.01	289.41
463.38	288.07
463.74	286.67
464.11	285.43
464.48	284.39
464.85	283.21
465.21	282.37
465.58	281.41
465.95	280.24
466.32	279.31
466.68	278.38
467.05	277.44
467.42	276.53
467.78	275.54
468.15	274.62
468.52	273.95
468.88	273.04
469.25	272.28
469.62	271.62
469.98	270.94
470.35	270.31
470.72	269.72
471.08	269.06
471.45	268.53
471.82	267.97
472.18	267.37
472.55	266.92
472.92	266.35
473.28	265.86
473.65	265.44
474.02	264.99
474.38	264.61
474.75	264.28
475.11	263.90
475.48	263.66
475.85	263.45
476.21	263.19
476.58	263.00
476.94	262.85
477.31	262.65
477.67	262.51
478.04	262.38
478.41	262.35
478.77	262.36
479.14	262.26
479.50	262.31
479.87	262.38
480.23	262.47
480.60	262.55
480.96	262.67
481.33	262.89
481.69	263.09
482.06	263.29
482.42	263.51
482.79	263.82
483.15	264.13
483.52	264.49
483.88	264.89
484.25	265.30
484.61	265.75
484.98	266.24
485.34	266.80
485.71	267.38
486.07	267.95
486.44	268.54
486.80	269.27
487.17	269.98
487.53	270.82
487.90	271.68
488.26	272.64
488.62	273.61
488.99	274.56
489.35	275.56
489.72	276.68
490.08	277.86
490.44	279.04
490.81	280.39
491.17	281.74
491.54	283.18
491.90	284.69
492.26	286.29
492.63	288.02
492.99	289.78
493.36	291.70
493.72	293.74
494.08	295.82
494.45	298.07
494.81	300.44
495.17	302.82
495.54	305.40
495.90	308.00
496.26	310.80
496.63	313.77
496.99	316.86
497.35	320.12
497.72	323.49
498.08	326.98
498.44	330.64
498.80	334.55
499.17	338.54
499.53	342.68
499.89	347.04
500.26	351.49
500.62	356.13
500.98	361.03
501.34	366.09
501.71	371.42
502.07	376.79
502.43	382.37
502.79	388.23
503.16	394.26
503.52	400.49
503.88	406.84
504.24	413.41
504.60	420.21
504.97	427.24
505.33	434.46
505.69	442.11
506.05	449.81
506.41	457.56
506.78	465.62
507.14	473.98
507.50	482.62
507.86	491.58
508.22	500.69
508.59	509.81
508.95	519.28
509.31	528.93
509.67	538.84
510.03	548.97
510.39	559.25
510.75	569.81
511.12	580.58
511.48	591.66
511.84	603.01
512.20	614.36
512.56	626.11
512.92	638.10
513.28	650.24
513.64	662.42
514.00	675.00
514.37	687.76
514.73	700.58
515.09	713.33
515.45	726.28
515.81	739.54
516.17	753.22
516.53	767.05
516.89	780.98
517.25	794.94
517.61	809.14
517.97	823.44
518.33	837.66
518.69	852.11
519.05	866.81
519.41	881.62
519.77	896.79
520.13	911.88
520.49	927.04
520.85	942.04
521.21	957.40
521.57	973.30
521.93	988.76
522.29	1004.66
522.65	1020.57
523.01	1036.54
523.37	1052.39
523.73	1068.20
524.09	1083.95
524.45	1099.85
524.81	1116.14
525.17	1132.53
525.53	1148.87
525.89	1165.34
526.25	1181.97
526.61	1198.04
526.97	1214.52
527.33	1230.72
527.68	1246.99
528.04	1263.06
528.40	1279.43
528.76	1296.18
529.12	1312.30
529.48	1328.88
529.84	1344.73
530.20	1361.04
530.56	1377.58
530.91	1394.56
531.27	1411.06
531.63	1427.25
531.99	1443.54
532.35	1459.21
532.71	1474.82
533.07	1490.84
533.42	1506.61
533.78	1522.29
534.14	1538.31
534.50	1553.38
534.86	1569.00
535.21	1583.94
535.57	1599.58
535.93	1614.79
536.29	1629.34
536.65	1644.26
537.00	1658.57
537.36	1673.75
537.72	1687.97
538.08	1702.26
538.44	1715.99
538.79	1729.69
539.15	1743.05
539.51	1756.44
539.87	1770.60
540.22	1784.07
540.58	1797.64
540.94	1810.57
541.29	1823.24
541.65	1835.64
542.01	1848.62
542.37	1860.75
542.72	1873.04
543.08	1884.86
543.44	1897.09
543.79	1908.50
544.15	1919.50
544.51	1931.08
544.87	1941.88
545.22	1952.88
545.58	1963.13
545.94	1972.68
546.29	1982.54
546.65	1992.53
547.01	2002.05
547.36	2010.83
547.72	2019.50
548.07	2027.60
548.43	2035.87
548.79	2043.93
549.14	2051.77
549.50	2059.15
549.86	2066.95
550.21	2074.47
550.57	2081.76
550.92	2088.62
551.28	2095.63
551.64	2102.74
551.99	2109.44
552.35	2115.70
552.70	2121.94
553.06	2128.13
553.41	2134.62
553.77	2140.69
554.13	2146.91
554.48	2153.14
554.84	2159.03
555.19	2164.43
555.55	2169.74
555.90	2174.57
556.26	2179.85
556.61	2184.75
556.97	2189.45
557.32	2193.85
557.68	2198.23
558.03	2202.73
558.39	2206.52
558.74	2211.34
559.10	2215.63
559.45	2219.67
559.81	2224.21
560.16	2228.35
560.52	2231.95
560.87	2235.69
561.23	2238.84
561.58	2242.02
561.94	2244.90
562.29	2247.30
562.64	2250.45
563.00	2253.36
563.35	2257.05
563.71	2260.36
564.06	2263.68
564.42	2266.85
564.77	2269.91
565.12	2272.75
565.48	2274.95
565.83	2277.25
566.19	2279.11
566.54	2280.12
566.89	2281.59
567.25	2282.61
567.60	2284.15
567.96	2286.10
568.31	2287.28
568.66	2288.79
569.02	2289.74
569.37	2290.45
569.72	2291.78
570.08	2292.13
570.43	2292.40
570.78	2292.32
571.14	2291.33
571.49	2290.31
571.84	2290.11
572.20	2289.19
572.55	2288.25
572.90	2286.85
573.26	2285.76
573.61	2284.15
573.96	2282.82
574.31	2280.22
574.67	2277.42
575.02	2274.12
575.37	2271.09
575.72	2267.62
576.08	2264.35
576.43	2261.16
576.78	2257.96
577.13	2254.82
577.49	2251.92
577.84	2248.77
578.19	2245.17
578.54	2241.76
578.90	2238.14
579.25	2233.06
579.60	2228.54
579.95	2223.91
580.30	2219.21
580.66	2214.29
581.01	2209.51
581.36	2204.77
581.71	2200.99
582.06	2197.13
582.42	2192.97
582.77	2187.92
583.12	2183.77
583.47	2179.56
583.82	2175.04
584.17	2169.92
584.53	2164.86
584.88	2159.53
585.23	2154.11
585.58	2148.87
585.93	2143.60
586.28	2138.77
586.63	2133.92
586.98	2128.86
587.34	2124.28
587.69	2119.63
588.04	2114.74
588.39	2109.54
588.74	2103.32
589.09	2097.19
589.44	2090.62
589.79	2084.51
590.14	2079.00
590.49	2072.54
590.84	2066.04
591.19	2060.11
591.54	2053.83
591.89	2046.77
592.25	2040.35
592.60	2033.27
592.95	2026.03
593.30	2018.93
593.65	2011.42
594.00	2004.55
594.35	1997.45
594.70	1989.39
595.05	1982.58
595.40	1975.38
595.75	1967.91
596.10	1961.89
596.45	1955.44
596.80	1949.23
597.15	1942.99
597.50	1936.28
597.85	1929.86
598.19	1923.44
598.54	1916.65
598.89	1910.08
599.24	1904.20
599.59	1897.70
599.94	1891.53
600.29	1885.08
600.64	1878.46
600.99	1871.29
601.34	1864.56
601.69	1857.60
602.04	1851.09
602.39	1843.73
602.74	1837.00
603.08	1830.34
603.43	1823.75
603.78	1816.36
604.13	1809.14
604.48	1801.94
604.83	1795.03
605.18	1788.44
605.53	1780.56
605.87	1772.38
606.22	1765.12
606.57	1757.09
606.92	1749.53
607.27	1742.49
607.62	1735.86
607.96	1728.75
608.31	1722.26
608.66	1714.69
609.01	1707.24
609.36	1699.68
609.70	1691.55
610.05	1683.64
610.40	1675.98
610.75	1667.60
611.10	1659.96
611.44	1651.35
611.79	1643.28
612.14	1634.46
612.49	1625.08
612.83	1616.53
613.18	1608.40
613.53	1600.30
613.88	1591.73
614.22	1583.44
614.57	1574.69
614.92	1566.57
615.27	1558.90
615.61	1550.43
615.96	1542.23
616.31	1534.43
616.65	1526.90
617.00	1519.32
617.35	1511.44
617.70	1502.97
618.04	1494.41
618.39	1486.02
618.74	1478.66
619.08	1470.23
619.43	1462.73
619.78	1455.56
620.12	1448.52
620.47	1440.97
620.82	1432.64
621.16	1425.10
621.51	1417.40
621.85	1409.57
622.20	1400.81
622.55	1392.40
622.89	1384.43
623.24	1376.72
623.59	1369.17
623.93	1361.52
624.28	1354.14
624.62	1346.54
624.97	1339.34
625.32	1332.32
625.66	1325.11
626.01	1317.84
626.35	1310.49
626.70	1302.58
627.04	1294.98
627.39	1286.92
627.73	1279.43
628.08	1272.52
628.43	1265.30
628.77	1257.89
629.12	1250.33
629.46	1243.08
629.81	1235.40
630.15	1228.03
630.50	1220.60
630.84	1212.46
631.19	1204.31
631.53	1196.76
631.88	1189.08
632.22	1181.47
632.57	1174.16
632.91	1166.75
633.26	1159.27
633.60	1151.68
633.95	1144.31
634.29	1137.05
634.64	1130.35
634.98	1122.92
635.32	1115.67
635.67	1108.89
636.01	1102.16
636.36	1095.36
636.70	1088.79
637.05	1082.25
637.39	1075.74
637.73	1069.20
638.08	1063.20
638.42	1057.26
638.77	1050.73
639.11	1044.21
639.45	1037.64
639.80	1030.95
640.14	1024.37
640.49	1017.72
640.83	1011.38
641.17	1005.28
641.52	998.88
641.86	992.39
642.20	986.44
642.55	979.97
642.89	973.49
643.23	966.81
643.58	961.01
643.92	954.82
644.26	948.79
644.61	942.82
644.95	936.73
645.29	930.22
645.64	923.49
645.98	917.15
646.32	911.02
646.66	905.03
647.01	899.21
647.35	893.54
647.69	887.66
648.04	882.07
648.38	876.18
648.72	870.25
649.06	864.20
649.41	858.23
649.75	852.37
650.09	846.40
650.43	840.67
650.78	834.46
651.12	828.48
651.46	822.73
651.80	817.01
652.14	811.57
652.49	806.20
652.83	801.00
653.17	795.31
653.51	789.76
653.85	784.31
654.20	778.64
654.54	772.57
654.88	766.71
655.22	760.80
655.56	755.09
655.90	749.60
656.25	744.35
656.59	739.05
656.93	733.92
657.27	728.78
657.61	723.36
657.95	718.28
658.29	713.20
658.64	707.80
658.98	702.35
659.32	696.84
659.66	691.56
660.00	686.27
660.34	681.32
660.68	676.29
661.02	671.25
661.36	666.53
661.70	662.05
662.05	657.86
662.39	653.56
662.73	649.12
663.07	644.71
663.41	640.19
663.75	635.70
664.09	631.08
664.43	626.62
664.77	622.46
665.11	618.17
665.45	613.96
665.79	609.95
666.13	605.85
666.47	601.76
666.81	597.61
667.15	593.44
667.49	589.45
667.83	585.54
668.17	581.55
668.51	577.50
668.85	573.43
669.19	569.42
669.53	565.56
669.87	561.61
670.21	557.89
670.55	554.19
670.89	550.73
671.23	547.33
671.57	543.68
671.91	540.16
672.25	536.56
672.58	533.03
672.92	529.47
673.26	526.26
673.60	523.06
673.94	519.94
674.28	516.94
674.62	513.97
674.96	510.93
675.30	508.04
675.64	505.10
675.97	502.29
676.31	499.37
676.65	496.43
676.99	493.71
677.33	490.80
677.67	488.03
678.01	484.94
678.34	481.90
678.68	479.07
679.02	476.20
679.36	473.44
679.70	470.69
680.04	467.99
680.37	465.12
680.71	462.32
681.05	459.62
681.39	456.89
681.73	454.22
682.06	451.66
682.40	449.06
682.74	446.40
683.08	443.75
683.42	441.12
683.75	438.57
684.09	435.95
684.43	433.45
684.77	430.94
685.10	428.56
685.44	426.19
685.78	423.90
686.12	421.62
686.45	419.28
686.79	417.01
687.13	414.77
687.46	412.57
687.80	410.39
688.14	408.16
688.48	406.10
688.81	403.94
689.15	401.72
689.49	399.58
689.82	397.48
690.16	395.42
690.50	393.50
690.83	391.54
691.17	389.51
691.51	387.57
691.84	385.70
692.18	383.80
692.52	381.89
692.85	379.93
693.19	378.03
693.52	376.19
693.86	374.28
694.20	372.48
694.53	370.66
694.87	368.78
695.21	366.96
695.54	365.11
695.88	363.32
696.21	361.61
696.55	359.88
696.88	358.22
697.22	356.52
697.56	354.84
697.89	353.17
698.23	351.59
698.56	350.04
698.90	348.44
699.23	346.77
699.57	345.18
699.90	343.60
700.24	342.00
700.58	340.47
700.91	339.02
701.25	337.56
701.58	336.22
701.92	334.82
702.25	333.44
702.59	332.10
702.92	330.73
703.26	329.41
703.59	328.13
703.93	326.93
704.26	325.69
704.60	324.39
704.93	323.12
705.26	321.88
705.60	320.58
705.93	319.36
706.27	318.29
706.60	317.24
706.94	316.15
707.27	315.03
707.61	313.93
707.94	312.86
708.27	311.73
708.61	310.57
708.94	309.55
709.28	308.52
709.61	307.48
709.94	306.49
710.28	305.42
710.61	304.35
710.95	303.24
711.28	302.33
711.61	301.38
711.95	300.41
712.28	299.47
712.61	298.53
712.95	297.61
713.28	296.69
713.61	295.76
713.95	294.84
714.28	293.98
714.61	293.11
714.95	292.22
715.28	291.33
715.61	290.41
715.95	289.53
716.28	288.65
716.61	287.79
716.95	286.99
717.28	286.23
717.61	285.46
717.94	284.70
718.28	283.85
718.61	283.09
718.94	282.38
719.27	281.66
719.61	281.01
719.94	280.31
720.27	279.58
720.60	278.84
720.94	278.20
721.27	277.59
721.60	277.04
721.93	276.44
722.27	275.91
722.60	275.37
722.93	274.79
723.26	274.24
723.59	273.66
723.93	273.07
724.26	272.50
724.59	271.90
724.92	271.38
725.25	270.84
725.59	270.28
725.92	269.76
726.25	269.25
726.58	268.73
726.91	268.23
727.24	267.78
727.57	267.32
727.91	266.81
728.24	266.34
728.57	265.80
728.90	265.36
729.23	264.85
729.56	264.37
729.89	263.90
730.22	263.39
730.55	262.92
730.89	262.48
731.22	262.06
731.55	261.66
731.88	261.20
732.21	260.76
732.54	260.35
732.87	259.90
733.20	259.47
733.53	259.06
733.86	258.71
734.19	258.27
734.52	257.91
734.85	257.58
735.18	257.15
735.51	256.80
735.84	256.42
736.17	256.07
736.50	255.72
736.83	255.52
737.16	255.21
737.49	254.90
737.82	254.54
738.15	254.20
738.48	253.86
738.81	253.55
739.14	253.24
739.47	252.92
739.80	252.64
740.13	252.34
740.46	252.01
740.79	251.69
741.12	251.41
741.45	251.05
741.78	250.73
742.11	250.50
742.44	250.15
742.77	249.86
743.10	249.59
743.43	249.31
743.75	248.94
744.08	248.75
744.41	248.50
744.74	248.24
745.07	247.97
745.40	247.72
745.73	247.50
746.06	247.23
746.39	247.01
746.71	246.72
747.04	246.44
747.37	246.18
747.70	245.91
748.03	245.65
748.36	245.43
748.68	245.20
749.01	244.91
749.34	244.73
749.67	244.44
750.00	244.19
750.33	244.03
750.65	243.77
750.98	243.47
751.31	243.25
751.64	243.06
751.97	242.86
752.29	242.63
752.62	242.38
752.95	242.15
753.28	241.95
753.60	241.76
753.93	241.59
754.26	241.40
754.59	241.18
754.91	240.96
755.24	240.74
755.57	240.55
755.90	240.39
756.22	240.15
756.55	239.96
756.88	239.75
757.20	239.52
757.53	239.32
757.86	239.11
758.19	238.90
758.51	238.72
758.84	238.50
759.17	238.34
759.49	238.16
759.82	238.01
760.15	237.83
760.47	237.68
760.80	237.51
761.13	237.35
761.45	237.17
761.78	237.04
762.11	236.91
762.43	236.74
762.76	236.58
763.08	236.46
763.41	236.35
763.74	236.18
764.06	236.02
764.39	235.87
764.71	235.75
765.04	235.63
765.37	235.49
765.69	235.39
766.02	235.28
766.34	235.15
766.67	235.00
767.00	234.88
767.32	234.80
767.65	234.71
767.97	234.59
768.30	234.50
768.62	234.37
768.95	234.25
769.27	234.15
769.60	234.06
769.92	233.96
770.25	233.84
770.57	233.75
770.90	233.67
771.22	233.59
771.55	233.49
771.87	233.39
772.20	233.27
772.52	233.23
772.85	233.22
773.17	233.13
773.50	233.04
773.82	232.95
774.15	232.82
774.47	232.68
774.80	232.59
775.12	232.50
775.45	232.41
775.77	232.33
776.09	232.23
776.42	232.12
776.74	232.04
777.07	231.97
777.39	231.91
777.72	231.83
778.04	231.73
778.36	231.66
778.69	231.59
779.01	231.55
779.33	231.42
779.66	231.24
779.98	231.13
780.31	231.06
780.63	231.05
780.95	230.96
781.28	230.93
781.60	230.82
781.92	230.73
782.25	230.66
782.57	230.59
782.89	230.54
783.22	230.47
783.54	230.39
783.86	230.31
784.19	230.23
784.51	230.18
784.83	230.13
785.16	230.04
785.48	229.97
785.80	229.91
786.12	229.87
786.45	229.83
786.77	229.80
787.09	229.75
