SpectraSuite Data File
++++++++++++++++++++++++++++++++++++
Date: Fri Feb 01 15:12:36 EST 2013
User: group
Dark Spectrum Present: No
Reference Spectrum Present: No
Number of Sampled Component Spectra: 1
Spectrometers: USB2E7196
Integration Time (usec): 35000 (USB2E7196)
Spectra Averaged: 100 (USB2E7196)
Boxcar Smoothing: 10 (USB2E7196)
Correct for Electrical Dark: No (USB2E7196)
Strobe/Lamp Enabled: No (USB2E7196)
Correct for Detector Non-linearity: No (USB2E7196)
Correct for Stray Light: No (USB2E7196)
Number of Pixels in Processed Spectrum: 2048
>>>>>Begin Processed Spectral Data<<<<<
339.09	0.00
339.48	215.01
339.86	216.63
340.24	217.76
340.63	219.44
341.01	222.06
341.39	222.23
341.78	223.90
342.16	224.46
342.54	225.13
342.93	213.59
343.31	224.39
343.69	224.94
344.07	225.41
344.46	225.84
344.84	226.24
345.22	226.51
345.60	226.75
345.99	226.90
346.37	227.04
346.75	227.15
347.13	227.21
347.52	227.27
347.90	227.37
348.28	227.37
348.66	227.42
349.05	227.39
349.43	227.42
349.81	227.44
350.19	227.44
350.57	227.50
350.96	227.57
351.34	227.64
351.72	227.72
352.10	227.82
352.48	227.90
352.87	227.94
353.25	227.99
353.63	228.04
354.01	228.14
354.39	228.25
354.77	228.29
355.15	228.37
355.54	228.42
355.92	228.44
356.30	228.54
356.68	228.62
357.06	228.72
357.44	228.77
357.82	228.81
358.20	228.91
358.58	228.94
358.97	228.97
359.35	229.04
359.73	229.08
360.11	229.10
360.49	229.15
360.87	229.19
361.25	229.23
361.63	229.31
362.01	229.32
362.39	229.32
362.77	229.36
363.15	229.41
363.53	229.45
363.91	229.46
364.29	229.45
364.67	229.41
365.05	229.42
365.43	229.45
365.81	229.45
366.19	229.48
366.57	229.52
366.95	229.52
367.33	229.50
367.71	229.49
368.09	229.52
368.47	229.48
368.85	229.44
369.23	229.42
369.61	229.36
369.99	229.35
370.37	229.33
370.75	229.35
371.13	229.27
371.51	229.20
371.89	229.16
372.27	229.13
372.65	229.09
373.03	229.05
373.41	228.96
373.78	228.92
374.16	228.81
374.54	228.75
374.92	228.70
375.30	228.63
375.68	228.54
376.06	228.43
376.44	228.37
376.82	228.32
377.19	228.24
377.57	228.18
377.95	228.09
378.33	228.00
378.71	227.86
379.09	227.76
379.47	227.74
379.84	227.64
380.22	227.57
380.60	227.48
380.98	227.37
381.36	227.30
381.73	227.22
382.11	227.15
382.49	227.05
382.87	226.98
383.25	226.88
383.62	226.93
384.00	226.86
384.38	226.83
384.76	226.76
385.13	226.76
385.51	226.68
385.89	226.59
386.27	226.53
386.64	226.48
387.02	226.44
387.40	226.36
387.78	226.36
388.15	226.28
388.53	226.23
388.91	226.27
389.29	226.23
389.66	226.22
390.04	226.22
390.42	226.25
390.79	226.24
391.17	226.25
391.55	226.18
391.92	226.23
392.30	226.20
392.68	226.21
393.05	226.21
393.43	226.24
393.81	226.28
394.18	226.30
394.56	226.33
394.94	226.42
395.31	226.46
395.69	226.50
396.06	226.60
396.44	226.65
396.82	226.65
397.19	226.77
397.57	226.87
397.95	226.92
398.32	226.91
398.70	226.95
399.07	227.04
399.45	227.08
399.82	227.14
400.20	227.21
400.58	227.27
400.95	227.31
401.33	227.43
401.70	227.58
402.08	227.69
402.45	227.80
402.83	227.89
403.20	228.00
403.58	228.11
403.95	228.22
404.33	228.37
404.71	228.51
405.08	228.70
405.46	228.79
405.83	228.97
406.21	229.17
406.58	229.38
406.96	229.57
407.33	229.75
407.70	229.94
408.08	230.24
408.45	230.47
408.83	230.72
409.20	230.93
409.58	231.13
409.95	231.37
410.33	231.65
410.70	231.92
411.08	232.23
411.45	232.57
411.82	232.85
412.20	233.19
412.57	233.59
412.95	233.87
413.32	234.29
413.69	234.65
414.07	235.09
414.44	235.57
414.82	236.00
415.19	236.54
415.56	237.12
415.94	237.67
416.31	238.30
416.68	238.93
417.06	239.65
417.43	240.34
417.81	241.11
418.18	241.90
418.55	242.73
418.93	243.63
419.30	244.47
419.67	245.46
420.04	246.39
420.42	247.38
420.79	248.59
421.16	249.76
421.54	250.99
421.91	252.20
422.28	253.43
422.66	254.81
423.03	256.13
423.40	257.42
423.77	258.80
424.15	260.26
424.52	261.73
424.89	263.39
425.26	264.94
425.64	266.41
426.01	267.99
426.38	269.70
426.75	271.35
427.13	273.09
427.50	274.88
427.87	276.80
428.24	278.64
428.61	280.34
428.99	282.26
429.36	284.38
429.73	286.45
430.10	288.47
430.47	290.51
430.85	292.70
431.22	294.92
431.59	297.29
431.96	299.51
432.33	302.03
432.70	304.39
433.08	307.22
433.45	309.83
433.82	312.47
434.19	315.29
434.56	318.10
434.93	320.79
435.30	323.41
435.68	326.33
436.05	329.17
436.42	331.99
436.79	334.55
437.16	337.22
437.53	340.09
437.90	342.92
438.27	345.68
438.64	348.46
439.01	351.05
439.38	353.33
439.75	355.48
440.13	357.98
440.50	360.32
440.87	362.22
441.24	364.17
441.61	366.30
441.98	367.86
442.35	369.71
442.72	371.59
443.09	373.43
443.46	374.40
443.83	375.01
444.20	375.54
444.57	376.31
444.94	376.63
445.31	376.97
445.68	377.35
446.05	377.39
446.42	376.98
446.79	376.61
447.16	376.11
447.53	375.83
447.90	374.66
448.27	373.46
448.64	371.78
449.01	370.66
449.37	368.68
449.74	366.73
450.11	364.42
450.48	361.93
450.85	359.36
451.22	357.21
451.59	355.17
451.96	353.21
452.33	350.63
452.70	348.25
453.07	345.41
453.43	342.47
453.80	339.72
454.17	337.08
454.54	334.50
454.91	331.82
455.28	329.17
455.65	326.64
456.02	324.18
456.38	322.06
456.75	319.37
457.12	317.10
457.49	314.91
457.86	312.72
458.23	310.85
458.59	308.81
458.96	306.73
459.33	304.88
459.70	303.02
460.07	301.48
460.43	299.75
460.80	298.10
461.17	296.63
461.54	295.13
461.91	293.69
462.27	292.26
462.64	291.01
463.01	289.66
463.38	288.38
463.74	287.03
464.11	285.86
464.48	284.86
464.85	283.78
465.21	282.86
465.58	281.95
465.95	280.87
466.32	279.94
466.68	279.02
467.05	278.08
467.42	277.17
467.78	276.24
468.15	275.37
468.52	274.71
468.88	273.87
469.25	273.10
469.62	272.46
469.98	271.75
470.35	271.08
470.72	270.38
471.08	269.74
471.45	269.19
471.82	268.62
472.18	268.02
472.55	267.57
472.92	267.04
473.28	266.60
473.65	266.10
474.02	265.65
474.38	265.24
474.75	264.91
475.11	264.53
475.48	264.30
475.85	264.07
476.21	263.80
476.58	263.61
476.94	263.44
477.31	263.24
477.67	263.12
478.04	263.00
478.41	262.98
478.77	263.00
479.14	262.92
479.50	262.93
479.87	263.01
480.23	263.08
480.60	263.18
480.96	263.21
481.33	263.41
481.69	263.64
482.06	263.83
482.42	264.03
482.79	264.30
483.15	264.55
483.52	264.92
483.88	265.29
484.25	265.65
484.61	266.07
484.98	266.55
485.34	267.06
485.71	267.69
486.07	268.24
486.44	268.80
486.80	269.51
487.17	270.20
487.53	270.98
487.90	271.81
488.26	272.72
488.62	273.69
488.99	274.68
489.35	275.69
489.72	276.82
490.08	278.06
490.44	279.33
490.81	280.69
491.17	282.05
491.54	283.50
491.90	285.05
492.26	286.68
492.63	288.39
492.99	290.17
493.36	292.00
493.72	294.09
494.08	296.19
494.45	298.43
494.81	300.80
495.17	303.23
495.54	305.79
495.90	308.48
496.26	311.28
496.63	314.23
496.99	317.29
497.35	320.54
497.72	323.87
498.08	327.33
498.44	331.02
498.80	334.92
499.17	338.95
499.53	343.10
499.89	347.50
500.26	352.00
500.62	356.63
500.98	361.55
501.34	366.59
501.71	371.90
502.07	377.33
502.43	382.95
502.79	388.79
503.16	394.84
503.52	401.12
503.88	407.55
504.24	414.18
504.60	421.09
504.97	428.20
505.33	435.53
505.69	443.23
506.05	450.91
506.41	458.77
506.78	466.88
507.14	475.29
507.50	484.02
507.86	493.02
508.22	502.25
508.59	511.54
508.95	521.09
509.31	530.90
509.67	541.02
510.03	551.36
510.39	561.86
510.75	572.67
511.12	583.61
511.48	594.88
511.84	606.30
512.20	617.84
512.56	629.85
512.92	642.02
513.28	654.29
513.64	666.87
514.00	679.61
514.37	692.61
514.73	705.75
515.09	718.71
515.45	732.00
515.81	745.63
516.17	759.52
516.53	773.73
516.89	787.93
517.25	802.11
517.61	816.48
517.97	831.02
518.33	845.39
518.69	860.23
519.05	875.25
519.41	890.52
519.77	906.12
520.13	921.48
520.49	936.90
520.85	952.43
521.21	968.19
521.57	984.43
521.93	1000.31
522.29	1016.65
522.65	1033.04
523.01	1049.37
523.37	1065.51
523.73	1081.81
524.09	1097.95
524.45	1114.33
524.81	1130.99
525.17	1147.95
525.53	1165.01
525.89	1182.11
526.25	1198.98
526.61	1215.49
526.97	1232.25
527.33	1248.73
527.68	1265.51
528.04	1282.25
528.40	1299.06
528.76	1316.13
529.12	1332.82
529.48	1349.67
529.84	1365.93
530.20	1382.60
530.56	1399.72
530.91	1417.06
531.27	1433.93
531.63	1450.46
531.99	1467.08
532.35	1483.08
532.71	1498.90
533.07	1515.04
533.42	1530.97
533.78	1547.01
534.14	1563.19
534.50	1578.67
534.86	1594.60
535.21	1609.91
535.57	1625.83
535.93	1641.23
536.29	1656.09
536.65	1671.25
537.00	1686.14
537.36	1701.48
537.72	1716.11
538.08	1730.55
538.44	1744.54
538.79	1758.60
539.15	1772.48
539.51	1786.40
539.87	1800.92
540.22	1814.72
540.58	1828.70
540.94	1842.12
541.29	1855.24
541.65	1868.04
542.01	1881.45
542.37	1893.78
542.72	1906.25
543.08	1917.92
543.44	1930.46
543.79	1941.80
544.15	1952.93
544.51	1964.55
544.87	1975.63
545.22	1986.46
545.58	1996.73
545.94	2006.45
546.29	2016.23
546.65	2026.11
547.01	2035.34
547.36	2044.01
547.72	2052.59
548.07	2060.43
548.43	2068.56
548.79	2076.60
549.14	2084.31
549.50	2091.63
549.86	2099.46
550.21	2106.70
550.57	2114.06
550.92	2120.63
551.28	2127.68
551.64	2134.80
551.99	2141.29
552.35	2147.51
552.70	2153.57
553.06	2159.52
553.41	2165.97
553.77	2172.05
554.13	2178.07
554.48	2184.14
554.84	2189.59
555.19	2194.92
555.55	2199.96
555.90	2204.44
556.26	2209.30
556.61	2214.01
556.97	2218.11
557.32	2222.21
557.68	2226.59
558.03	2230.87
558.39	2234.58
558.74	2239.30
559.10	2242.98
559.45	2246.66
559.81	2250.96
560.16	2254.78
560.52	2258.03
560.87	2261.30
561.23	2263.78
561.58	2266.58
561.94	2269.21
562.29	2271.60
562.64	2274.22
563.00	2276.88
563.35	2280.43
563.71	2283.54
564.06	2286.65
564.42	2289.54
564.77	2291.89
565.12	2293.73
565.48	2295.41
565.83	2297.14
566.19	2298.23
566.54	2299.23
566.89	2300.26
567.25	2300.58
567.60	2301.88
567.96	2303.42
568.31	2304.29
568.66	2305.43
569.02	2305.96
569.37	2306.09
569.72	2306.96
570.08	2306.98
570.43	2306.83
570.78	2305.99
571.14	2304.19
571.49	2302.76
571.84	2302.37
572.20	2301.20
572.55	2300.23
572.90	2298.70
573.26	2297.31
573.61	2295.56
573.96	2293.58
574.31	2290.56
574.67	2287.44
575.02	2283.75
575.37	2280.29
575.72	2276.37
576.08	2273.04
576.43	2269.67
576.78	2265.93
577.13	2262.49
577.49	2259.29
577.84	2255.76
578.19	2252.16
578.54	2248.38
578.90	2243.97
579.25	2238.27
579.60	2233.18
579.95	2228.02
580.30	2222.90
580.66	2217.55
581.01	2212.64
581.36	2207.58
581.71	2203.11
582.06	2198.61
582.42	2194.03
582.77	2188.72
583.12	2183.83
583.47	2178.80
583.82	2173.66
584.17	2168.35
584.53	2162.79
584.88	2157.17
585.23	2151.28
585.58	2145.64
585.93	2140.15
586.28	2135.40
586.63	2130.20
586.98	2125.08
587.34	2120.30
587.69	2115.39
588.04	2110.04
588.39	2104.11
588.74	2097.62
589.09	2091.49
589.44	2084.55
589.79	2078.52
590.14	2072.82
590.49	2066.31
590.84	2059.87
591.19	2053.71
591.54	2047.17
591.89	2039.64
592.25	2032.67
592.60	2025.39
592.95	2017.55
593.30	2010.10
593.65	2002.34
594.00	1995.36
594.35	1988.01
594.70	1979.92
595.05	1972.51
595.40	1965.09
595.75	1957.58
596.10	1951.20
596.45	1944.30
596.80	1938.10
597.15	1931.23
597.50	1924.05
597.85	1917.55
598.19	1910.86
598.54	1903.62
598.89	1897.02
599.24	1891.18
599.59	1884.39
599.94	1878.08
600.29	1871.84
600.64	1865.33
600.99	1857.82
601.34	1850.83
601.69	1843.85
602.04	1836.81
602.39	1829.47
602.74	1822.60
603.08	1815.83
603.43	1809.08
603.78	1801.94
604.13	1794.80
604.48	1787.50
604.83	1780.62
605.18	1773.63
605.53	1765.55
605.87	1757.61
606.22	1750.23
606.57	1742.16
606.92	1734.94
607.27	1727.74
607.62	1720.76
607.96	1713.41
608.31	1706.79
608.66	1699.09
609.01	1691.47
609.36	1683.91
609.70	1675.84
610.05	1667.71
610.40	1660.01
610.75	1651.76
611.10	1644.01
611.44	1635.55
611.79	1627.58
612.14	1618.83
612.49	1609.62
612.83	1601.36
613.18	1593.33
613.53	1585.21
613.88	1576.82
614.22	1568.45
614.57	1559.90
614.92	1551.87
615.27	1544.21
615.61	1535.89
615.96	1527.94
616.31	1520.49
616.65	1513.14
617.00	1505.58
617.35	1498.05
617.70	1489.67
618.04	1481.00
618.39	1472.77
618.74	1465.26
619.08	1457.00
619.43	1449.51
619.78	1442.71
620.12	1435.48
620.47	1427.86
620.82	1419.74
621.16	1412.34
621.51	1404.81
621.85	1397.23
622.20	1388.73
622.55	1380.56
622.89	1372.72
623.24	1365.16
623.59	1357.67
623.93	1350.21
624.28	1343.04
624.62	1335.48
624.97	1328.28
625.32	1321.71
625.66	1314.76
626.01	1307.40
626.35	1299.92
626.70	1292.10
627.04	1284.27
627.39	1276.52
627.73	1269.21
628.08	1262.24
628.43	1254.88
628.77	1247.53
629.12	1239.95
629.46	1232.71
629.81	1225.24
630.15	1218.05
630.50	1210.53
630.84	1202.33
631.19	1194.52
631.53	1187.04
631.88	1179.53
632.22	1171.86
632.57	1164.54
632.91	1157.06
633.26	1149.60
633.60	1142.32
633.95	1135.32
634.29	1128.44
634.64	1121.83
634.98	1114.45
635.32	1107.38
635.67	1100.88
636.01	1094.26
636.36	1087.42
636.70	1080.98
637.05	1074.46
637.39	1067.99
637.73	1061.63
638.08	1055.84
638.42	1049.90
638.77	1043.52
639.11	1036.89
639.45	1030.61
639.80	1023.96
640.14	1017.42
640.49	1011.07
640.83	1004.77
641.17	998.51
641.52	992.17
641.86	985.74
642.20	979.93
642.55	973.60
642.89	967.07
643.23	960.51
643.58	954.76
643.92	948.62
644.26	942.51
644.61	936.56
644.95	930.49
645.29	923.91
645.64	917.10
645.98	910.69
646.32	904.95
646.66	898.91
647.01	893.16
647.35	887.49
647.69	881.64
648.04	876.14
648.38	870.41
648.72	864.32
649.06	858.21
649.41	852.34
649.75	846.44
650.09	840.43
650.43	834.60
650.78	828.44
651.12	822.40
651.46	816.76
651.80	810.88
652.14	805.45
652.49	800.05
652.83	794.89
653.17	789.15
653.51	783.40
653.85	778.02
654.20	772.33
654.54	766.29
654.88	760.60
655.22	754.68
655.56	748.93
655.90	743.54
656.25	738.28
656.59	732.87
656.93	727.75
657.27	722.69
657.61	717.37
657.95	712.25
658.29	707.25
658.64	701.98
658.98	696.82
659.32	691.46
659.66	686.26
660.00	680.88
660.34	676.02
660.68	671.09
661.02	666.05
661.36	661.37
661.70	656.98
662.05	652.60
662.39	648.25
662.73	643.91
663.07	639.52
663.41	635.13
663.75	630.63
664.09	626.15
664.43	621.78
664.77	617.65
665.11	613.49
665.45	609.43
665.79	605.38
666.13	601.31
666.47	597.14
666.81	592.99
667.15	588.90
667.49	585.04
667.83	581.29
668.17	577.43
668.51	573.37
668.85	569.39
669.19	565.53
669.53	561.71
669.87	557.81
670.21	554.17
670.55	550.54
670.89	547.18
671.23	543.69
671.57	540.18
671.91	536.67
672.25	533.18
672.58	529.70
672.92	526.31
673.26	523.15
673.60	520.12
673.94	517.08
674.28	514.26
674.62	511.29
674.96	508.27
675.30	505.39
675.64	502.53
675.97	499.72
676.31	496.90
676.65	494.10
676.99	491.34
677.33	488.48
677.67	485.64
678.01	482.61
678.34	479.67
678.68	476.81
679.02	473.98
679.36	471.21
679.70	468.50
680.04	465.74
680.37	462.82
680.71	459.98
681.05	457.35
681.39	454.62
681.73	452.01
682.06	449.41
682.40	446.85
682.74	444.34
683.08	441.83
683.42	439.24
683.75	436.72
684.09	434.22
684.43	431.82
684.77	429.40
685.10	427.11
685.44	424.81
685.78	422.53
686.12	420.30
686.45	418.06
686.79	415.73
687.13	413.54
687.46	411.41
687.80	409.27
688.14	407.09
688.48	405.01
688.81	402.77
689.15	400.63
689.49	398.53
689.82	396.41
690.16	394.33
690.50	392.36
690.83	390.37
691.17	388.36
691.51	386.38
691.84	384.53
692.18	382.59
692.52	380.63
692.85	378.70
693.19	376.81
693.52	374.96
693.86	373.13
694.20	371.34
694.53	369.53
694.87	367.73
695.21	365.90
695.54	364.11
695.88	362.40
696.21	360.68
696.55	358.94
696.88	357.23
697.22	355.56
697.56	353.92
697.89	352.26
698.23	350.70
698.56	349.10
698.90	347.52
699.23	345.81
699.57	344.28
699.90	342.77
700.24	341.24
700.58	339.71
700.91	338.23
701.25	336.83
701.58	335.46
701.92	334.10
702.25	332.77
702.59	331.41
702.92	330.08
703.26	328.74
703.59	327.47
703.93	326.32
704.26	325.13
704.60	323.87
704.93	322.62
705.26	321.38
705.60	320.26
705.93	319.09
706.27	318.11
706.60	317.08
706.94	316.00
707.27	314.84
707.61	313.84
707.94	312.82
708.27	311.69
708.61	310.62
708.94	309.63
709.28	308.67
709.61	307.71
709.94	306.78
710.28	305.81
710.61	304.90
710.95	303.85
711.28	302.89
711.61	301.95
711.95	301.02
712.28	300.05
712.61	299.06
712.95	298.12
713.28	297.24
713.61	296.31
713.95	295.41
714.28	294.64
714.61	293.72
714.95	292.89
715.28	292.09
715.61	291.23
715.95	290.38
716.28	289.52
716.61	288.68
716.95	287.88
717.28	287.15
717.61	286.41
717.94	285.67
718.28	284.87
718.61	284.15
718.94	283.51
719.27	282.92
719.61	282.30
719.94	281.68
720.27	280.96
720.60	280.31
720.94	279.64
721.27	279.02
721.60	278.48
721.93	277.92
722.27	277.38
722.60	276.82
722.93	276.20
723.26	275.68
723.59	275.16
723.93	274.60
724.26	274.03
724.59	273.47
724.92	272.96
725.25	272.43
725.59	271.93
725.92	271.39
726.25	270.84
726.58	270.35
726.91	269.87
727.24	269.42
727.57	268.99
727.91	268.53
728.24	268.09
728.57	267.58
728.90	267.08
729.23	266.55
729.56	266.11
729.89	265.65
730.22	265.15
730.55	264.67
730.89	264.21
731.22	263.78
731.55	263.33
731.88	262.89
732.21	262.48
732.54	262.01
732.87	261.59
733.20	261.20
733.53	260.83
733.86	260.47
734.19	260.02
734.52	259.58
734.85	259.24
735.18	258.83
735.51	258.44
735.84	258.07
736.17	257.72
736.50	257.33
736.83	257.10
737.16	256.76
737.49	256.45
737.82	256.14
738.15	255.77
738.48	255.43
738.81	255.10
739.14	254.78
739.47	254.50
739.80	254.21
740.13	253.90
740.46	253.53
740.79	253.16
741.12	252.88
741.45	252.57
741.78	252.24
742.11	251.92
742.44	251.60
742.77	251.34
743.10	251.05
743.43	250.73
743.75	250.34
744.08	250.19
744.41	249.90
744.74	249.64
745.07	249.38
745.40	249.14
745.73	248.91
746.06	248.60
746.39	248.37
746.71	248.12
747.04	247.85
747.37	247.60
747.70	247.36
748.03	247.13
748.36	246.88
748.68	246.64
749.01	246.38
749.34	246.17
749.67	245.92
750.00	245.68
750.33	245.54
750.65	245.38
750.98	245.04
751.31	244.79
751.64	244.55
751.97	244.39
752.29	244.16
752.62	243.86
752.95	243.70
753.28	243.46
753.60	243.23
753.93	243.08
754.26	242.90
754.59	242.67
754.91	242.46
755.24	242.29
755.57	242.08
755.90	241.91
756.22	241.73
756.55	241.55
756.88	241.39
757.20	241.18
757.53	240.96
757.86	240.78
758.19	240.66
758.51	240.52
758.84	240.29
759.17	240.12
759.49	240.01
759.82	239.88
760.15	239.75
760.47	239.61
760.80	239.41
761.13	239.27
761.45	239.17
761.78	239.03
762.11	238.89
762.43	238.78
762.76	238.66
763.08	238.52
763.41	238.38
763.74	238.24
764.06	238.10
764.39	237.97
764.71	237.81
765.04	237.65
765.37	237.52
765.69	237.41
766.02	237.29
766.34	237.16
766.67	237.00
767.00	236.89
767.32	236.83
767.65	236.80
767.97	236.65
768.30	236.50
768.62	236.38
768.95	236.24
769.27	236.12
769.60	236.03
769.92	235.93
770.25	235.78
770.57	235.65
770.90	235.55
771.22	235.44
771.55	235.36
771.87	235.28
772.20	235.18
772.52	235.18
772.85	235.19
773.17	235.09
773.50	235.02
773.82	234.90
774.15	234.73
774.47	234.54
774.80	234.47
775.12	234.40
775.45	234.31
775.77	234.25
776.09	234.17
776.42	234.05
776.74	233.97
777.07	233.92
777.39	233.86
777.72	233.78
778.04	233.71
778.36	233.65
778.69	233.56
779.01	233.48
779.33	233.29
779.66	233.12
779.98	233.06
780.31	232.96
780.63	232.94
780.95	232.91
781.28	232.86
781.60	232.77
781.92	232.72
782.25	232.65
782.57	232.58
782.89	232.53
783.22	232.51
783.54	232.46
783.86	232.42
784.19	232.34
784.51	232.28
784.83	232.23
785.16	232.15
785.48	232.11
785.80	232.06
786.12	232.05
786.45	231.99
786.77	231.96
787.09	231.89
