SpectraSuite Data File
++++++++++++++++++++++++++++++++++++
Date: Fri Feb 01 16:23:51 EST 2013
User: group
Dark Spectrum Present: No
Reference Spectrum Present: No
Number of Sampled Component Spectra: 1
Spectrometers: USB2E7196
Integration Time (usec): 35000 (USB2E7196)
Spectra Averaged: 100 (USB2E7196)
Boxcar Smoothing: 10 (USB2E7196)
Correct for Electrical Dark: No (USB2E7196)
Strobe/Lamp Enabled: No (USB2E7196)
Correct for Detector Non-linearity: No (USB2E7196)
Correct for Stray Light: No (USB2E7196)
Number of Pixels in Processed Spectrum: 2048
>>>>>Begin Processed Spectral Data<<<<<
339.09	0.00
339.48	214.18
339.86	214.65
340.24	216.36
340.63	217.01
341.01	220.65
341.39	220.54
341.78	222.41
342.16	223.07
342.54	224.01
342.93	212.02
343.31	222.74
343.69	223.29
344.07	223.76
344.46	224.20
344.84	224.64
345.22	224.90
345.60	225.14
345.99	225.31
346.37	225.42
346.75	225.51
347.13	225.65
347.52	225.70
347.90	225.81
348.28	225.87
348.66	225.94
349.05	225.94
349.43	226.03
349.81	226.08
350.19	226.13
350.57	226.21
350.96	226.33
351.34	226.46
351.72	226.56
352.10	226.68
352.48	226.76
352.87	226.81
353.25	226.90
353.63	226.97
354.01	227.03
354.39	227.15
354.77	227.26
355.15	227.39
355.54	227.48
355.92	227.54
356.30	227.60
356.68	227.74
357.06	227.82
357.44	227.85
357.82	227.89
358.20	227.98
358.58	228.05
358.97	228.09
359.35	228.15
359.73	228.23
360.11	228.32
360.49	228.39
360.87	228.47
361.25	228.54
361.63	228.66
362.01	228.74
362.39	228.77
362.77	228.82
363.15	228.84
363.53	228.84
363.91	228.87
364.29	228.87
364.67	228.79
365.05	228.82
365.43	228.85
365.81	228.93
366.19	228.96
366.57	229.03
366.95	229.01
367.33	228.98
367.71	228.96
368.09	228.95
368.47	228.93
368.85	228.90
369.23	228.88
369.61	228.81
369.99	228.83
370.37	228.83
370.75	228.82
371.13	228.76
371.51	228.73
371.89	228.68
372.27	228.62
372.65	228.57
373.03	228.49
373.41	228.45
373.78	228.36
374.16	228.27
374.54	228.17
374.92	228.10
375.30	228.02
375.68	227.91
376.06	227.85
376.44	227.76
376.82	227.69
377.19	227.63
377.57	227.53
377.95	227.42
378.33	227.34
378.71	227.20
379.09	227.14
379.47	227.09
379.84	227.00
380.22	226.99
380.60	226.89
380.98	226.85
381.36	226.78
381.73	226.71
382.11	226.66
382.49	226.59
382.87	226.53
383.25	226.46
383.62	226.53
384.00	226.44
384.38	226.39
384.76	226.36
385.13	226.29
385.51	226.24
385.89	226.15
386.27	226.07
386.64	226.02
387.02	225.95
387.40	225.90
387.78	225.88
388.15	225.80
388.53	225.79
388.91	225.73
389.29	225.67
389.66	225.64
390.04	225.59
390.42	225.56
390.79	225.53
391.17	225.50
391.55	225.37
391.92	225.35
392.30	225.36
392.68	225.34
393.05	225.34
393.43	225.34
393.81	225.38
394.18	225.39
394.56	225.38
394.94	225.43
395.31	225.41
395.69	225.45
396.06	225.47
396.44	225.50
396.82	225.51
397.19	225.61
397.57	225.64
397.95	225.69
398.32	225.74
398.70	225.79
399.07	225.87
399.45	225.88
399.82	225.93
400.20	225.96
400.58	226.01
400.95	226.07
401.33	226.18
401.70	226.29
402.08	226.40
402.45	226.52
402.83	226.62
403.20	226.73
403.58	226.80
403.95	226.96
404.33	227.08
404.71	227.22
405.08	227.40
405.46	227.52
405.83	227.66
406.21	227.78
406.58	227.96
406.96	228.12
407.33	228.34
407.70	228.54
408.08	228.82
408.45	229.04
408.83	229.26
409.20	229.44
409.58	229.63
409.95	229.89
410.33	230.16
410.70	230.40
411.08	230.72
411.45	231.04
411.82	231.32
412.20	231.66
412.57	232.10
412.95	232.37
413.32	232.79
413.69	233.24
414.07	233.70
414.44	234.16
414.82	234.67
415.19	235.23
415.56	235.79
415.94	236.32
416.31	236.95
416.68	237.60
417.06	238.32
417.43	238.99
417.81	239.77
418.18	240.54
418.55	241.40
418.93	242.28
419.30	243.16
419.67	244.10
420.04	245.07
420.42	246.04
420.79	247.22
421.16	248.37
421.54	249.52
421.91	250.73
422.28	252.01
422.66	253.35
423.03	254.64
423.40	256.00
423.77	257.45
424.15	258.88
424.52	260.34
424.89	261.96
425.26	263.53
425.64	264.93
426.01	266.52
426.38	268.15
426.75	269.80
427.13	271.51
427.50	273.32
427.87	275.20
428.24	277.04
428.61	278.80
428.99	280.73
429.36	282.82
429.73	284.87
430.10	286.85
430.47	288.88
430.85	290.97
431.22	293.15
431.59	295.51
431.96	297.74
432.33	300.22
432.70	302.59
433.08	305.38
433.45	308.09
433.82	310.70
434.19	313.58
434.56	316.39
434.93	319.04
435.30	321.66
435.68	324.52
436.05	327.37
436.42	330.15
436.79	332.68
437.16	335.33
437.53	338.16
437.90	340.97
438.27	343.71
438.64	346.49
439.01	349.11
439.38	351.33
439.75	353.45
440.13	355.89
440.50	358.23
440.87	360.06
441.24	361.91
441.61	364.04
441.98	365.56
442.35	367.33
442.72	369.16
443.09	370.93
443.46	371.90
443.83	372.48
444.20	372.92
444.57	373.72
444.94	374.01
445.31	374.32
445.68	374.64
446.05	374.69
446.42	374.31
446.79	373.89
447.16	373.39
447.53	373.13
447.90	372.03
448.27	370.83
448.64	369.28
449.01	368.15
449.37	366.15
449.74	364.24
450.11	362.03
450.48	359.57
450.85	357.04
451.22	354.92
451.59	352.90
451.96	351.01
452.33	348.42
452.70	346.08
453.07	343.28
453.43	340.39
453.80	337.67
454.17	335.05
454.54	332.48
454.91	329.83
455.28	327.13
455.65	324.62
456.02	322.20
456.38	320.06
456.75	317.43
457.12	315.19
457.49	312.94
457.86	310.76
458.23	308.94
458.59	306.93
458.96	304.87
459.33	303.04
459.70	301.23
460.07	299.76
460.43	298.08
460.80	296.49
461.17	295.10
461.54	293.62
461.91	292.22
462.27	290.81
462.64	289.57
463.01	288.21
463.38	286.96
463.74	285.61
464.11	284.46
464.48	283.43
464.85	282.40
465.21	281.57
465.58	280.69
465.95	279.60
466.32	278.69
466.68	277.77
467.05	276.87
467.42	275.99
467.78	275.02
468.15	274.13
468.52	273.43
468.88	272.58
469.25	271.80
469.62	271.17
469.98	270.50
470.35	269.91
470.72	269.34
471.08	268.69
471.45	268.20
471.82	267.67
472.18	267.11
472.55	266.66
472.92	266.16
473.28	265.66
473.65	265.22
474.02	264.81
474.38	264.48
474.75	264.15
475.11	263.79
475.48	263.53
475.85	263.35
476.21	263.14
476.58	262.90
476.94	262.78
477.31	262.57
477.67	262.42
478.04	262.28
478.41	262.22
478.77	262.25
479.14	262.16
479.50	262.15
479.87	262.20
480.23	262.28
480.60	262.36
480.96	262.45
481.33	262.65
481.69	262.84
482.06	263.02
482.42	263.24
482.79	263.49
483.15	263.82
483.52	264.16
483.88	264.49
484.25	264.92
484.61	265.33
484.98	265.85
485.34	266.41
485.71	267.01
486.07	267.56
486.44	268.09
486.80	268.79
487.17	269.53
487.53	270.33
487.90	271.16
488.26	272.09
488.62	273.12
488.99	274.08
489.35	275.13
489.72	276.26
490.08	277.44
490.44	278.68
490.81	280.02
491.17	281.37
491.54	282.90
491.90	284.45
492.26	286.07
492.63	287.79
492.99	289.60
493.36	291.50
493.72	293.56
494.08	295.76
494.45	298.00
494.81	300.39
495.17	302.83
495.54	305.40
495.90	308.10
496.26	310.92
496.63	313.88
496.99	317.00
497.35	320.26
497.72	323.66
498.08	327.17
498.44	330.88
498.80	334.82
499.17	338.86
499.53	343.03
499.89	347.45
500.26	351.95
500.62	356.61
500.98	361.60
501.34	366.72
501.71	372.03
502.07	377.50
502.43	383.10
502.79	389.01
503.16	395.08
503.52	401.34
503.88	407.76
504.24	414.42
504.60	421.35
504.97	428.52
505.33	435.89
505.69	443.67
506.05	451.44
506.41	459.29
506.78	467.50
507.14	476.00
507.50	484.71
507.86	493.74
508.22	503.02
508.59	512.21
508.95	521.78
509.31	531.63
509.67	541.74
510.03	552.01
510.39	562.48
510.75	573.23
511.12	584.14
511.48	595.38
511.84	606.82
512.20	618.32
512.56	630.24
512.92	642.35
513.28	654.71
513.64	667.19
514.00	679.98
514.37	692.90
514.73	705.94
515.09	718.90
515.45	732.13
515.81	745.72
516.17	759.64
516.53	773.78
516.89	787.93
517.25	802.02
517.61	816.51
517.97	830.98
518.33	845.50
518.69	860.31
519.05	875.28
519.41	890.41
519.77	905.90
520.13	921.35
520.49	936.69
520.85	952.00
521.21	967.67
521.57	983.82
521.93	999.47
522.29	1015.79
522.65	1032.03
523.01	1048.19
523.37	1064.09
523.73	1080.21
524.09	1096.24
524.45	1112.49
524.81	1129.11
525.17	1145.85
525.53	1162.70
525.89	1179.54
526.25	1196.30
526.61	1212.59
526.97	1229.25
527.33	1245.59
527.68	1262.14
528.04	1278.59
528.40	1295.01
528.76	1311.89
529.12	1328.32
529.48	1345.20
529.84	1361.08
530.20	1377.75
530.56	1394.78
530.91	1412.19
531.27	1429.02
531.63	1445.38
531.99	1461.76
532.35	1477.63
532.71	1493.36
533.07	1509.51
533.42	1525.39
533.78	1541.22
534.14	1557.45
534.50	1572.71
534.86	1588.55
535.21	1603.62
535.57	1619.50
535.93	1635.05
536.29	1649.86
536.65	1664.87
537.00	1679.57
537.36	1694.84
537.72	1709.28
538.08	1723.51
538.44	1737.07
538.79	1750.80
539.15	1764.42
539.51	1778.16
539.87	1792.45
540.22	1806.04
540.58	1819.69
540.94	1832.74
541.29	1845.63
541.65	1858.30
542.01	1871.48
542.37	1883.80
542.72	1896.17
543.08	1907.87
543.44	1920.03
543.79	1931.11
544.15	1942.09
544.51	1953.47
544.87	1964.35
545.22	1974.99
545.58	1985.16
545.94	1994.95
546.29	2004.75
546.65	2014.61
547.01	2023.86
547.36	2032.48
547.72	2040.90
548.07	2048.63
548.43	2056.74
548.79	2064.75
549.14	2072.21
549.50	2079.44
549.86	2087.02
550.21	2094.28
550.57	2101.36
550.92	2107.97
551.28	2114.99
551.64	2122.04
551.99	2128.54
552.35	2134.58
552.70	2140.63
553.06	2146.61
553.41	2152.85
553.77	2158.71
554.13	2164.66
554.48	2170.63
554.84	2176.14
555.19	2181.37
555.55	2186.52
555.90	2191.08
556.26	2195.98
556.61	2200.73
556.97	2205.15
557.32	2209.20
557.68	2213.28
558.03	2217.63
558.39	2221.25
558.74	2225.99
559.10	2229.84
559.45	2233.58
559.81	2237.96
560.16	2241.91
560.52	2245.09
560.87	2248.52
561.23	2251.34
561.58	2254.35
561.94	2257.00
562.29	2259.26
562.64	2262.09
563.00	2264.70
563.35	2268.16
563.71	2271.15
564.06	2274.27
564.42	2277.04
564.77	2279.75
565.12	2282.12
565.48	2284.04
565.83	2285.98
566.19	2287.37
566.54	2288.25
566.89	2289.45
567.25	2290.12
567.60	2291.45
567.96	2293.27
568.31	2294.28
568.66	2295.46
569.02	2295.95
569.37	2296.21
569.72	2297.22
570.08	2297.44
570.43	2297.69
570.78	2297.19
571.14	2295.66
571.49	2294.37
571.84	2294.15
572.20	2292.90
572.55	2291.88
572.90	2290.25
573.26	2289.00
573.61	2287.41
573.96	2285.80
574.31	2282.80
574.67	2279.84
575.02	2276.27
575.37	2272.99
575.72	2269.22
576.08	2265.78
576.43	2262.56
576.78	2259.13
577.13	2255.96
577.49	2252.87
577.84	2249.40
578.19	2245.72
578.54	2242.35
578.90	2238.14
579.25	2232.51
579.60	2227.72
579.95	2222.60
580.30	2217.68
580.66	2212.60
581.01	2207.47
581.36	2202.48
581.71	2198.34
582.06	2193.95
582.42	2189.51
582.77	2184.21
583.12	2179.72
583.47	2175.11
583.82	2170.27
584.17	2164.96
584.53	2159.53
584.88	2153.95
585.23	2148.26
585.58	2142.85
585.93	2137.31
586.28	2132.75
586.63	2127.92
586.98	2122.89
587.34	2118.35
587.69	2113.58
588.04	2108.13
588.39	2102.56
588.74	2096.18
589.09	2090.14
589.44	2083.40
589.79	2077.43
590.14	2072.06
590.49	2065.53
590.84	2059.14
591.19	2053.00
591.54	2046.71
591.89	2039.48
592.25	2032.70
592.60	2025.49
592.95	2018.02
593.30	2010.75
593.65	2003.09
594.00	1996.05
594.35	1988.88
594.70	1980.86
595.05	1973.62
595.40	1966.48
595.75	1959.15
596.10	1952.91
596.45	1946.27
596.80	1940.09
597.15	1933.52
597.50	1926.29
597.85	1919.86
598.19	1913.25
598.54	1906.16
598.89	1899.40
599.24	1893.46
599.59	1886.78
599.94	1880.65
600.29	1874.39
600.64	1867.85
600.99	1860.54
601.34	1853.70
601.69	1846.77
602.04	1840.05
602.39	1832.84
602.74	1826.20
603.08	1819.31
603.43	1812.76
603.78	1805.44
604.13	1798.23
604.48	1790.98
604.83	1784.18
605.18	1777.16
605.53	1769.28
605.87	1761.42
606.22	1754.34
606.57	1746.44
606.92	1739.21
607.27	1732.00
607.62	1724.90
607.96	1717.73
608.31	1711.06
608.66	1703.53
609.01	1695.90
609.36	1688.26
609.70	1680.13
610.05	1671.98
610.40	1664.39
610.75	1656.11
611.10	1648.52
611.44	1640.17
611.79	1632.19
612.14	1623.44
612.49	1614.31
612.83	1605.90
613.18	1597.84
613.53	1589.54
613.88	1581.03
614.22	1572.73
614.57	1564.11
614.92	1556.27
615.27	1548.77
615.61	1540.51
615.96	1532.33
616.31	1524.74
616.65	1517.28
617.00	1509.77
617.35	1502.19
617.70	1494.03
618.04	1485.44
618.39	1477.18
618.74	1469.53
619.08	1461.17
619.43	1453.64
619.78	1446.74
620.12	1439.53
620.47	1431.90
620.82	1423.79
621.16	1416.26
621.51	1408.63
621.85	1401.00
622.20	1392.27
622.55	1383.90
622.89	1376.01
623.24	1368.60
623.59	1361.14
623.93	1353.71
624.28	1346.57
624.62	1339.05
624.97	1331.64
625.32	1324.92
625.66	1317.88
626.01	1310.78
626.35	1303.36
626.70	1295.57
627.04	1287.70
627.39	1280.00
627.73	1272.63
628.08	1265.70
628.43	1258.46
628.77	1251.07
629.12	1243.51
629.46	1236.50
629.81	1228.88
630.15	1221.56
630.50	1213.99
630.84	1205.79
631.19	1197.82
631.53	1190.24
631.88	1182.62
632.22	1175.12
632.57	1167.74
632.91	1160.19
633.26	1152.82
633.60	1145.43
633.95	1138.28
634.29	1131.35
634.64	1124.62
634.98	1117.30
635.32	1110.13
635.67	1103.53
636.01	1096.90
636.36	1090.10
636.70	1083.40
637.05	1076.97
637.39	1070.51
637.73	1064.02
638.08	1058.16
638.42	1052.18
638.77	1045.69
639.11	1039.11
639.45	1032.60
639.80	1025.89
640.14	1019.52
640.49	1012.86
640.83	1006.53
641.17	1000.36
641.52	993.99
641.86	987.47
642.20	981.49
642.55	975.18
642.89	968.77
643.23	962.23
643.58	956.42
643.92	950.29
644.26	944.15
644.61	938.16
644.95	932.17
645.29	925.65
645.64	918.91
645.98	912.65
646.32	906.79
646.66	900.76
647.01	894.99
647.35	889.18
647.69	883.35
648.04	877.82
648.38	872.00
648.72	866.01
649.06	859.99
649.41	854.18
649.75	848.29
650.09	842.25
650.43	836.51
650.78	830.43
651.12	824.52
651.46	818.85
651.80	813.11
652.14	807.67
652.49	802.19
652.83	796.96
653.17	791.25
653.51	785.52
653.85	780.16
654.20	774.54
654.54	768.55
654.88	762.81
655.22	756.99
655.56	751.37
655.90	746.01
656.25	740.76
656.59	735.38
656.93	730.24
657.27	725.11
657.61	719.63
657.95	714.47
658.29	709.42
658.64	704.07
658.98	698.79
659.32	693.38
659.66	688.21
660.00	682.92
660.34	677.96
660.68	673.08
661.02	668.07
661.36	663.35
661.70	658.87
662.05	654.52
662.39	650.13
662.73	645.67
663.07	641.24
663.41	636.82
663.75	632.33
664.09	627.74
664.43	623.33
664.77	619.24
665.11	614.99
665.45	610.80
665.79	606.79
666.13	602.62
666.47	598.50
666.81	594.32
667.15	590.20
667.49	586.31
667.83	582.46
668.17	578.50
668.51	574.42
668.85	570.37
669.19	566.55
669.53	562.68
669.87	558.73
670.21	554.96
670.55	551.27
670.89	547.84
671.23	544.47
671.57	540.96
671.91	537.36
672.25	533.86
672.58	530.29
672.92	526.82
673.26	523.65
673.60	520.48
673.94	517.37
674.28	514.44
674.62	511.47
674.96	508.35
675.30	505.47
675.64	502.52
675.97	499.75
676.31	496.89
676.65	493.95
676.99	491.26
677.33	488.41
677.67	485.67
678.01	482.68
678.34	479.62
678.68	476.71
679.02	473.93
679.36	471.18
679.70	468.52
680.04	465.81
680.37	462.91
680.71	460.07
681.05	457.48
681.39	454.71
681.73	452.01
682.06	449.49
682.40	446.91
682.74	444.35
683.08	441.79
683.42	439.15
683.75	436.66
684.09	434.12
684.43	431.64
684.77	429.13
685.10	426.70
685.44	424.41
685.78	422.06
686.12	419.77
686.45	417.38
686.79	415.03
687.13	412.85
687.46	410.70
687.80	408.55
688.14	406.32
688.48	404.28
688.81	402.04
689.15	399.86
689.49	397.70
689.82	395.63
690.16	393.52
690.50	391.58
690.83	389.63
691.17	387.64
691.51	385.72
691.84	383.84
692.18	381.97
692.52	380.00
692.85	378.14
693.19	376.28
693.52	374.54
693.86	372.72
694.20	370.93
694.53	369.14
694.87	367.32
695.21	365.56
695.54	363.76
695.88	362.05
696.21	360.36
696.55	358.69
696.88	356.98
697.22	355.31
697.56	353.67
697.89	352.02
698.23	350.41
698.56	348.81
698.90	347.31
699.23	345.65
699.57	344.12
699.90	342.53
700.24	340.97
700.58	339.45
700.91	338.00
701.25	336.49
701.58	335.12
701.92	333.75
702.25	332.35
702.59	330.95
702.92	329.60
703.26	328.29
703.59	327.05
703.93	325.89
704.26	324.69
704.60	323.34
704.93	322.09
705.26	320.87
705.60	319.68
705.93	318.47
706.27	317.45
706.60	316.36
706.94	315.30
707.27	314.16
707.61	313.10
707.94	312.04
708.27	311.01
708.61	309.92
708.94	308.95
709.28	307.99
709.61	307.04
709.94	306.12
710.28	305.11
710.61	304.07
710.95	303.03
711.28	302.11
711.61	301.21
711.95	300.33
712.28	299.38
712.61	298.45
712.95	297.50
713.28	296.57
713.61	295.73
713.95	294.86
714.28	294.06
714.61	293.18
714.95	292.35
715.28	291.45
715.61	290.58
715.95	289.67
716.28	288.80
716.61	287.97
716.95	287.13
717.28	286.40
717.61	285.64
717.94	284.88
718.28	284.08
718.61	283.32
718.94	282.58
719.27	281.88
719.61	281.19
719.94	280.56
720.27	279.84
720.60	279.14
720.94	278.49
721.27	277.87
721.60	277.28
721.93	276.68
722.27	276.11
722.60	275.57
722.93	275.01
723.26	274.46
723.59	273.86
723.93	273.33
724.26	272.75
724.59	272.19
724.92	271.64
725.25	271.15
725.59	270.65
725.92	270.16
726.25	269.65
726.58	269.14
726.91	268.64
727.24	268.17
727.57	267.69
727.91	267.19
728.24	266.71
728.57	266.21
728.90	265.76
729.23	265.30
729.56	264.84
729.89	264.35
730.22	263.86
730.55	263.42
730.89	262.98
731.22	262.54
731.55	262.09
731.88	261.70
732.21	261.23
732.54	260.79
732.87	260.34
733.20	259.94
733.53	259.59
733.86	259.18
734.19	258.80
734.52	258.41
734.85	258.11
735.18	257.72
735.51	257.38
735.84	256.99
736.17	256.62
736.50	256.24
736.83	256.05
737.16	255.73
737.49	255.41
737.82	255.03
738.15	254.66
738.48	254.34
738.81	253.98
739.14	253.69
739.47	253.38
739.80	253.08
740.13	252.81
740.46	252.48
740.79	252.19
741.12	251.85
741.45	251.55
741.78	251.20
742.11	250.89
742.44	250.58
742.77	250.31
743.10	250.03
743.43	249.72
743.75	249.30
744.08	249.15
744.41	248.88
744.74	248.63
745.07	248.40
745.40	248.11
745.73	247.86
746.06	247.56
746.39	247.33
746.71	247.06
747.04	246.75
747.37	246.50
747.70	246.24
748.03	245.99
748.36	245.75
748.68	245.52
749.01	245.26
749.34	245.01
749.67	244.79
750.00	244.57
750.33	244.43
750.65	244.25
750.98	243.94
751.31	243.76
751.64	243.52
751.97	243.36
752.29	243.17
752.62	242.94
752.95	242.71
753.28	242.47
753.60	242.25
753.93	242.07
754.26	241.85
754.59	241.61
754.91	241.44
755.24	241.27
755.57	241.06
755.90	240.92
756.22	240.75
756.55	240.54
756.88	240.30
757.20	240.08
757.53	239.85
757.86	239.64
758.19	239.45
758.51	239.28
758.84	239.06
759.17	238.91
759.49	238.78
759.82	238.69
760.15	238.55
760.47	238.39
760.80	238.21
761.13	238.10
761.45	237.98
761.78	237.79
762.11	237.65
762.43	237.52
762.76	237.34
763.08	237.21
763.41	237.07
763.74	236.98
764.06	236.83
764.39	236.73
764.71	236.63
765.04	236.48
765.37	236.40
765.69	236.30
766.02	236.19
766.34	236.04
766.67	235.88
767.00	235.83
767.32	235.78
767.65	235.72
767.97	235.59
768.30	235.46
768.62	235.36
768.95	235.26
769.27	235.12
769.60	235.02
769.92	234.90
770.25	234.79
770.57	234.67
770.90	234.53
771.22	234.41
771.55	234.29
771.87	234.20
772.20	234.10
772.52	234.04
772.85	234.04
773.17	233.98
773.50	233.92
773.82	233.79
774.15	233.65
774.47	233.53
774.80	233.45
775.12	233.39
775.45	233.34
775.77	233.25
776.09	233.19
776.42	233.15
776.74	233.13
777.07	233.08
777.39	232.99
777.72	232.93
778.04	232.87
778.36	232.79
778.69	232.74
779.01	232.65
779.33	232.50
779.66	232.31
779.98	232.17
780.31	232.07
780.63	232.02
780.95	231.98
781.28	231.93
781.60	231.81
781.92	231.72
782.25	231.63
782.57	231.54
782.89	231.48
783.22	231.38
783.54	231.28
783.86	231.19
784.19	231.14
784.51	231.10
784.83	231.05
785.16	231.00
785.48	230.93
785.80	230.91
786.12	230.85
786.45	230.80
786.77	230.81
787.09	230.74
