SpectraSuite Data File
++++++++++++++++++++++++++++++++++++
Date: Fri Feb 01 17:59:32 EST 2013
User: group
Dark Spectrum Present: No
Reference Spectrum Present: No
Number of Sampled Component Spectra: 1
Spectrometers: USB2E7196
Integration Time (usec): 35000 (USB2E7196)
Spectra Averaged: 100 (USB2E7196)
Boxcar Smoothing: 10 (USB2E7196)
Correct for Electrical Dark: No (USB2E7196)
Strobe/Lamp Enabled: No (USB2E7196)
Correct for Detector Non-linearity: No (USB2E7196)
Correct for Stray Light: No (USB2E7196)
Number of Pixels in Processed Spectrum: 2048
>>>>>Begin Processed Spectral Data<<<<<
339.09	0.00
339.48	213.26
339.86	214.42
340.24	215.77
340.63	217.82
341.01	219.96
341.39	219.72
341.78	221.55
342.16	222.79
342.54	222.96
342.93	211.44
343.31	222.11
343.69	222.64
344.07	223.09
344.46	223.52
344.84	223.88
345.22	224.14
345.60	224.41
345.99	224.57
346.37	224.69
346.75	224.78
347.13	224.87
347.52	224.94
347.90	224.98
348.28	225.02
348.66	225.13
349.05	225.09
349.43	225.12
349.81	225.19
350.19	225.21
350.57	225.30
350.96	225.36
351.34	225.46
351.72	225.56
352.10	225.66
352.48	225.73
352.87	225.79
353.25	225.84
353.63	225.92
354.01	225.98
354.39	226.04
354.77	226.12
355.15	226.21
355.54	226.26
355.92	226.34
356.30	226.38
356.68	226.48
357.06	226.55
357.44	226.60
357.82	226.63
358.20	226.70
358.58	226.78
358.97	226.86
359.35	226.94
359.73	227.00
360.11	227.04
360.49	227.08
360.87	227.15
361.25	227.18
361.63	227.24
362.01	227.29
362.39	227.32
362.77	227.36
363.15	227.36
363.53	227.39
363.91	227.41
364.29	227.43
364.67	227.36
365.05	227.37
365.43	227.41
365.81	227.44
366.19	227.49
366.57	227.52
366.95	227.50
367.33	227.47
367.71	227.44
368.09	227.45
368.47	227.46
368.85	227.45
369.23	227.46
369.61	227.42
369.99	227.45
370.37	227.44
370.75	227.43
371.13	227.38
371.51	227.32
371.89	227.30
372.27	227.27
372.65	227.23
373.03	227.19
373.41	227.16
373.78	227.12
374.16	227.05
374.54	226.96
374.92	226.88
375.30	226.80
375.68	226.70
376.06	226.66
376.44	226.58
376.82	226.51
377.19	226.44
377.57	226.34
377.95	226.25
378.33	226.18
378.71	226.08
379.09	226.06
379.47	226.02
379.84	225.94
380.22	225.86
380.60	225.81
380.98	225.74
381.36	225.66
381.73	225.57
382.11	225.50
382.49	225.44
382.87	225.40
383.25	225.39
383.62	225.49
384.00	225.41
384.38	225.38
384.76	225.34
385.13	225.32
385.51	225.27
385.89	225.21
386.27	225.16
386.64	225.14
387.02	225.09
387.40	225.05
387.78	224.99
388.15	225.00
388.53	224.95
388.91	224.94
389.29	224.90
389.66	224.93
390.04	224.92
390.42	224.91
390.79	224.87
391.17	224.83
391.55	224.69
391.92	224.69
392.30	224.69
392.68	224.63
393.05	224.63
393.43	224.65
393.81	224.63
394.18	224.64
394.56	224.64
394.94	224.64
395.31	224.66
395.69	224.74
396.06	224.74
396.44	224.76
396.82	224.75
397.19	224.82
397.57	224.81
397.95	224.85
398.32	224.85
398.70	224.94
399.07	225.01
399.45	225.07
399.82	225.09
400.20	225.12
400.58	225.20
400.95	225.23
401.33	225.33
401.70	225.48
402.08	225.58
402.45	225.64
402.83	225.76
403.20	225.85
403.58	225.91
403.95	226.05
404.33	226.22
404.71	226.36
405.08	226.51
405.46	226.66
405.83	226.81
406.21	226.99
406.58	227.13
406.96	227.29
407.33	227.51
407.70	227.74
408.08	228.05
408.45	228.30
408.83	228.57
409.20	228.78
409.58	229.02
409.95	229.33
410.33	229.70
410.70	230.03
411.08	230.41
411.45	230.83
411.82	231.18
412.20	231.58
412.57	232.11
412.95	232.55
413.32	233.06
413.69	233.63
414.07	234.20
414.44	234.81
414.82	235.45
415.19	236.16
415.56	236.90
415.94	237.62
416.31	238.50
416.68	239.32
417.06	240.31
417.43	241.20
417.81	242.20
418.18	243.22
418.55	244.33
418.93	245.52
419.30	246.73
419.67	248.01
420.04	249.33
420.42	250.68
420.79	252.24
421.16	253.80
421.54	255.34
421.91	257.00
422.28	258.70
422.66	260.52
423.03	262.24
423.40	264.05
423.77	265.98
424.15	267.90
424.52	269.95
424.89	272.11
425.26	274.20
425.64	276.19
426.01	278.35
426.38	280.59
426.75	282.82
427.13	285.13
427.50	287.57
427.87	290.10
428.24	292.61
428.61	294.93
428.99	297.56
429.36	300.44
429.73	303.22
430.10	306.01
430.47	308.76
430.85	311.67
431.22	314.71
431.59	317.92
431.96	320.96
432.33	324.30
432.70	327.52
433.08	331.35
433.45	334.90
433.82	338.40
434.19	342.30
434.56	346.10
434.93	349.72
435.30	353.28
435.68	357.22
436.05	361.08
436.42	364.96
436.79	368.35
437.16	372.00
437.53	375.83
437.90	379.63
438.27	383.35
438.64	387.15
439.01	390.66
439.38	393.71
439.75	396.57
440.13	399.95
440.50	403.14
440.87	405.62
441.24	408.27
441.61	411.22
441.98	413.26
442.35	415.73
442.72	418.20
443.09	420.69
443.46	422.01
443.83	422.83
444.20	423.51
444.57	424.66
444.94	425.03
445.31	425.52
445.68	425.91
446.05	426.06
446.42	425.53
446.79	424.99
447.16	424.38
447.53	423.99
447.90	422.45
448.27	420.87
448.64	418.73
449.01	417.21
449.37	414.53
449.74	411.96
450.11	408.88
450.48	405.58
450.85	402.12
451.22	399.23
451.59	396.42
451.96	393.76
452.33	390.23
452.70	387.07
453.07	383.25
453.43	379.36
453.80	375.62
454.17	372.03
454.54	368.59
454.91	364.90
455.28	361.27
455.65	357.89
456.02	354.51
456.38	351.66
456.75	348.00
457.12	344.96
457.49	341.91
457.86	338.99
458.23	336.45
458.59	333.69
458.96	330.83
459.33	328.32
459.70	325.79
460.07	323.71
460.43	321.35
460.80	319.10
461.17	317.17
461.54	315.06
461.91	313.14
462.27	311.16
462.64	309.43
463.01	307.63
463.38	305.84
463.74	304.01
464.11	302.38
464.48	301.05
464.85	299.52
465.21	298.34
465.58	297.06
465.95	295.59
466.32	294.34
466.68	293.09
467.05	291.91
467.42	290.72
467.78	289.47
468.15	288.30
468.52	287.42
468.88	286.27
469.25	285.22
469.62	284.33
469.98	283.42
470.35	282.58
470.72	281.78
471.08	280.94
471.45	280.19
471.82	279.46
472.18	278.59
472.55	277.98
472.92	277.26
473.28	276.65
473.65	276.01
474.02	275.40
474.38	274.88
474.75	274.43
475.11	273.95
475.48	273.56
475.85	273.19
476.21	272.86
476.58	272.56
476.94	272.36
477.31	272.12
477.67	271.84
478.04	271.61
478.41	271.42
478.77	271.34
479.14	271.26
479.50	271.18
479.87	271.26
480.23	271.33
480.60	271.37
480.96	271.40
481.33	271.59
481.69	271.75
482.06	271.96
482.42	272.08
482.79	272.32
483.15	272.62
483.52	273.01
483.88	273.29
484.25	273.68
484.61	274.05
484.98	274.47
485.34	275.07
485.71	275.69
486.07	276.33
486.44	276.90
486.80	277.57
487.17	278.29
487.53	279.09
487.90	279.94
488.26	280.92
488.62	281.93
488.99	282.90
489.35	283.97
489.72	285.12
490.08	286.39
490.44	287.65
490.81	289.02
491.17	290.39
491.54	291.95
491.90	293.54
492.26	295.30
492.63	297.10
492.99	298.95
493.36	300.93
493.72	303.09
494.08	305.32
494.45	307.69
494.81	310.18
495.17	312.77
495.54	315.49
495.90	318.32
496.26	321.28
496.63	324.38
496.99	327.67
497.35	331.10
497.72	334.66
498.08	338.40
498.44	342.26
498.80	346.41
499.17	350.68
499.53	355.11
499.89	359.74
500.26	364.51
500.62	369.43
500.98	374.63
501.34	379.99
501.71	385.58
502.07	391.37
502.43	397.38
502.79	403.51
503.16	409.93
503.52	416.55
503.88	423.33
504.24	430.38
504.60	437.69
504.97	445.22
505.33	452.98
505.69	461.20
506.05	469.41
506.41	477.80
506.78	486.49
507.14	495.37
507.50	504.64
507.86	514.25
508.22	523.94
508.59	533.82
508.95	544.03
509.31	554.53
509.67	565.34
510.03	576.23
510.39	587.48
510.75	599.00
511.12	610.73
511.48	622.82
511.84	635.12
512.20	647.39
512.56	660.19
512.92	673.24
513.28	686.47
513.64	699.90
514.00	713.64
514.37	727.62
514.73	741.74
515.09	755.70
515.45	769.98
515.81	784.67
516.17	799.72
516.53	814.95
516.89	830.26
517.25	845.54
517.61	861.20
517.97	876.96
518.33	892.54
518.69	908.50
519.05	924.72
519.41	941.15
519.77	958.03
520.13	974.89
520.49	991.71
520.85	1008.51
521.21	1025.66
521.57	1043.28
521.93	1060.33
522.29	1078.18
522.65	1095.95
523.01	1113.76
523.37	1131.49
523.73	1149.30
524.09	1166.99
524.45	1184.85
524.81	1203.14
525.17	1221.54
525.53	1240.20
525.89	1258.86
526.25	1277.53
526.61	1295.67
526.97	1314.23
527.33	1332.49
527.68	1350.82
528.04	1369.02
528.40	1387.34
528.76	1406.30
529.12	1424.77
529.48	1443.66
529.84	1461.66
530.20	1480.33
530.56	1499.17
530.91	1518.56
531.27	1537.30
531.63	1555.79
531.99	1574.48
532.35	1592.36
532.71	1610.29
533.07	1628.55
533.42	1646.54
533.78	1664.63
534.14	1682.92
534.50	1700.36
534.86	1718.49
535.21	1735.83
535.57	1753.93
535.93	1771.53
536.29	1788.41
536.65	1805.62
537.00	1822.46
537.36	1839.87
537.72	1856.41
538.08	1873.14
538.44	1889.00
538.79	1904.96
539.15	1920.59
539.51	1936.44
539.87	1953.12
540.22	1969.09
540.58	1984.90
540.94	2000.26
541.29	2015.24
541.65	2030.31
542.01	2045.72
542.37	2060.16
542.72	2074.81
543.08	2088.96
543.44	2103.71
543.79	2117.22
544.15	2130.45
544.51	2144.39
544.87	2157.52
545.22	2170.67
545.58	2183.15
545.94	2195.08
546.29	2207.29
546.65	2219.57
547.01	2230.97
547.36	2241.74
547.72	2252.24
548.07	2262.31
548.43	2272.59
548.79	2282.73
549.14	2292.27
549.50	2301.59
549.86	2311.23
550.21	2320.49
550.57	2329.58
550.92	2338.11
551.28	2346.98
551.64	2356.01
551.99	2364.44
552.35	2372.44
552.70	2380.44
553.06	2388.19
553.41	2396.48
553.77	2404.27
554.13	2412.05
554.48	2420.12
554.84	2427.60
555.19	2434.53
555.55	2441.57
555.90	2447.79
556.26	2454.63
556.61	2460.97
556.97	2467.04
557.32	2472.81
557.68	2478.53
558.03	2484.31
558.39	2489.44
558.74	2495.84
559.10	2501.22
559.45	2506.37
559.81	2512.33
560.16	2517.69
560.52	2522.44
560.87	2527.18
561.23	2531.11
561.58	2535.46
561.94	2539.26
562.29	2542.67
562.64	2547.02
563.00	2550.67
563.35	2555.65
563.71	2560.02
564.06	2564.46
564.42	2568.66
564.77	2572.61
565.12	2576.30
565.48	2579.56
565.83	2582.84
566.19	2585.39
566.54	2587.28
566.89	2589.55
567.25	2591.16
567.60	2593.43
567.96	2596.33
568.31	2598.14
568.66	2600.39
569.02	2601.77
569.37	2603.03
569.72	2604.88
570.08	2605.73
570.43	2606.61
570.78	2606.76
571.14	2605.68
571.49	2604.97
571.84	2605.12
572.20	2604.57
572.55	2603.98
572.90	2602.87
573.26	2601.91
573.61	2600.53
573.96	2599.32
574.31	2596.48
574.67	2593.74
575.02	2590.28
575.37	2586.78
575.72	2583.11
576.08	2579.73
576.43	2576.56
576.78	2573.01
577.13	2570.03
577.49	2566.91
577.84	2563.51
578.19	2559.56
578.54	2556.04
578.90	2551.81
579.25	2546.03
579.60	2540.83
579.95	2535.65
580.30	2530.21
580.66	2524.78
581.01	2519.49
581.36	2514.26
581.71	2510.06
582.06	2505.46
582.42	2500.80
582.77	2495.34
583.12	2490.60
583.47	2485.75
583.82	2480.47
584.17	2474.82
584.53	2468.76
584.88	2462.75
585.23	2456.58
585.58	2450.60
585.93	2444.66
586.28	2439.41
586.63	2434.03
586.98	2428.40
587.34	2423.19
587.69	2417.82
588.04	2412.06
588.39	2405.91
588.74	2398.58
589.09	2391.64
589.44	2384.10
589.79	2377.28
590.14	2370.94
590.49	2363.49
590.84	2356.32
591.19	2349.71
591.54	2342.39
591.89	2334.30
592.25	2326.71
592.60	2318.50
592.95	2310.26
593.30	2301.80
593.65	2293.33
594.00	2285.17
594.35	2276.96
594.70	2267.84
595.05	2259.94
595.40	2251.58
595.75	2242.72
596.10	2235.77
596.45	2228.14
596.80	2221.07
597.15	2213.63
597.50	2205.68
597.85	2198.12
598.19	2190.43
598.54	2182.41
598.89	2174.68
599.24	2167.80
599.59	2160.31
599.94	2153.13
600.29	2145.72
600.64	2138.13
600.99	2129.54
601.34	2121.80
601.69	2113.76
602.04	2105.83
602.39	2097.19
602.74	2089.24
603.08	2081.66
603.43	2073.79
603.78	2065.28
604.13	2056.99
604.48	2048.52
604.83	2040.54
605.18	2032.76
605.53	2023.56
605.87	2013.96
606.22	2005.58
606.57	1996.26
606.92	1987.37
607.27	1979.05
607.62	1970.93
607.96	1962.58
608.31	1954.81
608.66	1945.91
609.01	1937.12
609.36	1928.33
609.70	1918.96
610.05	1909.59
610.40	1900.63
610.75	1890.98
611.10	1882.11
611.44	1871.95
611.79	1862.42
612.14	1852.26
612.49	1841.35
612.83	1831.39
613.18	1821.96
613.53	1812.45
613.88	1802.45
614.22	1792.76
614.57	1782.67
614.92	1773.29
615.27	1764.35
615.61	1754.52
615.96	1745.00
616.31	1735.89
616.65	1727.18
617.00	1718.29
617.35	1709.34
617.70	1699.48
618.04	1689.42
618.39	1679.71
618.74	1670.91
619.08	1661.35
619.43	1652.32
619.78	1644.16
620.12	1635.70
620.47	1626.89
620.82	1617.32
621.16	1608.55
621.51	1599.60
621.85	1590.52
622.20	1580.52
622.55	1570.69
622.89	1561.56
623.24	1552.64
623.59	1543.82
623.93	1534.99
624.28	1526.45
624.62	1517.52
624.97	1509.18
625.32	1501.25
625.66	1492.86
626.01	1484.44
626.35	1475.64
626.70	1466.58
627.04	1457.62
627.39	1448.41
627.73	1439.63
628.08	1431.50
628.43	1423.00
628.77	1414.46
629.12	1405.71
629.46	1397.23
629.81	1388.49
630.15	1380.06
630.50	1371.45
630.84	1362.00
631.19	1352.64
631.53	1343.78
631.88	1334.83
632.22	1325.78
632.57	1317.20
632.91	1308.39
633.26	1299.79
633.60	1291.03
633.95	1282.52
634.29	1274.06
634.64	1266.26
634.98	1257.64
635.32	1249.30
635.67	1241.40
636.01	1233.66
636.36	1225.70
636.70	1217.96
637.05	1210.23
637.39	1202.51
637.73	1194.83
638.08	1187.94
638.42	1180.87
638.77	1173.34
639.11	1165.73
639.45	1158.33
639.80	1150.55
640.14	1143.10
640.49	1135.42
640.83	1128.12
641.17	1121.04
641.52	1113.82
641.86	1106.34
642.20	1099.46
642.55	1091.95
642.89	1084.51
643.23	1076.67
643.58	1069.87
643.92	1062.78
644.26	1055.74
644.61	1048.65
644.95	1041.64
645.29	1034.05
645.64	1026.35
645.98	1018.98
646.32	1012.18
646.66	1005.23
647.01	998.51
647.35	991.91
647.69	985.04
648.04	978.66
648.38	971.93
648.72	964.99
649.06	958.03
649.41	951.27
649.75	944.48
650.09	937.65
650.43	931.08
650.78	923.91
651.12	916.97
651.46	910.32
651.80	903.68
652.14	897.38
652.49	891.08
652.83	885.03
653.17	878.50
653.51	871.87
653.85	865.53
654.20	858.99
654.54	851.94
654.88	845.37
655.22	838.48
655.56	831.91
655.90	825.55
656.25	819.50
656.59	813.26
656.93	807.28
657.27	801.29
657.61	794.97
657.95	789.24
658.29	783.37
658.64	777.27
658.98	771.16
659.32	764.88
659.66	758.91
660.00	752.80
660.34	747.01
660.68	741.28
661.02	735.48
661.36	729.99
661.70	724.86
662.05	719.85
662.39	714.94
662.73	709.70
663.07	704.68
663.41	699.53
663.75	694.33
664.09	689.13
664.43	684.03
664.77	679.29
665.11	674.33
665.45	669.52
665.79	664.90
666.13	660.22
666.47	655.48
666.81	650.65
667.15	645.85
667.49	641.40
667.83	637.02
668.17	632.46
668.51	627.81
668.85	623.15
669.19	618.69
669.53	614.29
669.87	609.86
670.21	605.60
670.55	601.39
670.89	597.41
671.23	593.47
671.57	589.42
671.91	585.38
672.25	581.27
672.58	577.21
672.92	573.21
673.26	569.52
673.60	565.86
673.94	562.27
674.28	558.89
674.62	555.44
674.96	551.84
675.30	548.51
675.64	545.16
675.97	541.95
676.31	538.58
676.65	535.14
676.99	532.01
677.33	528.67
677.67	525.39
678.01	521.95
678.34	518.57
678.68	515.18
679.02	511.95
679.36	508.75
679.70	505.70
680.04	502.58
680.37	499.29
680.71	496.12
681.05	493.10
681.39	490.04
681.73	487.04
682.06	484.19
682.40	481.29
682.74	478.33
683.08	475.40
683.42	472.44
683.75	469.58
684.09	466.59
684.43	463.81
684.77	461.01
685.10	458.27
685.44	455.51
685.78	452.90
686.12	450.22
686.45	447.58
686.79	444.87
687.13	442.25
687.46	439.80
687.80	437.23
688.14	434.66
688.48	432.28
688.81	429.67
689.15	427.14
689.49	424.59
689.82	422.25
690.16	419.86
690.50	417.59
690.83	415.32
691.17	413.06
691.51	410.79
691.84	408.60
692.18	406.45
692.52	404.19
692.85	401.95
693.19	399.82
693.52	397.67
693.86	395.59
694.20	393.55
694.53	391.40
694.87	389.25
695.21	387.19
695.54	385.00
695.88	382.98
696.21	381.00
696.55	379.10
696.88	377.09
697.22	375.10
697.56	373.19
697.89	371.28
698.23	369.40
698.56	367.54
698.90	365.66
699.23	363.67
699.57	361.88
699.90	360.09
700.24	358.29
700.58	356.56
700.91	354.81
701.25	353.10
701.58	351.50
701.92	349.95
702.25	348.33
702.59	346.78
702.92	345.27
703.26	343.74
703.59	342.25
703.93	340.86
704.26	339.42
704.60	337.88
704.93	336.40
705.26	334.96
705.60	333.61
705.93	332.28
706.27	331.08
706.60	329.87
706.94	328.63
707.27	327.29
707.61	326.00
707.94	324.81
708.27	323.54
708.61	322.31
708.94	321.13
709.28	319.99
709.61	318.89
709.94	317.74
710.28	316.56
710.61	315.36
710.95	314.09
711.28	313.04
711.61	311.98
711.95	310.93
712.28	309.86
712.61	308.73
712.95	307.65
713.28	306.64
713.61	305.61
713.95	304.55
714.28	303.58
714.61	302.63
714.95	301.65
715.28	300.65
715.61	299.65
715.95	298.66
716.28	297.66
716.61	296.64
716.95	295.69
717.28	294.81
717.61	293.95
717.94	293.11
718.28	292.14
718.61	291.28
718.94	290.41
719.27	289.59
719.61	288.81
719.94	288.05
720.27	287.20
720.60	286.39
720.94	285.64
721.27	284.95
721.60	284.24
721.93	283.52
722.27	282.92
722.60	282.23
722.93	281.54
723.26	280.90
723.59	280.26
723.93	279.63
724.26	278.98
724.59	278.31
724.92	277.70
725.25	277.12
725.59	276.48
725.92	275.86
726.25	275.29
726.58	274.70
726.91	274.12
727.24	273.54
727.57	272.99
727.91	272.40
728.24	271.88
728.57	271.31
728.90	270.76
729.23	270.18
729.56	269.66
729.89	269.12
730.22	268.60
730.55	268.03
730.89	267.52
731.22	267.00
731.55	266.52
731.88	265.99
732.21	265.50
732.54	265.03
732.87	264.57
733.20	264.10
733.53	263.67
733.86	263.24
734.19	262.81
734.52	262.37
734.85	262.03
735.18	261.49
735.51	261.09
735.84	260.65
736.17	260.21
736.50	259.75
736.83	259.48
737.16	259.08
737.49	258.74
737.82	258.32
738.15	257.92
738.48	257.54
738.81	257.16
739.14	256.81
739.47	256.42
739.80	256.07
740.13	255.70
740.46	255.32
740.79	254.93
741.12	254.58
741.45	254.21
741.78	253.83
742.11	253.53
742.44	253.16
742.77	252.87
743.10	252.54
743.43	252.21
743.75	251.77
744.08	251.57
744.41	251.25
744.74	250.95
745.07	250.62
745.40	250.32
745.73	250.08
746.06	249.76
746.39	249.47
746.71	249.18
747.04	248.92
747.37	248.61
747.70	248.36
748.03	248.06
748.36	247.82
748.68	247.52
749.01	247.26
749.34	247.00
749.67	246.73
750.00	246.47
750.33	246.29
750.65	246.05
750.98	245.70
751.31	245.45
751.64	245.24
751.97	245.07
752.29	244.83
752.62	244.53
752.95	244.31
753.28	244.08
753.60	243.85
753.93	243.64
754.26	243.42
754.59	243.15
754.91	242.92
755.24	242.71
755.57	242.51
755.90	242.26
756.22	242.03
756.55	241.81
756.88	241.59
757.20	241.34
757.53	241.11
757.86	240.93
758.19	240.71
758.51	240.48
758.84	240.24
759.17	240.04
759.49	239.89
759.82	239.74
760.15	239.55
760.47	239.38
760.80	239.15
761.13	239.00
761.45	238.82
761.78	238.65
762.11	238.46
762.43	238.27
762.76	238.09
763.08	237.90
763.41	237.76
763.74	237.60
764.06	237.44
764.39	237.31
764.71	237.11
765.04	236.95
765.37	236.79
765.69	236.62
766.02	236.47
766.34	236.28
766.67	236.07
767.00	235.93
767.32	235.80
767.65	235.70
767.97	235.55
768.30	235.40
768.62	235.28
768.95	235.15
769.27	235.04
769.60	234.94
769.92	234.81
770.25	234.63
770.57	234.46
770.90	234.34
771.22	234.17
771.55	234.01
771.87	233.89
772.20	233.77
772.52	233.75
772.85	233.74
773.17	233.63
773.50	233.57
773.82	233.46
774.15	233.30
774.47	233.16
774.80	233.00
775.12	232.92
775.45	232.80
775.77	232.73
776.09	232.61
776.42	232.53
776.74	232.49
777.07	232.41
777.39	232.35
777.72	232.26
778.04	232.22
778.36	232.16
778.69	232.09
779.01	232.06
779.33	231.90
779.66	231.69
779.98	231.64
780.31	231.53
780.63	231.50
780.95	231.47
781.28	231.40
781.60	231.34
781.92	231.28
782.25	231.22
782.57	231.12
782.89	231.07
783.22	230.97
783.54	230.90
783.86	230.86
784.19	230.82
784.51	230.79
784.83	230.72
785.16	230.66
785.48	230.62
785.80	230.55
786.12	230.50
786.45	230.47
