SpectraSuite Data File
++++++++++++++++++++++++++++++++++++
Date: Fri Feb 01 18:02:04 EST 2013
User: group
Dark Spectrum Present: No
Reference Spectrum Present: No
Number of Sampled Component Spectra: 1
Spectrometers: USB2E7196
Integration Time (usec): 35000 (USB2E7196)
Spectra Averaged: 100 (USB2E7196)
Boxcar Smoothing: 10 (USB2E7196)
Correct for Electrical Dark: No (USB2E7196)
Strobe/Lamp Enabled: No (USB2E7196)
Correct for Detector Non-linearity: No (USB2E7196)
Correct for Stray Light: No (USB2E7196)
Number of Pixels in Processed Spectrum: 2048
>>>>>Begin Processed Spectral Data<<<<<
339.09	0.00
339.48	213.09
339.86	214.51
340.24	215.69
340.63	217.39
341.01	220.10
341.39	219.85
341.78	221.27
342.16	222.10
342.54	222.69
342.93	211.43
343.31	222.17
343.69	222.73
344.07	223.21
344.46	223.64
344.84	224.04
345.22	224.25
345.60	224.52
345.99	224.72
346.37	224.88
346.75	224.98
347.13	225.07
347.52	225.13
347.90	225.18
348.28	225.18
348.66	225.24
349.05	225.25
349.43	225.30
349.81	225.35
350.19	225.37
350.57	225.44
350.96	225.51
351.34	225.55
351.72	225.61
352.10	225.68
352.48	225.74
352.87	225.80
353.25	225.89
353.63	225.94
354.01	226.02
354.39	226.08
354.77	226.19
355.15	226.29
355.54	226.36
355.92	226.39
356.30	226.47
356.68	226.57
357.06	226.61
357.44	226.70
357.82	226.77
358.20	226.85
358.58	226.91
358.97	226.98
359.35	227.06
359.73	227.15
360.11	227.24
360.49	227.31
360.87	227.34
361.25	227.37
361.63	227.42
362.01	227.44
362.39	227.47
362.77	227.48
363.15	227.49
363.53	227.53
363.91	227.55
364.29	227.59
364.67	227.51
365.05	227.52
365.43	227.51
365.81	227.51
366.19	227.55
366.57	227.57
366.95	227.55
367.33	227.52
367.71	227.49
368.09	227.46
368.47	227.42
368.85	227.40
369.23	227.40
369.61	227.34
369.99	227.30
370.37	227.29
370.75	227.32
371.13	227.25
371.51	227.21
371.89	227.21
372.27	227.11
372.65	227.10
373.03	227.07
373.41	227.02
373.78	226.94
374.16	226.80
374.54	226.77
374.92	226.71
375.30	226.63
375.68	226.55
376.06	226.49
376.44	226.44
376.82	226.40
377.19	226.35
377.57	226.30
377.95	226.26
378.33	226.18
378.71	226.09
379.09	226.09
379.47	226.00
379.84	225.90
380.22	225.85
380.60	225.79
380.98	225.73
381.36	225.68
381.73	225.64
382.11	225.63
382.49	225.53
382.87	225.45
383.25	225.42
383.62	225.48
384.00	225.41
384.38	225.36
384.76	225.33
385.13	225.30
385.51	225.27
385.89	225.21
386.27	225.15
386.64	225.11
387.02	225.06
387.40	225.04
387.78	225.03
388.15	225.02
388.53	224.96
388.91	224.93
389.29	224.89
389.66	224.89
390.04	224.87
390.42	224.87
390.79	224.86
391.17	224.86
391.55	224.73
391.92	224.76
392.30	224.77
392.68	224.75
393.05	224.75
393.43	224.75
393.81	224.76
394.18	224.78
394.56	224.81
394.94	224.85
395.31	224.86
395.69	224.93
396.06	224.97
396.44	225.01
396.82	225.06
397.19	225.13
397.57	225.16
397.95	225.21
398.32	225.24
398.70	225.34
399.07	225.39
399.45	225.46
399.82	225.53
400.20	225.59
400.58	225.68
400.95	225.72
401.33	225.81
401.70	225.97
402.08	226.08
402.45	226.16
402.83	226.28
403.20	226.37
403.58	226.44
403.95	226.57
404.33	226.72
404.71	226.85
405.08	227.08
405.46	227.20
405.83	227.36
406.21	227.54
406.58	227.72
406.96	227.93
407.33	228.13
407.70	228.37
408.08	228.68
408.45	228.93
408.83	229.24
409.20	229.51
409.58	229.76
409.95	230.08
410.33	230.44
410.70	230.74
411.08	231.16
411.45	231.57
411.82	231.96
412.20	232.42
412.57	232.97
412.95	233.34
413.32	233.88
413.69	234.44
414.07	235.01
414.44	235.59
414.82	236.20
415.19	236.93
415.56	237.64
415.94	238.40
416.31	239.21
416.68	240.03
417.06	240.98
417.43	241.84
417.81	242.84
418.18	243.87
418.55	245.01
418.93	246.15
419.30	247.34
419.67	248.61
420.04	249.85
420.42	251.14
420.79	252.70
421.16	254.27
421.54	255.82
421.91	257.46
422.28	259.17
422.66	260.99
423.03	262.76
423.40	264.55
423.77	266.44
424.15	268.39
424.52	270.38
424.89	272.60
425.26	274.70
425.64	276.64
426.01	278.79
426.38	281.02
426.75	283.27
427.13	285.61
427.50	288.06
427.87	290.60
428.24	293.14
428.61	295.55
428.99	298.18
429.36	301.08
429.73	303.91
430.10	306.65
430.47	309.43
430.85	312.28
431.22	315.31
431.59	318.49
431.96	321.53
432.33	324.94
432.70	328.12
433.08	331.98
433.45	335.58
433.82	339.08
434.19	343.02
434.56	346.84
434.93	350.46
435.30	354.01
435.68	357.96
436.05	361.81
436.42	365.59
436.79	368.97
437.16	372.62
437.53	376.47
437.90	380.29
438.27	384.04
438.64	387.90
439.01	391.40
439.38	394.44
439.75	397.41
440.13	400.81
440.50	403.97
440.87	406.51
441.24	409.15
441.61	412.11
441.98	414.14
442.35	416.62
442.72	419.18
443.09	421.68
443.46	423.03
443.83	423.85
444.20	424.58
444.57	425.74
444.94	426.14
445.31	426.54
445.68	427.03
446.05	427.15
446.42	426.66
446.79	426.12
447.16	425.58
447.53	425.15
447.90	423.59
448.27	422.05
448.64	419.87
449.01	418.38
449.37	415.75
449.74	413.19
450.11	410.14
450.48	406.72
450.85	403.25
451.22	400.38
451.59	397.61
451.96	395.01
452.33	391.50
452.70	388.36
453.07	384.54
453.43	380.60
453.80	376.86
454.17	373.22
454.54	369.82
454.91	366.11
455.28	362.47
455.65	359.03
456.02	355.62
456.38	352.71
456.75	349.01
457.12	345.94
457.49	342.85
457.86	339.88
458.23	337.34
458.59	334.55
458.96	331.69
459.33	329.17
459.70	326.56
460.07	324.47
460.43	322.07
460.80	319.80
461.17	317.82
461.54	315.75
461.91	313.74
462.27	311.72
462.64	310.01
463.01	308.16
463.38	306.38
463.74	304.61
464.11	302.99
464.48	301.62
464.85	300.08
465.21	298.90
465.58	297.66
465.95	296.20
466.32	294.92
466.68	293.61
467.05	292.38
467.42	291.16
467.78	289.86
468.15	288.64
468.52	287.75
468.88	286.58
469.25	285.50
469.62	284.67
469.98	283.76
470.35	282.87
470.72	282.01
471.08	281.12
471.45	280.29
471.82	279.52
472.18	278.70
472.55	278.09
472.92	277.36
473.28	276.72
473.65	276.07
474.02	275.46
474.38	274.99
474.75	274.54
475.11	274.04
475.48	273.68
475.85	273.35
476.21	273.02
476.58	272.74
476.94	272.50
477.31	272.20
477.67	271.94
478.04	271.72
478.41	271.61
478.77	271.54
479.14	271.42
479.50	271.35
479.87	271.33
480.23	271.34
480.60	271.37
480.96	271.36
481.33	271.52
481.69	271.65
482.06	271.80
482.42	271.92
482.79	272.16
483.15	272.44
483.52	272.84
483.88	273.17
484.25	273.49
484.61	273.89
484.98	274.36
485.34	274.91
485.71	275.50
486.07	276.11
486.44	276.69
486.80	277.43
487.17	278.18
487.53	279.06
487.90	279.98
488.26	280.91
488.62	281.99
488.99	282.98
489.35	284.10
489.72	285.28
490.08	286.58
490.44	287.84
490.81	289.23
491.17	290.63
491.54	292.15
491.90	293.76
492.26	295.46
492.63	297.26
492.99	299.12
493.36	301.13
493.72	303.29
494.08	305.52
494.45	307.87
494.81	310.37
495.17	312.91
495.54	315.61
495.90	318.46
496.26	321.41
496.63	324.56
496.99	327.84
497.35	331.31
497.72	334.88
498.08	338.59
498.44	342.48
498.80	346.62
499.17	350.88
499.53	355.41
499.89	360.09
500.26	364.87
500.62	369.85
500.98	375.10
501.34	380.50
501.71	386.22
502.07	392.00
502.43	398.03
502.79	404.26
503.16	410.67
503.52	417.34
503.88	424.16
504.24	431.26
504.60	438.55
504.97	446.15
505.33	453.90
505.69	462.16
506.05	470.43
506.41	478.80
506.78	487.52
507.14	496.44
507.50	505.75
507.86	515.39
508.22	525.16
508.59	535.01
508.95	545.17
509.31	555.59
509.67	566.39
510.03	577.33
510.39	588.60
510.75	600.07
511.12	611.81
511.48	623.90
511.84	636.14
512.20	648.48
512.56	661.20
512.92	674.31
513.28	687.65
513.64	701.06
514.00	714.79
514.37	728.77
514.73	742.85
515.09	756.88
515.45	771.11
515.81	785.78
516.17	800.86
516.53	816.14
516.89	831.52
517.25	846.79
517.61	862.45
517.97	878.14
518.33	893.86
518.69	909.86
519.05	926.07
519.41	942.52
519.77	959.42
520.13	976.26
520.49	993.04
520.85	1009.72
521.21	1026.84
521.57	1044.52
521.93	1061.64
522.29	1079.61
522.65	1097.37
523.01	1115.28
523.37	1132.88
523.73	1150.67
524.09	1168.40
524.45	1186.29
524.81	1204.65
525.17	1223.08
525.53	1241.59
525.89	1260.25
526.25	1278.89
526.61	1297.12
526.97	1315.69
527.33	1333.95
527.68	1352.36
528.04	1370.63
528.40	1389.05
528.76	1408.05
529.12	1426.48
529.48	1445.39
529.84	1463.20
530.20	1481.75
530.56	1500.60
530.91	1520.14
531.27	1539.00
531.63	1557.50
531.99	1576.20
532.35	1594.24
532.71	1612.24
533.07	1630.62
533.42	1648.57
533.78	1666.70
534.14	1684.99
534.50	1702.43
534.86	1720.47
535.21	1737.83
535.57	1756.05
535.93	1773.88
536.29	1790.86
536.65	1808.10
537.00	1825.04
537.36	1842.69
537.72	1859.56
538.08	1876.22
538.44	1892.15
538.79	1908.15
539.15	1923.85
539.51	1939.77
539.87	1956.42
540.22	1972.33
540.58	1988.39
540.94	2003.97
541.29	2018.97
541.65	2033.93
542.01	2049.48
542.37	2064.07
542.72	2078.77
543.08	2092.71
543.44	2107.25
543.79	2120.75
544.15	2133.99
544.51	2147.84
544.87	2160.96
545.22	2174.02
545.58	2186.60
545.94	2198.58
546.29	2210.62
546.65	2222.87
547.01	2234.22
547.36	2244.96
547.72	2255.58
548.07	2265.59
548.43	2275.93
548.79	2286.02
549.14	2295.76
549.50	2305.03
549.86	2314.62
550.21	2323.90
550.57	2333.08
550.92	2341.73
551.28	2350.74
551.64	2359.81
551.99	2368.33
552.35	2376.54
552.70	2384.53
553.06	2392.43
553.41	2400.80
553.77	2408.64
554.13	2416.58
554.48	2424.71
554.84	2432.27
555.19	2439.29
555.55	2446.35
555.90	2452.42
556.26	2459.28
556.61	2465.68
556.97	2471.88
557.32	2477.77
557.68	2483.58
558.03	2489.38
558.39	2494.49
558.74	2500.96
559.10	2506.51
559.45	2511.64
559.81	2517.41
560.16	2522.74
560.52	2527.52
560.87	2532.32
561.23	2536.47
561.58	2540.80
561.94	2544.65
562.29	2548.12
562.64	2552.32
563.00	2556.21
563.35	2561.32
563.71	2565.74
564.06	2570.26
564.42	2574.37
564.77	2578.37
565.12	2582.10
565.48	2585.46
565.83	2588.75
566.19	2591.24
566.54	2593.06
566.89	2595.37
567.25	2596.91
567.60	2599.20
567.96	2601.98
568.31	2603.68
568.66	2605.90
569.02	2607.27
569.37	2608.46
569.72	2610.31
570.08	2611.31
570.43	2611.99
570.78	2612.07
571.14	2611.11
571.49	2610.34
571.84	2610.63
572.20	2610.08
572.55	2609.45
572.90	2608.04
573.26	2607.10
573.61	2605.62
573.96	2604.41
574.31	2601.71
574.67	2599.11
575.02	2595.71
575.37	2592.42
575.72	2588.87
576.08	2585.43
576.43	2582.30
576.78	2578.81
577.13	2575.63
577.49	2572.48
577.84	2569.10
578.19	2565.26
578.54	2561.59
578.90	2557.40
579.25	2551.58
579.60	2546.22
579.95	2540.99
580.30	2535.84
580.66	2530.35
581.01	2525.01
581.36	2519.71
581.71	2515.38
582.06	2510.72
582.42	2506.03
582.77	2500.30
583.12	2495.34
583.47	2490.34
583.82	2485.08
584.17	2479.41
584.53	2473.46
584.88	2467.35
585.23	2461.13
585.58	2455.09
585.93	2449.21
586.28	2443.92
586.63	2438.37
586.98	2433.04
587.34	2427.92
587.69	2422.55
588.04	2416.77
588.39	2410.58
588.74	2403.49
589.09	2396.62
589.44	2389.01
589.79	2382.16
590.14	2376.08
590.49	2368.77
590.84	2361.71
591.19	2354.84
591.54	2347.49
591.89	2339.32
592.25	2331.80
592.60	2323.71
592.95	2315.27
593.30	2306.78
593.65	2298.10
594.00	2290.05
594.35	2281.67
594.70	2272.29
595.05	2264.39
595.40	2256.16
595.75	2247.66
596.10	2240.53
596.45	2232.80
596.80	2225.76
597.15	2218.36
597.50	2210.20
597.85	2202.81
598.19	2195.08
598.54	2187.10
598.89	2179.49
599.24	2172.76
599.59	2165.07
599.94	2157.79
600.29	2150.44
600.64	2142.93
600.99	2134.49
601.34	2126.68
601.69	2118.56
602.04	2110.74
602.39	2102.13
602.74	2094.16
603.08	2086.34
603.43	2078.54
603.78	2069.98
604.13	2061.59
604.48	2053.12
604.83	2045.10
605.18	2036.98
605.53	2027.90
605.87	2018.43
606.22	2009.89
606.57	2000.47
606.92	1991.72
607.27	1983.50
607.62	1975.43
607.96	1966.95
608.31	1959.23
608.66	1950.37
609.01	1941.59
609.36	1932.79
609.70	1923.30
610.05	1913.99
610.40	1904.87
610.75	1895.05
611.10	1886.16
611.44	1876.18
611.79	1866.59
612.14	1856.42
612.49	1845.50
612.83	1835.45
613.18	1825.88
613.53	1816.55
613.88	1806.63
614.22	1796.88
614.57	1786.50
614.92	1777.04
615.27	1768.18
615.61	1758.32
615.96	1748.84
616.31	1739.76
616.65	1731.04
617.00	1722.24
617.35	1713.00
617.70	1703.33
618.04	1693.50
618.39	1683.89
618.74	1674.99
619.08	1665.34
619.43	1656.32
619.78	1648.33
620.12	1639.95
620.47	1631.20
620.82	1621.49
621.16	1612.54
621.51	1603.52
621.85	1594.50
622.20	1584.57
622.55	1574.71
622.89	1565.42
623.24	1556.31
623.59	1547.49
623.93	1538.49
624.28	1529.77
624.62	1520.87
624.97	1512.33
625.32	1504.10
625.66	1495.63
626.01	1487.19
626.35	1478.48
626.70	1469.31
627.04	1460.15
627.39	1450.93
627.73	1442.13
628.08	1433.89
628.43	1425.45
628.77	1416.93
629.12	1408.09
629.46	1399.61
629.81	1390.71
630.15	1382.22
630.50	1373.57
630.84	1364.00
631.19	1354.70
631.53	1345.84
631.88	1337.06
632.22	1328.14
632.57	1319.55
632.91	1310.77
633.26	1302.04
633.60	1293.32
633.95	1284.90
634.29	1276.58
634.64	1268.69
634.98	1260.01
635.32	1251.57
635.67	1243.70
636.01	1235.95
636.36	1228.05
636.70	1220.20
637.05	1212.60
637.39	1204.95
637.73	1197.29
638.08	1190.41
638.42	1183.45
638.77	1175.92
639.11	1168.17
639.45	1160.73
639.80	1152.90
640.14	1145.41
640.49	1137.70
640.83	1130.38
641.17	1123.22
641.52	1115.84
641.86	1108.26
642.20	1101.43
642.55	1094.06
642.89	1086.49
643.23	1078.73
643.58	1071.93
643.92	1064.84
644.26	1057.81
644.61	1050.76
644.95	1043.82
645.29	1036.20
645.64	1028.26
645.98	1020.85
646.32	1013.93
646.66	1006.83
647.01	1000.17
647.35	993.50
647.69	986.66
648.04	980.18
648.38	973.42
648.72	966.45
649.06	959.44
649.41	952.55
649.75	945.76
650.09	938.93
650.43	932.28
650.78	925.15
651.12	918.28
651.46	911.57
651.80	904.90
652.14	898.64
652.49	892.37
652.83	886.44
653.17	879.99
653.51	873.49
653.85	867.23
654.20	860.68
654.54	853.69
654.88	847.11
655.22	840.19
655.56	833.56
655.90	827.25
656.25	821.15
656.59	814.94
656.93	808.88
657.27	802.99
657.61	796.64
657.95	790.72
658.29	784.73
658.64	778.66
658.98	772.52
659.32	766.21
659.66	760.18
660.00	754.06
660.34	748.32
660.68	742.58
661.02	736.80
661.36	731.40
661.70	726.11
662.05	721.05
662.39	716.15
662.73	710.99
663.07	705.91
663.41	700.81
663.75	695.65
664.09	690.43
664.43	685.24
664.77	680.53
665.11	675.59
665.45	670.84
665.79	666.10
666.13	661.33
666.47	656.56
666.81	651.78
667.15	647.07
667.49	642.54
667.83	638.11
668.17	633.53
668.51	628.79
668.85	624.12
669.19	619.67
669.53	615.18
669.87	610.80
670.21	606.57
670.55	602.32
670.89	598.33
671.23	594.35
671.57	590.29
671.91	586.16
672.25	582.19
672.58	578.09
672.92	574.13
673.26	570.40
673.60	566.72
673.94	563.16
674.28	559.71
674.62	556.31
674.96	552.74
675.30	549.38
675.64	545.99
675.97	542.79
676.31	539.45
676.65	536.09
676.99	532.92
677.33	529.58
677.67	526.39
678.01	522.87
678.34	519.48
678.68	516.18
679.02	512.98
679.36	509.67
679.70	506.52
680.04	503.29
680.37	500.01
680.71	496.77
681.05	493.70
681.39	490.60
681.73	487.48
682.06	484.56
682.40	481.66
682.74	478.70
683.08	475.76
683.42	472.76
683.75	469.85
684.09	466.85
684.43	463.95
684.77	461.03
685.10	458.32
685.44	455.62
685.78	452.91
686.12	450.19
686.45	447.56
686.79	444.90
687.13	442.47
687.46	439.96
687.80	437.44
688.14	434.85
688.48	432.39
688.81	429.76
689.15	427.20
689.49	424.65
689.82	422.23
690.16	419.81
690.50	417.52
690.83	415.30
691.17	412.97
691.51	410.82
691.84	408.71
692.18	406.49
692.52	404.19
692.85	401.97
693.19	399.79
693.52	397.67
693.86	395.58
694.20	393.47
694.53	391.37
694.87	389.24
695.21	387.16
695.54	385.04
695.88	383.09
696.21	381.14
696.55	379.21
696.88	377.28
697.22	375.32
697.56	373.42
697.89	371.44
698.23	369.59
698.56	367.71
698.90	365.86
699.23	363.93
699.57	362.10
699.90	360.30
700.24	358.52
700.58	356.74
700.91	355.03
701.25	353.35
701.58	351.79
701.92	350.24
702.25	348.65
702.59	347.10
702.92	345.52
703.26	344.02
703.59	342.51
703.93	341.12
704.26	339.70
704.60	338.24
704.93	336.82
705.26	335.38
705.60	333.96
705.93	332.61
706.27	331.36
706.60	330.19
706.94	328.94
707.27	327.67
707.61	326.42
707.94	325.21
708.27	323.95
708.61	322.67
708.94	321.45
709.28	320.31
709.61	319.20
709.94	318.14
710.28	316.92
710.61	315.83
710.95	314.58
711.28	313.52
711.61	312.42
711.95	311.34
712.28	310.24
712.61	309.12
712.95	308.02
713.28	307.01
713.61	305.90
713.95	304.87
714.28	303.89
714.61	302.93
714.95	301.95
715.28	300.94
715.61	299.89
715.95	298.91
716.28	297.91
716.61	296.94
716.95	295.97
717.28	295.09
717.61	294.15
717.94	293.27
718.28	292.30
718.61	291.39
718.94	290.60
719.27	289.84
719.61	289.12
719.94	288.35
720.27	287.57
720.60	286.83
720.94	286.10
721.27	285.39
721.60	284.66
721.93	283.94
722.27	283.28
722.60	282.67
722.93	282.01
723.26	281.37
723.59	280.68
723.93	280.04
724.26	279.40
724.59	278.72
724.92	278.09
725.25	277.52
725.59	276.88
725.92	276.26
726.25	275.63
726.58	274.99
726.91	274.41
727.24	273.85
727.57	273.28
727.91	272.66
728.24	272.10
728.57	271.57
728.90	271.07
729.23	270.49
729.56	269.99
729.89	269.44
730.22	268.88
730.55	268.33
730.89	267.77
731.22	267.24
731.55	266.74
731.88	266.31
732.21	265.81
732.54	265.35
732.87	264.87
733.20	264.36
733.53	263.93
733.86	263.50
734.19	263.03
734.52	262.60
734.85	262.24
735.18	261.76
735.51	261.35
735.84	260.90
736.17	260.52
736.50	260.08
736.83	259.78
737.16	259.39
737.49	259.04
737.82	258.65
738.15	258.27
738.48	257.92
738.81	257.47
739.14	257.10
739.47	256.75
739.80	256.39
740.13	256.10
740.46	255.73
740.79	255.35
741.12	255.00
741.45	254.64
741.78	254.24
742.11	253.94
742.44	253.57
742.77	253.24
743.10	252.87
743.43	252.54
743.75	252.10
744.08	251.93
744.41	251.62
744.74	251.34
745.07	251.02
745.40	250.74
745.73	250.51
746.06	250.23
746.39	249.95
746.71	249.63
747.04	249.28
747.37	248.98
747.70	248.72
748.03	248.44
748.36	248.19
748.68	247.95
749.01	247.65
749.34	247.35
749.67	247.12
750.00	246.88
750.33	246.67
750.65	246.42
750.98	246.02
751.31	245.76
751.64	245.48
751.97	245.29
752.29	245.05
752.62	244.75
752.95	244.50
753.28	244.24
753.60	244.03
753.93	243.85
754.26	243.63
754.59	243.36
754.91	243.10
755.24	242.84
755.57	242.59
755.90	242.38
756.22	242.15
756.55	241.89
756.88	241.64
757.20	241.42
757.53	241.23
757.86	241.05
758.19	240.81
758.51	240.62
758.84	240.37
759.17	240.14
759.49	239.96
759.82	239.77
760.15	239.60
760.47	239.41
760.80	239.20
761.13	239.06
761.45	238.87
761.78	238.69
762.11	238.52
762.43	238.34
762.76	238.18
763.08	237.99
763.41	237.83
763.74	237.67
764.06	237.44
764.39	237.27
764.71	237.10
765.04	236.97
765.37	236.82
765.69	236.66
766.02	236.49
766.34	236.34
766.67	236.14
767.00	235.99
767.32	235.92
767.65	235.85
767.97	235.69
768.30	235.56
768.62	235.39
768.95	235.25
769.27	235.13
769.60	234.98
769.92	234.90
770.25	234.79
770.57	234.65
770.90	234.53
771.22	234.40
771.55	234.26
771.87	234.13
772.20	234.00
772.52	234.00
772.85	234.00
773.17	233.90
773.50	233.81
773.82	233.71
774.15	233.52
774.47	233.32
774.80	233.21
775.12	233.11
775.45	233.03
775.77	232.94
776.09	232.88
776.42	232.79
776.74	232.67
777.07	232.54
777.39	232.45
777.72	232.36
778.04	232.27
778.36	232.21
778.69	232.15
779.01	232.07
779.33	231.88
779.66	231.70
779.98	231.61
780.31	231.53
780.63	231.48
780.95	231.43
781.28	231.42
781.60	231.35
781.92	231.29
782.25	231.24
782.57	231.15
782.89	231.07
783.22	231.00
783.54	230.93
783.86	230.88
784.19	230.81
784.51	230.79
784.83	230.73
785.16	230.67
785.48	230.63
785.80	230.60
786.12	230.56
786.45	230.52
