SpectraSuite Data File
++++++++++++++++++++++++++++++++++++
Date: Fri Feb 01 15:04:58 EST 2013
User: group
Dark Spectrum Present: No
Reference Spectrum Present: No
Number of Sampled Component Spectra: 1
Spectrometers: USB2E7196
Integration Time (usec): 35000 (USB2E7196)
Spectra Averaged: 100 (USB2E7196)
Boxcar Smoothing: 10 (USB2E7196)
Correct for Electrical Dark: No (USB2E7196)
Strobe/Lamp Enabled: No (USB2E7196)
Correct for Detector Non-linearity: No (USB2E7196)
Correct for Stray Light: No (USB2E7196)
Number of Pixels in Processed Spectrum: 2048
>>>>>Begin Processed Spectral Data<<<<<
339.09	0.00
339.48	215.38
339.86	216.99
340.24	218.24
340.63	219.48
341.01	222.38
341.39	222.09
341.78	223.76
342.16	224.85
342.54	225.47
342.93	213.61
343.31	224.37
343.69	224.89
344.07	225.35
344.46	225.76
344.84	226.13
345.22	226.37
345.60	226.62
345.99	226.80
346.37	226.94
346.75	227.03
347.13	227.09
347.52	227.15
347.90	227.21
348.28	227.21
348.66	227.23
349.05	227.20
349.43	227.22
349.81	227.28
350.19	227.35
350.57	227.39
350.96	227.47
351.34	227.58
351.72	227.70
352.10	227.78
352.48	227.86
352.87	227.92
353.25	227.98
353.63	228.02
354.01	228.07
354.39	228.10
354.77	228.18
355.15	228.29
355.54	228.34
355.92	228.39
356.30	228.51
356.68	228.66
357.06	228.77
357.44	228.83
357.82	228.90
358.20	228.95
358.58	229.02
358.97	229.08
359.35	229.15
359.73	229.22
360.11	229.27
360.49	229.31
360.87	229.37
361.25	229.41
361.63	229.48
362.01	229.52
362.39	229.53
362.77	229.53
363.15	229.52
363.53	229.51
363.91	229.54
364.29	229.50
364.67	229.38
365.05	229.38
365.43	229.39
365.81	229.39
366.19	229.44
366.57	229.45
366.95	229.43
367.33	229.39
367.71	229.34
368.09	229.34
368.47	229.30
368.85	229.26
369.23	229.23
369.61	229.20
369.99	229.22
370.37	229.25
370.75	229.27
371.13	229.20
371.51	229.19
371.89	229.11
372.27	229.06
372.65	229.00
373.03	228.94
373.41	228.88
373.78	228.83
374.16	228.72
374.54	228.63
374.92	228.56
375.30	228.50
375.68	228.40
376.06	228.32
376.44	228.23
376.82	228.14
377.19	228.07
377.57	227.97
377.95	227.86
378.33	227.72
378.71	227.59
379.09	227.54
379.47	227.47
379.84	227.40
380.22	227.32
380.60	227.26
380.98	227.22
381.36	227.10
381.73	227.03
382.11	226.96
382.49	226.90
382.87	226.80
383.25	226.70
383.62	226.78
384.00	226.69
384.38	226.68
384.76	226.64
385.13	226.61
385.51	226.55
385.89	226.46
386.27	226.46
386.64	226.44
387.02	226.39
387.40	226.33
387.78	226.28
388.15	226.27
388.53	226.23
388.91	226.14
389.29	226.11
389.66	226.08
390.04	226.09
390.42	226.07
390.79	226.05
391.17	226.05
391.55	225.94
391.92	225.94
392.30	225.90
392.68	225.89
393.05	225.92
393.43	225.94
393.81	225.96
394.18	225.94
394.56	225.95
394.94	225.99
395.31	226.03
395.69	226.08
396.06	226.12
396.44	226.18
396.82	226.23
397.19	226.35
397.57	226.40
397.95	226.42
398.32	226.48
398.70	226.57
399.07	226.67
399.45	226.71
399.82	226.81
400.20	226.90
400.58	226.98
400.95	227.02
401.33	227.14
401.70	227.30
402.08	227.42
402.45	227.50
402.83	227.63
403.20	227.75
403.58	227.87
403.95	228.01
404.33	228.16
404.71	228.29
405.08	228.50
405.46	228.66
405.83	228.82
406.21	228.98
406.58	229.16
406.96	229.35
407.33	229.56
407.70	229.75
408.08	230.04
408.45	230.28
408.83	230.52
409.20	230.78
409.58	230.95
409.95	231.22
410.33	231.50
410.70	231.75
411.08	232.07
411.45	232.39
411.82	232.73
412.20	233.08
412.57	233.51
412.95	233.80
413.32	234.18
413.69	234.60
414.07	235.05
414.44	235.54
414.82	235.98
415.19	236.51
415.56	237.06
415.94	237.59
416.31	238.23
416.68	238.83
417.06	239.52
417.43	240.22
417.81	241.00
418.18	241.79
418.55	242.67
418.93	243.51
419.30	244.41
419.67	245.36
420.04	246.31
420.42	247.31
420.79	248.49
421.16	249.64
421.54	250.87
421.91	252.11
422.28	253.36
422.66	254.68
423.03	256.02
423.40	257.36
423.77	258.74
424.15	260.15
424.52	261.68
424.89	263.29
425.26	264.88
425.64	266.30
426.01	267.89
426.38	269.50
426.75	271.17
427.13	272.91
427.50	274.69
427.87	276.60
428.24	278.47
428.61	280.25
428.99	282.20
429.36	284.25
429.73	286.31
430.10	288.29
430.47	290.36
430.85	292.48
431.22	294.72
431.59	297.11
431.96	299.38
432.33	301.84
432.70	304.18
433.08	306.93
433.45	309.53
433.82	312.14
434.19	315.05
434.56	317.88
434.93	320.54
435.30	323.16
435.68	326.03
436.05	328.87
436.42	331.63
436.79	334.15
437.16	336.89
437.53	339.74
437.90	342.61
438.27	345.41
438.64	348.25
439.01	350.85
439.38	353.13
439.75	355.33
440.13	357.83
440.50	360.25
440.87	362.13
441.24	364.14
441.61	366.33
441.98	367.81
442.35	369.62
442.72	371.51
443.09	373.37
443.46	374.35
443.83	374.91
444.20	375.38
444.57	376.20
444.94	376.49
445.31	376.81
445.68	377.17
446.05	377.25
446.42	376.87
446.79	376.48
447.16	376.01
447.53	375.70
447.90	374.55
448.27	373.35
448.64	371.80
449.01	370.61
449.37	368.69
449.74	366.82
450.11	364.57
450.48	362.05
450.85	359.50
451.22	357.36
451.59	355.36
451.96	353.44
452.33	350.84
452.70	348.49
453.07	345.63
453.43	342.73
453.80	339.89
454.17	337.22
454.54	334.63
454.91	331.91
455.28	329.22
455.65	326.68
456.02	324.23
456.38	322.06
456.75	319.44
457.12	317.14
457.49	314.89
457.86	312.67
458.23	310.79
458.59	308.73
458.96	306.63
459.33	304.76
459.70	302.92
460.07	301.43
460.43	299.68
460.80	298.08
461.17	296.59
461.54	295.11
461.91	293.63
462.27	292.18
462.64	290.87
463.01	289.47
463.38	288.17
463.74	286.77
464.11	285.56
464.48	284.52
464.85	283.38
465.21	282.45
465.58	281.57
465.95	280.46
466.32	279.54
466.68	278.62
467.05	277.73
467.42	276.84
467.78	275.87
468.15	275.00
468.52	274.32
468.88	273.46
469.25	272.69
469.62	272.07
469.98	271.38
470.35	270.80
470.72	270.21
471.08	269.53
471.45	268.99
471.82	268.46
472.18	267.83
472.55	267.42
472.92	266.94
473.28	266.47
473.65	266.00
474.02	265.53
474.38	265.20
474.75	264.85
475.11	264.47
475.48	264.23
475.85	264.00
476.21	263.75
476.58	263.53
476.94	263.36
477.31	263.16
477.67	262.98
478.04	262.83
478.41	262.74
478.77	262.85
479.14	262.79
479.50	262.81
479.87	262.87
480.23	262.93
480.60	263.01
480.96	263.08
481.33	263.29
481.69	263.48
482.06	263.63
482.42	263.84
482.79	264.10
483.15	264.42
483.52	264.76
483.88	265.11
484.25	265.52
484.61	265.97
484.98	266.44
485.34	267.05
485.71	267.64
486.07	268.25
486.44	268.76
486.80	269.48
487.17	270.21
487.53	271.02
487.90	271.83
488.26	272.76
488.62	273.78
488.99	274.75
489.35	275.82
489.72	276.96
490.08	278.17
490.44	279.39
490.81	280.71
491.17	282.05
491.54	283.52
491.90	285.05
492.26	286.68
492.63	288.42
492.99	290.16
493.36	292.04
493.72	294.06
494.08	296.15
494.45	298.41
494.81	300.78
495.17	303.20
495.54	305.80
495.90	308.47
496.26	311.26
496.63	314.16
496.99	317.22
497.35	320.45
497.72	323.86
498.08	327.34
498.44	331.00
498.80	334.92
499.17	338.94
499.53	343.04
499.89	347.37
500.26	351.82
500.62	356.48
500.98	361.39
501.34	366.44
501.71	371.78
502.07	377.16
502.43	382.74
502.79	388.53
503.16	394.55
503.52	400.75
503.88	407.14
504.24	413.79
504.60	420.63
504.97	427.70
505.33	435.01
505.69	442.72
506.05	450.49
506.41	458.34
506.78	466.47
507.14	474.93
507.50	483.69
507.86	492.71
508.22	501.91
508.59	511.10
508.95	520.67
509.31	530.43
509.67	540.53
510.03	550.79
510.39	561.33
510.75	572.12
511.12	583.06
511.48	594.35
511.84	605.78
512.20	617.37
512.56	629.31
512.92	641.45
513.28	653.76
513.64	666.23
514.00	678.95
514.37	691.88
514.73	704.97
515.09	717.97
515.45	731.30
515.81	744.89
516.17	758.89
516.53	773.05
516.89	787.24
517.25	801.48
517.61	815.92
517.97	830.39
518.33	844.77
518.69	859.55
519.05	874.60
519.41	889.82
519.77	905.40
520.13	920.97
520.49	936.37
520.85	951.80
521.21	967.58
521.57	983.81
521.93	999.63
522.29	1016.05
522.65	1032.35
523.01	1048.64
523.37	1064.79
523.73	1081.13
524.09	1097.24
524.45	1113.60
524.81	1130.23
525.17	1147.19
525.53	1164.20
525.89	1181.25
526.25	1198.11
526.61	1214.45
526.97	1231.24
527.33	1247.61
527.68	1264.20
528.04	1280.75
528.40	1297.49
528.76	1314.55
529.12	1331.27
529.48	1348.25
529.84	1364.39
530.20	1381.12
530.56	1398.22
530.91	1415.52
531.27	1432.40
531.63	1449.02
531.99	1465.68
532.35	1481.79
532.71	1497.70
533.07	1514.01
533.42	1529.94
533.78	1546.19
534.14	1562.54
534.50	1577.87
534.86	1593.96
535.21	1609.23
535.57	1625.30
535.93	1640.90
536.29	1655.77
536.65	1671.04
537.00	1685.94
537.36	1701.36
537.72	1716.03
538.08	1730.55
538.44	1744.55
538.79	1758.40
539.15	1772.29
539.51	1786.22
539.87	1800.57
540.22	1814.46
540.58	1828.27
540.94	1841.62
541.29	1854.67
541.65	1867.45
542.01	1880.97
542.37	1893.31
542.72	1905.82
543.08	1917.62
543.44	1930.05
543.79	1941.43
544.15	1952.38
544.51	1963.87
544.87	1974.92
545.22	1985.73
545.58	1995.88
545.94	2005.64
546.29	2015.48
546.65	2025.14
547.01	2034.34
547.36	2043.15
547.72	2051.55
548.07	2059.57
548.43	2068.02
548.79	2075.96
549.14	2083.50
549.50	2090.80
549.86	2098.53
550.21	2105.91
550.57	2113.09
550.92	2119.69
551.28	2126.76
551.64	2133.82
551.99	2140.41
552.35	2146.44
552.70	2152.40
553.06	2158.47
553.41	2164.78
553.77	2170.84
554.13	2176.96
554.48	2183.03
554.84	2188.44
555.19	2193.87
555.55	2198.79
555.90	2202.95
556.26	2207.87
556.61	2212.63
556.97	2216.77
557.32	2220.83
557.68	2224.94
558.03	2229.14
558.39	2232.86
558.74	2237.45
559.10	2241.19
559.45	2244.87
559.81	2249.25
560.16	2253.09
560.52	2256.08
560.87	2259.48
561.23	2262.14
561.58	2265.05
561.94	2267.54
562.29	2269.90
562.64	2272.38
563.00	2275.15
563.35	2278.76
563.71	2281.89
564.06	2284.96
564.42	2287.91
564.77	2290.37
565.12	2292.34
565.48	2294.10
565.83	2295.73
566.19	2296.92
566.54	2297.87
566.89	2298.85
567.25	2299.21
567.60	2300.41
567.96	2302.25
568.31	2303.13
568.66	2304.04
569.02	2304.51
569.37	2304.69
569.72	2305.37
570.08	2305.37
570.43	2305.06
570.78	2304.15
571.14	2302.34
571.49	2300.99
571.84	2300.40
572.20	2299.13
572.55	2298.23
572.90	2296.70
573.26	2295.22
573.61	2293.27
573.96	2291.18
574.31	2288.06
574.67	2285.02
575.02	2281.30
575.37	2277.76
575.72	2273.67
576.08	2270.38
576.43	2266.94
576.78	2263.13
577.13	2259.85
577.49	2256.64
577.84	2253.08
578.19	2249.41
578.54	2245.62
578.90	2241.05
579.25	2235.51
579.60	2230.31
579.95	2225.01
580.30	2219.87
580.66	2214.57
581.01	2209.69
581.36	2204.73
581.71	2200.43
582.06	2195.72
582.42	2191.19
582.77	2185.59
583.12	2180.90
583.47	2175.88
583.82	2170.61
584.17	2165.25
584.53	2159.63
584.88	2153.83
585.23	2147.88
585.58	2142.21
585.93	2136.68
586.28	2132.03
586.63	2126.61
586.98	2121.58
587.34	2116.92
587.69	2111.89
588.04	2106.59
588.39	2100.66
588.74	2094.20
589.09	2087.87
589.44	2081.09
589.79	2075.16
590.14	2069.60
590.49	2063.07
590.84	2056.69
591.19	2050.64
591.54	2044.11
591.89	2036.54
592.25	2029.65
592.60	2022.44
592.95	2014.70
593.30	2007.26
593.65	1999.44
594.00	1992.50
594.35	1985.18
594.70	1976.89
595.05	1969.52
595.40	1962.06
595.75	1954.56
596.10	1948.14
596.45	1941.40
596.80	1935.10
597.15	1928.17
597.50	1920.91
597.85	1914.39
598.19	1907.52
598.54	1900.54
598.89	1893.88
599.24	1887.89
599.59	1881.27
599.94	1874.96
600.29	1868.70
600.64	1862.11
600.99	1854.57
601.34	1847.58
601.69	1840.52
602.04	1833.65
602.39	1826.34
602.74	1819.47
603.08	1812.77
603.43	1806.03
603.78	1798.71
604.13	1791.50
604.48	1784.13
604.83	1777.31
605.18	1770.14
605.53	1762.20
605.87	1754.05
606.22	1746.76
606.57	1738.93
606.92	1731.54
607.27	1724.31
607.62	1717.33
607.96	1710.05
608.31	1703.37
608.66	1695.66
609.01	1688.06
609.36	1680.55
609.70	1672.47
610.05	1664.47
610.40	1656.62
610.75	1648.39
611.10	1640.77
611.44	1632.39
611.79	1624.57
612.14	1615.86
612.49	1606.83
612.83	1598.42
613.18	1590.34
613.53	1582.29
613.88	1573.73
614.22	1565.50
614.57	1557.02
614.92	1548.99
615.27	1541.27
615.61	1533.08
615.96	1525.22
616.31	1517.68
616.65	1510.35
617.00	1502.88
617.35	1495.32
617.70	1487.01
618.04	1478.50
618.39	1470.26
618.74	1462.64
619.08	1454.35
619.43	1446.84
619.78	1440.09
620.12	1432.93
620.47	1425.30
620.82	1417.27
621.16	1409.99
621.51	1402.51
621.85	1394.93
622.20	1386.56
622.55	1378.38
622.89	1370.65
623.24	1363.10
623.59	1355.74
623.93	1348.18
624.28	1340.95
624.62	1333.35
624.97	1326.21
625.32	1319.44
625.66	1312.40
626.01	1305.21
626.35	1297.69
626.70	1289.95
627.04	1282.07
627.39	1274.44
627.73	1267.09
628.08	1260.09
628.43	1252.74
628.77	1245.21
629.12	1237.63
629.46	1230.37
629.81	1223.08
630.15	1215.80
630.50	1208.41
630.84	1200.22
631.19	1192.32
631.53	1184.83
631.88	1177.35
632.22	1169.82
632.57	1162.53
632.91	1155.06
633.26	1147.80
633.60	1140.52
633.95	1133.58
634.29	1126.73
634.64	1120.01
634.98	1112.73
635.32	1105.72
635.67	1099.18
636.01	1092.69
636.36	1085.95
636.70	1079.56
637.05	1072.93
637.39	1066.51
637.73	1060.03
638.08	1054.21
638.42	1048.31
638.77	1041.86
639.11	1035.31
639.45	1028.99
639.80	1022.40
640.14	1015.95
640.49	1009.42
640.83	1003.15
641.17	996.84
641.52	990.47
641.86	984.15
642.20	978.34
642.55	971.99
642.89	965.47
643.23	958.90
643.58	953.13
643.92	946.88
644.26	940.78
644.61	934.81
644.95	928.78
645.29	922.19
645.64	915.45
645.98	909.17
646.32	903.32
646.66	897.27
647.01	891.50
647.35	885.87
647.69	880.05
648.04	874.56
648.38	868.84
648.72	862.73
649.06	856.63
649.41	850.74
649.75	844.71
650.09	838.86
650.43	833.06
650.78	826.87
651.12	820.97
651.46	815.34
651.80	809.57
652.14	804.24
652.49	798.92
652.83	793.70
653.17	788.09
653.51	782.38
653.85	777.00
654.20	771.44
654.54	765.43
654.88	759.74
655.22	753.86
655.56	748.16
655.90	742.83
656.25	737.56
656.59	732.22
656.93	727.18
657.27	722.03
657.61	716.63
657.95	711.57
658.29	706.44
658.64	701.15
658.98	695.77
659.32	690.33
659.66	685.10
660.00	679.83
660.34	674.91
660.68	670.07
661.02	665.10
661.36	660.34
661.70	655.86
662.05	651.47
662.39	647.19
662.73	642.75
663.07	638.39
663.41	633.98
663.75	629.50
664.09	625.04
664.43	620.65
664.77	616.63
665.11	612.50
665.45	608.46
665.79	604.46
666.13	600.41
666.47	596.33
666.81	592.22
667.15	588.12
667.49	584.23
667.83	580.46
668.17	576.54
668.51	572.49
668.85	568.55
669.19	564.77
669.53	560.97
669.87	557.12
670.21	553.43
670.55	549.85
670.89	546.42
671.23	542.99
671.57	539.55
671.91	536.00
672.25	532.50
672.58	529.04
672.92	525.70
673.26	522.65
673.60	519.57
673.94	516.50
674.28	513.65
674.62	510.79
674.96	507.69
675.30	504.77
675.64	501.88
675.97	499.10
676.31	496.25
676.65	493.29
676.99	490.60
677.33	487.75
677.67	484.91
678.01	481.93
678.34	478.97
678.68	476.11
679.02	473.25
679.36	470.48
679.70	467.69
680.04	464.87
680.37	461.96
680.71	459.18
681.05	456.55
681.39	453.91
681.73	451.25
682.06	448.72
682.40	446.17
682.74	443.66
683.08	441.15
683.42	438.52
683.75	436.04
684.09	433.53
684.43	431.07
684.77	428.68
685.10	426.42
685.44	424.18
685.78	421.88
686.12	419.76
686.45	417.55
686.79	415.32
687.13	413.18
687.46	411.08
687.80	408.90
688.14	406.70
688.48	404.62
688.81	402.33
689.15	400.13
689.49	398.01
689.82	395.92
690.16	393.87
690.50	391.94
690.83	390.00
691.17	388.05
691.51	386.19
691.84	384.31
692.18	382.31
692.52	380.29
692.85	378.37
693.19	376.46
693.52	374.62
693.86	372.80
694.20	371.06
694.53	369.22
694.87	367.43
695.21	365.64
695.54	363.82
695.88	362.15
696.21	360.53
696.55	358.87
696.88	357.19
697.22	355.54
697.56	353.91
697.89	352.30
698.23	350.61
698.56	348.97
698.90	347.31
699.23	345.67
699.57	344.16
699.90	342.63
700.24	341.05
700.58	339.51
700.91	338.04
701.25	336.55
701.58	335.21
701.92	333.86
702.25	332.49
702.59	331.12
702.92	329.80
703.26	328.49
703.59	327.24
703.93	326.09
704.26	324.84
704.60	323.56
704.93	322.27
705.26	321.11
705.60	319.96
705.93	318.88
706.27	317.89
706.60	316.83
706.94	315.74
707.27	314.64
707.61	313.59
707.94	312.58
708.27	311.52
708.61	310.46
708.94	309.43
709.28	308.49
709.61	307.57
709.94	306.62
710.28	305.60
710.61	304.63
710.95	303.59
711.28	302.69
711.61	301.80
711.95	300.90
712.28	299.95
712.61	299.02
712.95	298.12
713.28	297.22
713.61	296.35
713.95	295.50
714.28	294.67
714.61	293.81
714.95	292.97
715.28	292.17
715.61	291.32
715.95	290.46
716.28	289.59
716.61	288.74
716.95	287.95
717.28	287.23
717.61	286.45
717.94	285.68
718.28	284.89
718.61	284.16
718.94	283.49
719.27	282.82
719.61	282.18
719.94	281.52
720.27	280.82
720.60	280.17
720.94	279.55
721.27	278.94
721.60	278.36
721.93	277.75
722.27	277.19
722.60	276.58
722.93	276.04
723.26	275.54
723.59	274.98
723.93	274.41
724.26	273.86
724.59	273.30
724.92	272.78
725.25	272.28
725.59	271.77
725.92	271.23
726.25	270.71
726.58	270.20
726.91	269.70
727.24	269.23
727.57	268.74
727.91	268.19
728.24	267.74
728.57	267.27
728.90	266.84
729.23	266.30
729.56	265.89
729.89	265.38
730.22	264.88
730.55	264.43
730.89	263.95
731.22	263.48
731.55	263.06
731.88	262.61
732.21	262.17
732.54	261.72
732.87	261.29
733.20	260.90
733.53	260.53
733.86	260.15
734.19	259.75
734.52	259.36
734.85	259.10
735.18	258.69
735.51	258.31
735.84	257.93
736.17	257.62
736.50	257.22
736.83	257.02
737.16	256.68
737.49	256.34
737.82	256.05
738.15	255.71
738.48	255.39
738.81	255.07
739.14	254.73
739.47	254.40
739.80	254.08
740.13	253.78
740.46	253.42
740.79	253.10
741.12	252.80
741.45	252.49
741.78	252.11
742.11	251.81
742.44	251.48
742.77	251.20
743.10	250.87
743.43	250.57
743.75	250.17
744.08	250.02
744.41	249.73
744.74	249.45
745.07	249.21
745.40	248.93
745.73	248.68
746.06	248.42
746.39	248.15
746.71	247.89
747.04	247.59
747.37	247.32
747.70	247.09
748.03	246.82
748.36	246.57
748.68	246.33
749.01	246.07
749.34	245.84
749.67	245.59
750.00	245.36
750.33	245.22
750.65	245.01
750.98	244.68
751.31	244.48
751.64	244.26
751.97	244.09
752.29	243.87
752.62	243.65
752.95	243.43
753.28	243.23
753.60	243.06
753.93	242.92
754.26	242.73
754.59	242.50
754.91	242.30
755.24	242.12
755.57	241.92
755.90	241.76
756.22	241.60
756.55	241.40
756.88	241.22
757.20	240.99
757.53	240.78
757.86	240.61
758.19	240.45
758.51	240.29
758.84	240.04
759.17	239.89
759.49	239.75
759.82	239.64
760.15	239.51
760.47	239.34
760.80	239.15
761.13	239.05
761.45	238.89
761.78	238.76
762.11	238.63
762.43	238.51
762.76	238.37
763.08	238.25
763.41	238.13
763.74	237.96
764.06	237.84
764.39	237.71
764.71	237.58
765.04	237.42
765.37	237.32
765.69	237.21
766.02	237.06
766.34	236.92
766.67	236.76
767.00	236.66
767.32	236.60
767.65	236.56
767.97	236.45
768.30	236.36
768.62	236.26
768.95	236.14
769.27	236.02
769.60	235.92
769.92	235.80
770.25	235.70
770.57	235.60
770.90	235.47
771.22	235.38
771.55	235.29
771.87	235.20
772.20	235.05
772.52	235.07
772.85	235.13
773.17	235.05
773.50	234.97
773.82	234.85
774.15	234.74
774.47	234.62
774.80	234.48
775.12	234.39
775.45	234.30
775.77	234.24
776.09	234.19
776.42	234.11
776.74	234.06
777.07	233.98
777.39	233.89
777.72	233.81
778.04	233.73
778.36	233.65
778.69	233.57
779.01	233.52
779.33	233.33
779.66	233.12
779.98	233.06
780.31	233.01
780.63	232.99
780.95	232.94
781.28	232.84
781.60	232.79
781.92	232.72
782.25	232.63
782.57	232.55
782.89	232.47
783.22	232.39
783.54	232.32
783.86	232.25
784.19	232.22
784.51	232.18
784.83	232.16
785.16	232.08
785.48	232.04
785.80	231.99
786.12	231.98
786.45	231.94
786.77	231.87
787.09	231.82
