SpectraSuite Data File
++++++++++++++++++++++++++++++++++++
Date: Fri Feb 01 15:32:29 EST 2013
User: group
Dark Spectrum Present: No
Reference Spectrum Present: No
Number of Sampled Component Spectra: 1
Spectrometers: USB2E7196
Integration Time (usec): 35000 (USB2E7196)
Spectra Averaged: 100 (USB2E7196)
Boxcar Smoothing: 10 (USB2E7196)
Correct for Electrical Dark: No (USB2E7196)
Strobe/Lamp Enabled: No (USB2E7196)
Correct for Detector Non-linearity: No (USB2E7196)
Correct for Stray Light: No (USB2E7196)
Number of Pixels in Processed Spectrum: 2048
>>>>>Begin Processed Spectral Data<<<<<
339.09	0.00
339.48	215.06
339.86	216.54
340.24	217.88
340.63	219.66
341.01	221.96
341.39	222.10
341.78	223.83
342.16	224.57
342.54	225.94
342.93	213.47
343.31	224.27
343.69	224.82
344.07	225.29
344.46	225.72
344.84	226.09
345.22	226.34
345.60	226.59
345.99	226.77
346.37	226.91
346.75	226.98
347.13	227.10
347.52	227.14
347.90	227.22
348.28	227.26
348.66	227.28
349.05	227.30
349.43	227.33
349.81	227.40
350.19	227.43
350.57	227.50
350.96	227.61
351.34	227.68
351.72	227.75
352.10	227.85
352.48	227.92
352.87	227.95
353.25	228.01
353.63	228.07
354.01	228.09
354.39	228.16
354.77	228.24
355.15	228.30
355.54	228.34
355.92	228.35
356.30	228.40
356.68	228.53
357.06	228.58
357.44	228.65
357.82	228.70
358.20	228.81
358.58	228.84
358.97	228.90
359.35	228.97
359.73	229.06
360.11	229.10
360.49	229.13
360.87	229.23
361.25	229.30
361.63	229.38
362.01	229.44
362.39	229.42
362.77	229.42
363.15	229.45
363.53	229.48
363.91	229.55
364.29	229.56
364.67	229.48
365.05	229.49
365.43	229.45
365.81	229.42
366.19	229.44
366.57	229.50
366.95	229.48
367.33	229.47
367.71	229.44
368.09	229.43
368.47	229.42
368.85	229.35
369.23	229.31
369.61	229.23
369.99	229.23
370.37	229.23
370.75	229.24
371.13	229.17
371.51	229.13
371.89	229.05
372.27	229.03
372.65	228.96
373.03	228.90
373.41	228.88
373.78	228.83
374.16	228.67
374.54	228.58
374.92	228.49
375.30	228.40
375.68	228.29
376.06	228.21
376.44	228.12
376.82	228.04
377.19	227.97
377.57	227.88
377.95	227.78
378.33	227.70
378.71	227.56
379.09	227.47
379.47	227.42
379.84	227.35
380.22	227.26
380.60	227.18
380.98	227.13
381.36	227.06
381.73	226.97
382.11	226.94
382.49	226.88
382.87	226.79
383.25	226.74
383.62	226.81
384.00	226.73
384.38	226.68
384.76	226.62
385.13	226.60
385.51	226.55
385.89	226.48
386.27	226.44
386.64	226.44
387.02	226.40
387.40	226.33
387.78	226.32
388.15	226.27
388.53	226.27
388.91	226.22
389.29	226.17
389.66	226.15
390.04	226.11
390.42	226.10
390.79	226.10
391.17	226.07
391.55	225.95
391.92	225.96
392.30	225.97
392.68	225.98
393.05	225.96
393.43	225.97
393.81	225.99
394.18	225.99
394.56	226.02
394.94	226.09
395.31	226.10
395.69	226.16
396.06	226.20
396.44	226.23
396.82	226.28
397.19	226.34
397.57	226.41
397.95	226.49
398.32	226.54
398.70	226.62
399.07	226.72
399.45	226.78
399.82	226.85
400.20	226.89
400.58	226.96
400.95	227.03
401.33	227.12
401.70	227.28
402.08	227.41
402.45	227.48
402.83	227.62
403.20	227.73
403.58	227.79
403.95	227.93
404.33	228.04
404.71	228.14
405.08	228.35
405.46	228.45
405.83	228.60
406.21	228.73
406.58	228.88
406.96	229.00
407.33	229.19
407.70	229.35
408.08	229.62
408.45	229.87
408.83	230.10
409.20	230.32
409.58	230.50
409.95	230.73
410.33	231.01
410.70	231.25
411.08	231.54
411.45	231.87
411.82	232.15
412.20	232.51
412.57	232.95
412.95	233.26
413.32	233.68
413.69	234.10
414.07	234.55
414.44	235.01
414.82	235.52
415.19	236.05
415.56	236.64
415.94	237.18
416.31	237.83
416.68	238.46
417.06	239.17
417.43	239.86
417.81	240.65
418.18	241.43
418.55	242.23
418.93	243.08
419.30	243.97
419.67	244.92
420.04	245.87
420.42	246.85
420.79	248.02
421.16	249.18
421.54	250.37
421.91	251.58
422.28	252.83
422.66	254.14
423.03	255.45
423.40	256.79
423.77	258.25
424.15	259.64
424.52	261.12
424.89	262.75
425.26	264.29
425.64	265.74
426.01	267.34
426.38	269.03
426.75	270.75
427.13	272.48
427.50	274.29
427.87	276.17
428.24	278.04
428.61	279.77
428.99	281.72
429.36	283.82
429.73	285.92
430.10	287.96
430.47	290.06
430.85	292.21
431.22	294.49
431.59	296.87
431.96	299.11
432.33	301.61
432.70	304.01
433.08	306.84
433.45	309.52
433.82	312.14
434.19	315.05
434.56	317.84
434.93	320.49
435.30	323.15
435.68	326.06
436.05	328.96
436.42	331.78
436.79	334.31
437.16	337.03
437.53	339.86
437.90	342.68
438.27	345.46
438.64	348.31
439.01	350.88
439.38	353.12
439.75	355.33
440.13	357.84
440.50	360.15
440.87	362.02
441.24	363.92
441.61	366.11
441.98	367.58
442.35	369.42
442.72	371.28
443.09	373.08
443.46	374.12
443.83	374.69
444.20	375.19
444.57	376.03
444.94	376.29
445.31	376.61
445.68	377.00
446.05	377.04
446.42	376.62
446.79	376.20
447.16	375.71
447.53	375.35
447.90	374.17
448.27	373.05
448.64	371.45
449.01	370.30
449.37	368.28
449.74	366.39
450.11	364.13
450.48	361.68
450.85	359.16
451.22	356.98
451.59	354.89
451.96	352.95
452.33	350.27
452.70	347.92
453.07	345.05
453.43	342.12
453.80	339.33
454.17	336.66
454.54	334.07
454.91	331.36
455.28	328.66
455.65	326.13
456.02	323.64
456.38	321.45
456.75	318.77
457.12	316.55
457.49	314.29
457.86	312.12
458.23	310.25
458.59	308.16
458.96	306.06
459.33	304.22
459.70	302.34
460.07	300.90
460.43	299.17
460.80	297.59
461.17	296.13
461.54	294.64
461.91	293.17
462.27	291.75
462.64	290.52
463.01	289.20
463.38	287.96
463.74	286.58
464.11	285.43
464.48	284.40
464.85	283.30
465.21	282.42
465.58	281.44
465.95	280.33
466.32	279.42
466.68	278.50
467.05	277.59
467.42	276.69
467.78	275.77
468.15	274.88
468.52	274.22
468.88	273.34
469.25	272.59
469.62	271.99
469.98	271.30
470.35	270.65
470.72	270.02
471.08	269.32
471.45	268.80
471.82	268.24
472.18	267.67
472.55	267.17
472.92	266.66
473.28	266.27
473.65	265.81
474.02	265.35
474.38	264.97
474.75	264.69
475.11	264.32
475.48	264.04
475.85	263.81
476.21	263.55
476.58	263.43
476.94	263.25
477.31	263.08
477.67	262.94
478.04	262.83
478.41	262.80
478.77	262.86
479.14	262.79
479.50	262.82
479.87	262.85
480.23	262.99
480.60	263.02
480.96	263.12
481.33	263.31
481.69	263.56
482.06	263.81
482.42	263.95
482.79	264.24
483.15	264.57
483.52	264.97
483.88	265.32
484.25	265.67
484.61	266.11
484.98	266.60
485.34	267.17
485.71	267.80
486.07	268.43
486.44	269.00
486.80	269.71
487.17	270.40
487.53	271.23
487.90	272.08
488.26	273.05
488.62	274.02
488.99	275.03
489.35	276.09
489.72	277.21
490.08	278.44
490.44	279.69
490.81	281.00
491.17	282.35
491.54	283.87
491.90	285.40
492.26	287.07
492.63	288.74
492.99	290.51
493.36	292.35
493.72	294.36
494.08	296.48
494.45	298.72
494.81	301.11
495.17	303.59
495.54	306.17
495.90	308.87
496.26	311.65
496.63	314.61
496.99	317.76
497.35	321.02
497.72	324.40
498.08	327.94
498.44	331.64
498.80	335.54
499.17	339.52
499.53	343.69
499.89	348.05
500.26	352.58
500.62	357.26
500.98	362.25
501.34	367.31
501.71	372.63
502.07	378.09
502.43	383.68
502.79	389.45
503.16	395.48
503.52	401.64
503.88	408.04
504.24	414.65
504.60	421.51
504.97	428.65
505.33	436.02
505.69	443.69
506.05	451.45
506.41	459.35
506.78	467.52
507.14	476.03
507.50	484.73
507.86	493.81
508.22	502.98
508.59	512.22
508.95	521.87
509.31	531.65
509.67	541.75
510.03	552.07
510.39	562.60
510.75	573.43
511.12	584.49
511.48	595.81
511.84	607.32
512.20	618.80
512.56	630.74
512.92	642.91
513.28	655.22
513.64	667.71
514.00	680.48
514.37	693.43
514.73	706.50
515.09	719.57
515.45	732.83
515.81	746.50
516.17	760.40
516.53	774.45
516.89	788.70
517.25	802.97
517.61	817.42
517.97	831.97
518.33	846.43
518.69	861.18
519.05	876.20
519.41	891.44
519.77	907.01
520.13	922.46
520.49	937.82
520.85	953.30
521.21	969.10
521.57	985.31
521.93	1001.22
522.29	1017.59
522.65	1033.96
523.01	1050.19
523.37	1066.18
523.73	1082.44
524.09	1098.66
524.45	1115.07
524.81	1131.66
525.17	1148.46
525.53	1165.33
525.89	1182.27
526.25	1199.22
526.61	1215.65
526.97	1232.37
527.33	1248.86
527.68	1265.50
528.04	1282.03
528.40	1298.67
528.76	1315.71
529.12	1332.36
529.48	1349.19
529.84	1365.28
530.20	1381.87
530.56	1398.96
530.91	1416.53
531.27	1433.33
531.63	1449.76
531.99	1466.38
532.35	1482.40
532.71	1498.33
533.07	1514.54
533.42	1530.47
533.78	1546.40
534.14	1562.70
534.50	1578.06
534.86	1594.06
535.21	1609.44
535.57	1625.60
535.93	1641.24
536.29	1656.11
536.65	1671.21
537.00	1686.13
537.36	1701.32
537.72	1715.82
538.08	1730.30
538.44	1744.01
538.79	1757.99
539.15	1771.78
539.51	1785.40
539.87	1799.83
540.22	1813.71
540.58	1827.73
540.94	1841.03
541.29	1854.15
541.65	1866.85
542.01	1880.25
542.37	1892.57
542.72	1904.94
543.08	1916.59
543.44	1929.00
543.79	1940.29
544.15	1951.40
544.51	1962.94
544.87	1974.15
545.22	1985.05
545.58	1995.17
545.94	2005.06
546.29	2014.94
546.65	2024.66
547.01	2034.01
547.36	2042.79
547.72	2051.30
548.07	2059.09
548.43	2067.20
548.79	2075.18
549.14	2082.78
549.50	2090.09
549.86	2097.88
550.21	2105.30
550.57	2112.57
550.92	2119.16
551.28	2126.19
551.64	2133.25
551.99	2139.78
552.35	2145.84
552.70	2151.90
553.06	2157.99
553.41	2164.28
553.77	2170.40
554.13	2176.64
554.48	2182.75
554.84	2187.93
555.19	2193.30
555.55	2198.52
555.90	2203.04
556.26	2207.96
556.61	2212.67
556.97	2216.83
557.32	2220.86
557.68	2224.93
558.03	2229.12
558.39	2232.86
558.74	2237.63
559.10	2241.39
559.45	2245.03
559.81	2249.46
560.16	2253.47
560.52	2256.55
560.87	2259.94
561.23	2262.51
561.58	2265.34
561.94	2267.88
562.29	2270.50
562.64	2273.05
563.00	2275.69
563.35	2279.24
563.71	2282.23
564.06	2285.41
564.42	2288.22
564.77	2290.71
565.12	2292.95
565.48	2294.88
565.83	2296.60
566.19	2297.67
566.54	2298.72
566.89	2299.88
567.25	2300.38
567.60	2301.62
567.96	2303.40
568.31	2304.25
568.66	2305.34
569.02	2305.97
569.37	2306.18
569.72	2306.95
570.08	2307.15
570.43	2307.15
570.78	2306.51
571.14	2305.08
571.49	2303.75
571.84	2303.54
572.20	2302.45
572.55	2301.39
572.90	2299.73
573.26	2298.41
573.61	2296.73
573.96	2294.78
574.31	2291.73
574.67	2288.58
575.02	2284.89
575.37	2281.50
575.72	2277.69
576.08	2274.27
576.43	2270.89
576.78	2267.20
577.13	2264.05
577.49	2260.97
577.84	2257.48
578.19	2253.73
578.54	2249.92
578.90	2245.65
579.25	2240.05
579.60	2234.91
579.95	2229.81
580.30	2224.86
580.66	2219.67
581.01	2214.61
581.36	2209.61
581.71	2205.42
582.06	2201.05
582.42	2196.51
582.77	2191.13
583.12	2186.43
583.47	2181.71
583.82	2176.56
584.17	2171.33
584.53	2165.70
584.88	2159.87
585.23	2153.70
585.58	2148.19
585.93	2142.68
586.28	2137.81
586.63	2132.71
586.98	2127.55
587.34	2122.85
587.69	2117.95
588.04	2112.55
588.39	2106.77
588.74	2100.23
589.09	2094.04
589.44	2087.19
589.79	2081.22
590.14	2075.66
590.49	2069.10
590.84	2062.57
591.19	2056.54
591.54	2049.92
591.89	2042.52
592.25	2035.62
592.60	2028.54
592.95	2020.92
593.30	2013.59
593.65	2005.94
594.00	1998.89
594.35	1991.60
594.70	1983.44
595.05	1976.05
595.40	1968.71
595.75	1961.17
596.10	1954.81
596.45	1947.76
596.80	1941.53
597.15	1934.67
597.50	1927.38
597.85	1920.88
598.19	1914.22
598.54	1907.09
598.89	1900.56
599.24	1894.58
599.59	1887.78
599.94	1881.60
600.29	1875.27
600.64	1868.71
600.99	1861.16
601.34	1854.16
601.69	1847.16
602.04	1840.20
602.39	1832.84
602.74	1826.07
603.08	1819.39
603.43	1812.79
603.78	1805.74
604.13	1798.47
604.48	1791.18
604.83	1784.47
605.18	1777.48
605.53	1769.52
605.87	1761.46
606.22	1754.17
606.57	1746.23
606.92	1738.91
607.27	1731.68
607.62	1724.62
607.96	1717.24
608.31	1710.63
608.66	1702.95
609.01	1695.32
609.36	1687.67
609.70	1679.57
610.05	1671.22
610.40	1663.41
610.75	1654.94
611.10	1647.12
611.44	1638.63
611.79	1630.65
612.14	1621.76
612.49	1612.65
612.83	1604.17
613.18	1596.07
613.53	1587.92
613.88	1579.35
614.22	1571.16
614.57	1562.52
614.92	1554.48
615.27	1546.86
615.61	1538.53
615.96	1530.50
616.31	1522.93
616.65	1515.61
617.00	1508.06
617.35	1500.56
617.70	1492.21
618.04	1483.72
618.39	1475.52
618.74	1468.00
619.08	1459.72
619.43	1452.19
619.78	1445.24
620.12	1438.09
620.47	1430.57
620.82	1422.50
621.16	1415.13
621.51	1407.47
621.85	1399.87
622.20	1391.35
622.55	1383.06
622.89	1375.19
623.24	1367.58
623.59	1360.26
623.93	1352.72
624.28	1345.42
624.62	1337.91
624.97	1330.88
625.32	1324.20
625.66	1317.15
626.01	1309.88
626.35	1302.39
626.70	1294.70
627.04	1286.87
627.39	1279.09
627.73	1271.63
628.08	1264.55
628.43	1257.09
628.77	1249.70
629.12	1242.10
629.46	1234.90
629.81	1227.47
630.15	1220.35
630.50	1212.97
630.84	1204.83
631.19	1196.98
631.53	1189.61
631.88	1182.07
632.22	1174.41
632.57	1167.10
632.91	1159.55
633.26	1152.12
633.60	1144.86
633.95	1137.89
634.29	1130.86
634.64	1124.08
634.98	1116.84
635.32	1109.74
635.67	1103.24
636.01	1096.58
636.36	1089.83
636.70	1083.46
637.05	1076.87
637.39	1070.31
637.73	1063.88
638.08	1057.94
638.42	1051.94
638.77	1045.48
639.11	1038.86
639.45	1032.55
639.80	1025.85
640.14	1019.44
640.49	1013.00
640.83	1006.68
641.17	1000.38
641.52	994.14
641.86	987.85
642.20	981.97
642.55	975.77
642.89	969.23
643.23	962.70
643.58	956.87
643.92	950.53
644.26	944.41
644.61	938.45
644.95	932.35
645.29	925.74
645.64	918.96
645.98	912.58
646.32	906.76
646.66	900.64
647.01	894.86
647.35	889.18
647.69	883.31
648.04	877.75
648.38	871.88
648.72	865.83
649.06	859.66
649.41	853.74
649.75	847.65
650.09	841.76
650.43	836.02
650.78	829.88
651.12	823.91
651.46	818.21
651.80	812.41
652.14	807.03
652.49	801.62
652.83	796.50
653.17	790.78
653.51	784.98
653.85	779.65
654.20	774.00
654.54	768.00
654.88	762.22
655.22	756.28
655.56	750.54
655.90	745.13
656.25	739.92
656.59	734.52
656.93	729.44
657.27	724.29
657.61	718.81
657.95	713.74
658.29	708.70
658.64	703.47
658.98	698.17
659.32	692.65
659.66	687.46
660.00	682.17
660.34	677.31
660.68	672.43
661.02	667.36
661.36	662.63
661.70	658.18
662.05	653.84
662.39	649.54
662.73	645.10
663.07	640.74
663.41	636.31
663.75	631.81
664.09	627.26
664.43	622.84
664.77	618.72
665.11	614.44
665.45	610.31
665.79	606.25
666.13	602.13
666.47	598.06
666.81	593.85
667.15	589.67
667.49	585.73
667.83	581.91
668.17	577.92
668.51	573.87
668.85	569.84
669.19	566.04
669.53	562.26
669.87	558.41
670.21	554.69
670.55	551.08
670.89	547.69
671.23	544.29
671.57	540.84
671.91	537.36
672.25	533.92
672.58	530.37
672.92	527.01
673.26	523.88
673.60	520.73
673.94	517.67
674.28	514.82
674.62	511.91
674.96	508.81
675.30	505.94
675.64	503.08
675.97	500.29
676.31	497.38
676.65	494.43
676.99	491.75
677.33	488.89
677.67	486.00
678.01	482.91
678.34	479.94
678.68	477.05
679.02	474.20
679.36	471.44
679.70	468.82
680.04	466.01
680.37	463.09
680.71	460.37
681.05	457.75
681.39	455.03
681.73	452.35
682.06	449.83
682.40	447.33
682.74	444.74
683.08	442.14
683.42	439.58
683.75	437.07
684.09	434.46
684.43	432.00
684.77	429.58
685.10	427.27
685.44	424.99
685.78	422.74
686.12	420.47
686.45	418.17
686.79	415.82
687.13	413.65
687.46	411.53
687.80	409.32
688.14	407.13
688.48	405.04
688.81	402.78
689.15	400.69
689.49	398.50
689.82	396.46
690.16	394.42
690.50	392.45
690.83	390.52
691.17	388.60
691.51	386.65
691.84	384.80
692.18	382.88
692.52	380.87
692.85	378.93
693.19	377.06
693.52	375.28
693.86	373.47
694.20	371.72
694.53	369.90
694.87	368.05
695.21	366.28
695.54	364.46
695.88	362.77
696.21	360.99
696.55	359.29
696.88	357.54
697.22	355.90
697.56	354.27
697.89	352.60
698.23	350.93
698.56	349.36
698.90	347.75
699.23	346.07
699.57	344.53
699.90	342.96
700.24	341.42
700.58	339.85
700.91	338.37
701.25	336.87
701.58	335.52
701.92	334.22
702.25	332.81
702.59	331.45
702.92	330.13
703.26	328.84
703.59	327.60
703.93	326.49
704.26	325.22
704.60	323.92
704.93	322.65
705.26	321.45
705.60	320.29
705.93	319.16
706.27	318.17
706.60	317.11
706.94	316.07
707.27	314.95
707.61	313.92
707.94	312.85
708.27	311.78
708.61	310.71
708.94	309.74
709.28	308.79
709.61	307.84
709.94	306.90
710.28	305.90
710.61	304.89
710.95	303.83
711.28	302.96
711.61	302.07
711.95	301.16
712.28	300.20
712.61	299.22
712.95	298.29
713.28	297.40
713.61	296.52
713.95	295.61
714.28	294.80
714.61	293.94
714.95	293.14
715.28	292.29
715.61	291.40
715.95	290.52
716.28	289.69
716.61	288.89
716.95	288.07
717.28	287.37
717.61	286.62
717.94	285.86
718.28	285.05
718.61	284.28
718.94	283.59
719.27	282.94
719.61	282.30
719.94	281.65
720.27	280.97
720.60	280.30
720.94	279.70
721.27	279.05
721.60	278.47
721.93	277.85
722.27	277.29
722.60	276.73
722.93	276.18
723.26	275.60
723.59	275.04
723.93	274.51
724.26	273.90
724.59	273.34
724.92	272.83
725.25	272.30
725.59	271.79
725.92	271.30
726.25	270.81
726.58	270.29
726.91	269.78
727.24	269.30
727.57	268.80
727.91	268.26
728.24	267.79
728.57	267.27
728.90	266.85
729.23	266.33
729.56	265.92
729.89	265.42
730.22	264.92
730.55	264.42
730.89	263.94
731.22	263.47
731.55	263.04
731.88	262.58
732.21	262.16
732.54	261.73
732.87	261.28
733.20	260.83
733.53	260.44
733.86	260.03
734.19	259.64
734.52	259.28
734.85	258.99
735.18	258.60
735.51	258.24
735.84	257.83
736.17	257.50
736.50	257.10
736.83	256.86
737.16	256.56
737.49	256.22
737.82	255.87
738.15	255.54
738.48	255.20
738.81	254.89
739.14	254.58
739.47	254.24
739.80	253.91
740.13	253.60
740.46	253.25
740.79	252.95
741.12	252.60
741.45	252.23
741.78	251.86
742.11	251.56
742.44	251.25
742.77	250.98
743.10	250.66
743.43	250.36
743.75	249.95
744.08	249.81
744.41	249.56
744.74	249.30
745.07	249.04
745.40	248.78
745.73	248.54
746.06	248.26
746.39	248.03
746.71	247.78
747.04	247.54
747.37	247.33
747.70	247.10
748.03	246.86
748.36	246.67
748.68	246.46
749.01	246.26
749.34	246.02
749.67	245.81
750.00	245.61
750.33	245.45
750.65	245.30
750.98	244.96
751.31	244.72
751.64	244.52
751.97	244.38
752.29	244.15
752.62	243.93
752.95	243.71
753.28	243.50
753.60	243.30
753.93	243.14
754.26	242.90
754.59	242.67
754.91	242.50
755.24	242.33
755.57	242.15
755.90	241.95
756.22	241.78
756.55	241.58
756.88	241.39
757.20	241.15
757.53	240.95
757.86	240.79
758.19	240.68
758.51	240.51
758.84	240.30
759.17	240.17
759.49	240.03
759.82	239.94
760.15	239.81
760.47	239.66
760.80	239.49
761.13	239.38
761.45	239.22
761.78	239.08
762.11	238.93
762.43	238.79
762.76	238.65
763.08	238.50
763.41	238.37
763.74	238.24
764.06	238.10
764.39	237.93
764.71	237.76
765.04	237.59
765.37	237.43
765.69	237.29
766.02	237.16
766.34	237.01
766.67	236.87
767.00	236.77
767.32	236.68
767.65	236.60
767.97	236.48
768.30	236.39
768.62	236.24
768.95	236.12
769.27	235.99
769.60	235.87
769.92	235.73
770.25	235.62
770.57	235.47
770.90	235.38
771.22	235.29
771.55	235.16
771.87	235.09
772.20	235.01
772.52	234.99
772.85	235.01
773.17	234.89
773.50	234.75
773.82	234.60
774.15	234.47
774.47	234.30
774.80	234.18
775.12	234.09
775.45	233.99
775.77	233.90
776.09	233.81
776.42	233.74
776.74	233.69
777.07	233.58
777.39	233.50
777.72	233.41
778.04	233.33
778.36	233.28
778.69	233.21
779.01	233.12
779.33	232.94
779.66	232.77
779.98	232.69
780.31	232.66
780.63	232.64
780.95	232.60
781.28	232.56
781.60	232.48
781.92	232.42
782.25	232.38
782.57	232.33
782.89	232.28
783.22	232.18
783.54	232.10
783.86	232.08
784.19	232.03
784.51	231.98
784.83	231.88
785.16	231.83
785.48	231.76
785.80	231.72
786.12	231.69
786.45	231.61
786.77	231.56
787.09	231.48
