SpectraSuite Data File
++++++++++++++++++++++++++++++++++++
Date: Fri Feb 01 16:32:48 EST 2013
User: group
Dark Spectrum Present: No
Reference Spectrum Present: No
Number of Sampled Component Spectra: 1
Spectrometers: USB2E7196
Integration Time (usec): 35000 (USB2E7196)
Spectra Averaged: 100 (USB2E7196)
Boxcar Smoothing: 10 (USB2E7196)
Correct for Electrical Dark: No (USB2E7196)
Strobe/Lamp Enabled: No (USB2E7196)
Correct for Detector Non-linearity: No (USB2E7196)
Correct for Stray Light: No (USB2E7196)
Number of Pixels in Processed Spectrum: 2048
>>>>>Begin Processed Spectral Data<<<<<
339.09	0.00
339.48	213.95
339.86	215.28
340.24	216.92
340.63	218.12
341.01	220.84
341.39	220.85
341.78	222.16
342.16	223.36
342.54	223.95
342.93	212.43
343.31	223.17
343.69	223.74
344.07	224.22
344.46	224.66
344.84	225.07
345.22	225.32
345.60	225.55
345.99	225.77
346.37	225.89
346.75	226.00
347.13	226.08
347.52	226.15
347.90	226.19
348.28	226.25
348.66	226.25
349.05	226.26
349.43	226.27
349.81	226.37
350.19	226.43
350.57	226.44
350.96	226.51
351.34	226.61
351.72	226.69
352.10	226.79
352.48	226.87
352.87	226.91
353.25	227.00
353.63	227.05
354.01	227.10
354.39	227.19
354.77	227.25
355.15	227.35
355.54	227.40
355.92	227.49
356.30	227.54
356.68	227.69
357.06	227.79
357.44	227.86
357.82	227.88
358.20	227.96
358.58	228.04
358.97	228.12
359.35	228.21
359.73	228.28
360.11	228.33
360.49	228.35
360.87	228.36
361.25	228.40
361.63	228.53
362.01	228.57
362.39	228.60
362.77	228.63
363.15	228.62
363.53	228.63
363.91	228.62
364.29	228.64
364.67	228.55
365.05	228.54
365.43	228.53
365.81	228.55
366.19	228.58
366.57	228.62
366.95	228.58
367.33	228.51
367.71	228.47
368.09	228.47
368.47	228.45
368.85	228.43
369.23	228.43
369.61	228.36
369.99	228.33
370.37	228.30
370.75	228.32
371.13	228.26
371.51	228.22
371.89	228.20
372.27	228.14
372.65	228.11
373.03	228.04
373.41	227.97
373.78	227.92
374.16	227.79
374.54	227.71
374.92	227.66
375.30	227.60
375.68	227.53
376.06	227.47
376.44	227.39
376.82	227.34
377.19	227.24
377.57	227.16
377.95	227.10
378.33	227.03
378.71	226.91
379.09	226.84
379.47	226.78
379.84	226.70
380.22	226.66
380.60	226.57
380.98	226.50
381.36	226.44
381.73	226.35
382.11	226.34
382.49	226.27
382.87	226.16
383.25	226.12
383.62	226.19
384.00	226.12
384.38	226.07
384.76	226.02
385.13	226.00
385.51	225.95
385.89	225.87
386.27	225.85
386.64	225.81
387.02	225.77
387.40	225.74
387.78	225.72
388.15	225.66
388.53	225.64
388.91	225.65
389.29	225.65
389.66	225.63
390.04	225.57
390.42	225.56
390.79	225.59
391.17	225.55
391.55	225.43
391.92	225.42
392.30	225.44
392.68	225.45
393.05	225.45
393.43	225.45
393.81	225.48
394.18	225.45
394.56	225.45
394.94	225.49
395.31	225.52
395.69	225.60
396.06	225.65
396.44	225.69
396.82	225.68
397.19	225.75
397.57	225.81
397.95	225.90
398.32	225.88
398.70	225.95
399.07	226.04
399.45	226.06
399.82	226.12
400.20	226.16
400.58	226.21
400.95	226.23
401.33	226.30
401.70	226.43
402.08	226.52
402.45	226.61
402.83	226.73
403.20	226.80
403.58	226.86
403.95	226.98
404.33	227.10
404.71	227.21
405.08	227.37
405.46	227.46
405.83	227.55
406.21	227.71
406.58	227.83
406.96	227.97
407.33	228.17
407.70	228.35
408.08	228.61
408.45	228.81
408.83	229.06
409.20	229.27
409.58	229.43
409.95	229.70
410.33	229.97
410.70	230.20
411.08	230.48
411.45	230.77
411.82	231.04
412.20	231.38
412.57	231.83
412.95	232.10
413.32	232.52
413.69	232.95
414.07	233.37
414.44	233.85
414.82	234.31
415.19	234.86
415.56	235.42
415.94	235.97
416.31	236.62
416.68	237.23
417.06	237.93
417.43	238.63
417.81	239.41
418.18	240.18
418.55	241.03
418.93	241.90
419.30	242.78
419.67	243.73
420.04	244.72
420.42	245.69
420.79	246.87
421.16	248.03
421.54	249.22
421.91	250.43
422.28	251.67
422.66	252.97
423.03	254.25
423.40	255.56
423.77	256.98
424.15	258.41
424.52	259.87
424.89	261.46
425.26	263.02
425.64	264.46
426.01	266.05
426.38	267.71
426.75	269.35
427.13	271.08
427.50	272.88
427.87	274.73
428.24	276.57
428.61	278.32
428.99	280.26
429.36	282.37
429.73	284.47
430.10	286.45
430.47	288.57
430.85	290.65
431.22	292.91
431.59	295.29
431.96	297.51
432.33	299.99
432.70	302.40
433.08	305.18
433.45	307.79
433.82	310.38
434.19	313.27
434.56	316.10
434.93	318.72
435.30	321.31
435.68	324.13
436.05	327.00
436.42	329.78
436.79	332.25
437.16	334.88
437.53	337.67
437.90	340.50
438.27	343.20
438.64	346.07
439.01	348.64
439.38	350.82
439.75	353.00
440.13	355.50
440.50	357.79
440.87	359.61
441.24	361.54
441.61	363.77
441.98	365.26
442.35	367.08
442.72	368.94
443.09	370.80
443.46	371.87
443.83	372.41
444.20	372.92
444.57	373.76
444.94	374.08
445.31	374.45
445.68	374.79
446.05	374.85
446.42	374.47
446.79	374.07
447.16	373.63
447.53	373.30
447.90	372.20
448.27	371.07
448.64	369.53
449.01	368.39
449.37	366.41
449.74	364.54
450.11	362.30
450.48	359.86
450.85	357.36
451.22	355.20
451.59	353.22
451.96	351.29
452.33	348.74
452.70	346.41
453.07	343.58
453.43	340.71
453.80	337.99
454.17	335.32
454.54	332.76
454.91	330.09
455.28	327.43
455.65	324.92
456.02	322.50
456.38	320.35
456.75	317.68
457.12	315.42
457.49	313.15
457.86	311.00
458.23	309.16
458.59	307.07
458.96	304.97
459.33	303.07
459.70	301.23
460.07	299.70
460.43	297.98
460.80	296.36
461.17	294.94
461.54	293.44
461.91	292.03
462.27	290.60
462.64	289.36
463.01	288.01
463.38	286.69
463.74	285.32
464.11	284.18
464.48	283.17
464.85	282.05
465.21	281.15
465.58	280.24
465.95	279.15
466.32	278.26
466.68	277.37
467.05	276.50
467.42	275.60
467.78	274.68
468.15	273.82
468.52	273.20
468.88	272.32
469.25	271.57
469.62	270.93
469.98	270.27
470.35	269.66
470.72	269.08
471.08	268.49
471.45	267.95
471.82	267.37
472.18	266.79
472.55	266.33
472.92	265.89
473.28	265.44
473.65	265.01
474.02	264.58
474.38	264.23
474.75	263.95
475.11	263.63
475.48	263.36
475.85	263.08
476.21	262.84
476.58	262.72
476.94	262.56
477.31	262.41
477.67	262.27
478.04	262.15
478.41	262.12
478.77	262.13
479.14	262.07
479.50	262.14
479.87	262.25
480.23	262.36
480.60	262.45
480.96	262.52
481.33	262.73
481.69	262.91
482.06	263.11
482.42	263.31
482.79	263.52
483.15	263.85
483.52	264.24
483.88	264.55
484.25	264.90
484.61	265.31
484.98	265.74
485.34	266.28
485.71	266.91
486.07	267.47
486.44	268.05
486.80	268.74
487.17	269.42
487.53	270.24
487.90	271.09
488.26	272.03
488.62	273.05
488.99	274.02
489.35	275.09
489.72	276.20
490.08	277.40
490.44	278.63
490.81	280.01
491.17	281.37
491.54	282.83
491.90	284.39
492.26	286.06
492.63	287.82
492.99	289.60
493.36	291.48
493.72	293.49
494.08	295.58
494.45	297.84
494.81	300.22
495.17	302.63
495.54	305.21
495.90	307.90
496.26	310.70
496.63	313.65
496.99	316.78
497.35	320.07
497.72	323.51
498.08	327.05
498.44	330.71
498.80	334.69
499.17	338.80
499.53	343.01
499.89	347.40
500.26	351.91
500.62	356.60
500.98	361.59
501.34	366.73
501.71	372.12
502.07	377.66
502.43	383.31
502.79	389.13
503.16	395.23
503.52	401.54
503.88	407.96
504.24	414.60
504.60	421.43
504.97	428.58
505.33	435.83
505.69	443.57
506.05	451.40
506.41	459.26
506.78	467.41
507.14	475.78
507.50	484.51
507.86	493.57
508.22	502.78
508.59	511.99
508.95	521.59
509.31	531.41
509.67	541.45
510.03	551.73
510.39	562.28
510.75	573.00
511.12	583.85
511.48	595.14
511.84	606.57
512.20	618.17
512.56	630.04
512.92	642.20
513.28	654.52
513.64	666.96
514.00	679.68
514.37	692.62
514.73	705.71
515.09	718.81
515.45	732.02
515.81	745.58
516.17	759.49
516.53	773.53
516.89	787.67
517.25	801.82
517.61	816.24
517.97	830.70
518.33	845.11
518.69	859.86
519.05	874.77
519.41	889.84
519.77	905.30
520.13	920.83
520.49	936.27
520.85	951.56
521.21	967.20
521.57	983.41
521.93	999.05
522.29	1015.31
522.65	1031.50
523.01	1047.62
523.37	1063.55
523.73	1079.74
524.09	1095.81
524.45	1112.02
524.81	1128.54
525.17	1145.13
525.53	1161.92
525.89	1178.83
526.25	1195.59
526.61	1211.95
526.97	1228.74
527.33	1245.13
527.68	1261.54
528.04	1277.91
528.40	1294.42
528.76	1311.36
529.12	1327.85
529.48	1344.67
529.84	1360.65
530.20	1377.10
530.56	1394.06
530.91	1411.49
531.27	1428.16
531.63	1444.51
531.99	1461.03
532.35	1476.98
532.71	1492.90
533.07	1509.00
533.42	1524.71
533.78	1540.68
534.14	1556.77
534.50	1571.92
534.86	1587.69
535.21	1602.76
535.57	1618.55
535.93	1633.96
536.29	1648.63
536.65	1663.41
537.00	1678.10
537.36	1693.28
537.72	1707.67
538.08	1721.81
538.44	1735.31
538.79	1749.01
539.15	1762.44
539.51	1775.84
539.87	1789.94
540.22	1803.52
540.58	1817.09
540.94	1830.21
541.29	1842.93
541.65	1855.41
542.01	1868.35
542.37	1880.40
542.72	1892.72
543.08	1904.43
543.44	1916.68
543.79	1927.77
544.15	1938.76
544.51	1950.19
544.87	1961.11
545.22	1971.82
545.58	1982.17
545.94	1992.07
546.29	2001.85
546.65	2011.83
547.01	2021.16
547.36	2029.86
547.72	2038.23
548.07	2046.08
548.43	2054.24
548.79	2062.22
549.14	2069.87
549.50	2077.29
549.86	2084.91
550.21	2092.12
550.57	2099.24
550.92	2105.86
551.28	2113.13
551.64	2120.20
551.99	2126.72
552.35	2132.83
552.70	2139.10
553.06	2145.04
553.41	2151.27
553.77	2157.25
554.13	2163.33
554.48	2169.47
554.84	2175.19
555.19	2180.44
555.55	2185.74
555.90	2190.38
556.26	2195.29
556.61	2200.14
556.97	2204.60
557.32	2208.87
557.68	2213.11
558.03	2217.31
558.39	2220.96
558.74	2225.38
559.10	2229.20
559.45	2232.87
559.81	2237.12
560.16	2240.95
560.52	2244.13
560.87	2247.48
561.23	2250.22
561.58	2253.10
561.94	2255.74
562.29	2257.74
562.64	2260.51
563.00	2263.06
563.35	2266.54
563.71	2269.57
564.06	2272.69
564.42	2275.41
564.77	2278.00
565.12	2280.36
565.48	2282.40
565.83	2284.47
566.19	2285.83
566.54	2286.76
566.89	2287.89
567.25	2288.57
567.60	2289.75
567.96	2291.57
568.31	2292.46
568.66	2293.50
569.02	2294.17
569.37	2294.47
569.72	2295.51
570.08	2295.67
570.43	2295.83
570.78	2295.30
571.14	2293.90
571.49	2292.60
571.84	2292.40
572.20	2291.33
572.55	2290.29
572.90	2288.68
573.26	2287.24
573.61	2285.58
573.96	2284.03
574.31	2281.17
574.67	2278.25
575.02	2274.68
575.37	2271.30
575.72	2267.70
576.08	2264.40
576.43	2261.11
576.78	2257.54
577.13	2254.47
577.49	2251.55
577.84	2248.14
578.19	2244.46
578.54	2240.87
578.90	2236.70
579.25	2231.11
579.60	2226.10
579.95	2221.09
580.30	2216.16
580.66	2211.02
581.01	2206.13
581.36	2201.20
581.71	2197.07
582.06	2192.71
582.42	2188.37
582.77	2183.13
583.12	2178.57
583.47	2174.00
583.82	2168.95
584.17	2163.68
584.53	2158.10
584.88	2152.37
585.23	2146.56
585.58	2141.06
585.93	2135.65
586.28	2130.97
586.63	2126.02
586.98	2121.05
587.34	2116.37
587.69	2111.55
588.04	2106.26
588.39	2100.70
588.74	2094.14
589.09	2088.08
589.44	2081.27
589.79	2075.28
590.14	2069.84
590.49	2063.26
590.84	2056.93
591.19	2051.06
591.54	2044.65
591.89	2037.54
592.25	2030.88
592.60	2023.68
592.95	2016.22
593.30	2008.98
593.65	2001.29
594.00	1994.23
594.35	1987.06
594.70	1979.21
595.05	1972.10
595.40	1965.05
595.75	1957.57
596.10	1951.71
596.45	1945.08
596.80	1939.03
597.15	1932.51
597.50	1925.51
597.85	1919.19
598.19	1912.57
598.54	1905.54
598.89	1898.94
599.24	1893.06
599.59	1886.52
599.94	1880.48
600.29	1874.24
600.64	1867.67
600.99	1860.39
601.34	1853.70
601.69	1846.83
602.04	1839.95
602.39	1832.73
602.74	1825.89
603.08	1819.25
603.43	1812.54
603.78	1805.20
604.13	1797.96
604.48	1790.73
604.83	1783.86
605.18	1776.94
605.53	1769.02
605.87	1760.96
606.22	1753.76
606.57	1745.84
606.92	1738.42
607.27	1731.27
607.62	1724.32
607.96	1717.08
608.31	1710.50
608.66	1702.83
609.01	1695.22
609.36	1687.62
609.70	1679.57
610.05	1671.55
610.40	1663.81
610.75	1655.28
611.10	1647.50
611.44	1639.15
611.79	1631.11
612.14	1622.33
612.49	1613.13
612.83	1604.72
613.18	1596.62
613.53	1588.52
613.88	1579.97
614.22	1571.69
614.57	1563.00
614.92	1555.04
615.27	1547.47
615.61	1539.22
615.96	1531.32
616.31	1523.91
616.65	1516.67
617.00	1509.06
617.35	1501.40
617.70	1493.11
618.04	1484.65
618.39	1476.53
618.74	1468.97
619.08	1460.66
619.43	1453.06
619.78	1446.12
620.12	1438.91
620.47	1431.37
620.82	1423.30
621.16	1415.84
621.51	1408.20
621.85	1400.64
622.20	1392.12
622.55	1383.75
622.89	1375.85
623.24	1368.14
623.59	1360.67
623.93	1353.02
624.28	1345.83
624.62	1338.28
624.97	1331.11
625.32	1324.43
625.66	1317.35
626.01	1310.20
626.35	1302.64
626.70	1294.92
627.04	1287.23
627.39	1279.52
627.73	1272.11
628.08	1265.14
628.43	1257.84
628.77	1250.48
629.12	1242.93
629.46	1235.69
629.81	1228.23
630.15	1221.04
630.50	1213.58
630.84	1205.28
631.19	1197.35
631.53	1189.77
631.88	1182.19
632.22	1174.63
632.57	1167.22
632.91	1159.65
633.26	1152.21
633.60	1144.90
633.95	1137.88
634.29	1130.84
634.64	1124.17
634.98	1116.90
635.32	1109.77
635.67	1103.20
636.01	1096.53
636.36	1089.73
636.70	1083.16
637.05	1076.65
637.39	1070.07
637.73	1063.63
638.08	1057.73
638.42	1051.85
638.77	1045.40
639.11	1038.84
639.45	1032.42
639.80	1025.79
640.14	1019.43
640.49	1012.91
640.83	1006.70
641.17	1000.41
641.52	994.13
641.86	987.64
642.20	981.71
642.55	975.31
642.89	968.82
643.23	962.30
643.58	956.47
643.92	950.27
644.26	944.20
644.61	938.25
644.95	932.22
645.29	925.72
645.64	918.86
645.98	912.60
646.32	906.81
646.66	900.72
647.01	894.98
647.35	889.33
647.69	883.44
648.04	877.81
648.38	872.01
648.72	865.90
649.06	859.92
649.41	854.02
649.75	848.07
650.09	842.08
650.43	836.30
650.78	830.18
651.12	824.23
651.46	818.56
651.80	812.78
652.14	807.42
652.49	801.97
652.83	796.86
653.17	791.12
653.51	785.38
653.85	779.98
654.20	774.39
654.54	768.31
654.88	762.56
655.22	756.75
655.56	751.09
655.90	745.68
656.25	740.37
656.59	734.99
656.93	729.93
657.27	724.80
657.61	719.45
657.95	714.36
658.29	709.34
658.64	704.00
658.98	698.72
659.32	693.28
659.66	688.09
660.00	682.79
660.34	677.81
660.68	672.84
661.02	667.85
661.36	663.05
661.70	658.58
662.05	654.25
662.39	649.89
662.73	645.42
663.07	641.07
663.41	636.57
663.75	632.13
664.09	627.61
664.43	623.17
664.77	619.04
665.11	614.77
665.45	610.67
665.79	606.61
666.13	602.45
666.47	598.33
666.81	594.14
667.15	589.98
667.49	586.18
667.83	582.38
668.17	578.40
668.51	574.29
668.85	570.25
669.19	566.41
669.53	562.53
669.87	558.69
670.21	554.93
670.55	551.33
670.89	547.86
671.23	544.39
671.57	540.89
671.91	537.23
672.25	533.69
672.58	530.15
672.92	526.70
673.26	523.52
673.60	520.33
673.94	517.22
674.28	514.31
674.62	511.31
674.96	508.18
675.30	505.33
675.64	502.40
675.97	499.60
676.31	496.67
676.65	493.73
676.99	491.00
677.33	488.16
677.67	485.36
678.01	482.33
678.34	479.30
678.68	476.44
679.02	473.74
679.36	471.01
679.70	468.24
680.04	465.50
680.37	462.64
680.71	459.86
681.05	457.27
681.39	454.53
681.73	451.82
682.06	449.30
682.40	446.67
682.74	444.14
683.08	441.61
683.42	438.98
683.75	436.49
684.09	433.93
684.43	431.45
684.77	428.98
685.10	426.63
685.44	424.40
685.78	422.10
686.12	419.79
686.45	417.48
686.79	415.13
687.13	412.96
687.46	410.77
687.80	408.60
688.14	406.35
688.48	404.29
688.81	402.10
689.15	399.97
689.49	397.82
689.82	395.69
690.16	393.60
690.50	391.73
690.83	389.82
691.17	387.80
691.51	385.87
691.84	384.01
692.18	382.10
692.52	380.08
692.85	378.17
693.19	376.30
693.52	374.46
693.86	372.66
694.20	370.88
694.53	369.12
694.87	367.31
695.21	365.56
695.54	363.72
695.88	362.00
696.21	360.24
696.55	358.59
696.88	356.94
697.22	355.27
697.56	353.65
697.89	351.98
698.23	350.40
698.56	348.81
698.90	347.21
699.23	345.56
699.57	344.03
699.90	342.49
700.24	340.94
700.58	339.41
700.91	337.96
701.25	336.48
701.58	335.12
701.92	333.75
702.25	332.36
702.59	330.99
702.92	329.67
703.26	328.40
703.59	327.10
703.93	325.96
704.26	324.72
704.60	323.39
704.93	322.11
705.26	320.87
705.60	319.66
705.93	318.55
706.27	317.51
706.60	316.49
706.94	315.43
707.27	314.30
707.61	313.26
707.94	312.22
708.27	311.12
708.61	310.01
708.94	309.01
709.28	308.07
709.61	307.11
709.94	306.15
710.28	305.15
710.61	304.18
710.95	303.05
711.28	302.17
711.61	301.27
711.95	300.37
712.28	299.40
712.61	298.43
712.95	297.46
713.28	296.54
713.61	295.61
713.95	294.72
714.28	293.82
714.61	292.93
714.95	292.08
715.28	291.23
715.61	290.36
715.95	289.48
716.28	288.61
716.61	287.77
716.95	286.93
717.28	286.11
717.61	285.38
717.94	284.69
718.28	283.85
718.61	283.11
718.94	282.43
719.27	281.79
719.61	281.15
719.94	280.49
720.27	279.76
720.60	279.12
720.94	278.45
721.27	277.91
721.60	277.35
721.93	276.72
722.27	276.15
722.60	275.60
722.93	275.03
723.26	274.47
723.59	273.93
723.93	273.42
724.26	272.91
724.59	272.31
724.92	271.77
725.25	271.31
725.59	270.76
725.92	270.24
726.25	269.70
726.58	269.20
726.91	268.72
727.24	268.30
727.57	267.82
727.91	267.31
728.24	266.85
728.57	266.36
728.90	265.90
729.23	265.45
729.56	265.04
729.89	264.56
730.22	264.08
730.55	263.62
730.89	263.14
731.22	262.67
731.55	262.25
731.88	261.81
732.21	261.38
732.54	260.97
732.87	260.52
733.20	260.17
733.53	259.79
733.86	259.39
734.19	258.99
734.52	258.63
734.85	258.36
735.18	257.94
735.51	257.59
735.84	257.27
736.17	256.92
736.50	256.48
736.83	256.27
737.16	255.91
737.49	255.57
737.82	255.21
738.15	254.89
738.48	254.55
738.81	254.22
739.14	253.89
739.47	253.58
739.80	253.30
740.13	252.97
740.46	252.65
740.79	252.35
741.12	252.04
741.45	251.70
741.78	251.33
742.11	251.07
742.44	250.74
742.77	250.44
743.10	250.14
743.43	249.86
743.75	249.46
744.08	249.33
744.41	249.05
744.74	248.79
745.07	248.49
745.40	248.30
745.73	248.09
746.06	247.81
746.39	247.52
746.71	247.24
747.04	246.93
747.37	246.70
747.70	246.42
748.03	246.19
748.36	245.97
748.68	245.72
749.01	245.44
749.34	245.22
749.67	244.96
750.00	244.71
750.33	244.55
750.65	244.34
750.98	244.02
751.31	243.84
751.64	243.64
751.97	243.53
752.29	243.24
752.62	242.94
752.95	242.76
753.28	242.54
753.60	242.33
753.93	242.19
754.26	241.96
754.59	241.75
754.91	241.54
755.24	241.35
755.57	241.16
755.90	241.00
756.22	240.79
756.55	240.60
756.88	240.37
757.20	240.11
757.53	239.92
757.86	239.78
758.19	239.58
758.51	239.40
758.84	239.16
759.17	239.00
759.49	238.88
759.82	238.75
760.15	238.62
760.47	238.49
760.80	238.29
761.13	238.15
761.45	237.99
761.78	237.83
762.11	237.67
762.43	237.53
762.76	237.36
763.08	237.23
763.41	237.11
763.74	236.98
764.06	236.87
764.39	236.75
764.71	236.58
765.04	236.45
765.37	236.30
765.69	236.14
766.02	236.02
766.34	235.88
766.67	235.69
767.00	235.63
767.32	235.55
767.65	235.50
767.97	235.41
768.30	235.31
768.62	235.22
768.95	235.10
769.27	235.00
769.60	234.89
769.92	234.77
770.25	234.66
770.57	234.57
770.90	234.47
771.22	234.33
771.55	234.23
771.87	234.14
772.20	234.08
772.52	234.07
772.85	234.11
773.17	234.00
773.50	233.91
773.82	233.75
774.15	233.60
774.47	233.44
774.80	233.31
775.12	233.24
775.45	233.13
775.77	233.03
776.09	232.94
776.42	232.87
776.74	232.81
777.07	232.71
777.39	232.67
777.72	232.60
778.04	232.59
778.36	232.52
778.69	232.46
779.01	232.37
779.33	232.24
779.66	232.05
779.98	232.00
780.31	231.93
780.63	231.94
780.95	231.92
781.28	231.89
781.60	231.83
781.92	231.77
782.25	231.74
782.57	231.71
782.89	231.66
783.22	231.60
783.54	231.55
783.86	231.53
784.19	231.45
784.51	231.41
784.83	231.30
785.16	231.26
785.48	231.17
785.80	231.18
786.12	231.14
786.45	231.13
786.77	231.11
787.09	231.11
