SpectraSuite Data File
++++++++++++++++++++++++++++++++++++
Date: Fri Feb 01 16:29:47 EST 2013
User: group
Dark Spectrum Present: No
Reference Spectrum Present: No
Number of Sampled Component Spectra: 1
Spectrometers: USB2E7196
Integration Time (usec): 35000 (USB2E7196)
Spectra Averaged: 100 (USB2E7196)
Boxcar Smoothing: 10 (USB2E7196)
Correct for Electrical Dark: No (USB2E7196)
Strobe/Lamp Enabled: No (USB2E7196)
Correct for Detector Non-linearity: No (USB2E7196)
Correct for Stray Light: No (USB2E7196)
Number of Pixels in Processed Spectrum: 2048
>>>>>Begin Processed Spectral Data<<<<<
339.09	0.00
339.48	214.55
339.86	216.57
340.24	217.01
340.63	218.66
341.01	221.20
341.39	220.96
341.78	222.35
342.16	223.83
342.54	224.44
342.93	212.69
343.31	223.44
343.69	223.95
344.07	224.38
344.46	224.80
344.84	225.15
345.22	225.40
345.60	225.65
345.99	225.84
346.37	225.95
346.75	226.00
347.13	226.05
347.52	226.08
347.90	226.11
348.28	226.12
348.66	226.14
349.05	226.08
349.43	226.11
349.81	226.13
350.19	226.14
350.57	226.18
350.96	226.22
351.34	226.29
351.72	226.36
352.10	226.41
352.48	226.45
352.87	226.50
353.25	226.55
353.63	226.58
354.01	226.66
354.39	226.71
354.77	226.81
355.15	226.92
355.54	226.99
355.92	227.06
356.30	227.14
356.68	227.24
357.06	227.34
357.44	227.35
357.82	227.37
358.20	227.45
358.58	227.48
358.97	227.54
359.35	227.59
359.73	227.66
360.11	227.72
360.49	227.80
360.87	227.83
361.25	227.85
361.63	227.93
362.01	227.96
362.39	227.98
362.77	228.03
363.15	228.04
363.53	228.06
363.91	228.04
364.29	228.07
364.67	228.03
365.05	228.01
365.43	228.05
365.81	228.09
366.19	228.11
366.57	228.17
366.95	228.16
367.33	228.12
367.71	228.10
368.09	228.13
368.47	228.12
368.85	228.11
369.23	228.12
369.61	228.05
369.99	228.03
370.37	228.01
370.75	228.03
371.13	227.98
371.51	227.94
371.89	227.94
372.27	227.89
372.65	227.86
373.03	227.83
373.41	227.79
373.78	227.74
374.16	227.68
374.54	227.58
374.92	227.54
375.30	227.52
375.68	227.47
376.06	227.41
376.44	227.32
376.82	227.26
377.19	227.23
377.57	227.17
377.95	227.10
378.33	227.05
378.71	226.94
379.09	226.88
379.47	226.83
379.84	226.74
380.22	226.67
380.60	226.58
380.98	226.54
381.36	226.49
381.73	226.41
382.11	226.35
382.49	226.32
382.87	226.28
383.25	226.23
383.62	226.27
384.00	226.22
384.38	226.18
384.76	226.17
385.13	226.12
385.51	226.07
385.89	226.01
386.27	225.99
386.64	225.93
387.02	225.92
387.40	225.85
387.78	225.82
388.15	225.79
388.53	225.75
388.91	225.68
389.29	225.67
389.66	225.68
390.04	225.62
390.42	225.61
390.79	225.59
391.17	225.59
391.55	225.46
391.92	225.43
392.30	225.41
392.68	225.38
393.05	225.37
393.43	225.39
393.81	225.38
394.18	225.38
394.56	225.42
394.94	225.43
395.31	225.44
395.69	225.52
396.06	225.57
396.44	225.63
396.82	225.65
397.19	225.72
397.57	225.74
397.95	225.80
398.32	225.81
398.70	225.83
399.07	225.90
399.45	225.97
399.82	226.08
400.20	226.14
400.58	226.23
400.95	226.27
401.33	226.36
401.70	226.53
402.08	226.59
402.45	226.66
402.83	226.76
403.20	226.89
403.58	226.97
403.95	227.06
404.33	227.21
404.71	227.35
405.08	227.50
405.46	227.62
405.83	227.78
406.21	227.91
406.58	228.09
406.96	228.23
407.33	228.42
407.70	228.57
408.08	228.83
408.45	229.01
408.83	229.25
409.20	229.43
409.58	229.61
409.95	229.89
410.33	230.18
410.70	230.44
411.08	230.72
411.45	231.03
411.82	231.34
412.20	231.70
412.57	232.12
412.95	232.40
413.32	232.84
413.69	233.23
414.07	233.71
414.44	234.15
414.82	234.62
415.19	235.15
415.56	235.73
415.94	236.28
416.31	236.92
416.68	237.54
417.06	238.29
417.43	238.95
417.81	239.70
418.18	240.44
418.55	241.28
418.93	242.17
419.30	243.04
419.67	243.98
420.04	244.90
420.42	245.87
420.79	247.04
421.16	248.19
421.54	249.40
421.91	250.64
422.28	251.93
422.66	253.29
423.03	254.63
423.40	255.93
423.77	257.33
424.15	258.76
424.52	260.25
424.89	261.86
425.26	263.44
425.64	264.89
426.01	266.49
426.38	268.14
426.75	269.80
427.13	271.50
427.50	273.30
427.87	275.18
428.24	277.06
428.61	278.83
428.99	280.74
429.36	282.83
429.73	284.83
430.10	286.83
430.47	288.85
430.85	290.91
431.22	293.15
431.59	295.53
431.96	297.75
432.33	300.23
432.70	302.61
433.08	305.39
433.45	308.02
433.82	310.62
434.19	313.48
434.56	316.26
434.93	318.94
435.30	321.54
435.68	324.39
436.05	327.20
436.42	329.98
436.79	332.52
437.16	335.22
437.53	338.09
437.90	340.86
438.27	343.57
438.64	346.43
439.01	349.01
439.38	351.23
439.75	353.42
440.13	355.87
440.50	358.19
440.87	359.99
441.24	361.90
441.61	364.03
441.98	365.49
442.35	367.30
442.72	369.15
443.09	370.96
443.46	371.98
443.83	372.54
444.20	373.06
444.57	373.85
444.94	374.11
445.31	374.39
445.68	374.75
446.05	374.84
446.42	374.39
446.79	373.93
447.16	373.48
447.53	373.12
447.90	371.97
448.27	370.78
448.64	369.24
449.01	368.11
449.37	366.17
449.74	364.31
450.11	362.07
450.48	359.58
450.85	357.03
451.22	354.88
451.59	352.82
451.96	350.86
452.33	348.27
452.70	345.88
453.07	343.03
453.43	340.14
453.80	337.40
454.17	334.75
454.54	332.23
454.91	329.52
455.28	326.88
455.65	324.38
456.02	321.97
456.38	319.82
456.75	317.18
457.12	314.94
457.49	312.75
457.86	310.59
458.23	308.72
458.59	306.70
458.96	304.63
459.33	302.83
459.70	300.96
460.07	299.47
460.43	297.78
460.80	296.19
461.17	294.75
461.54	293.26
461.91	291.85
462.27	290.45
462.64	289.18
463.01	287.84
463.38	286.59
463.74	285.20
464.11	284.07
464.48	283.03
464.85	281.94
465.21	281.08
465.58	280.17
465.95	279.11
466.32	278.20
466.68	277.30
467.05	276.42
467.42	275.52
467.78	274.56
468.15	273.71
468.52	273.10
468.88	272.23
469.25	271.47
469.62	270.86
469.98	270.17
470.35	269.57
470.72	268.98
471.08	268.32
471.45	267.80
471.82	267.25
472.18	266.71
472.55	266.31
472.92	265.76
473.28	265.33
473.65	264.89
474.02	264.47
474.38	264.15
474.75	263.85
475.11	263.56
475.48	263.35
475.85	263.15
476.21	262.91
476.58	262.78
476.94	262.62
477.31	262.42
477.67	262.30
478.04	262.24
478.41	262.16
478.77	262.22
479.14	262.20
479.50	262.21
479.87	262.23
480.23	262.30
480.60	262.39
480.96	262.49
481.33	262.73
481.69	262.97
482.06	263.16
482.42	263.37
482.79	263.64
483.15	263.99
483.52	264.40
483.88	264.75
484.25	265.17
484.61	265.64
484.98	266.15
485.34	266.73
485.71	267.30
486.07	267.93
486.44	268.53
486.80	269.21
487.17	269.98
487.53	270.81
487.90	271.68
488.26	272.61
488.62	273.56
488.99	274.54
489.35	275.59
489.72	276.72
490.08	277.90
490.44	279.14
490.81	280.46
491.17	281.79
491.54	283.30
491.90	284.84
492.26	286.48
492.63	288.22
492.99	289.97
493.36	291.83
493.72	293.85
494.08	295.95
494.45	298.23
494.81	300.60
495.17	303.04
495.54	305.62
495.90	308.33
496.26	311.18
496.63	314.12
496.99	317.23
497.35	320.52
497.72	323.97
498.08	327.50
498.44	331.18
498.80	335.11
499.17	339.13
499.53	343.31
499.89	347.68
500.26	352.20
500.62	356.86
500.98	361.91
501.34	367.04
501.71	372.36
502.07	377.79
502.43	383.41
502.79	389.22
503.16	395.30
503.52	401.52
503.88	407.95
504.24	414.66
504.60	421.56
504.97	428.69
505.33	436.00
505.69	443.72
506.05	451.50
506.41	459.38
506.78	467.56
507.14	475.99
507.50	484.71
507.86	493.68
508.22	502.87
508.59	512.04
508.95	521.66
509.31	531.52
509.67	541.65
510.03	551.94
510.39	562.49
510.75	573.28
511.12	584.31
511.48	595.59
511.84	607.00
512.20	618.47
512.56	630.38
512.92	642.51
513.28	654.86
513.64	667.27
514.00	680.02
514.37	692.93
514.73	705.92
515.09	718.88
515.45	732.09
515.81	745.64
516.17	759.57
516.53	773.63
516.89	787.77
517.25	801.89
517.61	816.26
517.97	830.75
518.33	845.02
518.69	859.69
519.05	874.64
519.41	889.73
519.77	905.19
520.13	920.59
520.49	935.91
520.85	951.17
521.21	966.88
521.57	983.02
521.93	998.75
522.29	1015.14
522.65	1031.39
523.01	1047.61
523.37	1063.64
523.73	1079.79
524.09	1095.79
524.45	1111.94
524.81	1128.48
525.17	1145.15
525.53	1161.94
525.89	1178.95
526.25	1195.69
526.61	1211.91
526.97	1228.46
527.33	1244.93
527.68	1261.39
528.04	1277.82
528.40	1294.37
528.76	1311.30
529.12	1327.75
529.48	1344.66
529.84	1360.54
530.20	1377.04
530.56	1394.13
530.91	1411.43
531.27	1428.11
531.63	1444.47
531.99	1460.95
532.35	1476.75
532.71	1492.60
533.07	1508.59
533.42	1524.29
533.78	1540.33
534.14	1556.54
534.50	1572.05
534.86	1587.78
535.21	1602.92
535.57	1618.74
535.93	1634.16
536.29	1648.96
536.65	1663.85
537.00	1678.42
537.36	1693.75
537.72	1708.10
538.08	1722.24
538.44	1735.87
538.79	1749.79
539.15	1763.28
539.51	1776.98
539.87	1791.30
540.22	1805.02
540.58	1818.83
540.94	1832.16
541.29	1844.85
541.65	1857.42
542.01	1870.29
542.37	1882.61
542.72	1895.03
543.08	1906.88
543.44	1919.21
543.79	1930.29
544.15	1941.29
544.51	1952.74
544.87	1963.63
545.22	1974.54
545.58	1984.75
545.94	1994.42
546.29	2003.96
546.65	2013.98
547.01	2023.19
547.36	2031.81
547.72	2040.25
548.07	2048.01
548.43	2055.94
548.79	2063.95
549.14	2071.36
549.50	2078.71
549.86	2086.13
550.21	2093.28
550.57	2100.14
550.92	2106.57
551.28	2113.50
551.64	2120.46
551.99	2127.03
552.35	2133.05
552.70	2139.11
553.06	2145.08
553.41	2151.46
553.77	2157.58
554.13	2163.45
554.48	2169.61
554.84	2175.15
555.19	2180.25
555.55	2185.43
555.90	2190.00
556.26	2194.82
556.61	2199.66
556.97	2203.96
557.32	2208.13
557.68	2212.23
558.03	2216.65
558.39	2220.46
558.74	2225.22
559.10	2229.19
559.45	2232.78
559.81	2237.02
560.16	2240.80
560.52	2243.98
560.87	2247.35
561.23	2249.88
561.58	2252.88
561.94	2255.24
562.29	2257.53
562.64	2260.20
563.00	2262.84
563.35	2266.27
563.71	2269.55
564.06	2272.71
564.42	2275.59
564.77	2278.12
565.12	2280.49
565.48	2282.47
565.83	2284.47
566.19	2285.67
566.54	2286.50
566.89	2287.67
567.25	2288.32
567.60	2289.58
567.96	2291.34
568.31	2292.27
568.66	2293.55
569.02	2294.18
569.37	2294.65
569.72	2295.63
570.08	2296.00
570.43	2296.09
570.78	2295.60
571.14	2293.97
571.49	2292.73
571.84	2292.52
572.20	2291.48
572.55	2290.52
572.90	2288.98
573.26	2287.54
573.61	2285.99
573.96	2284.32
574.31	2281.33
574.67	2278.41
575.02	2275.03
575.37	2271.60
575.72	2267.88
576.08	2264.50
576.43	2261.33
576.78	2257.73
577.13	2254.66
577.49	2251.54
577.84	2247.98
578.19	2244.39
578.54	2241.00
578.90	2236.95
579.25	2231.30
579.60	2226.34
579.95	2221.35
580.30	2216.47
580.66	2211.45
581.01	2206.55
581.36	2201.73
581.71	2197.76
582.06	2193.46
582.42	2188.97
582.77	2183.97
583.12	2179.44
583.47	2174.95
583.82	2169.82
584.17	2164.71
584.53	2159.12
584.88	2153.59
585.23	2147.97
585.58	2142.41
585.93	2137.03
586.28	2132.32
586.63	2127.41
586.98	2122.60
587.34	2118.02
587.69	2113.19
588.04	2107.89
588.39	2102.33
588.74	2095.93
589.09	2089.86
589.44	2083.02
589.79	2077.13
590.14	2071.50
590.49	2064.96
590.84	2058.56
591.19	2052.71
591.54	2046.22
591.89	2039.09
592.25	2032.27
592.60	2025.13
592.95	2017.78
593.30	2010.44
593.65	2002.83
594.00	1995.88
594.35	1988.64
594.70	1980.72
595.05	1973.49
595.40	1966.25
595.75	1958.78
596.10	1952.72
596.45	1945.93
596.80	1939.89
597.15	1933.26
597.50	1926.34
597.85	1919.97
598.19	1913.26
598.54	1906.10
598.89	1899.46
599.24	1893.60
599.59	1887.01
599.94	1880.94
600.29	1874.55
600.64	1867.89
600.99	1860.48
601.34	1853.73
601.69	1846.75
602.04	1840.01
602.39	1832.68
602.74	1825.91
603.08	1819.22
603.43	1812.45
603.78	1805.18
604.13	1797.89
604.48	1790.46
604.83	1783.54
605.18	1776.55
605.53	1768.63
605.87	1760.78
606.22	1753.70
606.57	1745.69
606.92	1738.44
607.27	1731.14
607.62	1724.31
607.96	1717.05
608.31	1710.46
608.66	1702.83
609.01	1695.37
609.36	1687.53
609.70	1679.47
610.05	1671.43
610.40	1663.67
610.75	1655.39
611.10	1647.73
611.44	1639.44
611.79	1631.63
612.14	1622.93
612.49	1613.80
612.83	1605.44
613.18	1597.39
613.53	1589.10
613.88	1580.47
614.22	1572.21
614.57	1563.65
614.92	1555.47
615.27	1547.94
615.61	1539.63
615.96	1531.70
616.31	1524.03
616.65	1516.80
617.00	1509.29
617.35	1501.69
617.70	1493.44
618.04	1484.90
618.39	1476.73
618.74	1469.09
619.08	1460.83
619.43	1453.18
619.78	1446.31
620.12	1439.15
620.47	1431.44
620.82	1423.29
621.16	1415.92
621.51	1408.26
621.85	1400.72
622.20	1392.24
622.55	1383.85
622.89	1375.92
623.24	1368.28
623.59	1360.80
623.93	1353.24
624.28	1346.05
624.62	1338.41
624.97	1331.22
625.32	1324.39
625.66	1317.31
626.01	1310.13
626.35	1302.67
626.70	1294.93
627.04	1287.21
627.39	1279.43
627.73	1272.13
628.08	1265.33
628.43	1258.12
628.77	1250.65
629.12	1243.02
629.46	1235.93
629.81	1228.59
630.15	1221.40
630.50	1213.88
630.84	1205.81
631.19	1197.88
631.53	1190.26
631.88	1182.77
632.22	1175.06
632.57	1167.78
632.91	1160.24
633.26	1152.76
633.60	1145.40
633.95	1138.42
634.29	1131.33
634.64	1124.61
634.98	1117.28
635.32	1110.09
635.67	1103.51
636.01	1097.01
636.36	1090.18
636.70	1083.58
637.05	1076.97
637.39	1070.44
637.73	1063.97
638.08	1058.01
638.42	1051.96
638.77	1045.58
639.11	1038.90
639.45	1032.54
639.80	1025.95
640.14	1019.57
640.49	1013.10
640.83	1006.78
641.17	1000.45
641.52	994.08
641.86	987.67
642.20	981.70
642.55	975.41
642.89	968.85
643.23	962.21
643.58	956.46
643.92	950.26
644.26	944.17
644.61	938.19
644.95	932.07
645.29	925.52
645.64	918.79
645.98	912.43
646.32	906.67
646.66	900.65
647.01	894.85
647.35	889.08
647.69	883.25
648.04	877.71
648.38	871.91
648.72	865.92
649.06	859.90
649.41	854.03
649.75	848.06
650.09	842.13
650.43	836.43
650.78	830.35
651.12	824.46
651.46	818.76
651.80	812.94
652.14	807.61
652.49	802.20
652.83	797.02
653.17	791.32
653.51	785.62
653.85	780.31
654.20	774.62
654.54	768.64
654.88	762.84
655.22	756.89
655.56	751.23
655.90	745.87
656.25	740.59
656.59	735.26
656.93	730.18
657.27	724.99
657.61	719.49
657.95	714.35
658.29	709.18
658.64	703.92
658.98	698.77
659.32	693.31
659.66	688.18
660.00	682.80
660.34	677.91
660.68	672.92
661.02	667.86
661.36	663.14
661.70	658.64
662.05	654.26
662.39	650.00
662.73	645.47
663.07	641.03
663.41	636.60
663.75	632.09
664.09	627.43
664.43	623.02
664.77	618.95
665.11	614.68
665.45	610.58
665.79	606.48
666.13	602.26
666.47	598.18
666.81	593.97
667.15	589.95
667.49	585.99
667.83	582.24
668.17	578.28
668.51	574.17
668.85	570.15
669.19	566.35
669.53	562.45
669.87	558.60
670.21	554.88
670.55	551.17
670.89	547.72
671.23	544.33
671.57	540.81
671.91	537.21
672.25	533.69
672.58	530.21
672.92	526.81
673.26	523.64
673.60	520.49
673.94	517.34
674.28	514.42
674.62	511.50
674.96	508.34
675.30	505.39
675.64	502.50
675.97	499.72
676.31	496.83
676.65	493.96
676.99	491.27
677.33	488.42
677.67	485.67
678.01	482.62
678.34	479.69
678.68	476.81
679.02	474.01
679.36	471.24
679.70	468.54
680.04	465.81
680.37	462.96
680.71	460.18
681.05	457.59
681.39	454.79
681.73	452.14
682.06	449.62
682.40	447.13
682.74	444.60
683.08	442.03
683.42	439.47
683.75	436.94
684.09	434.38
684.43	431.95
684.77	429.43
685.10	427.09
685.44	424.73
685.78	422.50
686.12	420.29
686.45	418.02
686.79	415.68
687.13	413.45
687.46	411.24
687.80	409.02
688.14	406.80
688.48	404.77
688.81	402.44
689.15	400.29
689.49	398.07
689.82	396.03
690.16	393.96
690.50	392.00
690.83	390.09
691.17	388.13
691.51	386.21
691.84	384.37
692.18	382.47
692.52	380.54
692.85	378.61
693.19	376.72
693.52	374.90
693.86	373.09
694.20	371.37
694.53	369.60
694.87	367.80
695.21	366.04
695.54	364.21
695.88	362.59
696.21	360.85
696.55	359.17
696.88	357.47
697.22	355.78
697.56	354.13
697.89	352.46
698.23	350.86
698.56	349.23
698.90	347.63
699.23	346.00
699.57	344.42
699.90	342.85
700.24	341.27
700.58	339.73
700.91	338.22
701.25	336.72
701.58	335.34
701.92	333.94
702.25	332.53
702.59	331.12
702.92	329.73
703.26	328.42
703.59	327.16
703.93	325.95
704.26	324.74
704.60	323.47
704.93	322.17
705.26	320.88
705.60	319.68
705.93	318.51
706.27	317.44
706.60	316.36
706.94	315.27
707.27	314.12
707.61	313.03
707.94	311.97
708.27	310.91
708.61	309.82
708.94	308.83
709.28	307.88
709.61	306.93
709.94	305.99
710.28	304.93
710.61	303.92
710.95	302.86
711.28	301.93
711.61	300.95
711.95	300.03
712.28	299.08
712.61	298.08
712.95	297.15
713.28	296.24
713.61	295.36
713.95	294.45
714.28	293.63
714.61	292.75
714.95	291.93
715.28	291.05
715.61	290.16
715.95	289.29
716.28	288.40
716.61	287.56
716.95	286.76
717.28	286.01
717.61	285.25
717.94	284.50
718.28	283.68
718.61	282.97
718.94	282.26
719.27	281.61
719.61	281.00
719.94	280.32
720.27	279.62
720.60	278.94
720.94	278.35
721.27	277.72
721.60	277.18
721.93	276.58
722.27	276.00
722.60	275.45
722.93	274.87
723.26	274.29
723.59	273.78
723.93	273.21
724.26	272.64
724.59	272.10
724.92	271.55
725.25	271.06
725.59	270.51
725.92	270.01
726.25	269.52
726.58	269.02
726.91	268.56
727.24	268.07
727.57	267.62
727.91	267.10
728.24	266.67
728.57	266.17
728.90	265.72
729.23	265.24
729.56	264.81
729.89	264.37
730.22	263.95
730.55	263.45
730.89	263.02
731.22	262.63
731.55	262.21
731.88	261.79
732.21	261.37
732.54	260.95
732.87	260.54
733.20	260.14
733.53	259.78
733.86	259.38
734.19	258.99
734.52	258.64
734.85	258.31
735.18	257.86
735.51	257.48
735.84	257.13
736.17	256.81
736.50	256.44
736.83	256.19
737.16	255.86
737.49	255.55
737.82	255.20
738.15	254.85
738.48	254.51
738.81	254.19
739.14	253.86
739.47	253.55
739.80	253.25
740.13	252.96
740.46	252.61
740.79	252.25
741.12	251.92
741.45	251.59
741.78	251.25
742.11	251.01
742.44	250.69
742.77	250.37
743.10	250.04
743.43	249.72
743.75	249.35
744.08	249.21
744.41	248.93
744.74	248.63
745.07	248.34
745.40	248.11
745.73	247.89
746.06	247.63
746.39	247.34
746.71	247.04
747.04	246.75
747.37	246.47
747.70	246.27
748.03	246.04
748.36	245.81
748.68	245.59
749.01	245.30
749.34	245.09
749.67	244.86
750.00	244.62
750.33	244.46
750.65	244.25
750.98	243.90
751.31	243.68
751.64	243.51
751.97	243.35
752.29	243.09
752.62	242.85
752.95	242.62
753.28	242.43
753.60	242.22
753.93	242.03
754.26	241.83
754.59	241.59
754.91	241.34
755.24	241.12
755.57	240.93
755.90	240.77
756.22	240.55
756.55	240.35
756.88	240.15
757.20	239.89
757.53	239.69
757.86	239.51
758.19	239.37
758.51	239.15
758.84	238.93
759.17	238.78
759.49	238.57
759.82	238.46
760.15	238.29
760.47	238.22
760.80	238.03
761.13	237.90
761.45	237.75
761.78	237.61
762.11	237.47
762.43	237.32
762.76	237.19
763.08	237.05
763.41	236.94
763.74	236.83
764.06	236.76
764.39	236.60
764.71	236.49
765.04	236.32
765.37	236.23
765.69	236.11
766.02	235.95
766.34	235.84
766.67	235.72
767.00	235.62
767.32	235.49
767.65	235.45
767.97	235.36
768.30	235.27
768.62	235.16
768.95	235.04
769.27	234.93
769.60	234.82
769.92	234.71
770.25	234.57
770.57	234.47
770.90	234.34
771.22	234.24
771.55	234.12
771.87	234.04
772.20	233.91
772.52	233.91
772.85	233.96
773.17	233.84
773.50	233.75
773.82	233.67
774.15	233.54
774.47	233.40
774.80	233.28
775.12	233.24
775.45	233.18
775.77	233.11
776.09	233.04
776.42	232.97
776.74	232.92
777.07	232.85
777.39	232.78
777.72	232.70
778.04	232.66
778.36	232.57
778.69	232.53
779.01	232.50
779.33	232.37
779.66	232.20
779.98	232.14
780.31	232.06
780.63	232.01
780.95	231.96
781.28	231.90
781.60	231.81
781.92	231.69
782.25	231.61
782.57	231.55
782.89	231.45
783.22	231.38
783.54	231.31
783.86	231.26
784.19	231.18
784.51	231.15
784.83	231.08
785.16	231.02
785.48	230.94
785.80	230.88
786.12	230.80
786.45	230.73
786.77	230.71
787.09	230.67
