SpectraSuite Data File
++++++++++++++++++++++++++++++++++++
Date: Fri Feb 01 15:43:41 EST 2013
User: group
Dark Spectrum Present: No
Reference Spectrum Present: No
Number of Sampled Component Spectra: 1
Spectrometers: USB2E7196
Integration Time (usec): 35000 (USB2E7196)
Spectra Averaged: 100 (USB2E7196)
Boxcar Smoothing: 10 (USB2E7196)
Correct for Electrical Dark: No (USB2E7196)
Strobe/Lamp Enabled: No (USB2E7196)
Correct for Detector Non-linearity: No (USB2E7196)
Correct for Stray Light: No (USB2E7196)
Number of Pixels in Processed Spectrum: 2048
>>>>>Begin Processed Spectral Data<<<<<
339.09	0.00
339.48	215.25
339.86	216.95
340.24	217.83
340.63	220.46
341.01	222.53
341.39	221.93
341.78	223.47
342.16	224.89
342.54	224.75
342.93	213.57
343.31	224.35
343.69	224.89
344.07	225.33
344.46	225.74
344.84	226.04
345.22	226.27
345.60	226.53
345.99	226.73
346.37	226.84
346.75	226.97
347.13	226.99
347.52	227.01
347.90	227.08
348.28	227.10
348.66	227.14
349.05	227.10
349.43	227.16
349.81	227.16
350.19	227.18
350.57	227.21
350.96	227.29
351.34	227.37
351.72	227.42
352.10	227.53
352.48	227.61
352.87	227.68
353.25	227.72
353.63	227.77
354.01	227.80
354.39	227.86
354.77	227.92
355.15	228.05
355.54	228.08
355.92	228.07
356.30	228.13
356.68	228.24
357.06	228.32
357.44	228.31
357.82	228.39
358.20	228.47
358.58	228.55
358.97	228.56
359.35	228.63
359.73	228.71
360.11	228.70
360.49	228.75
360.87	228.78
361.25	228.82
361.63	228.88
362.01	228.92
362.39	228.92
362.77	228.93
363.15	228.91
363.53	228.95
363.91	229.00
364.29	229.03
364.67	228.95
365.05	228.96
365.43	229.00
365.81	228.99
366.19	229.02
366.57	229.09
366.95	229.16
367.33	229.13
367.71	229.11
368.09	229.13
368.47	229.10
368.85	229.09
369.23	229.09
369.61	229.04
369.99	229.05
370.37	229.03
370.75	229.04
371.13	229.00
371.51	228.95
371.89	228.92
372.27	228.88
372.65	228.86
373.03	228.82
373.41	228.77
373.78	228.74
374.16	228.65
374.54	228.55
374.92	228.44
375.30	228.40
375.68	228.32
376.06	228.29
376.44	228.25
376.82	228.22
377.19	228.13
377.57	228.06
377.95	227.97
378.33	227.89
378.71	227.79
379.09	227.73
379.47	227.65
379.84	227.57
380.22	227.53
380.60	227.42
380.98	227.37
381.36	227.34
381.73	227.24
382.11	227.21
382.49	227.17
382.87	227.10
383.25	227.07
383.62	227.11
384.00	227.03
384.38	226.98
384.76	226.94
385.13	226.95
385.51	226.89
385.89	226.83
386.27	226.81
386.64	226.78
387.02	226.74
387.40	226.71
387.78	226.66
388.15	226.61
388.53	226.58
388.91	226.55
389.29	226.50
389.66	226.51
390.04	226.46
390.42	226.43
390.79	226.42
391.17	226.42
391.55	226.30
391.92	226.31
392.30	226.33
392.68	226.29
393.05	226.29
393.43	226.30
393.81	226.34
394.18	226.33
394.56	226.35
394.94	226.36
395.31	226.34
395.69	226.41
396.06	226.43
396.44	226.49
396.82	226.53
397.19	226.61
397.57	226.65
397.95	226.70
398.32	226.70
398.70	226.74
399.07	226.81
399.45	226.89
399.82	226.95
400.20	226.98
400.58	227.03
400.95	227.06
401.33	227.16
401.70	227.28
402.08	227.36
402.45	227.48
402.83	227.63
403.20	227.79
403.58	227.85
403.95	227.99
404.33	228.09
404.71	228.20
405.08	228.35
405.46	228.47
405.83	228.61
406.21	228.77
406.58	228.94
406.96	229.05
407.33	229.22
407.70	229.41
408.08	229.69
408.45	229.93
408.83	230.19
409.20	230.42
409.58	230.62
409.95	230.92
410.33	231.20
410.70	231.42
411.08	231.70
411.45	232.03
411.82	232.33
412.20	232.73
412.57	233.17
412.95	233.45
413.32	233.87
413.69	234.27
414.07	234.72
414.44	235.22
414.82	235.71
415.19	236.24
415.56	236.77
415.94	237.31
416.31	237.96
416.68	238.57
417.06	239.29
417.43	239.97
417.81	240.74
418.18	241.49
418.55	242.34
418.93	243.23
419.30	244.13
419.67	245.12
420.04	246.06
420.42	247.04
420.79	248.27
421.16	249.45
421.54	250.69
421.91	251.92
422.28	253.16
422.66	254.52
423.03	255.86
423.40	257.22
423.77	258.67
424.15	260.10
424.52	261.62
424.89	263.21
425.26	264.76
425.64	266.20
426.01	267.85
426.38	269.54
426.75	271.26
427.13	272.99
427.50	274.77
427.87	276.64
428.24	278.49
428.61	280.19
428.99	282.15
429.36	284.27
429.73	286.33
430.10	288.36
430.47	290.45
430.85	292.55
431.22	294.78
431.59	297.20
431.96	299.42
432.33	301.91
432.70	304.30
433.08	307.09
433.45	309.72
433.82	312.30
434.19	315.16
434.56	317.92
434.93	320.58
435.30	323.23
435.68	326.14
436.05	329.03
436.42	331.88
436.79	334.38
437.16	337.06
437.53	339.90
437.90	342.74
438.27	345.45
438.64	348.30
439.01	350.91
439.38	353.13
439.75	355.28
440.13	357.73
440.50	360.10
440.87	361.98
441.24	363.93
441.61	366.07
441.98	367.55
442.35	369.37
442.72	371.26
443.09	373.06
443.46	374.04
443.83	374.59
444.20	375.06
444.57	375.89
444.94	376.15
445.31	376.48
445.68	376.83
446.05	376.89
446.42	376.46
446.79	376.02
447.16	375.58
447.53	375.30
447.90	374.17
448.27	372.96
448.64	371.36
449.01	370.24
449.37	368.28
449.74	366.36
450.11	364.06
450.48	361.52
450.85	358.95
451.22	356.77
451.59	354.74
451.96	352.83
452.33	350.20
452.70	347.86
453.07	345.01
453.43	342.11
453.80	339.35
454.17	336.68
454.54	334.13
454.91	331.35
455.28	328.67
455.65	326.17
456.02	323.70
456.38	321.55
456.75	318.85
457.12	316.56
457.49	314.36
457.86	312.23
458.23	310.38
458.59	308.38
458.96	306.31
459.33	304.43
459.70	302.54
460.07	301.03
460.43	299.25
460.80	297.67
461.17	296.25
461.54	294.74
461.91	293.34
462.27	291.88
462.64	290.64
463.01	289.24
463.38	287.91
463.74	286.56
464.11	285.40
464.48	284.39
464.85	283.28
465.21	282.44
465.58	281.49
465.95	280.39
466.32	279.48
466.68	278.55
467.05	277.65
467.42	276.76
467.78	275.80
468.15	274.99
468.52	274.32
468.88	273.42
469.25	272.66
469.62	272.01
469.98	271.34
470.35	270.70
470.72	270.13
471.08	269.50
471.45	268.97
471.82	268.41
472.18	267.79
472.55	267.38
472.92	266.86
473.28	266.44
473.65	266.01
474.02	265.60
474.38	265.26
474.75	264.97
475.11	264.63
475.48	264.42
475.85	264.13
476.21	263.88
476.58	263.69
476.94	263.56
477.31	263.41
477.67	263.24
478.04	263.13
478.41	263.08
478.77	263.10
479.14	263.05
479.50	263.08
479.87	263.17
480.23	263.23
480.60	263.30
480.96	263.41
481.33	263.61
481.69	263.75
482.06	263.94
482.42	264.15
482.79	264.39
483.15	264.69
483.52	265.10
483.88	265.44
484.25	265.83
484.61	266.25
484.98	266.68
485.34	267.27
485.71	267.88
486.07	268.43
486.44	269.02
486.80	269.73
487.17	270.43
487.53	271.25
487.90	272.07
488.26	273.00
488.62	273.99
488.99	274.96
489.35	276.01
489.72	277.11
490.08	278.31
490.44	279.55
490.81	280.87
491.17	282.23
491.54	283.74
491.90	285.25
492.26	286.88
492.63	288.64
492.99	290.37
493.36	292.25
493.72	294.33
494.08	296.43
494.45	298.64
494.81	300.99
495.17	303.43
495.54	306.00
495.90	308.66
496.26	311.41
496.63	314.36
496.99	317.43
497.35	320.71
497.72	324.09
498.08	327.60
498.44	331.28
498.80	335.16
499.17	339.19
499.53	343.41
499.89	347.78
500.26	352.26
500.62	356.96
500.98	361.92
501.34	366.98
501.71	372.33
502.07	377.78
502.43	383.40
502.79	389.19
503.16	395.28
503.52	401.54
503.88	407.96
504.24	414.66
504.60	421.67
504.97	428.80
505.33	436.17
505.69	443.85
506.05	451.59
506.41	459.48
506.78	467.69
507.14	476.17
507.50	484.92
507.86	493.95
508.22	503.12
508.59	512.41
508.95	522.02
509.31	531.75
509.67	541.95
510.03	552.26
510.39	562.84
510.75	573.65
511.12	584.61
511.48	595.98
511.84	607.40
512.20	618.85
512.56	630.79
512.92	642.94
513.28	655.30
513.64	667.80
514.00	680.62
514.37	693.51
514.73	706.54
515.09	719.58
515.45	732.88
515.81	746.56
516.17	760.44
516.53	774.53
516.89	788.75
517.25	802.87
517.61	817.28
517.97	831.73
518.33	846.13
518.69	861.00
519.05	875.89
519.41	891.10
519.77	906.66
520.13	922.22
520.49	937.57
520.85	953.02
521.21	968.78
521.57	984.92
521.93	1000.76
522.29	1017.21
522.65	1033.42
523.01	1049.68
523.37	1065.74
523.73	1081.91
524.09	1098.12
524.45	1114.48
524.81	1131.13
525.17	1148.02
525.53	1165.06
525.89	1181.96
526.25	1198.77
526.61	1215.26
526.97	1231.92
527.33	1248.38
527.68	1264.84
528.04	1281.45
528.40	1297.93
528.76	1315.02
529.12	1331.54
529.48	1348.38
529.84	1364.39
530.20	1381.04
530.56	1398.07
530.91	1415.42
531.27	1432.27
531.63	1448.60
531.99	1465.20
532.35	1481.11
532.71	1496.92
533.07	1513.09
533.42	1528.98
533.78	1544.99
534.14	1561.27
534.50	1576.67
534.86	1592.66
535.21	1607.88
535.57	1623.87
535.93	1639.39
536.29	1654.06
536.65	1669.25
537.00	1684.06
537.36	1699.31
537.72	1713.87
538.08	1728.23
538.44	1742.03
538.79	1755.93
539.15	1769.66
539.51	1783.40
539.87	1797.79
540.22	1811.70
540.58	1825.41
540.94	1838.79
541.29	1851.61
541.65	1864.24
542.01	1877.47
542.37	1889.72
542.72	1902.32
543.08	1913.97
543.44	1926.43
543.79	1937.80
544.15	1948.68
544.51	1960.14
544.87	1971.23
545.22	1982.08
545.58	1992.17
545.94	2001.86
546.29	2011.68
546.65	2021.51
547.01	2030.68
547.36	2039.34
547.72	2047.66
548.07	2055.55
548.43	2063.85
548.79	2072.09
549.14	2079.69
549.50	2087.07
549.86	2094.77
550.21	2101.93
550.57	2109.11
550.92	2115.66
551.28	2122.53
551.64	2129.77
551.99	2136.34
552.35	2142.45
552.70	2148.45
553.06	2154.56
553.41	2161.04
553.77	2167.07
554.13	2173.20
554.48	2179.41
554.84	2184.85
555.19	2190.19
555.55	2195.33
555.90	2199.58
556.26	2204.16
556.61	2208.84
556.97	2212.99
557.32	2217.05
557.68	2221.17
558.03	2225.42
558.39	2229.21
558.74	2233.92
559.10	2237.71
559.45	2241.47
559.81	2245.95
560.16	2249.83
560.52	2253.15
560.87	2256.47
561.23	2259.22
561.58	2262.31
561.94	2264.80
562.29	2267.24
562.64	2269.89
563.00	2272.50
563.35	2276.13
563.71	2279.39
564.06	2282.61
564.42	2285.52
564.77	2287.91
565.12	2290.07
565.48	2291.94
565.83	2293.78
566.19	2295.12
566.54	2296.00
566.89	2296.96
567.25	2297.33
567.60	2298.68
567.96	2300.16
568.31	2301.12
568.66	2302.11
569.02	2302.42
569.37	2302.73
569.72	2303.50
570.08	2303.42
570.43	2303.40
570.78	2302.79
571.14	2301.28
571.49	2299.97
571.84	2299.68
572.20	2298.65
572.55	2297.64
572.90	2296.25
573.26	2294.94
573.61	2293.31
573.96	2291.36
574.31	2288.44
574.67	2285.35
575.02	2281.76
575.37	2278.49
575.72	2274.48
576.08	2271.22
576.43	2267.98
576.78	2264.24
577.13	2261.21
577.49	2258.26
577.84	2254.85
578.19	2251.02
578.54	2247.23
578.90	2242.95
579.25	2237.27
579.60	2232.31
579.95	2227.30
580.30	2222.16
580.66	2216.87
581.01	2211.69
581.36	2207.05
581.71	2202.85
582.06	2198.36
582.42	2193.91
582.77	2188.59
583.12	2184.16
583.47	2179.32
583.82	2174.26
584.17	2169.03
584.53	2163.54
584.88	2157.90
585.23	2151.98
585.58	2146.57
585.93	2141.21
586.28	2136.35
586.63	2131.33
586.98	2126.20
587.34	2121.44
587.69	2116.53
588.04	2111.10
588.39	2105.54
588.74	2098.97
589.09	2092.77
589.44	2085.98
589.79	2080.01
590.14	2074.39
590.49	2067.75
590.84	2061.31
591.19	2055.30
591.54	2048.77
591.89	2041.10
592.25	2034.22
592.60	2027.12
592.95	2019.45
593.30	2012.09
593.65	2004.56
594.00	1997.52
594.35	1990.33
594.70	1982.24
595.05	1974.91
595.40	1967.81
595.75	1960.23
596.10	1953.98
596.45	1947.21
596.80	1941.13
597.15	1934.38
597.50	1927.26
597.85	1920.83
598.19	1914.25
598.54	1907.10
598.89	1900.47
599.24	1894.69
599.59	1887.94
599.94	1881.72
600.29	1875.56
600.64	1868.96
600.99	1861.44
601.34	1854.59
601.69	1847.61
602.04	1840.81
602.39	1833.41
602.74	1826.41
603.08	1819.67
603.43	1812.93
603.78	1805.64
604.13	1798.30
604.48	1790.85
604.83	1783.99
605.18	1776.91
605.53	1768.90
605.87	1760.91
606.22	1753.77
606.57	1745.84
606.92	1738.62
607.27	1731.39
607.62	1724.29
607.96	1717.06
608.31	1710.41
608.66	1702.88
609.01	1695.29
609.36	1687.77
609.70	1679.80
610.05	1671.88
610.40	1664.21
610.75	1655.73
611.10	1648.22
611.44	1639.92
611.79	1632.00
612.14	1623.27
612.49	1614.24
612.83	1605.78
613.18	1597.61
613.53	1589.36
613.88	1580.81
614.22	1572.50
614.57	1563.96
614.92	1555.89
615.27	1548.23
615.61	1539.90
615.96	1531.77
616.31	1524.12
616.65	1516.71
617.00	1509.21
617.35	1501.51
617.70	1493.10
618.04	1484.68
618.39	1476.36
618.74	1468.73
619.08	1460.44
619.43	1452.91
619.78	1445.88
620.12	1438.67
620.47	1431.09
620.82	1423.06
621.16	1415.72
621.51	1408.18
621.85	1400.45
622.20	1391.89
622.55	1383.43
622.89	1375.60
623.24	1368.02
623.59	1360.67
623.93	1353.11
624.28	1345.95
624.62	1338.48
624.97	1331.31
625.32	1324.58
625.66	1317.55
626.01	1310.32
626.35	1302.90
626.70	1295.12
627.04	1287.46
627.39	1279.74
627.73	1272.38
628.08	1265.34
628.43	1257.91
628.77	1250.42
629.12	1242.94
629.46	1235.83
629.81	1228.54
630.15	1221.29
630.50	1213.83
630.84	1205.58
631.19	1197.75
631.53	1190.21
631.88	1182.56
632.22	1175.02
632.57	1167.70
632.91	1160.08
633.26	1152.61
633.60	1145.25
633.95	1138.20
634.29	1131.12
634.64	1124.47
634.98	1117.16
635.32	1110.06
635.67	1103.55
636.01	1097.04
636.36	1090.10
636.70	1083.58
637.05	1077.02
637.39	1070.61
637.73	1064.07
638.08	1058.22
638.42	1052.16
638.77	1045.69
639.11	1039.08
639.45	1032.69
639.80	1026.01
640.14	1019.65
640.49	1013.14
640.83	1006.76
641.17	1000.47
641.52	994.11
641.86	987.65
642.20	981.77
642.55	975.51
642.89	968.98
643.23	962.39
643.58	956.72
643.92	950.47
644.26	944.31
644.61	938.31
644.95	932.27
645.29	925.65
645.64	918.97
645.98	912.56
646.32	906.81
646.66	900.77
647.01	895.00
647.35	889.26
647.69	883.53
648.04	878.06
648.38	872.20
648.72	866.22
649.06	860.24
649.41	854.33
649.75	848.29
650.09	842.36
650.43	836.60
650.78	830.51
651.12	824.63
651.46	818.91
651.80	813.09
652.14	807.68
652.49	802.31
652.83	797.10
653.17	791.44
653.51	785.72
653.85	780.33
654.20	774.70
654.54	768.72
654.88	762.89
655.22	757.02
655.56	751.45
655.90	746.00
656.25	740.62
656.59	735.29
656.93	730.24
657.27	725.03
657.61	719.56
657.95	714.36
658.29	709.27
658.64	703.98
658.98	698.72
659.32	693.28
659.66	688.13
660.00	682.82
660.34	677.88
660.68	672.94
661.02	667.91
661.36	663.20
661.70	658.72
662.05	654.38
662.39	649.98
662.73	645.50
663.07	641.10
663.41	636.73
663.75	632.25
664.09	627.69
664.43	623.34
664.77	619.19
665.11	614.97
665.45	610.86
665.79	606.81
666.13	602.68
666.47	598.61
666.81	594.40
667.15	590.25
667.49	586.29
667.83	582.46
668.17	578.56
668.51	574.52
668.85	570.43
669.19	566.57
669.53	562.73
669.87	558.86
670.21	555.22
670.55	551.50
670.89	548.03
671.23	544.58
671.57	541.05
671.91	537.49
672.25	533.93
672.58	530.36
672.92	526.99
673.26	523.86
673.60	520.71
673.94	517.58
674.28	514.68
674.62	511.76
674.96	508.67
675.30	505.73
675.64	502.72
675.97	500.01
676.31	497.15
676.65	494.26
676.99	491.45
677.33	488.57
677.67	485.78
678.01	482.73
678.34	479.70
678.68	476.90
679.02	474.16
679.36	471.44
679.70	468.74
680.04	465.97
680.37	463.09
680.71	460.31
681.05	457.71
681.39	455.05
681.73	452.45
682.06	449.90
682.40	447.32
682.74	444.85
683.08	442.25
683.42	439.67
683.75	437.15
684.09	434.65
684.43	432.16
684.77	429.74
685.10	427.42
685.44	425.16
685.78	422.84
686.12	420.56
686.45	418.29
686.79	416.01
687.13	413.82
687.46	411.63
687.80	409.44
688.14	407.21
688.48	405.13
688.81	402.90
689.15	400.79
689.49	398.69
689.82	396.58
690.16	394.55
690.50	392.58
690.83	390.67
691.17	388.69
691.51	386.78
691.84	384.93
692.18	383.00
692.52	381.02
692.85	379.07
693.19	377.20
693.52	375.37
693.86	373.58
694.20	371.78
694.53	370.02
694.87	368.20
695.21	366.42
695.54	364.57
695.88	362.83
696.21	361.09
696.55	359.38
696.88	357.74
697.22	356.08
697.56	354.48
697.89	352.80
698.23	351.21
698.56	349.60
698.90	347.99
699.23	346.40
699.57	344.86
699.90	343.34
700.24	341.78
700.58	340.23
700.91	338.71
701.25	337.31
701.58	335.91
701.92	334.53
702.25	333.16
702.59	331.80
702.92	330.50
703.26	329.15
703.59	327.89
703.93	326.67
704.26	325.42
704.60	324.10
704.93	322.82
705.26	321.54
705.60	320.39
705.93	319.21
706.27	318.09
706.60	317.03
706.94	315.93
707.27	314.79
707.61	313.71
707.94	312.68
708.27	311.57
708.61	310.50
708.94	309.52
709.28	308.51
709.61	307.56
709.94	306.60
710.28	305.60
710.61	304.61
710.95	303.54
711.28	302.63
711.61	301.70
711.95	300.82
712.28	299.91
712.61	298.92
712.95	298.02
713.28	297.19
713.61	296.29
713.95	295.40
714.28	294.60
714.61	293.75
714.95	292.91
715.28	292.07
715.61	291.19
715.95	290.32
716.28	289.51
716.61	288.70
716.95	287.87
717.28	287.10
717.61	286.37
717.94	285.61
718.28	284.80
718.61	284.04
718.94	283.30
719.27	282.65
719.61	281.99
719.94	281.33
720.27	280.60
720.60	279.95
720.94	279.31
721.27	278.69
721.60	278.12
721.93	277.53
722.27	276.99
722.60	276.44
722.93	275.85
723.26	275.30
723.59	274.70
723.93	274.18
724.26	273.65
724.59	273.07
724.92	272.54
725.25	272.04
725.59	271.54
725.92	271.08
726.25	270.55
726.58	270.07
726.91	269.53
727.24	269.03
727.57	268.58
727.91	268.08
728.24	267.63
728.57	267.16
728.90	266.71
729.23	266.23
729.56	265.78
729.89	265.34
730.22	264.87
730.55	264.41
730.89	263.94
731.22	263.48
731.55	263.06
731.88	262.65
732.21	262.21
732.54	261.78
732.87	261.35
733.20	260.97
733.53	260.61
733.86	260.24
734.19	259.86
734.52	259.47
734.85	259.16
735.18	258.71
735.51	258.33
735.84	257.95
736.17	257.58
736.50	257.19
736.83	256.94
737.16	256.61
737.49	256.27
737.82	255.90
738.15	255.60
738.48	255.23
738.81	254.94
739.14	254.60
739.47	254.32
739.80	254.00
740.13	253.67
740.46	253.31
740.79	252.97
741.12	252.63
741.45	252.36
741.78	251.99
742.11	251.76
742.44	251.43
742.77	251.16
743.10	250.87
743.43	250.59
743.75	250.22
744.08	250.08
744.41	249.83
744.74	249.57
745.07	249.28
745.40	249.06
745.73	248.81
746.06	248.57
746.39	248.29
746.71	248.03
747.04	247.75
747.37	247.55
747.70	247.32
748.03	247.08
748.36	246.84
748.68	246.60
749.01	246.35
749.34	246.13
749.67	245.82
750.00	245.61
750.33	245.44
750.65	245.23
750.98	244.89
751.31	244.67
751.64	244.49
751.97	244.30
752.29	244.08
752.62	243.83
752.95	243.64
753.28	243.42
753.60	243.20
753.93	243.03
754.26	242.78
754.59	242.58
754.91	242.38
755.24	242.16
755.57	242.00
755.90	241.80
756.22	241.60
756.55	241.44
756.88	241.22
757.20	241.00
757.53	240.78
757.86	240.62
758.19	240.40
758.51	240.22
758.84	240.06
759.17	239.87
759.49	239.73
759.82	239.58
760.15	239.43
760.47	239.27
760.80	239.09
761.13	238.96
761.45	238.78
761.78	238.62
762.11	238.48
762.43	238.31
762.76	238.16
763.08	238.07
763.41	237.97
763.74	237.86
764.06	237.72
764.39	237.61
764.71	237.47
765.04	237.38
765.37	237.25
765.69	237.12
766.02	236.99
766.34	236.83
766.67	236.66
767.00	236.59
767.32	236.52
767.65	236.46
767.97	236.35
768.30	236.27
768.62	236.21
768.95	236.08
769.27	235.98
769.60	235.92
769.92	235.75
770.25	235.59
770.57	235.47
770.90	235.35
771.22	235.21
771.55	235.14
771.87	235.04
772.20	234.91
772.52	234.85
772.85	234.87
773.17	234.80
773.50	234.72
773.82	234.58
774.15	234.45
774.47	234.31
774.80	234.19
775.12	234.11
775.45	233.99
775.77	233.93
776.09	233.84
776.42	233.75
776.74	233.71
777.07	233.66
777.39	233.60
777.72	233.54
778.04	233.50
778.36	233.39
778.69	233.33
779.01	233.30
779.33	233.17
779.66	232.98
779.98	232.90
780.31	232.80
780.63	232.78
780.95	232.73
781.28	232.66
781.60	232.62
781.92	232.55
782.25	232.49
782.57	232.42
782.89	232.40
783.22	232.29
783.54	232.24
783.86	232.18
784.19	232.10
784.51	232.05
784.83	231.99
785.16	231.95
785.48	231.91
785.80	231.85
786.12	231.82
786.45	231.82
786.77	231.78
787.09	231.73
