SpectraSuite Data File
++++++++++++++++++++++++++++++++++++
Date: Fri Feb 01 17:25:48 EST 2013
User: group
Dark Spectrum Present: No
Reference Spectrum Present: No
Number of Sampled Component Spectra: 1
Spectrometers: USB2E7196
Integration Time (usec): 35000 (USB2E7196)
Spectra Averaged: 100 (USB2E7196)
Boxcar Smoothing: 10 (USB2E7196)
Correct for Electrical Dark: No (USB2E7196)
Strobe/Lamp Enabled: No (USB2E7196)
Correct for Detector Non-linearity: No (USB2E7196)
Correct for Stray Light: No (USB2E7196)
Number of Pixels in Processed Spectrum: 2048
>>>>>Begin Processed Spectral Data<<<<<
339.09	0.00
339.48	212.28
339.86	213.61
340.24	215.70
340.63	216.88
341.01	219.97
341.39	219.69
341.78	220.96
342.16	221.75
342.54	222.43
342.93	211.06
343.31	221.74
343.69	222.28
344.07	222.80
344.46	223.22
344.84	223.60
345.22	223.80
345.60	224.04
345.99	224.21
346.37	224.35
346.75	224.44
347.13	224.51
347.52	224.56
347.90	224.63
348.28	224.66
348.66	224.71
349.05	224.71
349.43	224.72
349.81	224.77
350.19	224.82
350.57	224.91
350.96	224.98
351.34	225.08
351.72	225.17
352.10	225.26
352.48	225.34
352.87	225.42
353.25	225.55
353.63	225.63
354.01	225.71
354.39	225.81
354.77	225.91
355.15	226.05
355.54	226.13
355.92	226.18
356.30	226.23
356.68	226.40
357.06	226.49
357.44	226.56
357.82	226.63
358.20	226.70
358.58	226.80
358.97	226.88
359.35	226.95
359.73	227.06
360.11	227.11
360.49	227.16
360.87	227.20
361.25	227.23
361.63	227.32
362.01	227.41
362.39	227.42
362.77	227.49
363.15	227.49
363.53	227.51
363.91	227.57
364.29	227.61
364.67	227.55
365.05	227.56
365.43	227.58
365.81	227.62
366.19	227.68
366.57	227.70
366.95	227.68
367.33	227.68
367.71	227.64
368.09	227.65
368.47	227.68
368.85	227.64
369.23	227.68
369.61	227.64
369.99	227.65
370.37	227.65
370.75	227.67
371.13	227.63
371.51	227.58
371.89	227.54
372.27	227.53
372.65	227.50
373.03	227.47
373.41	227.42
373.78	227.35
374.16	227.26
374.54	227.17
374.92	227.14
375.30	227.07
375.68	227.01
376.06	226.93
376.44	226.83
376.82	226.76
377.19	226.63
377.57	226.57
377.95	226.44
378.33	226.38
378.71	226.19
379.09	226.15
379.47	226.09
379.84	226.02
380.22	225.91
380.60	225.81
380.98	225.72
381.36	225.66
381.73	225.59
382.11	225.54
382.49	225.46
382.87	225.36
383.25	225.27
383.62	225.33
384.00	225.26
384.38	225.22
384.76	225.19
385.13	225.17
385.51	225.09
385.89	225.04
386.27	225.00
386.64	225.04
387.02	224.98
387.40	224.91
387.78	224.86
388.15	224.88
388.53	224.83
388.91	224.85
389.29	224.79
389.66	224.79
390.04	224.74
390.42	224.71
390.79	224.71
391.17	224.71
391.55	224.58
391.92	224.60
392.30	224.61
392.68	224.60
393.05	224.62
393.43	224.61
393.81	224.61
394.18	224.57
394.56	224.55
394.94	224.58
395.31	224.61
395.69	224.69
396.06	224.69
396.44	224.70
396.82	224.67
397.19	224.76
397.57	224.76
397.95	224.80
398.32	224.84
398.70	224.88
399.07	224.97
399.45	225.00
399.82	225.02
400.20	225.08
400.58	225.14
400.95	225.16
401.33	225.27
401.70	225.39
402.08	225.49
402.45	225.54
402.83	225.64
403.20	225.76
403.58	225.84
403.95	225.97
404.33	226.10
404.71	226.21
405.08	226.36
405.46	226.48
405.83	226.63
406.21	226.78
406.58	226.92
406.96	227.03
407.33	227.23
407.70	227.44
408.08	227.68
408.45	227.88
408.83	228.11
409.20	228.28
409.58	228.44
409.95	228.72
410.33	229.03
410.70	229.26
411.08	229.51
411.45	229.81
411.82	230.11
412.20	230.46
412.57	230.87
412.95	231.18
413.32	231.60
413.69	232.00
414.07	232.45
414.44	232.93
414.82	233.40
415.19	233.95
415.56	234.50
415.94	235.05
416.31	235.71
416.68	236.38
417.06	237.11
417.43	237.86
417.81	238.63
418.18	239.42
418.55	240.31
418.93	241.22
419.30	242.08
419.67	243.05
420.04	244.04
420.42	245.05
420.79	246.29
421.16	247.52
421.54	248.77
421.91	250.01
422.28	251.30
422.66	252.71
423.03	254.06
423.40	255.43
423.77	256.94
424.15	258.43
424.52	259.95
424.89	261.59
425.26	263.19
425.64	264.73
426.01	266.38
426.38	268.11
426.75	269.84
427.13	271.71
427.50	273.56
427.87	275.53
428.24	277.53
428.61	279.34
428.99	281.32
429.36	283.53
429.73	285.70
430.10	287.77
430.47	289.89
430.85	292.10
431.22	294.44
431.59	296.87
431.96	299.17
432.33	301.79
432.70	304.29
433.08	307.25
433.45	309.99
433.82	312.71
434.19	315.71
434.56	318.67
434.93	321.42
435.30	324.18
435.68	327.22
436.05	330.14
436.42	333.06
436.79	335.69
437.16	338.50
437.53	341.39
437.90	344.32
438.27	347.23
438.64	350.19
439.01	352.90
439.38	355.22
439.75	357.54
440.13	360.07
440.50	362.51
440.87	364.41
441.24	366.43
441.61	368.67
441.98	370.20
442.35	372.01
442.72	373.92
443.09	375.81
443.46	376.82
443.83	377.43
444.20	377.96
444.57	378.85
444.94	379.15
445.31	379.56
445.68	379.99
446.05	380.06
446.42	379.66
446.79	379.23
447.16	378.83
447.53	378.53
447.90	377.40
448.27	376.22
448.64	374.62
449.01	373.42
449.37	371.42
449.74	369.48
450.11	367.20
450.48	364.65
450.85	362.04
451.22	359.80
451.59	357.70
451.96	355.68
452.33	353.00
452.70	350.59
453.07	347.64
453.43	344.64
453.80	341.79
454.17	339.03
454.54	336.43
454.91	333.57
455.28	330.74
455.65	328.14
456.02	325.58
456.38	323.33
456.75	320.58
457.12	318.21
457.49	315.86
457.86	313.60
458.23	311.66
458.59	309.50
458.96	307.37
459.33	305.48
459.70	303.55
460.07	301.95
460.43	300.14
460.80	298.48
461.17	296.96
461.54	295.36
461.91	293.87
462.27	292.34
462.64	291.05
463.01	289.67
463.38	288.31
463.74	286.92
464.11	285.72
464.48	284.65
464.85	283.52
465.21	282.66
465.58	281.71
465.95	280.57
466.32	279.64
466.68	278.69
467.05	277.75
467.42	276.84
467.78	275.89
468.15	274.98
468.52	274.28
468.88	273.41
469.25	272.61
469.62	271.94
469.98	271.28
470.35	270.62
470.72	269.99
471.08	269.32
471.45	268.76
471.82	268.20
472.18	267.58
472.55	267.14
472.92	266.62
473.28	266.13
473.65	265.71
474.02	265.25
474.38	264.88
474.75	264.55
475.11	264.21
475.48	263.95
475.85	263.71
476.21	263.48
476.58	263.30
476.94	263.22
477.31	263.10
477.67	262.99
478.04	262.89
478.41	262.85
478.77	262.92
479.14	262.85
479.50	262.87
479.87	262.94
480.23	263.05
480.60	263.14
480.96	263.26
481.33	263.49
481.69	263.71
482.06	263.94
482.42	264.15
482.79	264.40
483.15	264.71
483.52	265.10
483.88	265.42
484.25	265.84
484.61	266.24
484.98	266.66
485.34	267.15
485.71	267.77
486.07	268.41
486.44	268.95
486.80	269.69
487.17	270.43
487.53	271.26
487.90	272.09
488.26	272.99
488.62	273.97
488.99	274.90
489.35	275.94
489.72	277.04
490.08	278.23
490.44	279.45
490.81	280.78
491.17	282.11
491.54	283.64
491.90	285.13
492.26	286.78
492.63	288.51
492.99	290.31
493.36	292.13
493.72	294.15
494.08	296.22
494.45	298.43
494.81	300.79
495.17	303.22
495.54	305.72
495.90	308.38
496.26	311.15
496.63	314.08
496.99	317.16
497.35	320.38
497.72	323.79
498.08	327.27
498.44	330.90
498.80	334.80
499.17	338.80
499.53	342.94
499.89	347.21
500.26	351.70
500.62	356.29
500.98	361.21
501.34	366.22
501.71	371.50
502.07	376.91
502.43	382.43
502.79	388.17
503.16	394.22
503.52	400.42
503.88	406.79
504.24	413.38
504.60	420.18
504.97	427.22
505.33	434.43
505.69	442.06
506.05	449.74
506.41	457.43
506.78	465.44
507.14	473.75
507.50	482.27
507.86	491.08
508.22	500.16
508.59	509.21
508.95	518.55
509.31	528.19
509.67	538.06
510.03	548.17
510.39	558.51
510.75	569.05
511.12	579.76
511.48	590.83
511.84	602.03
512.20	613.32
512.56	625.03
512.92	636.87
513.28	648.97
513.64	661.15
514.00	673.63
514.37	686.27
514.73	699.02
515.09	711.81
515.45	724.78
515.81	738.00
516.17	751.60
516.53	765.40
516.89	779.16
517.25	792.97
517.61	806.95
517.97	821.06
518.33	835.13
518.69	849.56
519.05	864.19
519.41	878.95
519.77	894.03
520.13	909.05
520.49	924.10
520.85	939.02
521.21	954.30
521.57	970.02
521.93	985.31
522.29	1001.24
522.65	1017.03
523.01	1032.88
523.37	1048.49
523.73	1064.32
524.09	1080.03
524.45	1095.81
524.81	1111.96
525.17	1128.27
525.53	1144.67
525.89	1161.12
526.25	1177.46
526.61	1193.36
526.97	1209.60
527.33	1225.72
527.68	1241.92
528.04	1257.98
528.40	1274.06
528.76	1290.71
529.12	1306.86
529.48	1323.40
529.84	1338.97
530.20	1355.16
530.56	1371.75
530.91	1388.73
531.27	1405.20
531.63	1421.31
531.99	1437.58
532.35	1453.34
532.71	1468.91
533.07	1484.74
533.42	1500.31
533.78	1516.13
534.14	1532.01
534.50	1547.13
534.86	1562.68
535.21	1577.48
535.57	1593.03
535.93	1608.19
536.29	1622.69
536.65	1637.55
537.00	1652.00
537.36	1667.17
537.72	1681.40
538.08	1695.51
538.44	1709.02
538.79	1722.65
539.15	1735.97
539.51	1749.57
539.87	1763.65
540.22	1777.12
540.58	1790.65
540.94	1803.77
541.29	1816.29
541.65	1828.81
542.01	1841.76
542.37	1853.95
542.72	1866.23
543.08	1877.97
543.44	1890.36
543.79	1901.63
544.15	1912.54
544.51	1924.13
544.87	1934.81
545.22	1945.62
545.58	1955.89
545.94	1965.81
546.29	1975.64
546.65	1985.70
547.01	1994.96
547.36	2003.70
547.72	2012.43
548.07	2020.63
548.43	2028.84
548.79	2036.83
549.14	2044.68
549.50	2052.06
549.86	2059.73
550.21	2067.11
550.57	2074.44
550.92	2081.30
551.28	2088.42
551.64	2095.64
551.99	2102.30
552.35	2108.79
552.70	2115.25
553.06	2121.42
553.41	2128.00
553.77	2134.08
554.13	2140.35
554.48	2146.70
554.84	2152.52
555.19	2157.97
555.55	2163.36
555.90	2168.23
556.26	2173.71
556.61	2178.58
556.97	2183.49
557.32	2188.08
557.68	2192.68
558.03	2197.24
558.39	2201.16
558.74	2206.07
559.10	2210.43
559.45	2214.39
559.81	2218.98
560.16	2223.17
560.52	2226.84
560.87	2230.40
561.23	2233.43
561.58	2236.57
561.94	2239.54
562.29	2242.16
562.64	2245.38
563.00	2248.26
563.35	2251.98
563.71	2255.32
564.06	2258.95
564.42	2262.12
564.77	2264.96
565.12	2267.84
565.48	2270.11
565.83	2272.40
566.19	2274.38
566.54	2275.37
566.89	2277.06
567.25	2278.18
567.60	2279.70
567.96	2281.92
568.31	2283.25
568.66	2284.98
569.02	2286.11
569.37	2286.70
569.72	2288.07
570.08	2288.56
570.43	2288.97
570.78	2288.79
571.14	2287.61
571.49	2286.58
571.84	2286.45
572.20	2285.77
572.55	2285.00
572.90	2283.86
573.26	2282.92
573.61	2281.30
573.96	2280.30
574.31	2277.71
574.67	2275.09
575.02	2271.91
575.37	2268.67
575.72	2265.46
576.08	2262.34
576.43	2259.15
576.78	2256.07
577.13	2252.95
577.49	2250.15
577.84	2247.13
578.19	2243.80
578.54	2240.67
578.90	2237.00
579.25	2231.74
579.60	2227.22
579.95	2222.60
580.30	2217.88
580.66	2212.98
581.01	2208.31
581.36	2203.55
581.71	2199.58
582.06	2195.56
582.42	2191.67
582.77	2186.84
583.12	2182.33
583.47	2178.05
583.82	2173.67
584.17	2168.72
584.53	2163.66
584.88	2158.29
585.23	2152.94
585.58	2147.62
585.93	2142.40
586.28	2137.50
586.63	2132.87
586.98	2128.18
587.34	2123.47
587.69	2118.74
588.04	2113.85
588.39	2108.55
588.74	2102.22
589.09	2096.31
589.44	2089.74
589.79	2083.56
590.14	2078.03
590.49	2071.75
590.84	2065.39
591.19	2059.42
591.54	2053.21
591.89	2046.33
592.25	2039.89
592.60	2032.74
592.95	2025.62
593.30	2018.51
593.65	2011.19
594.00	2004.26
594.35	1997.02
594.70	1989.15
595.05	1982.37
595.40	1975.18
595.75	1967.79
596.10	1961.95
596.45	1955.46
596.80	1949.45
597.15	1943.10
597.50	1936.39
597.85	1929.98
598.19	1923.48
598.54	1916.70
598.89	1910.11
599.24	1904.09
599.59	1897.70
599.94	1891.50
600.29	1885.14
600.64	1878.44
600.99	1871.31
601.34	1864.66
601.69	1857.55
602.04	1850.95
602.39	1843.54
602.74	1836.84
603.08	1830.20
603.43	1823.42
603.78	1816.17
604.13	1808.85
604.48	1801.80
604.83	1794.91
605.18	1788.26
605.53	1780.47
605.87	1772.43
606.22	1765.25
606.57	1757.32
606.92	1749.64
607.27	1742.55
607.62	1735.77
607.96	1728.78
608.31	1722.21
608.66	1714.78
609.01	1707.56
609.36	1700.06
609.70	1692.03
610.05	1683.94
610.40	1676.37
610.75	1668.13
611.10	1660.46
611.44	1652.04
611.79	1643.87
612.14	1635.23
612.49	1625.97
612.83	1617.43
613.18	1609.20
613.53	1600.96
613.88	1592.37
614.22	1584.10
614.57	1575.35
614.92	1567.22
615.27	1559.69
615.61	1551.34
615.96	1542.97
616.31	1535.09
616.65	1527.51
617.00	1519.90
617.35	1512.09
617.70	1503.73
618.04	1495.20
618.39	1486.84
618.74	1479.29
619.08	1470.95
619.43	1463.14
619.78	1456.15
620.12	1448.97
620.47	1441.38
620.82	1433.14
621.16	1425.64
621.51	1417.88
621.85	1410.12
622.20	1401.52
622.55	1393.02
622.89	1385.06
623.24	1377.35
623.59	1369.81
623.93	1362.12
624.28	1354.82
624.62	1347.31
624.97	1340.02
625.32	1333.04
625.66	1325.89
626.01	1318.51
626.35	1311.15
626.70	1303.23
627.04	1295.40
627.39	1287.47
627.73	1279.94
628.08	1272.94
628.43	1265.66
628.77	1258.36
629.12	1250.86
629.46	1243.63
629.81	1235.93
630.15	1228.55
630.50	1221.10
630.84	1212.85
631.19	1204.85
631.53	1197.24
631.88	1189.53
632.22	1181.84
632.57	1174.49
632.91	1166.84
633.26	1159.46
633.60	1151.74
633.95	1144.63
634.29	1137.40
634.64	1130.63
634.98	1123.29
635.32	1116.11
635.67	1109.38
636.01	1102.65
636.36	1095.74
636.70	1089.12
637.05	1082.57
637.39	1076.02
637.73	1069.55
638.08	1063.67
638.42	1057.69
638.77	1051.17
639.11	1044.70
639.45	1038.15
639.80	1031.47
640.14	1025.08
640.49	1018.49
640.83	1012.21
641.17	1005.93
641.52	999.59
641.86	993.04
642.20	987.06
642.55	980.54
642.89	974.01
643.23	967.40
643.58	961.64
643.92	955.42
644.26	949.44
644.61	943.34
644.95	937.24
645.29	930.60
645.64	923.81
645.98	917.42
646.32	911.34
646.66	905.29
647.01	899.37
647.35	893.61
647.69	887.68
648.04	882.10
648.38	876.28
648.72	870.32
649.06	864.26
649.41	858.28
649.75	852.46
650.09	846.50
650.43	840.71
650.78	834.54
651.12	828.55
651.46	822.70
651.80	817.06
652.14	811.57
652.49	806.25
652.83	801.03
653.17	795.46
653.51	789.86
653.85	784.42
654.20	778.87
654.54	772.92
654.88	767.11
655.22	761.17
655.56	755.43
655.90	749.92
656.25	744.68
656.59	739.32
656.93	734.16
657.27	729.04
657.61	723.46
657.95	718.30
658.29	713.21
658.64	707.91
658.98	702.42
659.32	697.00
659.66	691.75
660.00	686.50
660.34	681.44
660.68	676.40
661.02	671.31
661.36	666.46
661.70	661.93
662.05	657.60
662.39	653.30
662.73	648.82
663.07	644.44
663.41	639.94
663.75	635.44
664.09	630.83
664.43	626.42
664.77	622.31
665.11	618.07
665.45	613.89
665.79	609.84
666.13	605.75
666.47	601.62
666.81	597.38
667.15	593.20
667.49	589.30
667.83	585.45
668.17	581.53
668.51	577.46
668.85	573.27
669.19	569.33
669.53	565.52
669.87	561.74
670.21	557.98
670.55	554.37
670.89	550.92
671.23	547.47
671.57	543.91
671.91	540.43
672.25	536.87
672.58	533.27
672.92	529.79
673.26	526.59
673.60	523.40
673.94	520.32
674.28	517.43
674.62	514.41
674.96	511.34
675.30	508.44
675.64	505.47
675.97	502.70
676.31	499.88
676.65	496.95
676.99	494.13
677.33	491.19
677.67	488.29
678.01	485.27
678.34	482.30
678.68	479.38
679.02	476.58
679.36	473.75
679.70	471.05
680.04	468.29
680.37	465.41
680.71	462.60
681.05	459.96
681.39	457.16
681.73	454.49
682.06	451.90
682.40	449.36
682.74	446.86
683.08	444.27
683.42	441.63
683.75	439.06
684.09	436.42
684.43	433.98
684.77	431.51
685.10	429.07
685.44	426.68
685.78	424.36
686.12	421.97
686.45	419.69
686.79	417.36
687.13	415.15
687.46	412.97
687.80	410.76
688.14	408.48
688.48	406.40
688.81	404.20
689.15	401.99
689.49	399.78
689.82	397.64
690.16	395.53
690.50	393.53
690.83	391.58
691.17	389.61
691.51	387.69
691.84	385.87
692.18	384.02
692.52	382.13
692.85	380.16
693.19	378.28
693.52	376.41
693.86	374.56
694.20	372.70
694.53	370.90
694.87	369.03
695.21	367.22
695.54	365.36
695.88	363.58
696.21	361.83
696.55	360.13
696.88	358.37
697.22	356.69
697.56	355.04
697.89	353.37
698.23	351.77
698.56	350.11
698.90	348.50
699.23	346.79
699.57	345.17
699.90	343.54
700.24	341.96
700.58	340.41
700.91	338.89
701.25	337.44
701.58	336.01
701.92	334.65
702.25	333.26
702.59	331.87
702.92	330.53
703.26	329.25
703.59	327.96
703.93	326.76
704.26	325.49
704.60	324.19
704.93	322.88
705.26	321.62
705.60	320.40
705.93	319.19
706.27	318.12
706.60	317.04
706.94	315.99
707.27	314.85
707.61	313.77
707.94	312.76
708.27	311.61
708.61	310.51
708.94	309.49
709.28	308.50
709.61	307.54
709.94	306.56
710.28	305.51
710.61	304.50
710.95	303.41
711.28	302.52
711.61	301.56
711.95	300.61
712.28	299.66
712.61	298.68
712.95	297.72
713.28	296.81
713.61	295.91
713.95	295.01
714.28	294.19
714.61	293.29
714.95	292.39
715.28	291.54
715.61	290.63
715.95	289.72
716.28	288.81
716.61	287.94
716.95	287.10
717.28	286.33
717.61	285.55
717.94	284.79
718.28	283.96
718.61	283.21
718.94	282.49
719.27	281.87
719.61	281.21
719.94	280.54
720.27	279.83
720.60	279.12
720.94	278.50
721.27	277.89
721.60	277.33
721.93	276.72
722.27	276.14
722.60	275.61
722.93	275.06
723.26	274.52
723.59	273.97
723.93	273.39
724.26	272.84
724.59	272.26
724.92	271.72
725.25	271.23
725.59	270.66
725.92	270.14
726.25	269.56
726.58	269.04
726.91	268.54
727.24	268.02
727.57	267.53
727.91	267.00
728.24	266.50
728.57	265.97
728.90	265.52
729.23	265.01
729.56	264.56
729.89	264.08
730.22	263.59
730.55	263.11
730.89	262.66
731.22	262.20
731.55	261.79
731.88	261.39
732.21	260.90
732.54	260.50
732.87	260.04
733.20	259.64
733.53	259.24
733.86	258.88
734.19	258.49
734.52	258.13
734.85	257.81
735.18	257.38
735.51	257.03
735.84	256.63
736.17	256.32
736.50	255.92
736.83	255.69
737.16	255.37
737.49	255.03
737.82	254.67
738.15	254.32
738.48	253.95
738.81	253.61
739.14	253.28
739.47	252.97
739.80	252.65
740.13	252.33
740.46	251.98
740.79	251.60
741.12	251.29
741.45	250.97
741.78	250.60
742.11	250.32
742.44	249.99
742.77	249.72
743.10	249.38
743.43	249.09
743.75	248.69
744.08	248.52
744.41	248.23
744.74	247.95
745.07	247.65
745.40	247.41
745.73	247.18
746.06	246.95
746.39	246.65
746.71	246.38
747.04	246.09
747.37	245.83
747.70	245.59
748.03	245.36
748.36	245.14
748.68	244.92
749.01	244.65
749.34	244.43
749.67	244.21
750.00	244.03
750.33	243.82
750.65	243.58
750.98	243.22
751.31	243.00
751.64	242.77
751.97	242.62
752.29	242.37
752.62	242.10
752.95	241.85
753.28	241.64
753.60	241.44
753.93	241.29
754.26	241.11
754.59	240.84
754.91	240.58
755.24	240.33
755.57	240.12
755.90	239.93
756.22	239.73
756.55	239.51
756.88	239.26
757.20	239.04
757.53	238.83
757.86	238.63
758.19	238.49
758.51	238.38
758.84	238.16
759.17	237.98
759.49	237.82
759.82	237.73
760.15	237.56
760.47	237.39
760.80	237.19
761.13	237.06
761.45	236.96
761.78	236.82
762.11	236.70
762.43	236.55
762.76	236.38
763.08	236.24
763.41	236.09
763.74	236.00
764.06	235.87
764.39	235.73
764.71	235.61
765.04	235.46
765.37	235.29
765.69	235.18
766.02	235.05
766.34	234.93
766.67	234.75
767.00	234.69
767.32	234.65
767.65	234.58
767.97	234.45
768.30	234.34
768.62	234.27
768.95	234.16
769.27	234.06
769.60	234.00
769.92	233.87
770.25	233.79
770.57	233.65
770.90	233.54
771.22	233.46
771.55	233.40
771.87	233.28
772.20	233.15
772.52	233.16
772.85	233.20
773.17	233.10
773.50	232.99
773.82	232.91
774.15	232.73
774.47	232.59
774.80	232.52
775.12	232.45
775.45	232.36
775.77	232.26
776.09	232.20
776.42	232.09
776.74	232.05
777.07	231.97
777.39	231.92
777.72	231.87
778.04	231.81
778.36	231.71
778.69	231.68
779.01	231.63
779.33	231.47
779.66	231.28
779.98	231.21
780.31	231.19
780.63	231.16
780.95	231.14
781.28	231.06
781.60	230.96
781.92	230.91
782.25	230.86
782.57	230.81
782.89	230.73
783.22	230.69
783.54	230.65
783.86	230.63
784.19	230.57
784.51	230.54
784.83	230.49
785.16	230.44
785.48	230.35
785.80	230.34
786.12	230.32
786.45	230.29
786.77	230.27
787.09	230.22
