SpectraSuite Data File
++++++++++++++++++++++++++++++++++++
Date: Fri Feb 01 18:09:37 EST 2013
User: group
Dark Spectrum Present: No
Reference Spectrum Present: No
Number of Sampled Component Spectra: 1
Spectrometers: USB2E7196
Integration Time (usec): 35000 (USB2E7196)
Spectra Averaged: 100 (USB2E7196)
Boxcar Smoothing: 10 (USB2E7196)
Correct for Electrical Dark: No (USB2E7196)
Strobe/Lamp Enabled: No (USB2E7196)
Correct for Detector Non-linearity: No (USB2E7196)
Correct for Stray Light: No (USB2E7196)
Number of Pixels in Processed Spectrum: 2048
>>>>>Begin Processed Spectral Data<<<<<
339.09	0.00
339.48	213.21
339.86	214.88
340.24	215.76
340.63	217.20
341.01	219.92
341.39	219.99
341.78	220.70
342.16	223.22
342.54	222.59
342.93	211.45
343.31	222.12
343.69	222.67
344.07	223.11
344.46	223.53
344.84	223.91
345.22	224.17
345.60	224.45
345.99	224.67
346.37	224.78
346.75	224.91
347.13	224.99
347.52	225.04
347.90	225.11
348.28	225.19
348.66	225.22
349.05	225.23
349.43	225.23
349.81	225.21
350.19	225.27
350.57	225.37
350.96	225.47
351.34	225.57
351.72	225.66
352.10	225.77
352.48	225.84
352.87	225.89
353.25	225.93
353.63	225.95
354.01	226.02
354.39	226.10
354.77	226.13
355.15	226.23
355.54	226.28
355.92	226.30
356.30	226.37
356.68	226.52
357.06	226.58
357.44	226.66
357.82	226.77
358.20	226.84
358.58	226.88
358.97	226.92
359.35	227.00
359.73	227.06
360.11	227.13
360.49	227.20
360.87	227.26
361.25	227.36
361.63	227.46
362.01	227.51
362.39	227.52
362.77	227.61
363.15	227.63
363.53	227.65
363.91	227.68
364.29	227.71
364.67	227.66
365.05	227.67
365.43	227.73
365.81	227.74
366.19	227.79
366.57	227.83
366.95	227.86
367.33	227.83
367.71	227.82
368.09	227.81
368.47	227.80
368.85	227.81
369.23	227.79
369.61	227.73
369.99	227.73
370.37	227.72
370.75	227.73
371.13	227.70
371.51	227.68
371.89	227.71
372.27	227.69
372.65	227.65
373.03	227.64
373.41	227.56
373.78	227.55
374.16	227.46
374.54	227.40
374.92	227.35
375.30	227.29
375.68	227.22
376.06	227.17
376.44	227.11
376.82	227.02
377.19	226.96
377.57	226.93
377.95	226.84
378.33	226.81
378.71	226.69
379.09	226.61
379.47	226.59
379.84	226.48
380.22	226.41
380.60	226.37
380.98	226.29
381.36	226.23
381.73	226.15
382.11	226.08
382.49	226.02
382.87	225.96
383.25	225.92
383.62	225.97
384.00	225.88
384.38	225.85
384.76	225.85
385.13	225.85
385.51	225.76
385.89	225.73
386.27	225.68
386.64	225.66
387.02	225.62
387.40	225.56
387.78	225.52
388.15	225.48
388.53	225.43
388.91	225.40
389.29	225.36
389.66	225.31
390.04	225.29
390.42	225.23
390.79	225.19
391.17	225.17
391.55	225.05
391.92	225.05
392.30	225.03
392.68	224.98
393.05	224.94
393.43	224.93
393.81	224.91
394.18	224.89
394.56	224.88
394.94	224.90
395.31	224.88
395.69	224.93
396.06	224.92
396.44	224.94
396.82	224.97
397.19	225.06
397.57	225.09
397.95	225.14
398.32	225.18
398.70	225.24
399.07	225.30
399.45	225.36
399.82	225.39
400.20	225.43
400.58	225.50
400.95	225.54
401.33	225.67
401.70	225.83
402.08	225.91
402.45	226.02
402.83	226.15
403.20	226.28
403.58	226.38
403.95	226.56
404.33	226.68
404.71	226.81
405.08	227.02
405.46	227.21
405.83	227.40
406.21	227.59
406.58	227.78
406.96	227.96
407.33	228.19
407.70	228.44
408.08	228.77
408.45	229.02
408.83	229.32
409.20	229.60
409.58	229.83
409.95	230.15
410.33	230.50
410.70	230.84
411.08	231.24
411.45	231.64
411.82	232.02
412.20	232.48
412.57	233.03
412.95	233.41
413.32	233.94
413.69	234.48
414.07	235.06
414.44	235.73
414.82	236.39
415.19	237.11
415.56	237.91
415.94	238.65
416.31	239.57
416.68	240.46
417.06	241.42
417.43	242.40
417.81	243.47
418.18	244.55
418.55	245.73
418.93	246.96
419.30	248.23
419.67	249.58
420.04	250.94
420.42	252.36
420.79	253.97
421.16	255.60
421.54	257.24
421.91	258.95
422.28	260.69
422.66	262.55
423.03	264.35
423.40	266.19
423.77	268.21
424.15	270.22
424.52	272.29
424.89	274.58
425.26	276.75
425.64	278.78
426.01	281.05
426.38	283.37
426.75	285.71
427.13	288.11
427.50	290.62
427.87	293.30
428.24	295.90
428.61	298.38
428.99	301.06
429.36	304.05
429.73	306.94
430.10	309.83
430.47	312.75
430.85	315.80
431.22	318.97
431.59	322.25
431.96	325.41
432.33	328.89
432.70	332.23
433.08	336.16
433.45	339.87
433.82	343.52
434.19	347.52
434.56	351.40
434.93	355.16
435.30	358.82
435.68	362.81
436.05	366.82
436.42	370.74
436.79	374.27
437.16	378.03
437.53	382.01
437.90	385.93
438.27	389.73
438.64	393.70
439.01	397.29
439.38	400.46
439.75	403.48
440.13	407.01
440.50	410.23
440.87	412.81
441.24	415.60
441.61	418.63
441.98	420.76
442.35	423.32
442.72	425.90
443.09	428.43
443.46	429.81
443.83	430.60
444.20	431.34
444.57	432.58
444.94	432.98
445.31	433.46
445.68	433.89
446.05	434.03
446.42	433.47
446.79	432.90
447.16	432.26
447.53	431.81
447.90	430.14
448.27	428.51
448.64	426.29
449.01	424.62
449.37	421.78
449.74	419.12
450.11	415.93
450.48	412.47
450.85	408.94
451.22	405.96
451.59	403.12
451.96	400.39
452.33	396.68
452.70	393.37
453.07	389.44
453.43	385.49
453.80	381.64
454.17	377.88
454.54	374.33
454.91	370.52
455.28	366.81
455.65	363.34
456.02	359.89
456.38	356.91
456.75	353.14
457.12	350.00
457.49	346.85
457.86	343.86
458.23	341.19
458.59	338.32
458.96	335.35
459.33	332.76
459.70	330.14
460.07	328.04
460.43	325.64
460.80	323.33
461.17	321.26
461.54	319.10
461.91	317.08
462.27	315.05
462.64	313.26
463.01	311.32
463.38	309.46
463.74	307.58
464.11	305.94
464.48	304.53
464.85	303.00
465.21	301.75
465.58	300.42
465.95	298.89
466.32	297.59
466.68	296.35
467.05	295.07
467.42	293.81
467.78	292.47
468.15	291.23
468.52	290.24
468.88	289.02
469.25	287.92
469.62	287.02
469.98	286.01
470.35	285.11
470.72	284.27
471.08	283.35
471.45	282.57
471.82	281.75
472.18	280.87
472.55	280.23
472.92	279.46
473.28	278.82
473.65	278.20
474.02	277.55
474.38	276.99
474.75	276.46
475.11	275.93
475.48	275.52
475.85	275.15
476.21	274.77
476.58	274.40
476.94	274.13
477.31	273.82
477.67	273.58
478.04	273.39
478.41	273.22
478.77	273.17
479.14	273.00
479.50	272.92
479.87	272.91
480.23	272.93
480.60	272.95
480.96	272.97
481.33	273.06
481.69	273.24
482.06	273.38
482.42	273.53
482.79	273.68
483.15	273.96
483.52	274.28
483.88	274.62
484.25	275.02
484.61	275.42
484.98	275.86
485.34	276.38
485.71	276.94
486.07	277.53
486.44	278.06
486.80	278.76
487.17	279.50
487.53	280.33
487.90	281.18
488.26	282.17
488.62	283.21
488.99	284.28
489.35	285.32
489.72	286.50
490.08	287.78
490.44	289.14
490.81	290.55
491.17	291.99
491.54	293.52
491.90	295.15
492.26	296.90
492.63	298.73
492.99	300.61
493.36	302.65
493.72	304.81
494.08	307.06
494.45	309.48
494.81	312.03
495.17	314.63
495.54	317.39
495.90	320.23
496.26	323.16
496.63	326.31
496.99	329.67
497.35	333.16
497.72	336.85
498.08	340.61
498.44	344.51
498.80	348.74
499.17	353.12
499.53	357.57
499.89	362.29
500.26	367.09
500.62	372.16
500.98	377.49
501.34	382.98
501.71	388.71
502.07	394.57
502.43	400.62
502.79	406.87
503.16	413.40
503.52	420.14
503.88	426.98
504.24	434.09
504.60	441.53
504.97	449.25
505.33	457.09
505.69	465.41
506.05	473.78
506.41	482.23
506.78	490.92
507.14	500.07
507.50	509.41
507.86	519.21
508.22	529.16
508.59	539.05
508.95	549.38
509.31	560.02
509.67	571.05
510.03	582.13
510.39	593.59
510.75	605.28
511.12	617.14
511.48	629.51
511.84	641.98
512.20	654.43
512.56	667.36
512.92	680.61
513.28	694.11
513.64	707.71
514.00	721.63
514.37	735.81
514.73	750.12
515.09	764.42
515.45	778.91
515.81	793.78
516.17	809.11
516.53	824.60
516.89	840.20
517.25	855.71
517.61	871.60
517.97	887.57
518.33	903.51
518.69	919.81
519.05	936.29
519.41	953.07
519.77	970.27
520.13	987.39
520.49	1004.48
520.85	1021.49
521.21	1038.82
521.57	1056.77
521.93	1074.32
522.29	1092.40
522.65	1110.60
523.01	1128.63
523.37	1146.59
523.73	1164.59
524.09	1182.61
524.45	1200.73
524.81	1219.19
525.17	1238.01
525.53	1256.93
525.89	1275.77
526.25	1294.69
526.61	1313.10
526.97	1331.86
527.33	1350.43
527.68	1368.99
528.04	1387.52
528.40	1406.18
528.76	1425.59
529.12	1444.36
529.48	1463.58
529.84	1481.82
530.20	1500.66
530.56	1519.96
530.91	1539.70
531.27	1558.90
531.63	1577.57
531.99	1596.60
532.35	1615.15
532.71	1633.38
533.07	1651.99
533.42	1670.33
533.78	1688.86
534.14	1707.68
534.50	1725.41
534.86	1743.69
535.21	1761.44
535.57	1779.81
535.93	1797.82
536.29	1815.03
536.65	1832.52
537.00	1849.59
537.36	1867.60
537.72	1884.53
538.08	1901.50
538.44	1917.73
538.79	1934.06
539.15	1950.27
539.51	1966.55
539.87	1983.35
540.22	1999.63
540.58	2015.89
540.94	2031.77
541.29	2047.01
541.65	2062.19
542.01	2078.19
542.37	2093.08
542.72	2108.05
543.08	2122.57
543.44	2137.61
543.79	2151.51
544.15	2165.02
544.51	2179.33
544.87	2192.63
545.22	2206.10
545.58	2218.82
545.94	2231.11
546.29	2243.47
546.65	2255.99
547.01	2267.69
547.36	2278.81
547.72	2289.73
548.07	2300.08
548.43	2310.52
548.79	2320.74
549.14	2330.64
549.50	2340.04
549.86	2349.90
550.21	2359.61
550.57	2368.95
550.92	2377.79
551.28	2387.02
551.64	2396.39
551.99	2404.98
552.35	2413.46
552.70	2421.62
553.06	2429.69
553.41	2437.93
553.77	2446.09
554.13	2453.95
554.48	2462.14
554.84	2469.83
555.19	2476.91
555.55	2484.03
555.90	2490.51
556.26	2497.60
556.61	2504.19
556.97	2510.55
557.32	2516.62
557.68	2522.42
558.03	2528.51
558.39	2533.82
558.74	2540.21
559.10	2545.77
559.45	2551.11
559.81	2556.92
560.16	2562.52
560.52	2567.42
560.87	2572.59
561.23	2576.87
561.58	2581.53
561.94	2585.66
562.29	2589.19
562.64	2593.51
563.00	2597.49
563.35	2602.54
563.71	2607.16
564.06	2611.81
564.42	2616.06
564.77	2619.91
565.12	2623.84
565.48	2627.05
565.83	2630.23
566.19	2632.96
566.54	2635.04
566.89	2637.61
567.25	2639.56
567.60	2641.93
567.96	2644.85
568.31	2646.77
568.66	2648.85
569.02	2650.34
569.37	2651.51
569.72	2653.53
570.08	2654.84
570.43	2655.60
570.78	2655.76
571.14	2654.84
571.49	2653.97
571.84	2654.22
572.20	2653.84
572.55	2653.18
572.90	2651.93
573.26	2651.04
573.61	2649.46
573.96	2648.30
574.31	2645.43
574.67	2642.56
575.02	2639.05
575.37	2635.64
575.72	2631.96
576.08	2628.56
576.43	2625.26
576.78	2621.85
577.13	2618.64
577.49	2615.16
577.84	2611.77
578.19	2607.78
578.54	2604.13
578.90	2600.01
579.25	2594.13
579.60	2588.92
579.95	2583.68
580.30	2578.38
580.66	2572.92
581.01	2567.65
581.36	2562.19
581.71	2557.69
582.06	2552.94
582.42	2548.24
582.77	2542.69
583.12	2537.92
583.47	2532.93
583.82	2527.76
584.17	2521.85
584.53	2515.79
584.88	2509.58
585.23	2503.25
585.58	2497.29
585.93	2491.14
586.28	2485.60
586.63	2480.07
586.98	2474.40
587.34	2468.91
587.69	2463.42
588.04	2457.52
588.39	2451.20
588.74	2443.82
589.09	2436.80
589.44	2429.02
589.79	2421.87
590.14	2415.36
590.49	2407.63
590.84	2400.31
591.19	2393.21
591.54	2385.70
591.89	2377.38
592.25	2369.79
592.60	2361.48
592.95	2352.87
593.30	2344.41
593.65	2335.70
594.00	2327.47
594.35	2318.94
594.70	2309.65
595.05	2301.52
595.40	2293.08
595.75	2284.32
596.10	2277.25
596.45	2269.51
596.80	2262.40
597.15	2254.88
597.50	2246.92
597.85	2239.23
598.19	2231.46
598.54	2223.36
598.89	2215.66
599.24	2208.62
599.59	2200.95
599.94	2193.47
600.29	2185.76
600.64	2177.95
600.99	2169.21
601.34	2161.25
601.69	2153.05
602.04	2145.09
602.39	2136.24
602.74	2128.13
603.08	2120.06
603.43	2111.94
603.78	2103.13
604.13	2094.56
604.48	2085.96
604.83	2077.57
605.18	2069.58
605.53	2060.17
605.87	2050.50
606.22	2041.78
606.57	2032.13
606.92	2022.93
607.27	2014.65
607.62	2006.66
607.96	1998.06
608.31	1990.43
608.66	1981.39
609.01	1972.41
609.36	1963.39
609.70	1953.82
610.05	1944.24
610.40	1935.24
610.75	1925.38
611.10	1916.23
611.44	1906.02
611.79	1896.26
612.14	1885.87
612.49	1874.76
612.83	1864.54
613.18	1854.72
613.53	1844.98
613.88	1834.90
614.22	1825.25
614.57	1814.67
614.92	1804.92
615.27	1795.95
615.61	1785.90
615.96	1776.05
616.31	1766.83
616.65	1757.90
617.00	1748.90
617.35	1739.61
617.70	1729.59
618.04	1719.47
618.39	1709.68
618.74	1700.74
619.08	1690.84
619.43	1681.76
619.78	1673.37
620.12	1665.03
620.47	1656.06
620.82	1646.20
621.16	1637.11
621.51	1627.80
621.85	1618.53
622.20	1608.32
622.55	1597.99
622.89	1588.42
623.24	1579.20
623.59	1570.18
623.93	1561.12
624.28	1552.30
624.62	1543.27
624.97	1534.57
625.32	1526.18
625.66	1517.54
626.01	1508.87
626.35	1500.05
626.70	1490.74
627.04	1481.57
627.39	1471.93
627.73	1462.96
628.08	1454.72
628.43	1446.19
628.77	1437.48
629.12	1428.62
629.46	1420.05
629.81	1411.21
630.15	1402.49
630.50	1393.69
630.84	1384.03
631.19	1374.48
631.53	1365.48
631.88	1356.45
632.22	1347.41
632.57	1338.69
632.91	1329.71
633.26	1320.86
633.60	1311.89
633.95	1303.20
634.29	1294.67
634.64	1286.71
634.98	1277.97
635.32	1269.46
635.67	1261.48
636.01	1253.45
636.36	1245.27
636.70	1237.37
637.05	1229.53
637.39	1221.82
637.73	1214.15
638.08	1207.04
638.42	1199.88
638.77	1192.27
639.11	1184.44
639.45	1176.83
639.80	1168.97
640.14	1161.52
640.49	1153.69
640.83	1146.26
641.17	1139.05
641.52	1131.58
641.86	1123.86
642.20	1116.88
642.55	1109.32
642.89	1101.68
643.23	1093.83
643.58	1087.09
643.92	1079.81
644.26	1072.72
644.61	1065.50
644.95	1058.33
645.29	1050.62
645.64	1042.66
645.98	1035.12
646.32	1028.09
646.66	1020.92
647.01	1014.11
647.35	1007.24
647.69	1000.30
648.04	993.73
648.38	986.83
648.72	979.79
649.06	972.76
649.41	965.83
649.75	958.76
650.09	951.70
650.43	944.90
650.78	937.58
651.12	930.60
651.46	923.76
651.80	917.09
652.14	910.62
652.49	904.20
652.83	898.05
653.17	891.42
653.51	884.73
653.85	878.28
654.20	871.61
654.54	864.49
654.88	857.74
655.22	850.78
655.56	844.00
655.90	837.43
656.25	831.19
656.59	824.80
656.93	818.90
657.27	812.84
657.61	806.41
657.95	800.37
658.29	794.35
658.64	788.11
658.98	781.77
659.32	775.36
659.66	769.20
660.00	763.04
660.34	757.20
660.68	751.39
661.02	745.48
661.36	739.87
661.70	734.60
662.05	729.48
662.39	724.43
662.73	719.20
663.07	714.12
663.41	708.84
663.75	703.63
664.09	698.17
664.43	693.00
664.77	688.24
665.11	683.13
665.45	678.24
665.79	673.52
666.13	668.69
666.47	663.87
666.81	659.03
667.15	654.13
667.49	649.48
667.83	644.91
668.17	640.27
668.51	635.54
668.85	630.82
669.19	626.17
669.53	621.59
669.87	617.02
670.21	612.67
670.55	608.46
670.89	604.35
671.23	600.31
671.57	596.15
671.91	591.98
672.25	587.92
672.58	583.73
672.92	579.64
673.26	575.86
673.60	572.16
673.94	568.52
674.28	565.10
674.62	561.62
674.96	558.06
675.30	554.71
675.64	551.26
675.97	547.94
676.31	544.64
676.65	541.24
676.99	538.05
677.33	534.66
677.67	531.34
678.01	527.86
678.34	524.40
678.68	521.00
679.02	517.69
679.36	514.44
679.70	511.28
680.04	508.12
680.37	504.88
680.71	501.61
681.05	498.56
681.39	495.42
681.73	492.34
682.06	489.39
682.40	486.40
682.74	483.42
683.08	480.42
683.42	477.36
683.75	474.42
684.09	471.37
684.43	468.48
684.77	465.52
685.10	462.68
685.44	460.00
685.78	457.31
686.12	454.64
686.45	451.92
686.79	449.25
687.13	446.61
687.46	443.95
687.80	441.38
688.14	438.67
688.48	436.20
688.81	433.56
689.15	430.99
689.49	428.36
689.82	425.90
690.16	423.45
690.50	421.10
690.83	418.82
691.17	416.49
691.51	414.23
691.84	412.07
692.18	409.83
692.52	407.48
692.85	405.16
693.19	402.97
693.52	400.81
693.86	398.58
694.20	396.46
694.53	394.41
694.87	392.25
695.21	390.13
695.54	387.94
695.88	385.88
696.21	383.83
696.55	381.88
696.88	379.84
697.22	377.87
697.56	375.92
697.89	373.97
698.23	372.10
698.56	370.17
698.90	368.33
699.23	366.40
699.57	364.54
699.90	362.71
700.24	360.86
700.58	359.05
700.91	357.33
701.25	355.57
701.58	353.94
701.92	352.34
702.25	350.75
702.59	349.13
702.92	347.59
703.26	346.00
703.59	344.50
703.93	343.08
704.26	341.60
704.60	340.12
704.93	338.65
705.26	337.21
705.60	335.82
705.93	334.40
706.27	333.14
706.60	331.91
706.94	330.65
707.27	329.31
707.61	328.02
707.94	326.79
708.27	325.56
708.61	324.24
708.94	323.00
709.28	321.83
709.61	320.67
709.94	319.50
710.28	318.29
710.61	317.10
710.95	315.82
711.28	314.71
711.61	313.56
711.95	312.46
712.28	311.33
712.61	310.17
712.95	309.07
713.28	307.97
713.61	306.89
713.95	305.85
714.28	304.84
714.61	303.83
714.95	302.86
715.28	301.86
715.61	300.85
715.95	299.81
716.28	298.79
716.61	297.84
716.95	296.88
717.28	296.04
717.61	295.11
717.94	294.29
718.28	293.34
718.61	292.49
718.94	291.66
719.27	290.91
719.61	290.15
719.94	289.36
720.27	288.55
720.60	287.78
720.94	287.03
721.27	286.34
721.60	285.67
721.93	284.95
722.27	284.28
722.60	283.63
722.93	282.97
723.26	282.32
723.59	281.64
723.93	281.01
724.26	280.36
724.59	279.72
724.92	279.11
725.25	278.53
725.59	277.89
725.92	277.28
726.25	276.65
726.58	276.10
726.91	275.50
727.24	274.95
727.57	274.40
727.91	273.77
728.24	273.18
728.57	272.58
728.90	272.03
729.23	271.46
729.56	270.93
729.89	270.40
730.22	269.85
730.55	269.32
730.89	268.80
731.22	268.29
731.55	267.78
731.88	267.28
732.21	266.79
732.54	266.26
732.87	265.73
733.20	265.23
733.53	264.73
733.86	264.30
734.19	263.85
734.52	263.42
734.85	263.08
735.18	262.66
735.51	262.26
735.84	261.83
736.17	261.39
736.50	260.93
736.83	260.66
737.16	260.28
737.49	259.86
737.82	259.47
738.15	259.04
738.48	258.62
738.81	258.21
739.14	257.80
739.47	257.47
739.80	257.12
740.13	256.79
740.46	256.38
740.79	255.99
741.12	255.61
741.45	255.22
741.78	254.80
742.11	254.39
742.44	254.00
742.77	253.66
743.10	253.31
743.43	252.93
743.75	252.45
744.08	252.22
744.41	251.92
744.74	251.59
745.07	251.25
745.40	250.96
745.73	250.68
746.06	250.33
746.39	249.98
746.71	249.67
747.04	249.33
747.37	249.02
747.70	248.74
748.03	248.44
748.36	248.18
748.68	247.87
749.01	247.63
749.34	247.35
749.67	247.11
750.00	246.82
750.33	246.64
750.65	246.38
750.98	246.01
751.31	245.75
751.64	245.46
751.97	245.27
752.29	245.03
752.62	244.76
752.95	244.55
753.28	244.34
753.60	244.11
753.93	243.90
754.26	243.70
754.59	243.43
754.91	243.14
755.24	242.93
755.57	242.74
755.90	242.52
756.22	242.31
756.55	242.09
756.88	241.88
757.20	241.63
757.53	241.42
757.86	241.23
758.19	241.02
758.51	240.86
758.84	240.60
759.17	240.39
759.49	240.20
759.82	240.05
760.15	239.81
760.47	239.62
760.80	239.44
761.13	239.28
761.45	239.13
761.78	239.02
762.11	238.81
762.43	238.63
762.76	238.47
763.08	238.32
763.41	238.13
763.74	237.98
764.06	237.80
764.39	237.63
764.71	237.46
765.04	237.30
765.37	237.15
765.69	237.01
766.02	236.87
766.34	236.71
766.67	236.54
767.00	236.49
767.32	236.41
767.65	236.34
767.97	236.24
768.30	236.08
768.62	235.94
768.95	235.85
769.27	235.72
769.60	235.58
769.92	235.44
770.25	235.34
770.57	235.22
770.90	235.11
771.22	235.00
771.55	234.87
771.87	234.77
772.20	234.64
772.52	234.66
772.85	234.64
773.17	234.54
773.50	234.43
773.82	234.30
774.15	234.13
774.47	233.95
774.80	233.81
775.12	233.74
775.45	233.64
775.77	233.54
776.09	233.47
776.42	233.39
776.74	233.33
777.07	233.19
777.39	233.13
777.72	233.02
778.04	232.95
778.36	232.88
778.69	232.80
779.01	232.73
779.33	232.55
779.66	232.37
779.98	232.28
780.31	232.21
780.63	232.16
780.95	232.13
781.28	232.05
781.60	231.94
781.92	231.87
782.25	231.80
782.57	231.70
782.89	231.60
783.22	231.50
783.54	231.42
783.86	231.39
784.19	231.28
784.51	231.28
784.83	231.22
785.16	231.14
785.48	231.11
785.80	231.06
786.12	231.01
786.45	230.98
