SpectraSuite Data File
++++++++++++++++++++++++++++++++++++
Date: Fri Feb 01 14:59:05 EST 2013
User: group
Dark Spectrum Present: No
Reference Spectrum Present: No
Number of Sampled Component Spectra: 1
Spectrometers: USB2E7196
Integration Time (usec): 35000 (USB2E7196)
Spectra Averaged: 100 (USB2E7196)
Boxcar Smoothing: 10 (USB2E7196)
Correct for Electrical Dark: No (USB2E7196)
Strobe/Lamp Enabled: No (USB2E7196)
Correct for Detector Non-linearity: No (USB2E7196)
Correct for Stray Light: No (USB2E7196)
Number of Pixels in Processed Spectrum: 2048
>>>>>Begin Processed Spectral Data<<<<<
339.09	0.00
339.48	215.51
339.86	216.52
340.24	218.19
340.63	219.65
341.01	222.85
341.39	222.13
341.78	223.67
342.16	224.32
342.54	225.24
342.93	213.71
343.31	224.53
343.69	225.06
344.07	225.54
344.46	225.95
344.84	226.36
345.22	226.58
345.60	226.84
345.99	227.04
346.37	227.22
346.75	227.34
347.13	227.40
347.52	227.49
347.90	227.57
348.28	227.57
348.66	227.61
349.05	227.64
349.43	227.68
349.81	227.74
350.19	227.78
350.57	227.83
350.96	227.93
351.34	227.99
351.72	228.07
352.10	228.16
352.48	228.24
352.87	228.25
353.25	228.31
353.63	228.38
354.01	228.45
354.39	228.51
354.77	228.59
355.15	228.69
355.54	228.72
355.92	228.79
356.30	228.88
356.68	229.04
357.06	229.10
357.44	229.15
357.82	229.24
358.20	229.34
358.58	229.40
358.97	229.44
359.35	229.50
359.73	229.59
360.11	229.65
360.49	229.67
360.87	229.73
361.25	229.81
361.63	229.87
362.01	229.89
362.39	229.91
362.77	229.93
363.15	229.93
363.53	229.95
363.91	229.94
364.29	229.94
364.67	229.83
365.05	229.83
365.43	229.81
365.81	229.82
366.19	229.82
366.57	229.85
366.95	229.83
367.33	229.80
367.71	229.74
368.09	229.76
368.47	229.76
368.85	229.73
369.23	229.71
369.61	229.65
369.99	229.64
370.37	229.62
370.75	229.60
371.13	229.56
371.51	229.51
371.89	229.47
372.27	229.40
372.65	229.36
373.03	229.29
373.41	229.22
373.78	229.15
374.16	229.03
374.54	228.93
374.92	228.85
375.30	228.78
375.68	228.75
376.06	228.63
376.44	228.59
376.82	228.50
377.19	228.36
377.57	228.30
377.95	228.22
378.33	228.13
378.71	228.02
379.09	227.94
379.47	227.85
379.84	227.75
380.22	227.66
380.60	227.54
380.98	227.45
381.36	227.39
381.73	227.30
382.11	227.29
382.49	227.23
382.87	227.13
383.25	227.06
383.62	227.07
384.00	227.01
384.38	226.95
384.76	226.91
385.13	226.92
385.51	226.84
385.89	226.76
386.27	226.72
386.64	226.68
387.02	226.63
387.40	226.58
387.78	226.55
388.15	226.51
388.53	226.51
388.91	226.48
389.29	226.43
389.66	226.42
390.04	226.38
390.42	226.36
390.79	226.35
391.17	226.32
391.55	226.20
391.92	226.16
392.30	226.13
392.68	226.13
393.05	226.15
393.43	226.16
393.81	226.18
394.18	226.18
394.56	226.19
394.94	226.22
395.31	226.24
395.69	226.34
396.06	226.43
396.44	226.44
396.82	226.52
397.19	226.62
397.57	226.65
397.95	226.69
398.32	226.73
398.70	226.82
399.07	226.95
399.45	227.05
399.82	227.17
400.20	227.30
400.58	227.37
400.95	227.43
401.33	227.52
401.70	227.68
402.08	227.76
402.45	227.87
402.83	227.98
403.20	228.11
403.58	228.19
403.95	228.34
404.33	228.51
404.71	228.63
405.08	228.81
405.46	228.97
405.83	229.13
406.21	229.29
406.58	229.45
406.96	229.61
407.33	229.78
407.70	230.00
408.08	230.26
408.45	230.46
408.83	230.67
409.20	230.93
409.58	231.12
409.95	231.42
410.33	231.70
410.70	232.00
411.08	232.28
411.45	232.60
411.82	232.87
412.20	233.21
412.57	233.62
412.95	233.94
413.32	234.35
413.69	234.77
414.07	235.22
414.44	235.69
414.82	236.18
415.19	236.74
415.56	237.27
415.94	237.80
416.31	238.47
416.68	239.15
417.06	239.83
417.43	240.51
417.81	241.22
418.18	242.00
418.55	242.82
418.93	243.73
419.30	244.62
419.67	245.57
420.04	246.51
420.42	247.52
420.79	248.68
421.16	249.82
421.54	251.02
421.91	252.24
422.28	253.48
422.66	254.80
423.03	256.07
423.40	257.38
423.77	258.77
424.15	260.17
424.52	261.61
424.89	263.22
425.26	264.77
425.64	266.24
426.01	267.82
426.38	269.47
426.75	271.07
427.13	272.79
427.50	274.61
427.87	276.52
428.24	278.39
428.61	280.11
428.99	282.07
429.36	284.18
429.73	286.24
430.10	288.29
430.47	290.30
430.85	292.45
431.22	294.68
431.59	297.08
431.96	299.32
432.33	301.82
432.70	304.21
433.08	307.04
433.45	309.69
433.82	312.29
434.19	315.20
434.56	318.03
434.93	320.72
435.30	323.36
435.68	326.27
436.05	329.05
436.42	331.88
436.79	334.35
437.16	337.05
437.53	339.91
437.90	342.75
438.27	345.52
438.64	348.39
439.01	351.09
439.38	353.38
439.75	355.59
440.13	358.08
440.50	360.41
440.87	362.28
441.24	364.25
441.61	366.37
441.98	367.85
442.35	369.70
442.72	371.59
443.09	373.40
443.46	374.39
443.83	375.02
444.20	375.53
444.57	376.42
444.94	376.71
445.31	377.05
445.68	377.42
446.05	377.51
446.42	377.09
446.79	376.61
447.16	376.14
447.53	375.82
447.90	374.68
448.27	373.56
448.64	371.97
449.01	370.83
449.37	368.92
449.74	367.09
450.11	364.86
450.48	362.36
450.85	359.81
451.22	357.64
451.59	355.63
451.96	353.69
452.33	351.12
452.70	348.76
453.07	345.93
453.43	343.02
453.80	340.28
454.17	337.63
454.54	335.05
454.91	332.34
455.28	329.65
455.65	327.14
456.02	324.68
456.38	322.53
456.75	319.86
457.12	317.60
457.49	315.30
457.86	313.16
458.23	311.25
458.59	309.21
458.96	307.12
459.33	305.25
459.70	303.38
460.07	301.80
460.43	300.07
460.80	298.44
461.17	296.97
461.54	295.48
461.91	294.00
462.27	292.56
462.64	291.27
463.01	289.89
463.38	288.61
463.74	287.16
464.11	285.98
464.48	284.94
464.85	283.82
465.21	282.92
465.58	281.96
465.95	280.90
466.32	279.99
466.68	279.06
467.05	278.15
467.42	277.24
467.78	276.32
468.15	275.44
468.52	274.78
468.88	273.90
469.25	273.09
469.62	272.49
469.98	271.82
470.35	271.17
470.72	270.56
471.08	269.86
471.45	269.37
471.82	268.84
472.18	268.23
472.55	267.79
472.92	267.27
473.28	266.78
473.65	266.29
474.02	265.82
474.38	265.45
474.75	265.09
475.11	264.73
475.48	264.46
475.85	264.21
476.21	263.93
476.58	263.75
476.94	263.59
477.31	263.38
477.67	263.21
478.04	263.11
478.41	263.05
478.77	263.09
479.14	262.98
479.50	262.97
479.87	263.05
480.23	263.13
480.60	263.17
480.96	263.26
481.33	263.47
481.69	263.65
482.06	263.85
482.42	264.08
482.79	264.35
483.15	264.65
483.52	265.03
483.88	265.36
484.25	265.73
484.61	266.14
484.98	266.60
485.34	267.16
485.71	267.75
486.07	268.36
486.44	268.96
486.80	269.64
487.17	270.36
487.53	271.15
487.90	272.00
488.26	272.97
488.62	273.95
488.99	274.94
489.35	276.01
489.72	277.11
490.08	278.27
490.44	279.53
490.81	280.87
491.17	282.19
491.54	283.70
491.90	285.26
492.26	286.91
492.63	288.62
492.99	290.39
493.36	292.26
493.72	294.32
494.08	296.36
494.45	298.65
494.81	300.98
495.17	303.42
495.54	305.94
495.90	308.64
496.26	311.45
496.63	314.38
496.99	317.48
497.35	320.71
497.72	324.10
498.08	327.57
498.44	331.17
498.80	335.09
499.17	339.11
499.53	343.19
499.89	347.53
500.26	352.00
500.62	356.65
500.98	361.55
501.34	366.64
501.71	371.99
502.07	377.38
502.43	383.00
502.79	388.80
503.16	394.89
503.52	401.11
503.88	407.43
504.24	414.09
504.60	420.95
504.97	428.10
505.33	435.44
505.69	443.13
506.05	450.90
506.41	458.74
506.78	466.92
507.14	475.36
507.50	484.12
507.86	493.11
508.22	502.28
508.59	511.42
508.95	520.98
509.31	530.71
509.67	540.80
510.03	551.04
510.39	561.58
510.75	572.35
511.12	583.24
511.48	594.54
511.84	605.92
512.20	617.47
512.56	629.36
512.92	641.47
513.28	653.70
513.64	666.25
514.00	678.92
514.37	691.84
514.73	704.87
515.09	717.87
515.45	731.22
515.81	744.81
516.17	758.89
516.53	772.99
516.89	787.13
517.25	801.30
517.61	815.76
517.97	830.24
518.33	844.65
518.69	859.36
519.05	874.35
519.41	889.52
519.77	905.03
520.13	920.56
520.49	935.99
520.85	951.62
521.21	967.42
521.57	983.65
521.93	999.41
522.29	1015.85
522.65	1032.15
523.01	1048.40
523.37	1064.55
523.73	1080.79
524.09	1096.85
524.45	1113.34
524.81	1130.09
525.17	1147.00
525.53	1163.90
525.89	1180.89
526.25	1197.93
526.61	1214.37
526.97	1231.17
527.33	1247.73
527.68	1264.34
528.04	1280.89
528.40	1297.53
528.76	1314.59
529.12	1331.37
529.48	1348.36
529.84	1364.58
530.20	1381.37
530.56	1398.54
530.91	1415.94
531.27	1432.72
531.63	1449.35
531.99	1465.98
532.35	1482.02
532.71	1497.92
533.07	1514.36
533.42	1530.29
533.78	1546.42
534.14	1562.86
534.50	1578.34
534.86	1594.34
535.21	1609.54
535.57	1625.64
535.93	1641.13
536.29	1656.00
536.65	1671.13
537.00	1686.07
537.36	1701.49
537.72	1715.99
538.08	1730.38
538.44	1744.38
538.79	1758.41
539.15	1772.33
539.51	1786.23
539.87	1800.72
540.22	1814.52
540.58	1828.31
540.94	1841.82
541.29	1854.82
541.65	1867.64
542.01	1880.97
542.37	1893.26
542.72	1905.79
543.08	1917.63
543.44	1930.20
543.79	1941.38
544.15	1952.40
544.51	1963.96
544.87	1974.87
545.22	1985.74
545.58	1996.01
545.94	2005.79
546.29	2015.75
546.65	2025.40
547.01	2034.60
547.36	2043.35
547.72	2051.89
548.07	2059.80
548.43	2067.98
548.79	2076.11
549.14	2083.63
549.50	2091.13
549.86	2099.01
550.21	2106.49
550.57	2113.75
550.92	2120.30
551.28	2127.58
551.64	2134.72
551.99	2141.29
552.35	2147.49
552.70	2153.62
553.06	2159.52
553.41	2165.85
553.77	2171.87
554.13	2178.03
554.48	2184.05
554.84	2189.37
555.19	2194.70
555.55	2199.72
555.90	2204.17
556.26	2209.03
556.61	2213.57
556.97	2217.49
557.32	2221.59
557.68	2225.65
558.03	2229.81
558.39	2233.51
558.74	2237.97
559.10	2241.67
559.45	2245.22
559.81	2249.63
560.16	2253.28
560.52	2256.63
560.87	2259.95
561.23	2262.45
561.58	2265.36
561.94	2267.85
562.29	2270.22
562.64	2272.70
563.00	2275.43
563.35	2278.83
563.71	2281.59
564.06	2284.73
564.42	2287.72
564.77	2290.02
565.12	2292.07
565.48	2293.69
565.83	2295.28
566.19	2296.36
566.54	2297.31
566.89	2298.38
567.25	2298.77
567.60	2300.20
567.96	2301.65
568.31	2302.45
568.66	2303.40
569.02	2303.75
569.37	2303.94
569.72	2304.59
570.08	2304.66
570.43	2304.41
570.78	2303.64
571.14	2302.20
571.49	2300.76
571.84	2300.16
572.20	2298.78
572.55	2297.67
572.90	2296.12
573.26	2294.80
573.61	2293.01
573.96	2290.93
574.31	2287.80
574.67	2284.45
575.02	2280.55
575.37	2277.06
575.72	2272.95
576.08	2269.58
576.43	2266.17
576.78	2262.36
577.13	2259.13
577.49	2255.94
577.84	2252.33
578.19	2248.48
578.54	2244.45
578.90	2240.04
579.25	2234.37
579.60	2229.24
579.95	2223.92
580.30	2218.80
580.66	2213.35
581.01	2208.48
581.36	2203.46
581.71	2199.09
582.06	2194.56
582.42	2189.90
582.77	2184.56
583.12	2179.90
583.47	2174.94
583.82	2169.74
584.17	2164.42
584.53	2158.73
584.88	2152.97
585.23	2146.99
585.58	2141.46
585.93	2135.99
586.28	2131.23
586.63	2126.03
586.98	2120.98
587.34	2116.33
587.69	2111.35
588.04	2106.01
588.39	2100.18
588.74	2093.62
589.09	2087.39
589.44	2080.46
589.79	2074.42
590.14	2068.58
590.49	2061.92
590.84	2055.35
591.19	2049.17
591.54	2042.60
591.89	2035.07
592.25	2028.09
592.60	2020.87
592.95	2013.10
593.30	2005.67
593.65	1997.88
594.00	1990.81
594.35	1983.46
594.70	1975.34
595.05	1967.89
595.40	1960.65
595.75	1953.03
596.10	1946.69
596.45	1939.80
596.80	1933.57
597.15	1926.72
597.50	1919.54
597.85	1913.04
598.19	1906.42
598.54	1899.37
598.89	1892.68
599.24	1886.77
599.59	1880.00
599.94	1873.73
600.29	1867.42
600.64	1860.83
600.99	1853.31
601.34	1846.37
601.69	1839.35
602.04	1832.37
602.39	1824.91
602.74	1817.90
603.08	1811.12
603.43	1804.30
603.78	1796.89
604.13	1789.55
604.48	1782.34
604.83	1775.51
605.18	1768.41
605.53	1760.44
605.87	1752.22
606.22	1744.90
606.57	1736.94
606.92	1729.81
607.27	1722.54
607.62	1715.58
607.96	1708.25
608.31	1701.60
608.66	1694.01
609.01	1686.34
609.36	1678.83
609.70	1670.98
610.05	1662.85
610.40	1655.14
610.75	1646.91
611.10	1639.41
611.44	1631.19
611.79	1623.15
612.14	1614.36
612.49	1605.26
612.83	1596.88
613.18	1589.07
613.53	1581.01
613.88	1572.53
614.22	1564.12
614.57	1555.58
614.92	1547.49
615.27	1539.89
615.61	1531.68
615.96	1523.66
616.31	1516.12
616.65	1508.68
617.00	1501.11
617.35	1493.51
617.70	1485.09
618.04	1476.66
618.39	1468.42
618.74	1460.86
619.08	1452.76
619.43	1445.36
619.78	1438.60
620.12	1431.35
620.47	1423.66
620.82	1415.55
621.16	1408.23
621.51	1400.65
621.85	1393.17
622.20	1384.74
622.55	1376.40
622.89	1368.58
623.24	1361.07
623.59	1353.76
623.93	1346.31
624.28	1339.05
624.62	1331.51
624.97	1324.48
625.32	1317.84
625.66	1310.85
626.01	1303.59
626.35	1296.00
626.70	1288.30
627.04	1280.48
627.39	1272.88
627.73	1265.62
628.08	1258.72
628.43	1251.32
628.77	1243.98
629.12	1236.30
629.46	1229.17
629.81	1221.91
630.15	1214.74
630.50	1207.33
630.84	1199.16
631.19	1191.32
631.53	1183.95
631.88	1176.46
632.22	1168.87
632.57	1161.55
632.91	1154.09
633.26	1146.84
633.60	1139.65
633.95	1132.68
634.29	1125.79
634.64	1119.08
634.98	1111.71
635.32	1104.63
635.67	1098.22
636.01	1091.67
636.36	1084.92
636.70	1078.50
637.05	1071.95
637.39	1065.44
637.73	1058.95
638.08	1053.16
638.42	1047.18
638.77	1040.69
639.11	1034.18
639.45	1027.81
639.80	1021.20
640.14	1014.72
640.49	1008.16
640.83	1001.89
641.17	995.65
641.52	989.32
641.86	983.02
642.20	977.31
642.55	971.12
642.89	964.56
643.23	958.00
643.58	952.36
643.92	946.09
644.26	940.06
644.61	934.14
644.95	928.21
645.29	921.64
645.64	914.93
645.98	908.71
646.32	902.95
646.66	897.01
647.01	891.21
647.35	885.59
647.69	879.84
648.04	874.32
648.38	868.48
648.72	862.50
649.06	856.43
649.41	850.52
649.75	844.50
650.09	838.64
650.43	832.86
650.78	826.66
651.12	820.73
651.46	814.93
651.80	809.12
652.14	803.72
652.49	798.33
652.83	793.22
653.17	787.46
653.51	781.71
653.85	776.30
654.20	770.64
654.54	764.60
654.88	758.98
655.22	753.16
655.56	747.53
655.90	742.10
656.25	736.88
656.59	731.53
656.93	726.47
657.27	721.30
657.61	715.93
657.95	710.90
658.29	705.86
658.64	700.71
658.98	695.54
659.32	690.07
659.66	684.95
660.00	679.65
660.34	674.84
660.68	669.99
661.02	665.04
661.36	660.38
661.70	656.02
662.05	651.61
662.39	647.21
662.73	642.82
663.07	638.47
663.41	633.98
663.75	629.47
664.09	624.93
664.43	620.61
664.77	616.56
665.11	612.32
665.45	608.28
665.79	604.30
666.13	600.12
666.47	596.03
666.81	591.87
667.15	587.81
667.49	583.93
667.83	580.13
668.17	576.18
668.51	572.16
668.85	568.12
669.19	564.29
669.53	560.47
669.87	556.57
670.21	552.91
670.55	549.35
670.89	545.98
671.23	542.66
671.57	539.17
671.91	535.64
672.25	532.24
672.58	528.74
672.92	525.35
673.26	522.27
673.60	519.16
673.94	516.07
674.28	513.21
674.62	510.26
674.96	507.18
675.30	504.33
675.64	501.41
675.97	498.70
676.31	495.86
676.65	493.01
676.99	490.31
677.33	487.50
677.67	484.69
678.01	481.68
678.34	478.67
678.68	475.83
679.02	473.01
679.36	470.25
679.70	467.54
680.04	464.75
680.37	461.90
680.71	459.19
681.05	456.66
681.39	453.94
681.73	451.32
682.06	448.79
682.40	446.22
682.74	443.77
683.08	441.26
683.42	438.71
683.75	436.27
684.09	433.77
684.43	431.27
684.77	428.85
685.10	426.54
685.44	424.29
685.78	421.97
686.12	419.81
686.45	417.53
686.79	415.23
687.13	413.05
687.46	410.89
687.80	408.71
688.14	406.53
688.48	404.43
688.81	402.21
689.15	400.08
689.49	398.00
689.82	395.88
690.16	393.78
690.50	391.83
690.83	389.85
691.17	387.89
691.51	386.00
691.84	384.15
692.18	382.18
692.52	380.21
692.85	378.35
693.19	376.46
693.52	374.69
693.86	372.94
694.20	371.15
694.53	369.43
694.87	367.62
695.21	365.81
695.54	364.02
695.88	362.32
696.21	360.61
696.55	358.92
696.88	357.24
697.22	355.58
697.56	353.93
697.89	352.28
698.23	350.68
698.56	349.07
698.90	347.45
699.23	345.85
699.57	344.25
699.90	342.66
700.24	341.08
700.58	339.46
700.91	337.93
701.25	336.53
701.58	335.15
701.92	333.79
702.25	332.39
702.59	331.00
702.92	329.66
703.26	328.36
703.59	327.10
703.93	325.90
704.26	324.67
704.60	323.41
704.93	322.13
705.26	320.89
705.60	319.77
705.93	318.62
706.27	317.58
706.60	316.56
706.94	315.52
707.27	314.44
707.61	313.47
707.94	312.46
708.27	311.38
708.61	310.30
708.94	309.31
709.28	308.36
709.61	307.44
709.94	306.53
710.28	305.57
710.61	304.57
710.95	303.56
711.28	302.65
711.61	301.69
711.95	300.81
712.28	299.88
712.61	298.87
712.95	298.00
713.28	297.16
713.61	296.24
713.95	295.37
714.28	294.58
714.61	293.70
714.95	292.88
715.28	292.02
715.61	291.18
715.95	290.35
716.28	289.55
716.61	288.76
716.95	287.98
717.28	287.26
717.61	286.55
717.94	285.82
718.28	285.02
718.61	284.33
718.94	283.68
719.27	283.04
719.61	282.45
719.94	281.81
720.27	281.08
720.60	280.49
720.94	279.86
721.27	279.22
721.60	278.64
721.93	278.06
722.27	277.54
722.60	276.98
722.93	276.42
723.26	275.85
723.59	275.30
723.93	274.70
724.26	274.11
724.59	273.57
724.92	273.06
725.25	272.59
725.59	272.06
725.92	271.53
726.25	271.03
726.58	270.57
726.91	270.04
727.24	269.57
727.57	269.10
727.91	268.61
728.24	268.17
728.57	267.70
728.90	267.27
729.23	266.77
729.56	266.41
729.89	265.93
730.22	265.42
730.55	264.94
730.89	264.53
731.22	264.08
731.55	263.62
731.88	263.23
732.21	262.76
732.54	262.36
732.87	261.95
733.20	261.54
733.53	261.12
733.86	260.77
734.19	260.37
734.52	259.98
734.85	259.66
735.18	259.23
735.51	258.85
735.84	258.45
736.17	258.08
736.50	257.59
736.83	257.35
737.16	257.04
737.49	256.68
737.82	256.30
738.15	255.94
738.48	255.60
738.81	255.25
739.14	254.96
739.47	254.59
739.80	254.26
740.13	253.94
740.46	253.61
740.79	253.26
741.12	252.94
741.45	252.58
741.78	252.22
742.11	251.93
742.44	251.63
742.77	251.33
743.10	251.02
743.43	250.77
743.75	250.36
744.08	250.20
744.41	249.92
744.74	249.65
745.07	249.40
745.40	249.14
745.73	248.90
746.06	248.59
746.39	248.36
746.71	248.05
747.04	247.79
747.37	247.53
747.70	247.27
748.03	247.04
748.36	246.86
748.68	246.62
749.01	246.37
749.34	246.12
749.67	245.89
750.00	245.69
750.33	245.51
750.65	245.32
750.98	244.98
751.31	244.81
751.64	244.62
751.97	244.47
752.29	244.27
752.62	244.01
752.95	243.78
753.28	243.59
753.60	243.41
753.93	243.27
754.26	243.07
754.59	242.87
754.91	242.64
755.24	242.45
755.57	242.26
755.90	242.10
756.22	241.89
756.55	241.75
756.88	241.56
757.20	241.36
757.53	241.16
757.86	241.04
758.19	240.86
758.51	240.73
758.84	240.53
759.17	240.37
759.49	240.24
759.82	240.18
760.15	240.03
760.47	239.92
760.80	239.71
761.13	239.62
761.45	239.50
761.78	239.37
762.11	239.22
762.43	239.09
762.76	238.96
763.08	238.87
763.41	238.71
763.74	238.60
764.06	238.44
764.39	238.31
764.71	238.13
765.04	238.02
765.37	237.88
765.69	237.74
766.02	237.61
766.34	237.49
766.67	237.29
767.00	237.22
767.32	237.15
767.65	237.11
767.97	236.98
768.30	236.87
768.62	236.77
768.95	236.66
769.27	236.56
769.60	236.45
769.92	236.34
770.25	236.24
770.57	236.11
770.90	236.00
771.22	235.91
771.55	235.84
771.87	235.74
772.20	235.63
772.52	235.64
772.85	235.63
773.17	235.52
773.50	235.43
773.82	235.29
774.15	235.12
774.47	234.96
774.80	234.86
775.12	234.78
775.45	234.66
775.77	234.55
776.09	234.47
776.42	234.39
776.74	234.35
777.07	234.24
777.39	234.16
777.72	234.05
778.04	233.99
778.36	233.86
778.69	233.78
779.01	233.70
779.33	233.49
779.66	233.32
779.98	233.22
780.31	233.20
780.63	233.16
780.95	233.11
781.28	233.06
781.60	232.96
781.92	232.83
782.25	232.74
782.57	232.69
782.89	232.61
783.22	232.53
783.54	232.40
783.86	232.33
784.19	232.27
784.51	232.25
784.83	232.16
785.16	232.11
785.48	232.02
785.80	231.95
786.12	231.93
786.45	231.91
786.77	231.86
787.09	231.75
