SpectraSuite Data File
++++++++++++++++++++++++++++++++++++
Date: Fri Feb 01 16:19:10 EST 2013
User: group
Dark Spectrum Present: No
Reference Spectrum Present: No
Number of Sampled Component Spectra: 1
Spectrometers: USB2E7196
Integration Time (usec): 35000 (USB2E7196)
Spectra Averaged: 100 (USB2E7196)
Boxcar Smoothing: 10 (USB2E7196)
Correct for Electrical Dark: No (USB2E7196)
Strobe/Lamp Enabled: No (USB2E7196)
Correct for Detector Non-linearity: No (USB2E7196)
Correct for Stray Light: No (USB2E7196)
Number of Pixels in Processed Spectrum: 2048
>>>>>Begin Processed Spectral Data<<<<<
339.09	0.00
339.48	213.80
339.86	214.95
340.24	216.57
340.63	218.39
341.01	221.57
341.39	220.60
341.78	222.44
342.16	223.76
342.54	223.43
342.93	212.31
343.31	223.05
343.69	223.61
344.07	224.10
344.46	224.53
344.84	224.88
345.22	225.08
345.60	225.32
345.99	225.49
346.37	225.58
346.75	225.69
347.13	225.77
347.52	225.84
347.90	225.90
348.28	225.91
348.66	225.96
349.05	225.96
349.43	225.98
349.81	225.98
350.19	226.01
350.57	226.05
350.96	226.15
351.34	226.20
351.72	226.28
352.10	226.37
352.48	226.43
352.87	226.48
353.25	226.55
353.63	226.62
354.01	226.68
354.39	226.76
354.77	226.85
355.15	226.94
355.54	226.98
355.92	227.04
356.30	227.15
356.68	227.28
357.06	227.35
357.44	227.42
357.82	227.50
358.20	227.59
358.58	227.67
358.97	227.72
359.35	227.80
359.73	227.88
360.11	227.91
360.49	227.99
360.87	228.06
361.25	228.14
361.63	228.25
362.01	228.33
362.39	228.39
362.77	228.43
363.15	228.44
363.53	228.49
363.91	228.53
364.29	228.55
364.67	228.48
365.05	228.49
365.43	228.52
365.81	228.55
366.19	228.57
366.57	228.60
366.95	228.57
367.33	228.57
367.71	228.57
368.09	228.58
368.47	228.57
368.85	228.56
369.23	228.57
369.61	228.50
369.99	228.48
370.37	228.45
370.75	228.50
371.13	228.45
371.51	228.39
371.89	228.32
372.27	228.27
372.65	228.22
373.03	228.19
373.41	228.13
373.78	228.06
374.16	227.97
374.54	227.91
374.92	227.85
375.30	227.79
375.68	227.69
376.06	227.64
376.44	227.55
376.82	227.47
377.19	227.34
377.57	227.26
377.95	227.14
378.33	227.08
378.71	226.93
379.09	226.89
379.47	226.83
379.84	226.76
380.22	226.71
380.60	226.63
380.98	226.57
381.36	226.50
381.73	226.40
382.11	226.39
382.49	226.29
382.87	226.23
383.25	226.15
383.62	226.20
384.00	226.12
384.38	226.07
384.76	226.07
385.13	226.10
385.51	226.07
385.89	225.99
386.27	225.93
386.64	225.90
387.02	225.80
387.40	225.75
387.78	225.75
388.15	225.70
388.53	225.67
388.91	225.62
389.29	225.58
389.66	225.62
390.04	225.54
390.42	225.56
390.79	225.58
391.17	225.57
391.55	225.47
391.92	225.49
392.30	225.53
392.68	225.46
393.05	225.42
393.43	225.42
393.81	225.45
394.18	225.44
394.56	225.44
394.94	225.49
395.31	225.52
395.69	225.55
396.06	225.59
396.44	225.61
396.82	225.65
397.19	225.71
397.57	225.72
397.95	225.80
398.32	225.78
398.70	225.82
399.07	225.91
399.45	225.95
399.82	225.96
400.20	226.00
400.58	226.09
400.95	226.13
401.33	226.23
401.70	226.36
402.08	226.46
402.45	226.53
402.83	226.66
403.20	226.76
403.58	226.86
403.95	226.98
404.33	227.13
404.71	227.26
405.08	227.42
405.46	227.57
405.83	227.71
406.21	227.87
406.58	228.02
406.96	228.19
407.33	228.39
407.70	228.61
408.08	228.85
408.45	229.08
408.83	229.32
409.20	229.53
409.58	229.72
409.95	230.02
410.33	230.26
410.70	230.48
411.08	230.77
411.45	231.06
411.82	231.33
412.20	231.67
412.57	232.08
412.95	232.41
413.32	232.82
413.69	233.20
414.07	233.66
414.44	234.14
414.82	234.60
415.19	235.13
415.56	235.71
415.94	236.23
416.31	236.86
416.68	237.50
417.06	238.24
417.43	238.94
417.81	239.69
418.18	240.48
418.55	241.33
418.93	242.22
419.30	243.14
419.67	244.09
420.04	245.06
420.42	246.04
420.79	247.21
421.16	248.38
421.54	249.56
421.91	250.77
422.28	251.99
422.66	253.30
423.03	254.63
423.40	255.94
423.77	257.39
424.15	258.79
424.52	260.28
424.89	261.85
425.26	263.38
425.64	264.82
426.01	266.43
426.38	268.09
426.75	269.75
427.13	271.47
427.50	273.27
427.87	275.15
428.24	277.02
428.61	278.76
428.99	280.68
429.36	282.82
429.73	284.88
430.10	286.93
430.47	289.01
430.85	291.10
431.22	293.33
431.59	295.68
431.96	297.94
432.33	300.37
432.70	302.75
433.08	305.55
433.45	308.16
433.82	310.77
434.19	313.70
434.56	316.50
434.93	319.10
435.30	321.69
435.68	324.55
436.05	327.37
436.42	330.17
436.79	332.71
437.16	335.36
437.53	338.19
437.90	341.05
438.27	343.73
438.64	346.59
439.01	349.15
439.38	351.34
439.75	353.51
440.13	356.05
440.50	358.37
440.87	360.24
441.24	362.21
441.61	364.37
441.98	365.82
442.35	367.60
442.72	369.46
443.09	371.30
443.46	372.27
443.83	372.82
444.20	373.29
444.57	374.08
444.94	374.35
445.31	374.65
445.68	374.97
446.05	375.12
446.42	374.69
446.79	374.28
447.16	373.86
447.53	373.51
447.90	372.33
448.27	371.19
448.64	369.60
449.01	368.40
449.37	366.43
449.74	364.53
450.11	362.29
450.48	359.80
450.85	357.26
451.22	355.11
451.59	353.12
451.96	351.17
452.33	348.59
452.70	346.25
453.07	343.43
453.43	340.50
453.80	337.70
454.17	335.04
454.54	332.51
454.91	329.83
455.28	327.19
455.65	324.73
456.02	322.26
456.38	320.10
456.75	317.47
457.12	315.17
457.49	312.98
457.86	310.80
458.23	308.93
458.59	306.91
458.96	304.85
459.33	302.99
459.70	301.11
460.07	299.61
460.43	297.88
460.80	296.29
461.17	294.91
461.54	293.39
461.91	291.95
462.27	290.47
462.64	289.20
463.01	287.85
463.38	286.55
463.74	285.20
464.11	284.05
464.48	283.04
464.85	281.99
465.21	281.10
465.58	280.21
465.95	279.14
466.32	278.25
466.68	277.37
467.05	276.48
467.42	275.60
467.78	274.65
468.15	273.81
468.52	273.13
468.88	272.22
469.25	271.48
469.62	270.88
469.98	270.25
470.35	269.61
470.72	269.03
471.08	268.33
471.45	267.83
471.82	267.29
472.18	266.71
472.55	266.25
472.92	265.73
473.28	265.28
473.65	264.88
474.02	264.43
474.38	264.04
474.75	263.74
475.11	263.44
475.48	263.20
475.85	262.95
476.21	262.76
476.58	262.62
476.94	262.49
477.31	262.36
477.67	262.24
478.04	262.15
478.41	262.06
478.77	262.10
479.14	262.00
479.50	262.02
479.87	262.11
480.23	262.20
480.60	262.31
480.96	262.43
481.33	262.64
481.69	262.83
482.06	263.06
482.42	263.27
482.79	263.54
483.15	263.88
483.52	264.29
483.88	264.62
484.25	265.00
484.61	265.41
484.98	265.83
485.34	266.39
485.71	266.99
486.07	267.65
486.44	268.27
486.80	269.01
487.17	269.73
487.53	270.55
487.90	271.40
488.26	272.32
488.62	273.33
488.99	274.28
489.35	275.33
489.72	276.47
490.08	277.65
490.44	278.85
490.81	280.18
491.17	281.57
491.54	283.06
491.90	284.60
492.26	286.25
492.63	288.00
492.99	289.78
493.36	291.67
493.72	293.69
494.08	295.77
494.45	298.01
494.81	300.38
495.17	302.86
495.54	305.48
495.90	308.17
496.26	310.95
496.63	313.92
496.99	317.07
497.35	320.31
497.72	323.77
498.08	327.34
498.44	331.01
498.80	334.93
499.17	338.98
499.53	343.18
499.89	347.58
500.26	352.10
500.62	356.81
500.98	361.81
501.34	366.91
501.71	372.27
502.07	377.72
502.43	383.37
502.79	389.16
503.16	395.20
503.52	401.50
503.88	407.88
504.24	414.50
504.60	421.34
504.97	428.50
505.33	435.83
505.69	443.55
506.05	451.39
506.41	459.27
506.78	467.45
507.14	475.93
507.50	484.65
507.86	493.64
508.22	502.81
508.59	511.98
508.95	521.48
509.31	531.34
509.67	541.51
510.03	551.83
510.39	562.44
510.75	573.26
511.12	584.14
511.48	595.43
511.84	606.88
512.20	618.43
512.56	630.42
512.92	642.53
513.28	654.86
513.64	667.29
514.00	679.97
514.37	692.90
514.73	706.00
515.09	718.93
515.45	732.28
515.81	745.93
516.17	759.94
516.53	774.13
516.89	788.28
517.25	802.34
517.61	816.73
517.97	831.14
518.33	845.53
518.69	860.42
519.05	875.41
519.41	890.66
519.77	906.25
520.13	921.63
520.49	936.98
520.85	952.37
521.21	968.11
521.57	984.36
521.93	1000.02
522.29	1016.28
522.65	1032.64
523.01	1048.76
523.37	1064.67
523.73	1080.79
524.09	1096.79
524.45	1113.10
524.81	1129.75
525.17	1146.48
525.53	1163.32
525.89	1180.15
526.25	1196.94
526.61	1213.30
526.97	1229.90
527.33	1246.27
527.68	1262.84
528.04	1279.41
528.40	1295.92
528.76	1312.89
529.12	1329.34
529.48	1346.20
529.84	1362.14
530.20	1378.74
530.56	1395.74
530.91	1413.22
531.27	1429.93
531.63	1446.38
531.99	1462.80
532.35	1478.68
532.71	1494.56
533.07	1510.75
533.42	1526.54
533.78	1542.50
534.14	1558.73
534.50	1574.04
534.86	1589.80
535.21	1604.92
535.57	1620.72
535.93	1636.25
536.29	1651.13
536.65	1666.17
537.00	1680.97
537.36	1696.42
537.72	1710.89
538.08	1725.28
538.44	1738.91
538.79	1752.75
539.15	1766.32
539.51	1780.01
539.87	1794.29
540.22	1807.91
540.58	1821.65
540.94	1834.93
541.29	1847.64
541.65	1860.32
542.01	1873.45
542.37	1885.80
542.72	1898.26
543.08	1909.96
543.44	1922.23
543.79	1933.30
544.15	1944.26
544.51	1955.78
544.87	1966.55
545.22	1977.24
545.58	1987.53
545.94	1997.20
546.29	2006.96
546.65	2016.84
547.01	2026.06
547.36	2034.70
547.72	2043.13
548.07	2050.94
548.43	2059.20
548.79	2067.28
549.14	2074.79
549.50	2082.21
549.86	2089.75
550.21	2096.96
550.57	2104.08
550.92	2110.69
551.28	2117.81
551.64	2124.95
551.99	2131.45
552.35	2137.78
552.70	2143.97
553.06	2149.68
553.41	2156.10
553.77	2162.20
554.13	2168.31
554.48	2174.41
554.84	2179.89
555.19	2185.39
555.55	2190.53
555.90	2194.95
556.26	2199.76
556.61	2204.49
556.97	2208.80
557.32	2212.91
557.68	2217.04
558.03	2221.36
558.39	2225.02
558.74	2229.52
559.10	2233.33
559.45	2236.95
559.81	2241.11
560.16	2244.92
560.52	2248.24
560.87	2251.57
561.23	2254.22
561.58	2257.18
561.94	2259.76
562.29	2262.18
562.64	2264.78
563.00	2267.32
563.35	2270.72
563.71	2273.94
564.06	2277.05
564.42	2279.80
564.77	2282.49
565.12	2284.81
565.48	2286.84
565.83	2288.79
566.19	2290.21
566.54	2291.04
566.89	2292.18
567.25	2292.79
567.60	2294.04
567.96	2295.85
568.31	2296.72
568.66	2297.80
569.02	2298.39
569.37	2298.75
569.72	2299.69
570.08	2299.66
570.43	2299.92
570.78	2299.44
571.14	2297.94
571.49	2296.66
571.84	2296.42
572.20	2295.26
572.55	2294.29
572.90	2292.63
573.26	2291.31
573.61	2289.67
573.96	2287.95
574.31	2285.09
574.67	2282.06
575.02	2278.61
575.37	2275.24
575.72	2271.52
576.08	2268.29
576.43	2264.85
576.78	2261.23
577.13	2257.99
577.49	2255.07
577.84	2251.51
578.19	2247.89
578.54	2244.30
578.90	2240.11
579.25	2234.65
579.60	2229.78
579.95	2224.76
580.30	2219.95
580.66	2214.73
581.01	2209.71
581.36	2204.91
581.71	2200.72
582.06	2196.42
582.42	2191.82
582.77	2186.72
583.12	2182.20
583.47	2177.64
583.82	2172.82
584.17	2167.65
584.53	2162.26
584.88	2156.70
585.23	2150.90
585.58	2145.47
585.93	2140.20
586.28	2135.51
586.63	2130.42
586.98	2125.39
587.34	2120.63
587.69	2115.55
588.04	2110.34
588.39	2104.82
588.74	2098.39
589.09	2092.27
589.44	2085.52
589.79	2079.60
590.14	2074.01
590.49	2067.50
590.84	2061.07
591.19	2055.14
591.54	2048.71
591.89	2041.39
592.25	2034.58
592.60	2027.35
592.95	2019.84
593.30	2012.40
593.65	2004.86
594.00	1997.81
594.35	1990.51
594.70	1982.64
595.05	1975.60
595.40	1968.27
595.75	1960.77
596.10	1954.59
596.45	1947.87
596.80	1941.80
597.15	1935.26
597.50	1928.05
597.85	1921.63
598.19	1914.91
598.54	1907.73
598.89	1901.12
599.24	1895.19
599.59	1888.54
599.94	1882.46
600.29	1876.12
600.64	1869.62
600.99	1862.19
601.34	1855.43
601.69	1848.63
602.04	1841.77
602.39	1834.38
602.74	1827.65
603.08	1820.96
603.43	1814.21
603.78	1806.97
604.13	1799.59
604.48	1792.33
604.83	1785.54
605.18	1778.65
605.53	1770.65
605.87	1762.70
606.22	1755.52
606.57	1747.58
606.92	1740.27
607.27	1733.08
607.62	1726.16
607.96	1718.85
608.31	1712.27
608.66	1704.60
609.01	1697.07
609.36	1689.39
609.70	1681.44
610.05	1673.44
610.40	1665.77
610.75	1657.47
611.10	1649.83
611.44	1641.41
611.79	1633.36
612.14	1624.67
612.49	1615.50
612.83	1607.07
613.18	1598.90
613.53	1590.69
613.88	1582.09
614.22	1573.78
614.57	1565.11
614.92	1557.17
615.27	1549.63
615.61	1541.35
615.96	1533.46
616.31	1525.68
616.65	1518.35
617.00	1510.70
617.35	1503.05
617.70	1494.58
618.04	1486.15
618.39	1477.79
618.74	1470.23
619.08	1461.91
619.43	1454.39
619.78	1447.44
620.12	1440.35
620.47	1432.89
620.82	1424.74
621.16	1417.39
621.51	1409.86
621.85	1402.33
622.20	1393.72
622.55	1385.27
622.89	1377.30
623.24	1369.59
623.59	1362.20
623.93	1354.62
624.28	1347.43
624.62	1339.78
624.97	1332.66
625.32	1325.84
625.66	1318.88
626.01	1311.66
626.35	1304.24
626.70	1296.39
627.04	1288.65
627.39	1280.93
627.73	1273.59
628.08	1266.63
628.43	1259.30
628.77	1251.85
629.12	1244.27
629.46	1237.10
629.81	1229.66
630.15	1222.47
630.50	1215.03
630.84	1206.91
631.19	1199.05
631.53	1191.58
631.88	1184.12
632.22	1176.44
632.57	1169.00
632.91	1161.45
633.26	1154.04
633.60	1146.61
633.95	1139.53
634.29	1132.49
634.64	1125.73
634.98	1118.16
635.32	1111.00
635.67	1104.44
636.01	1097.81
636.36	1090.96
636.70	1084.29
637.05	1077.69
637.39	1071.19
637.73	1064.69
638.08	1058.78
638.42	1052.77
638.77	1046.24
639.11	1039.53
639.45	1033.11
639.80	1026.55
640.14	1020.18
640.49	1013.67
640.83	1007.38
641.17	1000.97
641.52	994.51
641.86	988.02
642.20	982.13
642.55	975.80
642.89	969.26
643.23	962.65
643.58	956.89
643.92	950.72
644.26	944.70
644.61	938.59
644.95	932.57
645.29	925.89
645.64	919.09
645.98	912.79
646.32	906.93
646.66	900.85
647.01	894.99
647.35	889.17
647.69	883.23
648.04	877.62
648.38	871.96
648.72	866.05
649.06	860.02
649.41	854.20
649.75	848.29
650.09	842.36
650.43	836.60
650.78	830.45
651.12	824.46
651.46	818.67
651.80	812.90
652.14	807.47
652.49	802.10
652.83	797.01
653.17	791.28
653.51	785.62
653.85	780.29
654.20	774.66
654.54	768.68
654.88	763.01
655.22	757.18
655.56	751.49
655.90	746.05
656.25	740.77
656.59	735.39
656.93	730.29
657.27	725.17
657.61	719.71
657.95	714.57
658.29	709.56
658.64	704.38
658.98	699.11
659.32	693.62
659.66	688.48
660.00	683.08
660.34	678.11
660.68	673.15
661.02	668.09
661.36	663.27
661.70	658.75
662.05	654.44
662.39	650.15
662.73	645.64
663.07	641.26
663.41	636.82
663.75	632.34
664.09	627.78
664.43	623.30
664.77	619.17
665.11	614.97
665.45	610.76
665.79	606.64
666.13	602.49
666.47	598.37
666.81	594.17
667.15	590.03
667.49	586.14
667.83	582.33
668.17	578.46
668.51	574.42
668.85	570.42
669.19	566.56
669.53	562.66
669.87	558.79
670.21	555.04
670.55	551.32
670.89	547.85
671.23	544.36
671.57	540.90
671.91	537.38
672.25	533.85
672.58	530.34
672.92	526.90
673.26	523.74
673.60	520.62
673.94	517.47
674.28	514.57
674.62	511.60
674.96	508.48
675.30	505.49
675.64	502.67
675.97	499.87
676.31	496.98
676.65	494.01
676.99	491.32
677.33	488.46
677.67	485.72
678.01	482.69
678.34	479.76
678.68	476.83
679.02	474.05
679.36	471.25
679.70	468.62
680.04	465.86
680.37	462.96
680.71	460.14
681.05	457.57
681.39	454.83
681.73	452.17
682.06	449.67
682.40	447.15
682.74	444.53
683.08	441.96
683.42	439.35
683.75	436.89
684.09	434.32
684.43	431.84
684.77	429.29
685.10	426.92
685.44	424.56
685.78	422.26
686.12	419.96
686.45	417.68
686.79	415.31
687.13	413.12
687.46	410.99
687.80	408.84
688.14	406.61
688.48	404.57
688.81	402.35
689.15	400.17
689.49	398.01
689.82	395.96
690.16	393.90
690.50	391.91
690.83	389.95
691.17	387.98
691.51	386.07
691.84	384.28
692.18	382.36
692.52	380.38
692.85	378.47
693.19	376.62
693.52	374.80
693.86	373.00
694.20	371.22
694.53	369.44
694.87	367.58
695.21	365.82
695.54	363.99
695.88	362.26
696.21	360.53
696.55	358.86
696.88	357.19
697.22	355.49
697.56	353.88
697.89	352.24
698.23	350.59
698.56	349.01
698.90	347.44
699.23	345.83
699.57	344.31
699.90	342.80
700.24	341.23
700.58	339.69
700.91	338.18
701.25	336.74
701.58	335.35
701.92	333.99
702.25	332.57
702.59	331.18
702.92	329.88
703.26	328.61
703.59	327.33
703.93	326.15
704.26	324.93
704.60	323.61
704.93	322.35
705.26	321.12
705.60	319.92
705.93	318.72
706.27	317.67
706.60	316.57
706.94	315.46
707.27	314.31
707.61	313.27
707.94	312.25
708.27	311.14
708.61	310.11
708.94	309.14
709.28	308.15
709.61	307.19
709.94	306.21
710.28	305.14
710.61	304.09
710.95	303.00
711.28	302.11
711.61	301.15
711.95	300.21
712.28	299.25
712.61	298.28
712.95	297.37
713.28	296.45
713.61	295.54
713.95	294.65
714.28	293.83
714.61	292.96
714.95	292.10
715.28	291.27
715.61	290.32
715.95	289.43
716.28	288.61
716.61	287.79
716.95	286.98
717.28	286.24
717.61	285.51
717.94	284.74
718.28	283.92
718.61	283.22
718.94	282.50
719.27	281.87
719.61	281.18
719.94	280.51
720.27	279.81
720.60	279.18
720.94	278.58
721.27	277.99
721.60	277.37
721.93	276.78
722.27	276.20
722.60	275.68
722.93	275.11
723.26	274.56
723.59	273.96
723.93	273.38
724.26	272.86
724.59	272.30
724.92	271.77
725.25	271.27
725.59	270.74
725.92	270.24
726.25	269.67
726.58	269.20
726.91	268.70
727.24	268.22
727.57	267.70
727.91	267.17
728.24	266.66
728.57	266.16
728.90	265.70
729.23	265.21
729.56	264.77
729.89	264.30
730.22	263.81
730.55	263.38
730.89	262.91
731.22	262.41
731.55	261.96
731.88	261.55
732.21	261.13
732.54	260.68
732.87	260.26
733.20	259.90
733.53	259.50
733.86	259.12
734.19	258.73
734.52	258.36
734.85	258.06
735.18	257.67
735.51	257.36
735.84	257.01
736.17	256.67
736.50	256.25
736.83	256.03
737.16	255.71
737.49	255.38
737.82	255.09
738.15	254.79
738.48	254.47
738.81	254.13
739.14	253.80
739.47	253.55
739.80	253.24
740.13	252.91
740.46	252.58
740.79	252.27
741.12	251.99
741.45	251.72
741.78	251.36
742.11	251.10
742.44	250.75
742.77	250.47
743.10	250.18
743.43	249.91
743.75	249.52
744.08	249.40
744.41	249.12
744.74	248.87
745.07	248.60
745.40	248.39
745.73	248.17
746.06	247.92
746.39	247.65
746.71	247.36
747.04	247.06
747.37	246.83
747.70	246.57
748.03	246.32
748.36	246.10
748.68	245.85
749.01	245.59
749.34	245.40
749.67	245.17
750.00	244.92
750.33	244.79
750.65	244.57
750.98	244.20
751.31	243.98
751.64	243.78
751.97	243.61
752.29	243.38
752.62	243.12
752.95	242.89
753.28	242.66
753.60	242.50
753.93	242.34
754.26	242.12
754.59	241.92
754.91	241.68
755.24	241.48
755.57	241.27
755.90	241.06
756.22	240.81
756.55	240.59
756.88	240.40
757.20	240.13
757.53	239.90
757.86	239.70
758.19	239.52
758.51	239.33
758.84	239.11
759.17	238.92
759.49	238.76
759.82	238.64
760.15	238.48
760.47	238.31
760.80	238.15
761.13	238.02
761.45	237.81
761.78	237.69
762.11	237.53
762.43	237.43
762.76	237.28
763.08	237.18
763.41	237.03
763.74	236.88
764.06	236.73
764.39	236.59
764.71	236.45
765.04	236.27
765.37	236.10
765.69	235.97
766.02	235.87
766.34	235.71
766.67	235.59
767.00	235.49
767.32	235.43
767.65	235.35
767.97	235.24
768.30	235.16
768.62	235.03
768.95	234.89
769.27	234.74
769.60	234.65
769.92	234.52
770.25	234.41
770.57	234.33
770.90	234.21
771.22	234.13
771.55	234.06
771.87	234.04
772.20	233.94
772.52	233.95
772.85	233.94
773.17	233.88
773.50	233.74
773.82	233.65
774.15	233.54
774.47	233.38
774.80	233.29
775.12	233.20
775.45	233.15
775.77	233.09
776.09	233.02
776.42	232.94
776.74	232.89
777.07	232.81
777.39	232.73
777.72	232.70
778.04	232.62
778.36	232.56
778.69	232.46
779.01	232.43
779.33	232.27
779.66	232.10
779.98	232.01
780.31	231.95
780.63	231.94
780.95	231.86
781.28	231.81
781.60	231.77
781.92	231.71
782.25	231.65
782.57	231.58
782.89	231.49
783.22	231.42
783.54	231.35
783.86	231.35
784.19	231.26
784.51	231.22
784.83	231.17
785.16	231.11
785.48	231.06
785.80	230.99
786.12	230.93
786.45	230.87
786.77	230.85
787.09	230.81
