SpectraSuite Data File
++++++++++++++++++++++++++++++++++++
Date: Fri Feb 01 17:48:35 EST 2013
User: group
Dark Spectrum Present: No
Reference Spectrum Present: No
Number of Sampled Component Spectra: 1
Spectrometers: USB2E7196
Integration Time (usec): 35000 (USB2E7196)
Spectra Averaged: 100 (USB2E7196)
Boxcar Smoothing: 10 (USB2E7196)
Correct for Electrical Dark: No (USB2E7196)
Strobe/Lamp Enabled: No (USB2E7196)
Correct for Detector Non-linearity: No (USB2E7196)
Correct for Stray Light: No (USB2E7196)
Number of Pixels in Processed Spectrum: 2048
>>>>>Begin Processed Spectral Data<<<<<
339.09	0.00
339.48	212.97
339.86	213.60
340.24	215.24
340.63	216.73
341.01	219.82
341.39	219.45
341.78	220.84
342.16	222.84
342.54	222.66
342.93	211.17
343.31	221.84
343.69	222.39
344.07	222.91
344.46	223.37
344.84	223.78
345.22	224.01
345.60	224.25
345.99	224.45
346.37	224.55
346.75	224.65
347.13	224.76
347.52	224.82
347.90	224.90
348.28	224.92
348.66	224.96
349.05	224.95
349.43	224.98
349.81	225.03
350.19	225.09
350.57	225.14
350.96	225.20
351.34	225.31
351.72	225.39
352.10	225.46
352.48	225.52
352.87	225.56
353.25	225.63
353.63	225.71
354.01	225.77
354.39	225.86
354.77	225.93
355.15	226.00
355.54	226.09
355.92	226.14
356.30	226.22
356.68	226.33
357.06	226.44
357.44	226.49
357.82	226.56
358.20	226.64
358.58	226.69
358.97	226.75
359.35	226.80
359.73	226.86
360.11	226.90
360.49	226.93
360.87	226.99
361.25	227.05
361.63	227.13
362.01	227.19
362.39	227.24
362.77	227.30
363.15	227.33
363.53	227.33
363.91	227.33
364.29	227.34
364.67	227.25
365.05	227.25
365.43	227.27
365.81	227.27
366.19	227.31
366.57	227.38
366.95	227.37
367.33	227.35
367.71	227.32
368.09	227.33
368.47	227.33
368.85	227.31
369.23	227.29
369.61	227.22
369.99	227.23
370.37	227.19
370.75	227.20
371.13	227.18
371.51	227.15
371.89	227.15
372.27	227.12
372.65	227.10
373.03	227.07
373.41	227.06
373.78	227.01
374.16	226.90
374.54	226.81
374.92	226.77
375.30	226.73
375.68	226.63
376.06	226.60
376.44	226.53
376.82	226.47
377.19	226.41
377.57	226.38
377.95	226.25
378.33	226.18
378.71	226.05
379.09	225.97
379.47	225.92
379.84	225.84
380.22	225.77
380.60	225.73
380.98	225.68
381.36	225.57
381.73	225.51
382.11	225.49
382.49	225.43
382.87	225.36
383.25	225.29
383.62	225.38
384.00	225.29
384.38	225.26
384.76	225.26
385.13	225.25
385.51	225.18
385.89	225.14
386.27	225.09
386.64	225.07
387.02	225.01
387.40	224.94
387.78	224.93
388.15	224.88
388.53	224.82
388.91	224.75
389.29	224.73
389.66	224.73
390.04	224.67
390.42	224.67
390.79	224.66
391.17	224.65
391.55	224.53
391.92	224.51
392.30	224.49
392.68	224.43
393.05	224.40
393.43	224.40
393.81	224.41
394.18	224.40
394.56	224.42
394.94	224.44
395.31	224.46
395.69	224.48
396.06	224.53
396.44	224.57
396.82	224.62
397.19	224.70
397.57	224.73
397.95	224.80
398.32	224.82
398.70	224.86
399.07	224.90
399.45	224.96
399.82	225.02
400.20	225.08
400.58	225.15
400.95	225.19
401.33	225.30
401.70	225.43
402.08	225.52
402.45	225.61
402.83	225.70
403.20	225.82
403.58	225.91
403.95	226.01
404.33	226.13
404.71	226.24
405.08	226.40
405.46	226.53
405.83	226.70
406.21	226.86
406.58	227.02
406.96	227.19
407.33	227.39
407.70	227.63
408.08	227.93
408.45	228.19
408.83	228.47
409.20	228.68
409.58	228.90
409.95	229.23
410.33	229.56
410.70	229.89
411.08	230.23
411.45	230.60
411.82	230.99
412.20	231.41
412.57	231.94
412.95	232.35
413.32	232.84
413.69	233.33
414.07	233.86
414.44	234.48
414.82	235.09
415.19	235.78
415.56	236.48
415.94	237.17
416.31	237.99
416.68	238.78
417.06	239.73
417.43	240.60
417.81	241.58
418.18	242.52
418.55	243.57
418.93	244.74
419.30	245.90
419.67	247.12
420.04	248.37
420.42	249.59
420.79	251.11
421.16	252.57
421.54	254.11
421.91	255.68
422.28	257.28
422.66	259.04
423.03	260.71
423.40	262.41
423.77	264.27
424.15	266.12
424.52	268.07
424.89	270.17
425.26	272.21
425.64	274.06
426.01	276.18
426.38	278.33
426.75	280.47
427.13	282.70
427.50	285.00
427.87	287.42
428.24	289.90
428.61	292.16
428.99	294.72
429.36	297.49
429.73	300.22
430.10	302.85
430.47	305.52
430.85	308.30
431.22	311.24
431.59	314.29
431.96	317.20
432.33	320.41
432.70	323.45
433.08	327.04
433.45	330.49
433.82	333.88
434.19	337.66
434.56	341.31
434.93	344.77
435.30	348.20
435.68	351.98
436.05	355.64
436.42	359.31
436.79	362.56
437.16	366.03
437.53	369.70
437.90	373.33
438.27	376.87
438.64	380.50
439.01	383.84
439.38	386.75
439.75	389.56
440.13	392.80
440.50	395.84
440.87	398.32
441.24	400.86
441.61	403.68
441.98	405.64
442.35	408.01
442.72	410.45
443.09	412.83
443.46	414.15
443.83	414.94
444.20	415.55
444.57	416.70
444.94	417.14
445.31	417.55
445.68	417.99
446.05	418.14
446.42	417.67
446.79	417.15
447.16	416.57
447.53	416.14
447.90	414.64
448.27	413.15
448.64	411.07
449.01	409.58
449.37	407.04
449.74	404.56
450.11	401.62
450.48	398.38
450.85	395.10
451.22	392.28
451.59	389.71
451.96	387.20
452.33	383.75
452.70	380.65
453.07	377.00
453.43	373.30
453.80	369.68
454.17	366.22
454.54	362.91
454.91	359.42
455.28	355.97
455.65	352.72
456.02	349.51
456.38	346.68
456.75	343.18
457.12	340.24
457.49	337.34
457.86	334.49
458.23	332.05
458.59	329.34
458.96	326.60
459.33	324.10
459.70	321.65
460.07	319.68
460.43	317.41
460.80	315.27
461.17	313.31
461.54	311.35
461.91	309.49
462.27	307.62
462.64	305.98
463.01	304.18
463.38	302.44
463.74	300.70
464.11	299.24
464.48	297.87
464.85	296.42
465.21	295.24
465.58	294.05
465.95	292.64
466.32	291.43
466.68	290.27
467.05	289.10
467.42	287.94
467.78	286.76
468.15	285.63
468.52	284.72
468.88	283.66
469.25	282.64
469.62	281.80
469.98	280.87
470.35	280.03
470.72	279.26
471.08	278.49
471.45	277.79
471.82	277.04
472.18	276.30
472.55	275.74
472.92	275.08
473.28	274.46
473.65	273.90
474.02	273.32
474.38	272.84
474.75	272.38
475.11	271.91
475.48	271.54
475.85	271.24
476.21	270.92
476.58	270.67
476.94	270.45
477.31	270.23
477.67	270.01
478.04	269.85
478.41	269.73
478.77	269.67
479.14	269.55
479.50	269.51
479.87	269.54
480.23	269.60
480.60	269.62
480.96	269.67
481.33	269.83
481.69	270.03
482.06	270.19
482.42	270.42
482.79	270.67
483.15	270.99
483.52	271.32
483.88	271.71
484.25	272.06
484.61	272.49
484.98	272.91
485.34	273.46
485.71	274.03
486.07	274.64
486.44	275.25
486.80	275.96
487.17	276.69
487.53	277.54
487.90	278.36
488.26	279.31
488.62	280.35
488.99	281.35
489.35	282.41
489.72	283.57
490.08	284.78
490.44	286.05
490.81	287.37
491.17	288.76
491.54	290.25
491.90	291.80
492.26	293.47
492.63	295.27
492.99	297.11
493.36	299.07
493.72	301.17
494.08	303.31
494.45	305.64
494.81	308.12
495.17	310.64
495.54	313.36
495.90	316.18
496.26	319.08
496.63	322.13
496.99	325.38
497.35	328.75
497.72	332.31
498.08	336.01
498.44	339.88
498.80	343.99
499.17	348.24
499.53	352.60
499.89	357.20
500.26	361.90
500.62	366.86
500.98	372.08
501.34	377.38
501.71	382.98
502.07	388.68
502.43	394.55
502.79	400.68
503.16	407.08
503.52	413.61
503.88	420.33
504.24	427.29
504.60	434.54
504.97	442.05
505.33	449.71
505.69	457.79
506.05	465.99
506.41	474.31
506.78	482.87
507.14	491.74
507.50	500.91
507.86	510.47
508.22	520.11
508.59	529.76
508.95	539.88
509.31	550.22
509.67	560.82
510.03	571.64
510.39	582.73
510.75	594.00
511.12	605.61
511.48	617.54
511.84	629.64
512.20	641.78
512.56	654.37
512.92	667.24
513.28	680.33
513.64	693.55
514.00	707.01
514.37	720.79
514.73	734.65
515.09	748.50
515.45	762.51
515.81	776.97
516.17	791.93
516.53	806.96
516.89	822.16
517.25	837.30
517.61	852.65
517.97	868.07
518.33	883.55
518.69	899.30
519.05	915.28
519.41	931.54
519.77	948.17
520.13	964.74
520.49	981.32
520.85	997.82
521.21	1014.70
521.57	1032.19
521.93	1049.12
522.29	1066.75
522.65	1084.27
523.01	1101.71
523.37	1118.99
523.73	1136.36
524.09	1153.69
524.45	1171.16
524.81	1189.23
525.17	1207.47
525.53	1225.78
525.89	1244.08
526.25	1262.34
526.61	1280.17
526.97	1298.46
527.33	1316.36
527.68	1334.38
528.04	1352.38
528.40	1370.40
528.76	1388.92
529.12	1406.91
529.48	1425.43
529.84	1443.02
530.20	1461.15
530.56	1479.82
530.91	1498.83
531.27	1517.29
531.63	1535.45
531.99	1553.67
532.35	1571.30
532.71	1588.77
533.07	1606.67
533.42	1624.32
533.78	1642.20
534.14	1660.28
534.50	1677.21
534.86	1694.85
535.21	1711.81
535.57	1729.46
535.93	1746.87
536.29	1763.49
536.65	1780.30
537.00	1796.69
537.36	1813.80
537.72	1830.10
538.08	1846.45
538.44	1862.13
538.79	1877.75
539.15	1893.14
539.51	1908.77
539.87	1924.96
540.22	1940.56
540.58	1956.26
540.94	1971.27
541.29	1985.83
541.65	2000.38
542.01	2015.47
542.37	2029.72
542.72	2043.99
543.08	2057.67
543.44	2071.94
543.79	2085.08
544.15	2097.93
544.51	2111.43
544.87	2124.33
545.22	2137.14
545.58	2149.16
545.94	2160.60
546.29	2172.38
546.65	2184.19
547.01	2195.38
547.36	2205.86
547.72	2216.33
548.07	2225.97
548.43	2235.83
548.79	2245.58
549.14	2254.92
549.50	2263.78
549.86	2273.00
550.21	2282.11
550.57	2290.99
550.92	2299.19
551.28	2307.89
551.64	2316.73
551.99	2325.01
552.35	2332.65
552.70	2340.31
553.06	2347.76
553.41	2355.82
553.77	2363.27
554.13	2370.87
554.48	2378.68
554.84	2385.76
555.19	2392.31
555.55	2399.08
555.90	2405.18
556.26	2411.77
556.61	2417.84
556.97	2423.84
557.32	2429.46
557.68	2434.94
558.03	2440.59
558.39	2445.62
558.74	2451.82
559.10	2457.13
559.45	2462.00
559.81	2467.62
560.16	2472.95
560.52	2477.64
560.87	2482.33
561.23	2486.38
561.58	2490.50
561.94	2494.02
562.29	2497.42
562.64	2501.56
563.00	2505.31
563.35	2509.98
563.71	2514.16
564.06	2518.56
564.42	2522.67
564.77	2526.46
565.12	2530.02
565.48	2533.12
565.83	2536.20
566.19	2538.49
566.54	2540.11
566.89	2542.39
567.25	2544.09
567.60	2546.24
567.96	2548.89
568.31	2550.61
568.66	2552.64
569.02	2554.06
569.37	2555.23
569.72	2557.17
570.08	2557.99
570.43	2558.54
570.78	2558.76
571.14	2557.87
571.49	2556.98
571.84	2557.18
572.20	2556.70
572.55	2556.10
572.90	2554.70
573.26	2553.73
573.61	2552.29
573.96	2551.10
574.31	2548.38
574.67	2545.49
575.02	2541.98
575.37	2538.66
575.72	2535.07
576.08	2531.75
576.43	2528.74
576.78	2525.17
577.13	2521.87
577.49	2518.76
577.84	2515.48
578.19	2511.67
578.54	2508.19
578.90	2504.17
579.25	2498.38
579.60	2493.24
579.95	2488.08
580.30	2482.95
580.66	2477.53
581.01	2472.48
581.36	2467.33
581.71	2463.07
582.06	2458.57
582.42	2453.98
582.77	2448.49
583.12	2443.72
583.47	2438.86
583.82	2433.57
584.17	2428.13
584.53	2422.44
584.88	2416.35
585.23	2410.08
585.58	2404.08
585.93	2398.14
586.28	2392.90
586.63	2387.42
586.98	2382.01
587.34	2376.79
587.69	2371.58
588.04	2366.05
588.39	2359.75
588.74	2352.70
589.09	2345.91
589.44	2338.56
589.79	2331.86
590.14	2325.69
590.49	2318.44
590.84	2311.46
591.19	2304.81
591.54	2297.59
591.89	2289.50
592.25	2282.11
592.60	2274.29
592.95	2266.06
593.30	2257.88
593.65	2249.54
594.00	2241.76
594.35	2233.59
594.70	2224.60
595.05	2216.79
595.40	2208.56
595.75	2200.31
596.10	2193.36
596.45	2185.91
596.80	2178.81
597.15	2171.39
597.50	2163.61
597.85	2156.40
598.19	2148.90
598.54	2140.82
598.89	2133.42
599.24	2126.70
599.59	2119.31
599.94	2112.28
600.29	2105.19
600.64	2097.74
600.99	2089.33
601.34	2081.67
601.69	2073.75
602.04	2066.19
602.39	2057.77
602.74	2049.96
603.08	2042.27
603.43	2034.50
603.78	2026.08
604.13	2018.00
604.48	2010.00
604.83	2002.15
605.18	1994.27
605.53	1985.33
605.87	1976.28
606.22	1967.97
606.57	1958.84
606.92	1950.24
607.27	1942.03
607.62	1934.08
607.96	1925.74
608.31	1918.25
608.66	1909.52
609.01	1901.02
609.36	1892.28
609.70	1883.08
610.05	1873.89
610.40	1865.09
610.75	1855.80
611.10	1847.16
611.44	1837.46
611.79	1828.02
612.14	1818.15
612.49	1807.56
612.83	1797.81
613.18	1788.49
613.53	1779.21
613.88	1769.54
614.22	1760.10
614.57	1750.31
614.92	1741.10
615.27	1732.47
615.61	1722.87
615.96	1713.73
616.31	1704.89
616.65	1696.44
617.00	1687.76
617.35	1679.07
617.70	1669.61
618.04	1659.84
618.39	1650.30
618.74	1641.73
619.08	1632.25
619.43	1623.48
619.78	1615.48
620.12	1607.30
620.47	1598.69
620.82	1589.19
621.16	1580.53
621.51	1571.74
621.85	1562.87
622.20	1553.22
622.55	1543.65
622.89	1534.55
623.24	1525.59
623.59	1516.91
623.93	1508.38
624.28	1500.05
624.62	1491.32
624.97	1482.94
625.32	1475.06
625.66	1466.92
626.01	1458.64
626.35	1450.23
626.70	1441.23
627.04	1432.39
627.39	1423.35
627.73	1414.83
628.08	1406.91
628.43	1398.66
628.77	1390.33
629.12	1381.64
629.46	1373.33
629.81	1364.61
630.15	1356.39
630.50	1347.94
630.84	1338.70
631.19	1329.45
631.53	1320.72
631.88	1312.00
632.22	1303.38
632.57	1294.94
632.91	1286.29
633.26	1277.77
633.60	1269.22
633.95	1261.00
634.29	1252.88
634.64	1245.21
634.98	1236.83
635.32	1228.65
635.67	1220.94
636.01	1213.27
636.36	1205.56
636.70	1197.99
637.05	1190.51
637.39	1183.02
637.73	1175.58
638.08	1168.75
638.42	1161.84
638.77	1154.52
639.11	1147.02
639.45	1139.56
639.80	1131.96
640.14	1124.69
640.49	1117.25
640.83	1109.99
641.17	1102.99
641.52	1095.78
641.86	1088.39
642.20	1081.66
642.55	1074.39
642.89	1067.10
643.23	1059.57
643.58	1052.88
643.92	1045.84
644.26	1038.98
644.61	1032.09
644.95	1025.27
645.29	1017.83
645.64	1010.17
645.98	1002.94
646.32	996.28
646.66	989.44
647.01	982.95
647.35	976.39
647.69	969.64
648.04	963.44
648.38	956.77
648.72	950.02
649.06	943.18
649.41	936.35
649.75	929.65
650.09	922.91
650.43	916.39
650.78	909.41
651.12	902.65
651.46	896.16
651.80	889.74
652.14	883.54
652.49	877.47
652.83	871.66
653.17	865.38
653.51	858.86
653.85	852.77
654.20	846.31
654.54	839.51
654.88	832.98
655.22	826.20
655.56	819.76
655.90	813.51
656.25	807.60
656.59	801.62
656.93	795.77
657.27	789.94
657.61	783.78
657.95	778.03
658.29	772.26
658.64	766.23
658.98	760.16
659.32	754.01
659.66	748.05
660.00	742.02
660.34	736.37
660.68	730.83
661.02	725.16
661.36	719.87
661.70	714.82
662.05	709.96
662.39	705.11
662.73	700.08
663.07	695.17
663.41	690.13
663.75	685.09
664.09	679.95
664.43	674.91
664.77	670.25
665.11	665.43
665.45	660.75
665.79	656.16
666.13	651.46
666.47	646.86
666.81	642.26
667.15	637.59
667.49	633.15
667.83	628.81
668.17	624.36
668.51	619.70
668.85	615.12
669.19	610.71
669.53	606.37
669.87	602.04
670.21	597.83
670.55	593.67
670.89	589.74
671.23	585.86
671.57	581.93
671.91	577.95
672.25	573.93
672.58	569.93
672.92	566.11
673.26	562.52
673.60	558.93
673.94	555.33
674.28	551.99
674.62	548.66
674.96	545.11
675.30	541.86
675.64	538.56
675.97	535.40
676.31	532.20
676.65	528.91
676.99	525.80
677.33	522.47
677.67	519.28
678.01	515.90
678.34	512.62
678.68	509.34
679.02	506.18
679.36	503.10
679.70	500.10
680.04	496.99
680.37	493.83
680.71	490.69
681.05	487.75
681.39	484.73
681.73	481.69
682.06	478.87
682.40	475.92
682.74	473.08
683.08	470.12
683.42	467.16
683.75	464.32
684.09	461.43
684.43	458.72
684.77	455.95
685.10	453.31
685.44	450.65
685.78	448.02
686.12	445.45
686.45	442.84
686.79	440.23
687.13	437.66
687.46	435.12
687.80	432.63
688.14	430.13
688.48	427.78
688.81	425.24
689.15	422.83
689.49	420.39
689.82	417.99
690.16	415.68
690.50	413.44
690.83	411.29
691.17	409.03
691.51	406.91
691.84	404.82
692.18	402.65
692.52	400.44
692.85	398.27
693.19	396.19
693.52	394.08
693.86	391.97
694.20	389.99
694.53	387.97
694.87	385.91
695.21	383.84
695.54	381.76
695.88	379.75
696.21	377.75
696.55	375.85
696.88	373.97
697.22	372.10
697.56	370.28
697.89	368.35
698.23	366.55
698.56	364.69
698.90	362.92
699.23	361.01
699.57	359.22
699.90	357.44
700.24	355.63
700.58	353.95
700.91	352.27
701.25	350.59
701.58	349.05
701.92	347.44
702.25	345.89
702.59	344.38
702.92	342.91
703.26	341.45
703.59	339.99
703.93	338.64
704.26	337.23
704.60	335.72
704.93	334.27
705.26	332.82
705.60	331.46
705.93	330.06
706.27	328.86
706.60	327.70
706.94	326.45
707.27	325.17
707.61	323.90
707.94	322.74
708.27	321.51
708.61	320.24
708.94	319.12
709.28	318.00
709.61	316.87
709.94	315.77
710.28	314.58
710.61	313.46
710.95	312.22
711.28	311.14
711.61	310.06
711.95	309.03
712.28	307.99
712.61	306.92
712.95	305.89
713.28	304.89
713.61	303.81
713.95	302.82
714.28	301.85
714.61	300.94
714.95	299.96
715.28	299.02
715.61	298.04
715.95	297.09
716.28	296.10
716.61	295.17
716.95	294.22
717.28	293.36
717.61	292.50
717.94	291.67
718.28	290.72
718.61	289.94
718.94	289.12
719.27	288.36
719.61	287.56
719.94	286.84
720.27	286.02
720.60	285.29
720.94	284.58
721.27	283.89
721.60	283.21
721.93	282.50
722.27	281.87
722.60	281.28
722.93	280.58
723.26	279.95
723.59	279.31
723.93	278.72
724.26	278.09
724.59	277.45
724.92	276.82
725.25	276.32
725.59	275.69
725.92	275.09
726.25	274.52
726.58	273.97
726.91	273.37
727.24	272.83
727.57	272.28
727.91	271.67
728.24	271.15
728.57	270.55
728.90	270.07
729.23	269.51
729.56	268.95
729.89	268.45
730.22	267.90
730.55	267.36
730.89	266.80
731.22	266.28
731.55	265.76
731.88	265.31
732.21	264.81
732.54	264.32
732.87	263.85
733.20	263.34
733.53	262.89
733.86	262.49
734.19	262.04
734.52	261.63
734.85	261.26
735.18	260.78
735.51	260.37
735.84	259.93
736.17	259.49
736.50	259.09
736.83	258.81
737.16	258.44
737.49	258.08
737.82	257.69
738.15	257.34
738.48	256.98
738.81	256.57
739.14	256.20
739.47	255.83
739.80	255.50
740.13	255.17
740.46	254.82
740.79	254.42
741.12	254.05
741.45	253.71
741.78	253.35
742.11	253.04
742.44	252.66
742.77	252.31
743.10	251.95
743.43	251.62
743.75	251.20
744.08	251.01
744.41	250.68
744.74	250.42
745.07	250.09
745.40	249.78
745.73	249.52
746.06	249.20
746.39	248.89
746.71	248.56
747.04	248.26
747.37	247.94
747.70	247.67
748.03	247.40
748.36	247.11
748.68	246.85
749.01	246.56
749.34	246.33
749.67	246.09
750.00	245.86
750.33	245.66
750.65	245.40
750.98	245.01
751.31	244.75
751.64	244.51
751.97	244.32
752.29	244.07
752.62	243.74
752.95	243.52
753.28	243.28
753.60	243.07
753.93	242.88
754.26	242.65
754.59	242.38
754.91	242.13
755.24	241.89
755.57	241.65
755.90	241.42
756.22	241.18
756.55	240.94
756.88	240.69
757.20	240.42
757.53	240.16
757.86	239.98
758.19	239.80
758.51	239.58
758.84	239.35
759.17	239.16
759.49	239.02
759.82	238.88
760.15	238.72
760.47	238.52
760.80	238.29
761.13	238.10
761.45	237.94
761.78	237.80
762.11	237.64
762.43	237.46
762.76	237.31
763.08	237.18
763.41	237.02
763.74	236.90
764.06	236.76
764.39	236.63
764.71	236.48
765.04	236.31
765.37	236.17
765.69	236.04
766.02	235.89
766.34	235.75
766.67	235.55
767.00	235.44
767.32	235.37
767.65	235.34
767.97	235.22
768.30	235.09
768.62	234.96
768.95	234.83
769.27	234.72
769.60	234.59
769.92	234.44
770.25	234.32
770.57	234.19
770.90	234.08
771.22	233.96
771.55	233.81
771.87	233.74
772.20	233.64
772.52	233.60
772.85	233.61
773.17	233.52
773.50	233.40
773.82	233.30
774.15	233.14
774.47	232.94
774.80	232.83
775.12	232.76
775.45	232.67
775.77	232.57
776.09	232.49
776.42	232.41
776.74	232.37
777.07	232.25
777.39	232.17
777.72	232.05
778.04	231.98
778.36	231.93
778.69	231.86
779.01	231.79
779.33	231.63
779.66	231.46
779.98	231.37
780.31	231.31
780.63	231.25
780.95	231.24
781.28	231.18
781.60	231.13
781.92	231.06
782.25	230.99
782.57	230.96
782.89	230.86
783.22	230.80
783.54	230.73
783.86	230.67
784.19	230.61
784.51	230.57
784.83	230.51
785.16	230.45
785.48	230.41
785.80	230.33
786.12	230.26
786.45	230.18
786.77	230.16
