SpectraSuite Data File
++++++++++++++++++++++++++++++++++++
Date: Fri Feb 01 16:23:54 EST 2013
User: group
Dark Spectrum Present: No
Reference Spectrum Present: No
Number of Sampled Component Spectra: 1
Spectrometers: USB2E7196
Integration Time (usec): 35000 (USB2E7196)
Spectra Averaged: 100 (USB2E7196)
Boxcar Smoothing: 10 (USB2E7196)
Correct for Electrical Dark: No (USB2E7196)
Strobe/Lamp Enabled: No (USB2E7196)
Correct for Detector Non-linearity: No (USB2E7196)
Correct for Stray Light: No (USB2E7196)
Number of Pixels in Processed Spectrum: 2048
>>>>>Begin Processed Spectral Data<<<<<
339.09	0.00
339.48	213.79
339.86	214.86
340.24	216.67
340.63	218.27
341.01	220.99
341.39	221.07
341.78	222.50
342.16	223.59
342.54	224.04
342.93	212.39
343.31	223.12
343.69	223.66
344.07	224.13
344.46	224.53
344.84	224.91
345.22	225.15
345.60	225.38
345.99	225.54
346.37	225.65
346.75	225.72
347.13	225.83
347.52	225.84
347.90	225.89
348.28	225.88
348.66	225.93
349.05	225.89
349.43	225.91
349.81	225.93
350.19	225.98
350.57	226.00
350.96	226.02
351.34	226.08
351.72	226.17
352.10	226.27
352.48	226.35
352.87	226.40
353.25	226.45
353.63	226.52
354.01	226.59
354.39	226.67
354.77	226.76
355.15	226.86
355.54	226.94
355.92	226.99
356.30	227.08
356.68	227.22
357.06	227.30
357.44	227.34
357.82	227.44
358.20	227.52
358.58	227.60
358.97	227.70
359.35	227.80
359.73	227.89
360.11	227.95
360.49	228.00
360.87	228.05
361.25	228.12
361.63	228.17
362.01	228.22
362.39	228.26
362.77	228.34
363.15	228.36
363.53	228.39
363.91	228.41
364.29	228.46
364.67	228.37
365.05	228.39
365.43	228.43
365.81	228.48
366.19	228.51
366.57	228.57
366.95	228.55
367.33	228.52
367.71	228.53
368.09	228.56
368.47	228.56
368.85	228.53
369.23	228.54
369.61	228.51
369.99	228.53
370.37	228.50
370.75	228.51
371.13	228.46
371.51	228.43
371.89	228.39
372.27	228.36
372.65	228.32
373.03	228.28
373.41	228.26
373.78	228.17
374.16	228.08
374.54	227.98
374.92	227.91
375.30	227.83
375.68	227.72
376.06	227.65
376.44	227.60
376.82	227.54
377.19	227.48
377.57	227.40
377.95	227.31
378.33	227.24
378.71	227.10
379.09	227.08
379.47	227.00
379.84	226.93
380.22	226.85
380.60	226.78
380.98	226.75
381.36	226.66
381.73	226.61
382.11	226.54
382.49	226.50
382.87	226.41
383.25	226.38
383.62	226.44
384.00	226.36
384.38	226.31
384.76	226.28
385.13	226.22
385.51	226.18
385.89	226.11
386.27	226.06
386.64	226.02
387.02	225.91
387.40	225.85
387.78	225.82
388.15	225.76
388.53	225.73
388.91	225.66
389.29	225.57
389.66	225.53
390.04	225.52
390.42	225.53
390.79	225.54
391.17	225.50
391.55	225.38
391.92	225.39
392.30	225.38
392.68	225.35
393.05	225.36
393.43	225.38
393.81	225.37
394.18	225.38
394.56	225.41
394.94	225.48
395.31	225.52
395.69	225.57
396.06	225.59
396.44	225.60
396.82	225.62
397.19	225.73
397.57	225.73
397.95	225.77
398.32	225.77
398.70	225.84
399.07	225.92
399.45	225.99
399.82	226.03
400.20	226.04
400.58	226.13
400.95	226.16
401.33	226.23
401.70	226.40
402.08	226.50
402.45	226.58
402.83	226.70
403.20	226.77
403.58	226.85
403.95	226.98
404.33	227.13
404.71	227.28
405.08	227.47
405.46	227.62
405.83	227.75
406.21	227.93
406.58	228.06
406.96	228.22
407.33	228.36
407.70	228.57
408.08	228.89
408.45	229.08
408.83	229.31
409.20	229.49
409.58	229.65
409.95	229.91
410.33	230.17
410.70	230.40
411.08	230.72
411.45	231.05
411.82	231.38
412.20	231.75
412.57	232.15
412.95	232.43
413.32	232.84
413.69	233.25
414.07	233.67
414.44	234.16
414.82	234.64
415.19	235.18
415.56	235.70
415.94	236.24
416.31	236.88
416.68	237.49
417.06	238.25
417.43	238.95
417.81	239.69
418.18	240.48
418.55	241.30
418.93	242.14
419.30	243.01
419.67	243.95
420.04	244.88
420.42	245.86
420.79	247.06
421.16	248.21
421.54	249.42
421.91	250.63
422.28	251.87
422.66	253.17
423.03	254.49
423.40	255.86
423.77	257.25
424.15	258.65
424.52	260.18
424.89	261.78
425.26	263.31
425.64	264.75
426.01	266.33
426.38	267.97
426.75	269.65
427.13	271.39
427.50	273.16
427.87	275.02
428.24	276.86
428.61	278.57
428.99	280.49
429.36	282.56
429.73	284.60
430.10	286.63
430.47	288.72
430.85	290.84
431.22	293.03
431.59	295.41
431.96	297.69
432.33	300.16
432.70	302.51
433.08	305.34
433.45	307.96
433.82	310.57
434.19	313.46
434.56	316.28
434.93	318.88
435.30	321.52
435.68	324.39
436.05	327.25
436.42	330.06
436.79	332.61
437.16	335.32
437.53	338.18
437.90	340.97
438.27	343.70
438.64	346.53
439.01	349.13
439.38	351.29
439.75	353.44
440.13	355.90
440.50	358.22
440.87	360.03
441.24	361.99
441.61	364.18
441.98	365.63
442.35	367.35
442.72	369.23
443.09	371.01
443.46	372.02
443.83	372.60
444.20	373.06
444.57	373.86
444.94	374.13
445.31	374.44
445.68	374.77
446.05	374.83
446.42	374.40
446.79	373.98
447.16	373.61
447.53	373.29
447.90	372.19
448.27	371.02
448.64	369.45
449.01	368.29
449.37	366.27
449.74	364.44
450.11	362.24
450.48	359.77
450.85	357.26
451.22	355.10
451.59	353.08
451.96	351.17
452.33	348.56
452.70	346.21
453.07	343.41
453.43	340.54
453.80	337.79
454.17	335.17
454.54	332.64
454.91	329.90
455.28	327.23
455.65	324.70
456.02	322.32
456.38	320.21
456.75	317.55
457.12	315.30
457.49	313.11
457.86	310.93
458.23	309.11
458.59	307.05
458.96	305.00
459.33	303.12
459.70	301.28
460.07	299.81
460.43	298.14
460.80	296.47
461.17	295.02
461.54	293.53
461.91	292.08
462.27	290.69
462.64	289.44
463.01	288.10
463.38	286.82
463.74	285.42
464.11	284.26
464.48	283.27
464.85	282.19
465.21	281.30
465.58	280.39
465.95	279.31
466.32	278.44
466.68	277.54
467.05	276.69
467.42	275.79
467.78	274.85
468.15	273.97
468.52	273.37
468.88	272.54
469.25	271.77
469.62	271.19
469.98	270.54
470.35	269.88
470.72	269.27
471.08	268.63
471.45	268.09
471.82	267.51
472.18	266.93
472.55	266.52
472.92	266.01
473.28	265.56
473.65	265.11
474.02	264.70
474.38	264.36
474.75	264.05
475.11	263.74
475.48	263.51
475.85	263.26
476.21	263.01
476.58	262.82
476.94	262.72
477.31	262.51
477.67	262.35
478.04	262.30
478.41	262.27
478.77	262.34
479.14	262.31
479.50	262.37
479.87	262.43
480.23	262.50
480.60	262.61
480.96	262.72
481.33	262.90
481.69	263.11
482.06	263.32
482.42	263.52
482.79	263.78
483.15	264.10
483.52	264.51
483.88	264.89
484.25	265.28
484.61	265.70
484.98	266.21
485.34	266.77
485.71	267.35
486.07	267.96
486.44	268.52
486.80	269.20
487.17	269.90
487.53	270.75
487.90	271.61
488.26	272.53
488.62	273.54
488.99	274.54
489.35	275.55
489.72	276.66
490.08	277.84
490.44	279.07
490.81	280.43
491.17	281.76
491.54	283.27
491.90	284.79
492.26	286.40
492.63	288.13
492.99	289.88
493.36	291.80
493.72	293.81
494.08	295.93
494.45	298.17
494.81	300.52
495.17	302.95
495.54	305.51
495.90	308.18
496.26	311.03
496.63	313.94
496.99	317.06
497.35	320.28
497.72	323.64
498.08	327.14
498.44	330.80
498.80	334.71
499.17	338.72
499.53	342.88
499.89	347.30
500.26	351.82
500.62	356.51
500.98	361.45
501.34	366.48
501.71	371.82
502.07	377.28
502.43	382.90
502.79	388.64
503.16	394.70
503.52	400.95
503.88	407.32
504.24	414.00
504.60	420.87
504.97	428.05
505.33	435.42
505.69	443.23
506.05	450.99
506.41	458.90
506.78	467.00
507.14	475.45
507.50	484.18
507.86	493.20
508.22	502.37
508.59	511.61
508.95	521.31
509.31	531.19
509.67	541.36
510.03	551.65
510.39	562.36
510.75	573.14
511.12	584.14
511.48	595.48
511.84	606.94
512.20	618.52
512.56	630.46
512.92	642.69
513.28	654.89
513.64	667.37
514.00	680.00
514.37	693.00
514.73	706.10
515.09	719.15
515.45	732.42
515.81	746.05
516.17	760.07
516.53	774.12
516.89	788.19
517.25	802.33
517.61	816.76
517.97	831.12
518.33	845.54
518.69	860.24
519.05	875.07
519.41	890.26
519.77	905.75
520.13	921.17
520.49	936.49
520.85	952.01
521.21	967.69
521.57	983.99
521.93	999.70
522.29	1016.01
522.65	1032.13
523.01	1048.31
523.37	1064.32
523.73	1080.42
524.09	1096.42
524.45	1112.72
524.81	1129.17
525.17	1145.88
525.53	1162.73
525.89	1179.65
526.25	1196.43
526.61	1212.80
526.97	1229.44
527.33	1245.83
527.68	1262.34
528.04	1278.78
528.40	1295.24
528.76	1312.22
529.12	1328.67
529.48	1345.45
529.84	1361.47
530.20	1378.08
530.56	1394.98
530.91	1412.36
531.27	1428.95
531.63	1445.40
531.99	1461.86
532.35	1477.80
532.71	1493.58
533.07	1509.67
533.42	1525.43
533.78	1541.38
534.14	1557.63
534.50	1572.90
534.86	1588.71
535.21	1603.84
535.57	1619.71
535.93	1635.15
536.29	1649.91
536.65	1664.99
537.00	1679.73
537.36	1694.91
537.72	1709.23
538.08	1723.59
538.44	1737.32
538.79	1751.23
539.15	1764.76
539.51	1778.38
539.87	1792.67
540.22	1806.38
540.58	1820.17
540.94	1833.35
541.29	1846.18
541.65	1858.67
542.01	1871.73
542.37	1883.99
542.72	1896.26
543.08	1907.84
543.44	1920.21
543.79	1931.28
544.15	1942.09
544.51	1953.54
544.87	1964.38
545.22	1975.14
545.58	1985.30
545.94	1994.81
546.29	2004.53
546.65	2014.42
547.01	2023.69
547.36	2032.47
547.72	2040.84
548.07	2048.54
548.43	2056.67
548.79	2064.53
549.14	2072.08
549.50	2079.27
549.86	2086.89
550.21	2094.25
550.57	2101.32
550.92	2107.80
551.28	2114.77
551.64	2121.76
551.99	2128.25
552.35	2134.53
552.70	2140.75
553.06	2146.68
553.41	2153.08
553.77	2159.11
554.13	2165.13
554.48	2171.16
554.84	2176.41
555.19	2181.74
555.55	2187.02
555.90	2191.47
556.26	2196.45
556.61	2201.18
556.97	2205.62
557.32	2209.74
557.68	2213.90
558.03	2218.33
558.39	2221.93
558.74	2226.62
559.10	2230.57
559.45	2234.30
559.81	2238.54
560.16	2242.33
560.52	2245.41
560.87	2248.65
561.23	2251.31
561.58	2254.25
561.94	2256.71
562.29	2259.18
562.64	2261.82
563.00	2264.43
563.35	2268.02
563.71	2271.07
564.06	2274.21
564.42	2277.17
564.77	2279.61
565.12	2282.00
565.48	2283.89
565.83	2285.93
566.19	2287.15
566.54	2288.04
566.89	2289.06
567.25	2289.56
567.60	2290.87
567.96	2292.78
568.31	2293.86
568.66	2295.04
569.02	2295.52
569.37	2296.09
569.72	2297.01
570.08	2297.19
570.43	2297.20
570.78	2296.78
571.14	2295.32
571.49	2294.02
571.84	2293.68
572.20	2292.64
572.55	2291.60
572.90	2290.04
573.26	2288.72
573.61	2287.23
573.96	2285.52
574.31	2282.72
574.67	2279.84
575.02	2276.35
575.37	2273.10
575.72	2269.35
576.08	2266.01
576.43	2262.77
576.78	2259.05
577.13	2255.89
577.49	2252.91
577.84	2249.47
578.19	2245.55
578.54	2242.05
578.90	2237.98
579.25	2232.50
579.60	2227.68
579.95	2222.71
580.30	2217.78
580.66	2212.66
581.01	2207.71
581.36	2202.85
581.71	2198.61
582.06	2194.28
582.42	2189.89
582.77	2184.70
583.12	2180.08
583.47	2175.38
583.82	2170.54
584.17	2165.48
584.53	2160.10
584.88	2154.46
585.23	2148.73
585.58	2143.42
585.93	2138.02
586.28	2133.30
586.63	2128.34
586.98	2123.40
587.34	2118.57
587.69	2113.82
588.04	2108.57
588.39	2102.96
588.74	2096.44
589.09	2090.37
589.44	2083.58
589.79	2077.51
590.14	2071.88
590.49	2065.43
590.84	2059.18
591.19	2053.17
591.54	2046.76
591.89	2039.38
592.25	2032.61
592.60	2025.54
592.95	2018.05
593.30	2010.71
593.65	2003.20
594.00	1996.20
594.35	1988.93
594.70	1981.10
595.05	1973.83
595.40	1966.54
595.75	1959.06
596.10	1953.05
596.45	1946.48
596.80	1940.32
597.15	1933.72
597.50	1926.66
597.85	1920.24
598.19	1913.58
598.54	1906.41
598.89	1899.68
599.24	1893.86
599.59	1887.09
599.94	1880.94
600.29	1874.63
600.64	1868.07
600.99	1860.69
601.34	1853.83
601.69	1846.84
602.04	1839.98
602.39	1832.76
602.74	1826.03
603.08	1819.31
603.43	1812.68
603.78	1805.37
604.13	1798.24
604.48	1790.94
604.83	1784.07
605.18	1777.20
605.53	1769.30
605.87	1761.40
606.22	1754.29
606.57	1746.24
606.92	1739.20
607.27	1732.05
607.62	1725.14
607.96	1717.92
608.31	1711.32
608.66	1703.82
609.01	1696.35
609.36	1688.76
609.70	1680.73
610.05	1672.70
610.40	1665.05
610.75	1656.65
611.10	1649.04
611.44	1640.60
611.79	1632.77
612.14	1624.16
612.49	1615.00
612.83	1606.73
613.18	1598.64
613.53	1590.43
613.88	1582.01
614.22	1573.63
614.57	1564.87
614.92	1556.87
615.27	1549.30
615.61	1540.85
615.96	1532.70
616.31	1524.98
616.65	1517.59
617.00	1510.00
617.35	1502.36
617.70	1494.03
618.04	1485.50
618.39	1477.22
618.74	1469.64
619.08	1461.27
619.43	1453.60
619.78	1446.69
620.12	1439.39
620.47	1431.84
620.82	1423.75
621.16	1416.30
621.51	1408.63
621.85	1401.03
622.20	1392.43
622.55	1384.05
622.89	1376.31
623.24	1368.69
623.59	1361.37
623.93	1353.83
624.28	1346.60
624.62	1338.92
624.97	1331.87
625.32	1325.14
625.66	1318.15
626.01	1310.96
626.35	1303.58
626.70	1295.88
627.04	1288.09
627.39	1280.23
627.73	1272.79
628.08	1265.89
628.43	1258.59
628.77	1251.42
629.12	1243.90
629.46	1236.82
629.81	1229.39
630.15	1222.08
630.50	1214.69
630.84	1206.46
631.19	1198.55
631.53	1190.97
631.88	1183.49
632.22	1175.79
632.57	1168.48
632.91	1160.90
633.26	1153.45
633.60	1145.99
633.95	1138.87
634.29	1131.89
634.64	1125.23
634.98	1117.92
635.32	1110.65
635.67	1103.96
636.01	1097.25
636.36	1090.36
636.70	1083.71
637.05	1077.07
637.39	1070.60
637.73	1064.00
638.08	1058.06
638.42	1051.99
638.77	1045.63
639.11	1039.01
639.45	1032.54
639.80	1025.81
640.14	1019.29
640.49	1012.75
640.83	1006.39
641.17	1000.13
641.52	993.65
641.86	987.15
642.20	981.21
642.55	974.91
642.89	968.45
643.23	961.85
643.58	956.19
643.92	949.98
644.26	944.04
644.61	938.04
644.95	932.03
645.29	925.43
645.64	918.79
645.98	912.44
646.32	906.67
646.66	900.65
647.01	894.84
647.35	889.20
647.69	883.36
648.04	877.90
648.38	872.06
648.72	866.13
649.06	860.12
649.41	854.29
649.75	848.35
650.09	842.42
650.43	836.61
650.78	830.43
651.12	824.59
651.46	818.80
651.80	812.98
652.14	807.59
652.49	802.35
652.83	797.11
653.17	791.37
653.51	785.59
653.85	780.21
654.20	774.55
654.54	768.53
654.88	762.74
655.22	756.85
655.56	751.18
655.90	745.73
656.25	740.47
656.59	735.11
656.93	730.06
657.27	724.93
657.61	719.48
657.95	714.36
658.29	709.20
658.64	703.96
658.98	698.66
659.32	693.23
659.66	687.91
660.00	682.53
660.34	677.58
660.68	672.64
661.02	667.63
661.36	662.98
661.70	658.50
662.05	654.21
662.39	649.89
662.73	645.45
663.07	641.06
663.41	636.63
663.75	632.14
664.09	627.56
664.43	623.15
664.77	619.08
665.11	614.84
665.45	610.71
665.79	606.63
666.13	602.55
666.47	598.45
666.81	594.32
667.15	590.26
667.49	586.34
667.83	582.53
668.17	578.60
668.51	574.59
668.85	570.54
669.19	566.64
669.53	562.79
669.87	558.91
670.21	555.25
670.55	551.58
670.89	548.13
671.23	544.68
671.57	541.17
671.91	537.57
672.25	534.04
672.58	530.52
672.92	527.08
673.26	523.88
673.60	520.70
673.94	517.61
674.28	514.73
674.62	511.84
674.96	508.70
675.30	505.77
675.64	502.81
675.97	500.03
676.31	497.14
676.65	494.18
676.99	491.49
677.33	488.56
677.67	485.81
678.01	482.78
678.34	479.79
678.68	476.88
679.02	474.08
679.36	471.34
679.70	468.63
680.04	465.89
680.37	463.02
680.71	460.19
681.05	457.56
681.39	454.85
681.73	452.16
682.06	449.65
682.40	447.10
682.74	444.57
683.08	442.10
683.42	439.51
683.75	436.99
684.09	434.42
684.43	431.96
684.77	429.45
685.10	427.10
685.44	424.80
685.78	422.56
686.12	420.33
686.45	417.99
686.79	415.69
687.13	413.50
687.46	411.35
687.80	409.23
688.14	407.00
688.48	404.93
688.81	402.72
689.15	400.61
689.49	398.45
689.82	396.37
690.16	394.25
690.50	392.33
690.83	390.41
691.17	388.43
691.51	386.55
691.84	384.72
692.18	382.76
692.52	380.76
692.85	378.83
693.19	376.92
693.52	375.11
693.86	373.29
694.20	371.49
694.53	369.72
694.87	367.86
695.21	366.10
695.54	364.25
695.88	362.47
696.21	360.74
696.55	359.06
696.88	357.34
697.22	355.65
697.56	353.99
697.89	352.36
698.23	350.71
698.56	349.10
698.90	347.52
699.23	345.90
699.57	344.37
699.90	342.80
700.24	341.29
700.58	339.74
700.91	338.20
701.25	336.73
701.58	335.32
701.92	333.99
702.25	332.57
702.59	331.19
702.92	329.88
703.26	328.52
703.59	327.23
703.93	326.05
704.26	324.83
704.60	323.52
704.93	322.23
705.26	320.96
705.60	319.76
705.93	318.60
706.27	317.56
706.60	316.50
706.94	315.40
707.27	314.25
707.61	313.20
707.94	312.20
708.27	311.14
708.61	310.07
708.94	309.06
709.28	308.06
709.61	307.10
709.94	306.12
710.28	305.09
710.61	304.07
710.95	302.97
711.28	302.05
711.61	301.12
711.95	300.18
712.28	299.27
712.61	298.28
712.95	297.28
713.28	296.36
713.61	295.46
713.95	294.56
714.28	293.76
714.61	292.88
714.95	292.01
715.28	291.16
715.61	290.28
715.95	289.38
716.28	288.54
716.61	287.71
716.95	286.90
717.28	286.17
717.61	285.43
717.94	284.70
718.28	283.85
718.61	283.14
718.94	282.45
719.27	281.78
719.61	281.15
719.94	280.51
720.27	279.82
720.60	279.13
720.94	278.49
721.27	277.87
721.60	277.33
721.93	276.75
722.27	276.16
722.60	275.59
722.93	274.99
723.26	274.48
723.59	273.93
723.93	273.39
724.26	272.81
724.59	272.25
724.92	271.73
725.25	271.28
725.59	270.75
725.92	270.26
726.25	269.78
726.58	269.30
726.91	268.79
727.24	268.35
727.57	267.92
727.91	267.44
728.24	266.99
728.57	266.46
728.90	265.99
729.23	265.52
729.56	265.10
729.89	264.67
730.22	264.16
730.55	263.72
730.89	263.26
731.22	262.87
731.55	262.44
731.88	262.06
732.21	261.60
732.54	261.20
732.87	260.76
733.20	260.32
733.53	259.91
733.86	259.54
734.19	259.13
734.52	258.73
734.85	258.43
735.18	258.03
735.51	257.68
735.84	257.32
736.17	257.01
736.50	256.64
736.83	256.42
737.16	256.11
737.49	255.75
737.82	255.42
738.15	255.07
738.48	254.75
738.81	254.40
739.14	254.10
739.47	253.74
739.80	253.47
740.13	253.17
740.46	252.84
740.79	252.54
741.12	252.21
741.45	251.91
741.78	251.54
742.11	251.22
742.44	250.94
742.77	250.63
743.10	250.29
743.43	249.97
743.75	249.58
744.08	249.44
744.41	249.17
744.74	248.92
745.07	248.61
745.40	248.36
745.73	248.10
746.06	247.82
746.39	247.55
746.71	247.25
747.04	246.98
747.37	246.74
747.70	246.49
748.03	246.26
748.36	246.00
748.68	245.77
749.01	245.50
749.34	245.25
749.67	245.02
750.00	244.77
750.33	244.61
750.65	244.41
750.98	244.05
751.31	243.85
751.64	243.62
751.97	243.47
752.29	243.23
752.62	242.97
752.95	242.76
753.28	242.53
753.60	242.32
753.93	242.14
754.26	241.91
754.59	241.68
754.91	241.44
755.24	241.25
755.57	241.04
755.90	240.86
756.22	240.69
756.55	240.49
756.88	240.30
757.20	240.05
757.53	239.84
757.86	239.67
758.19	239.46
758.51	239.30
758.84	239.09
759.17	238.93
759.49	238.79
759.82	238.66
760.15	238.51
760.47	238.34
760.80	238.14
761.13	237.98
761.45	237.85
761.78	237.74
762.11	237.58
762.43	237.40
762.76	237.25
763.08	237.10
763.41	236.99
763.74	236.86
764.06	236.73
764.39	236.57
764.71	236.44
765.04	236.32
765.37	236.18
765.69	236.05
766.02	235.90
766.34	235.77
766.67	235.64
767.00	235.55
767.32	235.54
767.65	235.53
767.97	235.45
768.30	235.31
768.62	235.20
768.95	235.11
769.27	235.05
769.60	234.96
769.92	234.84
770.25	234.71
770.57	234.57
770.90	234.48
771.22	234.39
771.55	234.33
771.87	234.26
772.20	234.18
772.52	234.19
772.85	234.20
773.17	234.14
773.50	234.01
773.82	233.89
774.15	233.72
774.47	233.55
774.80	233.47
775.12	233.42
775.45	233.35
775.77	233.27
776.09	233.22
776.42	233.16
776.74	233.14
777.07	233.08
777.39	233.02
777.72	232.94
778.04	232.86
778.36	232.79
778.69	232.70
779.01	232.64
779.33	232.47
779.66	232.33
779.98	232.24
780.31	232.20
780.63	232.23
780.95	232.20
781.28	232.17
781.60	232.10
781.92	232.04
782.25	231.98
782.57	231.93
782.89	231.89
783.22	231.80
783.54	231.72
783.86	231.65
784.19	231.60
784.51	231.57
784.83	231.55
785.16	231.47
785.48	231.42
785.80	231.36
786.12	231.31
786.45	231.25
786.77	231.24
787.09	231.19
