SpectraSuite Data File
++++++++++++++++++++++++++++++++++++
Date: Fri Feb 01 17:20:18 EST 2013
User: group
Dark Spectrum Present: No
Reference Spectrum Present: No
Number of Sampled Component Spectra: 1
Spectrometers: USB2E7196
Integration Time (usec): 35000 (USB2E7196)
Spectra Averaged: 100 (USB2E7196)
Boxcar Smoothing: 10 (USB2E7196)
Correct for Electrical Dark: No (USB2E7196)
Strobe/Lamp Enabled: No (USB2E7196)
Correct for Detector Non-linearity: No (USB2E7196)
Correct for Stray Light: No (USB2E7196)
Number of Pixels in Processed Spectrum: 2048
>>>>>Begin Processed Spectral Data<<<<<
339.09	0.00
339.48	213.25
339.86	215.04
340.24	215.73
340.63	217.27
341.01	220.02
341.39	219.86
341.78	221.18
342.16	222.86
342.54	223.16
342.93	211.48
343.31	222.16
343.69	222.69
344.07	223.12
344.46	223.58
344.84	223.94
345.22	224.19
345.60	224.43
345.99	224.62
346.37	224.74
346.75	224.84
347.13	224.90
347.52	224.97
347.90	225.02
348.28	225.05
348.66	225.07
349.05	225.07
349.43	225.10
349.81	225.15
350.19	225.21
350.57	225.28
350.96	225.34
351.34	225.42
351.72	225.49
352.10	225.57
352.48	225.61
352.87	225.67
353.25	225.71
353.63	225.78
354.01	225.84
354.39	225.92
354.77	225.99
355.15	226.08
355.54	226.17
355.92	226.20
356.30	226.30
356.68	226.41
357.06	226.51
357.44	226.55
357.82	226.60
358.20	226.65
358.58	226.69
358.97	226.73
359.35	226.82
359.73	226.93
360.11	226.98
360.49	227.04
360.87	227.10
361.25	227.15
361.63	227.25
362.01	227.32
362.39	227.34
362.77	227.37
363.15	227.37
363.53	227.41
363.91	227.49
364.29	227.48
364.67	227.43
365.05	227.43
365.43	227.46
365.81	227.50
366.19	227.57
366.57	227.62
366.95	227.63
367.33	227.58
367.71	227.56
368.09	227.60
368.47	227.60
368.85	227.57
369.23	227.61
369.61	227.55
369.99	227.56
370.37	227.54
370.75	227.58
371.13	227.56
371.51	227.50
371.89	227.49
372.27	227.46
372.65	227.45
373.03	227.41
373.41	227.37
373.78	227.29
374.16	227.18
374.54	227.11
374.92	227.06
375.30	227.03
375.68	226.95
376.06	226.86
376.44	226.78
376.82	226.73
377.19	226.64
377.57	226.56
377.95	226.46
378.33	226.42
378.71	226.29
379.09	226.25
379.47	226.20
379.84	226.10
380.22	226.04
380.60	225.95
380.98	225.87
381.36	225.83
381.73	225.79
382.11	225.75
382.49	225.67
382.87	225.60
383.25	225.57
383.62	225.67
384.00	225.62
384.38	225.59
384.76	225.57
385.13	225.55
385.51	225.48
385.89	225.41
386.27	225.31
386.64	225.29
387.02	225.25
387.40	225.19
387.78	225.13
388.15	225.12
388.53	225.06
388.91	225.03
389.29	225.00
389.66	224.97
390.04	224.93
390.42	224.92
390.79	224.88
391.17	224.85
391.55	224.67
391.92	224.67
392.30	224.63
392.68	224.61
393.05	224.61
393.43	224.62
393.81	224.62
394.18	224.63
394.56	224.63
394.94	224.63
395.31	224.59
395.69	224.60
396.06	224.60
396.44	224.66
396.82	224.66
397.19	224.71
397.57	224.72
397.95	224.78
398.32	224.78
398.70	224.82
399.07	224.84
399.45	224.88
399.82	224.89
400.20	224.95
400.58	224.97
400.95	224.95
401.33	224.98
401.70	225.13
402.08	225.20
402.45	225.25
402.83	225.34
403.20	225.47
403.58	225.56
403.95	225.64
404.33	225.74
404.71	225.88
405.08	226.03
405.46	226.12
405.83	226.26
406.21	226.40
406.58	226.55
406.96	226.70
407.33	226.88
407.70	227.10
408.08	227.33
408.45	227.58
408.83	227.84
409.20	228.09
409.58	228.26
409.95	228.51
410.33	228.80
410.70	229.03
411.08	229.32
411.45	229.64
411.82	229.98
412.20	230.32
412.57	230.70
412.95	231.01
413.32	231.46
413.69	231.84
414.07	232.31
414.44	232.77
414.82	233.27
415.19	233.86
415.56	234.40
415.94	234.97
416.31	235.63
416.68	236.28
417.06	237.00
417.43	237.69
417.81	238.50
418.18	239.30
418.55	240.22
418.93	241.12
419.30	242.09
419.67	243.07
420.04	244.08
420.42	245.14
420.79	246.41
421.16	247.60
421.54	248.85
421.91	250.10
422.28	251.42
422.66	252.85
423.03	254.19
423.40	255.59
423.77	257.06
424.15	258.55
424.52	260.06
424.89	261.77
425.26	263.44
425.64	264.92
426.01	266.60
426.38	268.27
426.75	270.00
427.13	271.77
427.50	273.66
427.87	275.58
428.24	277.48
428.61	279.27
428.99	281.28
429.36	283.47
429.73	285.60
430.10	287.71
430.47	289.82
430.85	291.99
431.22	294.31
431.59	296.78
431.96	299.10
432.33	301.68
432.70	304.11
433.08	307.02
433.45	309.76
433.82	312.48
434.19	315.48
434.56	318.41
434.93	321.17
435.30	323.89
435.68	326.88
436.05	329.81
436.42	332.70
436.79	335.26
437.16	338.07
437.53	340.96
437.90	343.88
438.27	346.66
438.64	349.62
439.01	352.26
439.38	354.53
439.75	356.76
440.13	359.31
440.50	361.75
440.87	363.62
441.24	365.63
441.61	367.83
441.98	369.37
442.35	371.23
442.72	373.18
443.09	375.07
443.46	376.10
443.83	376.73
444.20	377.26
444.57	378.19
444.94	378.45
445.31	378.87
445.68	379.26
446.05	379.39
446.42	378.97
446.79	378.56
447.16	378.11
447.53	377.81
447.90	376.70
448.27	375.46
448.64	373.84
449.01	372.69
449.37	370.67
449.74	368.70
450.11	366.42
450.48	363.86
450.85	361.22
451.22	359.03
451.59	357.01
451.96	355.01
452.33	352.30
452.70	349.89
453.07	346.98
453.43	343.98
453.80	341.12
454.17	338.38
454.54	335.79
454.91	332.99
455.28	330.25
455.65	327.70
456.02	325.22
456.38	323.00
456.75	320.23
457.12	317.87
457.49	315.57
457.86	313.31
458.23	311.35
458.59	309.24
458.96	307.09
459.33	305.08
459.70	303.16
460.07	301.62
460.43	299.85
460.80	298.13
461.17	296.65
461.54	295.13
461.91	293.67
462.27	292.17
462.64	290.90
463.01	289.50
463.38	288.11
463.74	286.68
464.11	285.49
464.48	284.43
464.85	283.32
465.21	282.46
465.58	281.50
465.95	280.41
466.32	279.47
466.68	278.56
467.05	277.69
467.42	276.77
467.78	275.81
468.15	274.90
468.52	274.24
468.88	273.34
469.25	272.49
469.62	271.86
469.98	271.14
470.35	270.49
470.72	269.86
471.08	269.24
471.45	268.70
471.82	268.13
472.18	267.57
472.55	267.14
472.92	266.58
473.28	266.14
473.65	265.68
474.02	265.25
474.38	264.86
474.75	264.54
475.11	264.17
475.48	263.93
475.85	263.71
476.21	263.47
476.58	263.28
476.94	263.15
477.31	262.98
477.67	262.86
478.04	262.76
478.41	262.66
478.77	262.70
479.14	262.65
479.50	262.66
479.87	262.69
480.23	262.74
480.60	262.82
480.96	262.92
481.33	263.13
481.69	263.33
482.06	263.53
482.42	263.70
482.79	263.94
483.15	264.22
483.52	264.60
483.88	264.96
484.25	265.34
484.61	265.77
484.98	266.21
485.34	266.77
485.71	267.35
486.07	267.98
486.44	268.51
486.80	269.19
487.17	269.91
487.53	270.74
487.90	271.60
488.26	272.57
488.62	273.49
488.99	274.45
489.35	275.48
489.72	276.60
490.08	277.83
490.44	279.09
490.81	280.44
491.17	281.81
491.54	283.31
491.90	284.83
492.26	286.45
492.63	288.16
492.99	289.93
493.36	291.77
493.72	293.82
494.08	295.93
494.45	298.21
494.81	300.58
495.17	303.01
495.54	305.57
495.90	308.22
496.26	311.04
496.63	313.96
496.99	317.05
497.35	320.28
497.72	323.64
498.08	327.13
498.44	330.80
498.80	334.68
499.17	338.65
499.53	342.78
499.89	347.17
500.26	351.66
500.62	356.26
500.98	361.23
501.34	366.23
501.71	371.55
502.07	376.93
502.43	382.49
502.79	388.23
503.16	394.22
503.52	400.37
503.88	406.74
504.24	413.28
504.60	420.07
504.97	427.09
505.33	434.31
505.69	441.94
506.05	449.58
506.41	457.36
506.78	465.37
507.14	473.76
507.50	482.31
507.86	491.20
508.22	500.29
508.59	509.34
508.95	518.81
509.31	528.40
509.67	538.32
510.03	548.45
510.39	558.83
510.75	569.44
511.12	580.25
511.48	591.33
511.84	602.66
512.20	613.98
512.56	625.72
512.92	637.65
513.28	649.80
513.64	662.05
514.00	674.57
514.37	687.39
514.73	700.19
515.09	712.97
515.45	726.00
515.81	739.27
516.17	752.96
516.53	766.74
516.89	780.69
517.25	794.59
517.61	808.74
517.97	822.93
518.33	837.04
518.69	851.47
519.05	866.08
519.41	880.91
519.77	896.11
520.13	911.26
520.49	926.39
520.85	941.33
521.21	956.63
521.57	972.46
521.93	987.78
522.29	1003.67
522.65	1019.58
523.01	1035.42
523.37	1051.14
523.73	1066.89
524.09	1082.69
524.45	1098.49
524.81	1114.67
525.17	1130.95
525.53	1147.37
525.89	1163.94
526.25	1180.37
526.61	1196.43
526.97	1212.82
527.33	1228.95
527.68	1245.16
528.04	1261.30
528.40	1277.52
528.76	1294.30
529.12	1310.51
529.48	1327.15
529.84	1342.88
530.20	1359.17
530.56	1375.72
530.91	1392.65
531.27	1409.11
531.63	1425.13
531.99	1441.45
532.35	1457.27
532.71	1473.01
533.07	1489.08
533.42	1504.72
533.78	1520.54
534.14	1536.59
534.50	1551.60
534.86	1567.19
535.21	1582.19
535.57	1597.78
535.93	1612.99
536.29	1627.48
536.65	1642.32
537.00	1656.73
537.36	1671.94
537.72	1686.09
538.08	1700.54
538.44	1714.30
538.79	1728.06
539.15	1741.46
539.51	1754.84
539.87	1768.82
540.22	1782.27
540.58	1795.73
540.94	1808.73
541.29	1821.38
541.65	1833.89
542.01	1846.93
542.37	1859.08
542.72	1871.46
543.08	1883.28
543.44	1895.62
543.79	1906.97
544.15	1917.84
544.51	1929.40
544.87	1940.12
545.22	1951.12
545.58	1961.21
545.94	1971.01
546.29	1980.85
546.65	1990.91
547.01	2000.36
547.36	2009.26
547.72	2018.09
548.07	2026.16
548.43	2034.47
548.79	2042.40
549.14	2050.24
549.50	2057.65
549.86	2065.30
550.21	2072.70
550.57	2079.94
550.92	2086.74
551.28	2094.01
551.64	2101.26
551.99	2107.95
552.35	2114.50
552.70	2120.86
553.06	2127.03
553.41	2133.55
553.77	2139.82
554.13	2146.02
554.48	2152.49
554.84	2158.39
555.19	2163.57
555.55	2169.07
555.90	2173.92
556.26	2179.37
556.61	2184.22
556.97	2189.00
557.32	2193.74
557.68	2198.15
558.03	2202.62
558.39	2206.53
558.74	2211.27
559.10	2215.45
559.45	2219.35
559.81	2223.84
560.16	2228.00
560.52	2231.57
560.87	2235.13
561.23	2238.06
561.58	2241.31
561.94	2244.11
562.29	2246.49
562.64	2249.81
563.00	2252.52
563.35	2256.26
563.71	2259.71
564.06	2263.19
564.42	2266.40
564.77	2269.28
565.12	2272.11
565.48	2274.54
565.83	2276.82
566.19	2278.66
566.54	2279.79
566.89	2281.48
567.25	2282.41
567.60	2284.02
567.96	2286.18
568.31	2287.47
568.66	2289.05
569.02	2290.08
569.37	2290.88
569.72	2292.12
570.08	2292.58
570.43	2292.97
570.78	2292.92
571.14	2291.74
571.49	2290.65
571.84	2290.58
572.20	2289.69
572.55	2288.76
572.90	2287.35
573.26	2286.53
573.61	2284.99
573.96	2283.86
574.31	2281.18
574.67	2278.71
575.02	2275.46
575.37	2272.37
575.72	2269.00
576.08	2265.79
576.43	2262.74
576.78	2259.33
577.13	2256.54
577.49	2253.63
577.84	2250.68
578.19	2247.13
578.54	2243.87
578.90	2240.19
579.25	2234.95
579.60	2230.30
579.95	2225.58
580.30	2220.88
580.66	2215.77
581.01	2210.92
581.36	2206.08
581.71	2202.24
582.06	2198.12
582.42	2193.98
582.77	2188.91
583.12	2184.53
583.47	2180.13
583.82	2175.47
584.17	2170.58
584.53	2165.28
584.88	2159.88
585.23	2154.29
585.58	2148.93
585.93	2143.50
586.28	2138.82
586.63	2134.05
586.98	2129.25
587.34	2124.74
587.69	2119.94
588.04	2115.05
588.39	2109.88
588.74	2103.67
589.09	2097.75
589.44	2091.12
589.79	2085.15
590.14	2079.77
590.49	2073.43
590.84	2067.28
591.19	2061.51
591.54	2055.18
591.89	2048.22
592.25	2041.71
592.60	2034.65
592.95	2027.55
593.30	2020.47
593.65	2013.02
594.00	2005.98
594.35	1998.79
594.70	1990.91
595.05	1984.12
595.40	1976.80
595.75	1969.34
596.10	1963.42
596.45	1956.68
596.80	1950.62
597.15	1944.15
597.50	1937.38
597.85	1930.91
598.19	1924.37
598.54	1917.39
598.89	1910.86
599.24	1904.95
599.59	1898.57
599.94	1892.35
600.29	1885.92
600.64	1879.39
600.99	1872.09
601.34	1865.41
601.69	1858.38
602.04	1851.71
602.39	1844.32
602.74	1837.70
603.08	1831.07
603.43	1824.20
603.78	1816.95
604.13	1809.76
604.48	1802.55
604.83	1795.55
605.18	1788.77
605.53	1780.76
605.87	1772.66
606.22	1765.42
606.57	1757.34
606.92	1749.69
607.27	1742.79
607.62	1735.90
607.96	1728.66
608.31	1722.25
608.66	1714.66
609.01	1707.29
609.36	1699.67
609.70	1691.68
610.05	1683.64
610.40	1675.95
610.75	1667.72
611.10	1660.09
611.44	1651.54
611.79	1643.37
612.14	1634.70
612.49	1625.49
612.83	1617.07
613.18	1608.90
613.53	1600.64
613.88	1592.24
614.22	1583.95
614.57	1575.05
614.92	1566.98
615.27	1559.46
615.61	1550.99
615.96	1542.89
616.31	1535.09
616.65	1527.66
617.00	1520.08
617.35	1512.20
617.70	1503.89
618.04	1495.41
618.39	1487.01
618.74	1479.48
619.08	1471.17
619.43	1463.59
619.78	1456.58
620.12	1449.49
620.47	1441.95
620.82	1433.73
621.16	1426.03
621.51	1418.38
621.85	1410.66
622.20	1402.16
622.55	1393.64
622.89	1385.70
623.24	1377.93
623.59	1370.42
623.93	1362.78
624.28	1355.44
624.62	1347.98
624.97	1340.63
625.32	1333.59
625.66	1326.57
626.01	1319.28
626.35	1311.94
626.70	1304.03
627.04	1296.28
627.39	1288.26
627.73	1280.74
628.08	1273.83
628.43	1266.63
628.77	1259.26
629.12	1251.67
629.46	1244.49
629.81	1236.90
630.15	1229.48
630.50	1222.08
630.84	1213.91
631.19	1205.83
631.53	1198.16
631.88	1190.42
632.22	1182.74
632.57	1175.33
632.91	1167.64
633.26	1160.18
633.60	1152.44
633.95	1145.10
634.29	1137.90
634.64	1131.22
634.98	1123.81
635.32	1116.54
635.67	1109.80
636.01	1102.96
636.36	1096.16
636.70	1089.38
637.05	1082.76
637.39	1076.29
637.73	1069.74
638.08	1063.70
638.42	1057.69
638.77	1051.20
639.11	1044.58
639.45	1038.13
639.80	1031.43
640.14	1025.11
640.49	1018.52
640.83	1012.28
641.17	1006.06
641.52	999.69
641.86	993.19
642.20	987.25
642.55	980.75
642.89	974.26
643.23	967.60
643.58	961.76
643.92	955.59
644.26	949.68
644.61	943.47
644.95	937.41
645.29	930.80
645.64	923.97
645.98	917.65
646.32	911.70
646.66	905.55
647.01	899.73
647.35	893.90
647.69	888.01
648.04	882.39
648.38	876.59
648.72	870.63
649.06	864.51
649.41	858.61
649.75	852.84
650.09	846.87
650.43	841.14
650.78	834.93
651.12	828.93
651.46	823.05
651.80	817.37
652.14	811.94
652.49	806.66
652.83	801.49
653.17	795.83
653.51	790.18
653.85	784.75
654.20	779.17
654.54	773.17
654.88	767.33
655.22	761.40
655.56	755.67
655.90	750.13
656.25	744.90
656.59	739.51
656.93	734.25
657.27	729.07
657.61	723.59
657.95	718.42
658.29	713.26
658.64	707.94
658.98	702.61
659.32	697.02
659.66	691.67
660.00	686.38
660.34	681.28
660.68	676.29
661.02	671.23
661.36	666.42
661.70	661.83
662.05	657.48
662.39	653.19
662.73	648.75
663.07	644.41
663.41	639.92
663.75	635.39
664.09	630.81
664.43	626.34
664.77	622.26
665.11	618.07
665.45	613.89
665.79	609.78
666.13	605.62
666.47	601.57
666.81	597.51
667.15	593.38
667.49	589.46
667.83	585.56
668.17	581.60
668.51	577.56
668.85	573.52
669.19	569.60
669.53	565.76
669.87	561.86
670.21	558.04
670.55	554.38
670.89	550.90
671.23	547.46
671.57	543.92
671.91	540.33
672.25	536.72
672.58	533.17
672.92	529.73
673.26	526.52
673.60	523.33
673.94	520.19
674.28	517.21
674.62	514.22
674.96	511.16
675.30	508.27
675.64	505.29
675.97	502.47
676.31	499.54
676.65	496.50
676.99	493.76
677.33	490.88
677.67	488.00
678.01	484.96
678.34	481.89
678.68	478.96
679.02	476.13
679.36	473.35
679.70	470.61
680.04	467.86
680.37	465.00
680.71	462.17
681.05	459.46
681.39	456.65
681.73	453.98
682.06	451.46
682.40	448.84
682.74	446.24
683.08	443.65
683.42	441.13
683.75	438.64
684.09	436.02
684.43	433.52
684.77	431.02
685.10	428.66
685.44	426.38
685.78	424.09
686.12	421.81
686.45	419.53
686.79	417.19
687.13	414.95
687.46	412.72
687.80	410.51
688.14	408.20
688.48	406.16
688.81	403.95
689.15	401.73
689.49	399.56
689.82	397.47
690.16	395.36
690.50	393.35
690.83	391.41
691.17	389.42
691.51	387.50
691.84	385.62
692.18	383.68
692.52	381.72
692.85	379.75
693.19	377.85
693.52	376.00
693.86	374.18
694.20	372.38
694.53	370.57
694.87	368.70
695.21	366.93
695.54	365.08
695.88	363.31
696.21	361.61
696.55	359.94
696.88	358.23
697.22	356.54
697.56	354.83
697.89	353.23
698.23	351.62
698.56	349.97
698.90	348.40
699.23	346.77
699.57	345.18
699.90	343.62
700.24	342.05
700.58	340.51
700.91	339.05
701.25	337.57
701.58	336.23
701.92	334.85
702.25	333.48
702.59	332.10
702.92	330.76
703.26	329.42
703.59	328.11
703.93	326.90
704.26	325.70
704.60	324.44
704.93	323.09
705.26	321.83
705.60	320.64
705.93	319.44
706.27	318.33
706.60	317.28
706.94	316.16
707.27	315.02
707.61	313.91
707.94	312.81
708.27	311.68
708.61	310.56
708.94	309.51
709.28	308.54
709.61	307.58
709.94	306.61
710.28	305.55
710.61	304.50
710.95	303.40
711.28	302.44
711.61	301.48
711.95	300.61
712.28	299.63
712.61	298.66
712.95	297.71
713.28	296.83
713.61	295.92
713.95	295.05
714.28	294.22
714.61	293.34
714.95	292.50
715.28	291.67
715.61	290.79
715.95	289.94
716.28	289.02
716.61	288.20
716.95	287.38
717.28	286.61
717.61	285.89
717.94	285.18
718.28	284.37
718.61	283.62
718.94	282.82
719.27	282.18
719.61	281.47
719.94	280.81
720.27	280.08
720.60	279.36
720.94	278.71
721.27	278.07
721.60	277.47
721.93	276.85
722.27	276.29
722.60	275.72
722.93	275.11
723.26	274.59
723.59	273.99
723.93	273.42
724.26	272.89
724.59	272.27
724.92	271.75
725.25	271.25
725.59	270.70
725.92	270.18
726.25	269.65
726.58	269.15
726.91	268.66
727.24	268.20
727.57	267.72
727.91	267.20
728.24	266.70
728.57	266.22
728.90	265.72
729.23	265.19
729.56	264.77
729.89	264.29
730.22	263.76
730.55	263.29
730.89	262.80
731.22	262.32
731.55	261.89
731.88	261.44
732.21	261.02
732.54	260.62
732.87	260.21
733.20	259.78
733.53	259.38
733.86	258.98
734.19	258.56
734.52	258.15
734.85	257.82
735.18	257.40
735.51	257.03
735.84	256.71
736.17	256.33
736.50	255.92
736.83	255.74
737.16	255.44
737.49	255.10
737.82	254.78
738.15	254.44
738.48	254.12
738.81	253.74
739.14	253.39
739.47	253.03
739.80	252.75
740.13	252.45
740.46	252.16
740.79	251.81
741.12	251.48
741.45	251.21
741.78	250.87
742.11	250.59
742.44	250.24
742.77	249.92
743.10	249.66
743.43	249.35
743.75	248.95
744.08	248.77
744.41	248.51
744.74	248.21
745.07	247.90
745.40	247.65
745.73	247.43
746.06	247.14
746.39	246.85
746.71	246.54
747.04	246.28
747.37	245.97
747.70	245.77
748.03	245.54
748.36	245.30
748.68	245.07
749.01	244.80
749.34	244.55
749.67	244.32
750.00	244.08
750.33	243.94
750.65	243.74
750.98	243.38
751.31	243.13
751.64	242.92
751.97	242.73
752.29	242.49
752.62	242.24
752.95	242.02
753.28	241.84
753.60	241.62
753.93	241.44
754.26	241.24
754.59	240.99
754.91	240.78
755.24	240.57
755.57	240.36
755.90	240.18
756.22	240.02
756.55	239.81
756.88	239.59
757.20	239.34
757.53	239.10
757.86	238.93
758.19	238.77
758.51	238.58
758.84	238.39
759.17	238.22
759.49	238.03
759.82	237.94
760.15	237.79
760.47	237.64
760.80	237.43
761.13	237.30
761.45	237.14
761.78	236.97
762.11	236.81
762.43	236.64
762.76	236.50
763.08	236.37
763.41	236.23
763.74	236.12
764.06	235.96
764.39	235.81
764.71	235.69
765.04	235.57
765.37	235.44
765.69	235.32
766.02	235.15
766.34	235.04
766.67	234.85
767.00	234.75
767.32	234.68
767.65	234.65
767.97	234.52
768.30	234.41
768.62	234.33
768.95	234.20
769.27	234.11
769.60	234.01
769.92	233.88
770.25	233.77
770.57	233.65
770.90	233.55
771.22	233.49
771.55	233.36
771.87	233.27
772.20	233.18
772.52	233.19
772.85	233.27
773.17	233.17
773.50	233.10
773.82	233.00
774.15	232.86
774.47	232.68
774.80	232.58
775.12	232.50
775.45	232.38
775.77	232.31
776.09	232.21
776.42	232.13
776.74	232.09
777.07	232.01
777.39	231.92
777.72	231.84
778.04	231.75
778.36	231.69
778.69	231.61
779.01	231.55
779.33	231.40
779.66	231.21
779.98	231.15
780.31	231.07
780.63	231.03
780.95	230.99
781.28	230.93
781.60	230.90
781.92	230.86
782.25	230.80
782.57	230.74
782.89	230.72
783.22	230.64
783.54	230.54
783.86	230.48
784.19	230.42
784.51	230.38
784.83	230.34
785.16	230.28
785.48	230.22
785.80	230.16
786.12	230.09
786.45	230.04
786.77	230.01
787.09	229.93
