SpectraSuite Data File
++++++++++++++++++++++++++++++++++++
Date: Fri Feb 01 17:29:51 EST 2013
User: group
Dark Spectrum Present: No
Reference Spectrum Present: No
Number of Sampled Component Spectra: 1
Spectrometers: USB2E7196
Integration Time (usec): 35000 (USB2E7196)
Spectra Averaged: 100 (USB2E7196)
Boxcar Smoothing: 10 (USB2E7196)
Correct for Electrical Dark: No (USB2E7196)
Strobe/Lamp Enabled: No (USB2E7196)
Correct for Detector Non-linearity: No (USB2E7196)
Correct for Stray Light: No (USB2E7196)
Number of Pixels in Processed Spectrum: 2048
>>>>>Begin Processed Spectral Data<<<<<
339.09	0.00
339.48	213.16
339.86	214.32
340.24	215.10
340.63	216.71
341.01	219.64
341.39	219.15
341.78	221.13
342.16	222.44
342.54	222.48
342.93	211.12
343.31	221.81
343.69	222.30
344.07	222.76
344.46	223.25
344.84	223.63
345.22	223.86
345.60	224.11
345.99	224.27
346.37	224.39
346.75	224.49
347.13	224.58
347.52	224.60
347.90	224.73
348.28	224.75
348.66	224.78
349.05	224.77
349.43	224.77
349.81	224.80
350.19	224.87
350.57	224.94
350.96	225.01
351.34	225.08
351.72	225.21
352.10	225.29
352.48	225.30
352.87	225.37
353.25	225.45
353.63	225.55
354.01	225.62
354.39	225.71
354.77	225.80
355.15	225.90
355.54	225.98
355.92	226.04
356.30	226.11
356.68	226.26
357.06	226.36
357.44	226.47
357.82	226.58
358.20	226.64
358.58	226.70
358.97	226.80
359.35	226.91
359.73	227.01
360.11	227.08
360.49	227.17
360.87	227.24
361.25	227.30
361.63	227.36
362.01	227.46
362.39	227.52
362.77	227.58
363.15	227.62
363.53	227.66
363.91	227.66
364.29	227.69
364.67	227.64
365.05	227.68
365.43	227.67
365.81	227.69
366.19	227.73
366.57	227.79
366.95	227.80
367.33	227.75
367.71	227.74
368.09	227.77
368.47	227.74
368.85	227.69
369.23	227.70
369.61	227.70
369.99	227.70
370.37	227.67
370.75	227.68
371.13	227.63
371.51	227.58
371.89	227.54
372.27	227.52
372.65	227.46
373.03	227.42
373.41	227.36
373.78	227.34
374.16	227.25
374.54	227.11
374.92	227.02
375.30	226.96
375.68	226.87
376.06	226.78
376.44	226.73
376.82	226.68
377.19	226.60
377.57	226.48
377.95	226.39
378.33	226.30
378.71	226.17
379.09	226.10
379.47	226.02
379.84	225.96
380.22	225.87
380.60	225.80
380.98	225.69
381.36	225.61
381.73	225.49
382.11	225.43
382.49	225.39
382.87	225.30
383.25	225.23
383.62	225.27
384.00	225.21
384.38	225.13
384.76	225.10
385.13	225.09
385.51	225.03
385.89	224.94
386.27	224.86
386.64	224.81
387.02	224.76
387.40	224.72
387.78	224.66
388.15	224.62
388.53	224.55
388.91	224.50
389.29	224.47
389.66	224.45
390.04	224.42
390.42	224.42
390.79	224.47
391.17	224.42
391.55	224.27
391.92	224.25
392.30	224.23
392.68	224.21
393.05	224.18
393.43	224.18
393.81	224.17
394.18	224.19
394.56	224.20
394.94	224.24
395.31	224.25
395.69	224.29
396.06	224.33
396.44	224.38
396.82	224.42
397.19	224.52
397.57	224.52
397.95	224.57
398.32	224.60
398.70	224.62
399.07	224.74
399.45	224.81
399.82	224.87
400.20	224.94
400.58	224.99
400.95	225.02
401.33	225.11
401.70	225.27
402.08	225.37
402.45	225.47
402.83	225.59
403.20	225.71
403.58	225.82
403.95	225.92
404.33	226.07
404.71	226.20
405.08	226.37
405.46	226.54
405.83	226.69
406.21	226.81
406.58	227.01
406.96	227.16
407.33	227.32
407.70	227.53
408.08	227.78
408.45	228.02
408.83	228.29
409.20	228.53
409.58	228.73
409.95	229.01
410.33	229.28
410.70	229.54
411.08	229.85
411.45	230.17
411.82	230.52
412.20	230.90
412.57	231.30
412.95	231.62
413.32	232.05
413.69	232.48
414.07	232.95
414.44	233.41
414.82	233.92
415.19	234.51
415.56	235.11
415.94	235.72
416.31	236.39
416.68	237.06
417.06	237.80
417.43	238.50
417.81	239.28
418.18	240.08
418.55	240.95
418.93	241.83
419.30	242.75
419.67	243.70
420.04	244.70
420.42	245.76
420.79	247.00
421.16	248.15
421.54	249.39
421.91	250.65
422.28	251.96
422.66	253.32
423.03	254.70
423.40	256.05
423.77	257.48
424.15	258.94
424.52	260.45
424.89	262.10
425.26	263.70
425.64	265.19
426.01	266.87
426.38	268.60
426.75	270.35
427.13	272.13
427.50	274.00
427.87	275.94
428.24	277.87
428.61	279.65
428.99	281.66
429.36	283.84
429.73	286.00
430.10	288.10
430.47	290.27
430.85	292.42
431.22	294.71
431.59	297.20
431.96	299.56
432.33	302.15
432.70	304.64
433.08	307.54
433.45	310.29
433.82	312.97
434.19	315.94
434.56	318.87
434.93	321.64
435.30	324.40
435.68	327.46
436.05	330.37
436.42	333.25
436.79	335.89
437.16	338.65
437.53	341.55
437.90	344.45
438.27	347.25
438.64	350.20
439.01	352.95
439.38	355.23
439.75	357.44
440.13	360.03
440.50	362.42
440.87	364.36
441.24	366.37
441.61	368.62
441.98	370.20
442.35	372.09
442.72	374.04
443.09	375.90
443.46	376.89
443.83	377.54
444.20	378.10
444.57	378.96
444.94	379.31
445.31	379.71
445.68	380.12
446.05	380.29
446.42	379.94
446.79	379.52
447.16	379.09
447.53	378.78
447.90	377.58
448.27	376.44
448.64	374.84
449.01	373.71
449.37	371.70
449.74	369.73
450.11	367.37
450.48	364.80
450.85	362.16
451.22	359.99
451.59	357.93
451.96	355.90
452.33	353.26
452.70	350.79
453.07	347.85
453.43	344.85
453.80	341.93
454.17	339.14
454.54	336.48
454.91	333.70
455.28	330.91
455.65	328.38
456.02	325.84
456.38	323.57
456.75	320.76
457.12	318.43
457.49	316.12
457.86	313.88
458.23	311.97
458.59	309.85
458.96	307.67
459.33	305.66
459.70	303.73
460.07	302.18
460.43	300.43
460.80	298.77
461.17	297.25
461.54	295.71
461.91	294.21
462.27	292.73
462.64	291.40
463.01	290.04
463.38	288.67
463.74	287.24
464.11	286.05
464.48	285.02
464.85	283.83
465.21	282.94
465.58	281.97
465.95	280.82
466.32	279.88
466.68	278.92
467.05	278.03
467.42	277.12
467.78	276.11
468.15	275.18
468.52	274.44
468.88	273.56
469.25	272.76
469.62	272.11
469.98	271.42
470.35	270.77
470.72	270.14
471.08	269.48
471.45	268.89
471.82	268.29
472.18	267.67
472.55	267.24
472.92	266.70
473.28	266.23
473.65	265.74
474.02	265.27
474.38	264.89
474.75	264.54
475.11	264.16
475.48	263.94
475.85	263.69
476.21	263.46
476.58	263.25
476.94	263.08
477.31	262.91
477.67	262.74
478.04	262.64
478.41	262.56
478.77	262.56
479.14	262.53
479.50	262.54
479.87	262.62
480.23	262.68
480.60	262.74
480.96	262.81
481.33	263.04
481.69	263.23
482.06	263.41
482.42	263.60
482.79	263.86
483.15	264.13
483.52	264.49
483.88	264.84
484.25	265.22
484.61	265.63
484.98	266.09
485.34	266.64
485.71	267.20
486.07	267.81
486.44	268.38
486.80	269.10
487.17	269.83
487.53	270.64
487.90	271.48
488.26	272.42
488.62	273.44
488.99	274.41
489.35	275.49
489.72	276.62
490.08	277.83
490.44	279.06
490.81	280.43
491.17	281.80
491.54	283.28
491.90	284.83
492.26	286.47
492.63	288.21
492.99	289.97
493.36	291.86
493.72	293.85
494.08	295.95
494.45	298.16
494.81	300.52
495.17	302.90
495.54	305.49
495.90	308.12
496.26	310.87
496.63	313.81
496.99	316.90
497.35	320.12
497.72	323.54
498.08	327.07
498.44	330.71
498.80	334.60
499.17	338.55
499.53	342.65
499.89	347.00
500.26	351.43
500.62	356.08
500.98	361.01
501.34	366.05
501.71	371.31
502.07	376.70
502.43	382.22
502.79	387.98
503.16	393.87
503.52	400.07
503.88	406.36
504.24	412.89
504.60	419.65
504.97	426.71
505.33	433.88
505.69	441.43
506.05	449.07
506.41	456.84
506.78	464.93
507.14	473.23
507.50	481.77
507.86	490.67
508.22	499.72
508.59	508.71
508.95	518.06
509.31	527.68
509.67	537.53
510.03	547.56
510.39	557.90
510.75	568.56
511.12	579.26
511.48	590.33
511.84	601.56
512.20	612.78
512.56	624.41
512.92	636.27
513.28	648.30
513.64	660.37
514.00	672.79
514.37	685.38
514.73	698.15
515.09	710.84
515.45	723.80
515.81	736.99
516.17	750.60
516.53	764.45
516.89	778.26
517.25	792.11
517.61	806.18
517.97	820.22
518.33	834.26
518.69	848.57
519.05	863.12
519.41	877.85
519.77	893.04
520.13	908.12
520.49	923.14
520.85	938.06
521.21	953.45
521.57	969.17
521.93	984.39
522.29	1000.22
522.65	1015.99
523.01	1031.63
523.37	1047.20
523.73	1062.86
524.09	1078.35
524.45	1094.19
524.81	1110.38
525.17	1126.59
525.53	1142.88
525.89	1159.20
526.25	1175.66
526.61	1191.62
526.97	1207.89
527.33	1223.87
527.68	1239.84
528.04	1255.72
528.40	1271.85
528.76	1288.31
529.12	1304.34
529.48	1320.81
529.84	1336.39
530.20	1352.45
530.56	1368.95
530.91	1385.87
531.27	1402.28
531.63	1418.31
531.99	1434.38
532.35	1449.93
532.71	1465.46
533.07	1481.36
533.42	1496.93
533.78	1512.60
534.14	1528.42
534.50	1543.35
534.86	1558.73
535.21	1573.65
535.57	1589.23
535.93	1604.43
536.29	1618.97
536.65	1633.88
537.00	1648.25
537.36	1663.38
537.72	1677.74
538.08	1691.97
538.44	1705.42
538.79	1719.07
539.15	1732.44
539.51	1745.93
539.87	1760.03
540.22	1773.48
540.58	1787.01
540.94	1799.98
541.29	1812.54
541.65	1825.03
542.01	1838.20
542.37	1850.58
542.72	1862.90
543.08	1874.73
543.44	1887.02
543.79	1898.31
544.15	1909.12
544.51	1920.78
544.87	1931.56
545.22	1942.54
545.58	1952.79
545.94	1962.73
546.29	1972.49
546.65	1982.54
547.01	1991.98
547.36	2000.65
547.72	2009.30
548.07	2017.48
548.43	2025.89
548.79	2034.01
549.14	2041.85
549.50	2049.19
549.86	2056.87
550.21	2064.31
550.57	2071.52
550.92	2078.21
551.28	2085.34
551.64	2092.71
551.99	2099.44
552.35	2105.88
552.70	2112.11
553.06	2118.39
553.41	2125.01
553.77	2131.34
554.13	2137.66
554.48	2144.00
554.84	2150.01
555.19	2155.48
555.55	2160.85
555.90	2165.67
556.26	2171.08
556.61	2175.99
556.97	2180.82
557.32	2185.29
557.68	2189.79
558.03	2194.38
558.39	2198.39
558.74	2203.33
559.10	2207.43
559.45	2211.42
559.81	2215.91
560.16	2220.17
560.52	2223.72
560.87	2227.34
561.23	2230.33
561.58	2233.58
561.94	2236.56
562.29	2239.11
562.64	2242.46
563.00	2245.33
563.35	2249.14
563.71	2252.55
564.06	2256.04
564.42	2259.23
564.77	2262.24
565.12	2265.05
565.48	2267.45
565.83	2269.95
566.19	2271.74
566.54	2273.08
566.89	2274.75
567.25	2275.97
567.60	2277.54
567.96	2279.71
568.31	2281.04
568.66	2282.77
569.02	2283.69
569.37	2284.40
569.72	2285.90
570.08	2286.45
570.43	2286.97
570.78	2286.94
571.14	2285.78
571.49	2284.82
571.84	2284.87
572.20	2284.03
572.55	2283.29
572.90	2281.92
573.26	2280.86
573.61	2279.41
573.96	2278.19
574.31	2275.55
574.67	2272.91
575.02	2269.66
575.37	2266.42
575.72	2263.17
576.08	2259.82
576.43	2256.92
576.78	2253.78
577.13	2250.66
577.49	2247.59
577.84	2244.38
578.19	2240.96
578.54	2237.85
578.90	2234.17
579.25	2228.93
579.60	2224.51
579.95	2219.93
580.30	2215.42
580.66	2210.52
581.01	2205.95
581.36	2201.33
581.71	2197.58
582.06	2193.54
582.42	2189.52
582.77	2184.79
583.12	2180.59
583.47	2176.60
583.82	2172.09
584.17	2167.11
584.53	2162.00
584.88	2156.78
585.23	2151.50
585.58	2146.20
585.93	2140.88
586.28	2136.22
586.63	2131.48
586.98	2126.57
587.34	2122.07
587.69	2117.42
588.04	2112.59
588.39	2107.09
588.74	2100.85
589.09	2094.88
589.44	2088.44
589.79	2082.48
590.14	2077.12
590.49	2070.57
590.84	2064.28
591.19	2058.44
591.54	2052.12
591.89	2045.15
592.25	2038.77
592.60	2031.70
592.95	2024.58
593.30	2017.51
593.65	2010.22
594.00	2003.31
594.35	1996.31
594.70	1988.36
595.05	1981.59
595.40	1974.45
595.75	1967.30
596.10	1961.36
596.45	1954.82
596.80	1948.76
597.15	1942.41
597.50	1935.67
597.85	1929.44
598.19	1922.97
598.54	1916.09
598.89	1909.60
599.24	1903.68
599.59	1897.31
599.94	1891.14
600.29	1884.70
600.64	1878.11
600.99	1870.81
601.34	1864.15
601.69	1857.13
602.04	1850.52
602.39	1843.13
602.74	1836.46
603.08	1829.79
603.43	1822.93
603.78	1815.73
604.13	1808.58
604.48	1801.56
604.83	1794.55
605.18	1787.77
605.53	1779.91
605.87	1771.93
606.22	1764.74
606.57	1756.83
606.92	1749.21
607.27	1742.23
607.62	1735.46
607.96	1728.24
608.31	1721.70
608.66	1714.15
609.01	1706.74
609.36	1699.15
609.70	1691.21
610.05	1683.19
610.40	1675.52
610.75	1667.37
611.10	1659.71
611.44	1651.22
611.79	1642.96
612.14	1634.28
612.49	1624.85
612.83	1616.23
613.18	1607.96
613.53	1599.75
613.88	1591.26
614.22	1583.02
614.57	1574.27
614.92	1566.15
615.27	1558.79
615.61	1550.47
615.96	1542.36
616.31	1534.58
616.65	1527.14
617.00	1519.51
617.35	1511.63
617.70	1503.31
618.04	1494.78
618.39	1486.41
618.74	1478.78
619.08	1470.45
619.43	1462.75
619.78	1455.86
620.12	1448.77
620.47	1441.18
620.82	1432.86
621.16	1425.23
621.51	1417.44
621.85	1409.67
622.20	1401.09
622.55	1392.46
622.89	1384.51
623.24	1376.72
623.59	1369.19
623.93	1361.51
624.28	1354.11
624.62	1346.56
624.97	1339.21
625.32	1332.23
625.66	1325.11
626.01	1317.82
626.35	1310.40
626.70	1302.42
627.04	1294.63
627.39	1286.65
627.73	1279.19
628.08	1272.26
628.43	1265.07
628.77	1257.67
629.12	1250.06
629.46	1242.82
629.81	1235.19
630.15	1227.79
630.50	1220.40
630.84	1212.27
631.19	1204.32
631.53	1196.65
631.88	1188.95
632.22	1181.30
632.57	1173.90
632.91	1166.17
633.26	1158.70
633.60	1151.11
633.95	1143.92
634.29	1136.70
634.64	1129.96
634.98	1122.50
635.32	1115.28
635.67	1108.48
636.01	1101.74
636.36	1095.01
636.70	1088.39
637.05	1081.89
637.39	1075.39
637.73	1068.78
638.08	1062.70
638.42	1056.63
638.77	1050.20
639.11	1043.69
639.45	1037.30
639.80	1030.63
640.14	1024.27
640.49	1017.72
640.83	1011.51
641.17	1005.41
641.52	999.10
641.86	992.61
642.20	986.77
642.55	980.31
642.89	973.84
643.23	967.23
643.58	961.38
643.92	955.20
644.26	949.19
644.61	943.05
644.95	937.06
645.29	930.52
645.64	923.77
645.98	917.35
646.32	911.30
646.66	905.22
647.01	899.33
647.35	893.64
647.69	887.68
648.04	882.08
648.38	876.23
648.72	870.24
649.06	864.22
649.41	858.25
649.75	852.41
650.09	846.55
650.43	840.81
650.78	834.59
651.12	828.56
651.46	822.74
651.80	817.05
652.14	811.58
652.49	806.16
652.83	800.94
653.17	795.39
653.51	789.74
653.85	784.22
654.20	778.66
654.54	772.59
654.88	766.87
655.22	760.87
655.56	755.08
655.90	749.56
656.25	744.29
656.59	738.99
656.93	733.80
657.27	728.53
657.61	723.07
657.95	718.01
658.29	712.90
658.64	707.60
658.98	702.16
659.32	696.66
659.66	691.50
660.00	686.25
660.34	681.21
660.68	676.29
661.02	671.21
661.36	666.48
661.70	661.98
662.05	657.62
662.39	653.32
662.73	648.90
663.07	644.53
663.41	640.04
663.75	635.46
664.09	630.83
664.43	626.40
664.77	622.28
665.11	617.99
665.45	613.77
665.79	609.72
666.13	605.66
666.47	601.52
666.81	597.30
667.15	593.09
667.49	589.09
667.83	585.16
668.17	581.21
668.51	577.10
668.85	573.02
669.19	569.05
669.53	565.20
669.87	561.39
670.21	557.58
670.55	553.88
670.89	550.45
671.23	547.08
671.57	543.52
671.91	539.96
672.25	536.35
672.58	532.89
672.92	529.39
673.26	526.16
673.60	523.02
673.94	519.93
674.28	517.01
674.62	514.09
674.96	511.04
675.30	508.17
675.64	505.22
675.97	502.39
676.31	499.57
676.65	496.61
676.99	493.81
677.33	491.00
677.67	488.21
678.01	485.18
678.34	482.17
678.68	479.27
679.02	476.40
679.36	473.69
679.70	470.88
680.04	468.15
680.37	465.32
680.71	462.51
681.05	459.78
681.39	457.02
681.73	454.31
682.06	451.76
682.40	449.19
682.74	446.61
683.08	444.03
683.42	441.40
683.75	438.86
684.09	436.26
684.43	433.72
684.77	431.20
685.10	428.84
685.44	426.47
685.78	424.15
686.12	421.90
686.45	419.56
686.79	417.33
687.13	415.13
687.46	412.91
687.80	410.67
688.14	408.44
688.48	406.36
688.81	404.15
689.15	401.92
689.49	399.73
689.82	397.61
690.16	395.48
690.50	393.47
690.83	391.53
691.17	389.54
691.51	387.64
691.84	385.78
692.18	383.81
692.52	381.87
692.85	379.89
693.19	377.99
693.52	376.10
693.86	374.24
694.20	372.43
694.53	370.62
694.87	368.82
695.21	367.04
695.54	365.18
695.88	363.38
696.21	361.65
696.55	359.95
696.88	358.24
697.22	356.57
697.56	354.89
697.89	353.23
698.23	351.59
698.56	349.90
698.90	348.27
699.23	346.61
699.57	345.00
699.90	343.48
700.24	341.93
700.58	340.40
700.91	338.91
701.25	337.40
701.58	336.02
701.92	334.60
702.25	333.21
702.59	331.84
702.92	330.49
703.26	329.12
703.59	327.80
703.93	326.62
704.26	325.40
704.60	324.13
704.93	322.82
705.26	321.58
705.60	320.39
705.93	319.21
706.27	318.14
706.60	317.03
706.94	315.92
707.27	314.76
707.61	313.64
707.94	312.57
708.27	311.44
708.61	310.34
708.94	309.29
709.28	308.29
709.61	307.31
709.94	306.35
710.28	305.36
710.61	304.35
710.95	303.25
711.28	302.35
711.61	301.35
711.95	300.43
712.28	299.47
712.61	298.50
712.95	297.57
713.28	296.66
713.61	295.80
713.95	294.88
714.28	294.05
714.61	293.17
714.95	292.30
715.28	291.46
715.61	290.56
715.95	289.69
716.28	288.81
716.61	287.94
716.95	287.04
717.28	286.27
717.61	285.49
717.94	284.73
718.28	283.86
718.61	283.16
718.94	282.45
719.27	281.78
719.61	281.10
719.94	280.43
720.27	279.71
720.60	279.04
720.94	278.43
721.27	277.82
721.60	277.25
721.93	276.69
722.27	276.12
722.60	275.57
722.93	275.00
723.26	274.47
723.59	273.90
723.93	273.37
724.26	272.82
724.59	272.24
724.92	271.70
725.25	271.21
725.59	270.67
725.92	270.17
726.25	269.65
726.58	269.17
726.91	268.64
727.24	268.13
727.57	267.64
727.91	267.12
728.24	266.63
728.57	266.13
728.90	265.61
729.23	265.09
729.56	264.61
729.89	264.10
730.22	263.60
730.55	263.14
730.89	262.71
731.22	262.25
731.55	261.82
731.88	261.39
732.21	260.95
732.54	260.51
732.87	260.08
733.20	259.67
733.53	259.26
733.86	258.91
734.19	258.57
734.52	258.18
734.85	257.86
735.18	257.43
735.51	257.08
735.84	256.71
736.17	256.39
736.50	256.00
736.83	255.82
737.16	255.42
737.49	255.08
737.82	254.72
738.15	254.37
738.48	254.02
738.81	253.70
739.14	253.35
739.47	253.04
739.80	252.69
740.13	252.35
740.46	252.01
740.79	251.66
741.12	251.29
741.45	250.94
741.78	250.57
742.11	250.29
742.44	249.93
742.77	249.61
743.10	249.32
743.43	249.05
743.75	248.63
744.08	248.51
744.41	248.20
744.74	247.89
745.07	247.65
745.40	247.39
745.73	247.14
746.06	246.87
746.39	246.55
746.71	246.29
747.04	246.03
747.37	245.75
747.70	245.51
748.03	245.30
748.36	245.09
748.68	244.82
749.01	244.55
749.34	244.34
749.67	244.15
750.00	243.88
750.33	243.68
750.65	243.45
750.98	243.15
751.31	242.94
751.64	242.73
751.97	242.53
752.29	242.34
752.62	242.06
752.95	241.81
753.28	241.63
753.60	241.43
753.93	241.24
754.26	241.05
754.59	240.81
754.91	240.56
755.24	240.35
755.57	240.18
755.90	240.03
756.22	239.83
756.55	239.58
756.88	239.37
757.20	239.14
757.53	238.94
757.86	238.74
758.19	238.61
758.51	238.47
758.84	238.27
759.17	238.10
759.49	237.97
759.82	237.86
760.15	237.70
760.47	237.55
760.80	237.35
761.13	237.24
761.45	237.13
761.78	237.01
762.11	236.86
762.43	236.70
762.76	236.52
763.08	236.37
763.41	236.25
763.74	236.15
764.06	236.00
764.39	235.86
764.71	235.70
765.04	235.55
765.37	235.39
765.69	235.25
766.02	235.11
766.34	234.98
766.67	234.83
767.00	234.74
767.32	234.66
767.65	234.63
767.97	234.52
768.30	234.38
768.62	234.28
768.95	234.16
769.27	234.06
769.60	233.97
769.92	233.86
770.25	233.74
770.57	233.63
770.90	233.52
771.22	233.45
771.55	233.40
771.87	233.27
772.20	233.21
772.52	233.17
772.85	233.22
773.17	233.12
773.50	233.04
773.82	232.92
774.15	232.75
774.47	232.60
774.80	232.45
775.12	232.36
775.45	232.25
775.77	232.22
776.09	232.16
776.42	232.07
776.74	232.04
777.07	231.98
777.39	231.89
777.72	231.80
778.04	231.73
778.36	231.61
778.69	231.58
779.01	231.52
779.33	231.40
779.66	231.22
779.98	231.12
780.31	231.04
780.63	231.02
780.95	230.99
781.28	230.93
781.60	230.88
781.92	230.80
782.25	230.73
782.57	230.65
782.89	230.56
783.22	230.50
783.54	230.41
783.86	230.37
784.19	230.32
784.51	230.33
784.83	230.29
785.16	230.25
785.48	230.15
785.80	230.07
786.12	230.00
786.45	229.93
786.77	229.94
787.09	229.92
