SpectraSuite Data File
++++++++++++++++++++++++++++++++++++
Date: Fri Feb 01 16:33:13 EST 2013
User: group
Dark Spectrum Present: No
Reference Spectrum Present: No
Number of Sampled Component Spectra: 1
Spectrometers: USB2E7196
Integration Time (usec): 35000 (USB2E7196)
Spectra Averaged: 100 (USB2E7196)
Boxcar Smoothing: 10 (USB2E7196)
Correct for Electrical Dark: No (USB2E7196)
Strobe/Lamp Enabled: No (USB2E7196)
Correct for Detector Non-linearity: No (USB2E7196)
Correct for Stray Light: No (USB2E7196)
Number of Pixels in Processed Spectrum: 2048
>>>>>Begin Processed Spectral Data<<<<<
339.09	0.00
339.48	213.73
339.86	215.10
340.24	216.38
340.63	218.33
341.01	220.85
341.39	220.50
341.78	221.87
342.16	224.04
342.54	224.19
342.93	212.33
343.31	223.06
343.69	223.63
344.07	224.10
344.46	224.56
344.84	224.96
345.22	225.21
345.60	225.52
345.99	225.76
346.37	225.89
346.75	225.97
347.13	226.06
347.52	226.14
347.90	226.21
348.28	226.24
348.66	226.29
349.05	226.26
349.43	226.34
349.81	226.40
350.19	226.45
350.57	226.52
350.96	226.62
351.34	226.70
351.72	226.77
352.10	226.91
352.48	227.00
352.87	227.07
353.25	227.16
353.63	227.19
354.01	227.22
354.39	227.30
354.77	227.40
355.15	227.51
355.54	227.59
355.92	227.61
356.30	227.70
356.68	227.85
357.06	227.94
357.44	227.99
357.82	228.03
358.20	228.09
358.58	228.15
358.97	228.20
359.35	228.31
359.73	228.36
360.11	228.40
360.49	228.43
360.87	228.44
361.25	228.44
361.63	228.51
362.01	228.57
362.39	228.58
362.77	228.62
363.15	228.64
363.53	228.65
363.91	228.69
364.29	228.69
364.67	228.62
365.05	228.63
365.43	228.61
365.81	228.65
366.19	228.69
366.57	228.70
366.95	228.66
367.33	228.61
367.71	228.62
368.09	228.60
368.47	228.53
368.85	228.51
369.23	228.54
369.61	228.50
369.99	228.51
370.37	228.48
370.75	228.46
371.13	228.38
371.51	228.28
371.89	228.27
372.27	228.24
372.65	228.16
373.03	228.11
373.41	228.08
373.78	228.01
374.16	227.90
374.54	227.82
374.92	227.79
375.30	227.74
375.68	227.65
376.06	227.58
376.44	227.54
376.82	227.48
377.19	227.40
377.57	227.29
377.95	227.17
378.33	227.09
378.71	226.97
379.09	226.90
379.47	226.91
379.84	226.81
380.22	226.71
380.60	226.66
380.98	226.60
381.36	226.53
381.73	226.40
382.11	226.36
382.49	226.29
382.87	226.21
383.25	226.18
383.62	226.24
384.00	226.16
384.38	226.12
384.76	226.12
385.13	226.11
385.51	226.10
385.89	226.03
386.27	225.99
386.64	225.98
387.02	225.93
387.40	225.88
387.78	225.86
388.15	225.85
388.53	225.84
388.91	225.78
389.29	225.77
389.66	225.78
390.04	225.74
390.42	225.74
390.79	225.76
391.17	225.73
391.55	225.62
391.92	225.64
392.30	225.67
392.68	225.62
393.05	225.60
393.43	225.60
393.81	225.63
394.18	225.65
394.56	225.66
394.94	225.73
395.31	225.72
395.69	225.77
396.06	225.80
396.44	225.81
396.82	225.86
397.19	225.90
397.57	225.98
397.95	226.08
398.32	226.12
398.70	226.16
399.07	226.21
399.45	226.25
399.82	226.31
400.20	226.38
400.58	226.44
400.95	226.48
401.33	226.57
401.70	226.73
402.08	226.84
402.45	226.95
402.83	227.05
403.20	227.16
403.58	227.26
403.95	227.38
404.33	227.52
404.71	227.63
405.08	227.82
405.46	227.91
405.83	228.00
406.21	228.12
406.58	228.26
406.96	228.39
407.33	228.59
407.70	228.76
408.08	228.98
408.45	229.20
408.83	229.41
409.20	229.62
409.58	229.77
409.95	230.01
410.33	230.27
410.70	230.52
411.08	230.80
411.45	231.10
411.82	231.38
412.20	231.72
412.57	232.14
412.95	232.39
413.32	232.81
413.69	233.23
414.07	233.65
414.44	234.11
414.82	234.59
415.19	235.12
415.56	235.65
415.94	236.17
416.31	236.78
416.68	237.42
417.06	238.12
417.43	238.78
417.81	239.54
418.18	240.29
418.55	241.10
418.93	241.96
419.30	242.85
419.67	243.78
420.04	244.73
420.42	245.71
420.79	246.92
421.16	248.07
421.54	249.26
421.91	250.47
422.28	251.74
422.66	253.07
423.03	254.36
423.40	255.71
423.77	257.11
424.15	258.54
424.52	259.99
424.89	261.60
425.26	263.14
425.64	264.54
426.01	266.15
426.38	267.81
426.75	269.49
427.13	271.17
427.50	272.97
427.87	274.84
428.24	276.69
428.61	278.40
428.99	280.33
429.36	282.41
429.73	284.47
430.10	286.47
430.47	288.52
430.85	290.60
431.22	292.82
431.59	295.23
431.96	297.45
432.33	299.94
432.70	302.31
433.08	305.13
433.45	307.71
433.82	310.28
434.19	313.12
434.56	315.89
434.93	318.56
435.30	321.22
435.68	324.13
436.05	326.94
436.42	329.73
436.79	332.23
437.16	334.90
437.53	337.77
437.90	340.57
438.27	343.31
438.64	346.13
439.01	348.69
439.38	350.89
439.75	353.08
440.13	355.53
440.50	357.84
440.87	359.70
441.24	361.72
441.61	363.91
441.98	365.41
442.35	367.24
442.72	369.08
443.09	370.83
443.46	371.78
443.83	372.42
444.20	372.94
444.57	373.77
444.94	374.05
445.31	374.32
445.68	374.65
446.05	374.70
446.42	374.38
446.79	373.98
447.16	373.52
447.53	373.20
447.90	372.07
448.27	370.90
448.64	369.27
449.01	368.09
449.37	366.09
449.74	364.19
450.11	361.94
450.48	359.48
450.85	356.93
451.22	354.76
451.59	352.73
451.96	350.78
452.33	348.17
452.70	345.89
453.07	343.10
453.43	340.23
453.80	337.52
454.17	334.81
454.54	332.29
454.91	329.59
455.28	326.91
455.65	324.48
456.02	322.04
456.38	319.92
456.75	317.28
457.12	315.04
457.49	312.84
457.86	310.68
458.23	308.84
458.59	306.83
458.96	304.79
459.33	302.95
459.70	301.09
460.07	299.63
460.43	297.90
460.80	296.28
461.17	294.81
461.54	293.34
461.91	291.97
462.27	290.52
462.64	289.28
463.01	287.94
463.38	286.59
463.74	285.22
464.11	284.09
464.48	283.08
464.85	281.98
465.21	281.11
465.58	280.23
465.95	279.13
466.32	278.23
466.68	277.30
467.05	276.39
467.42	275.50
467.78	274.56
468.15	273.72
468.52	273.09
468.88	272.26
469.25	271.47
469.62	270.84
469.98	270.15
470.35	269.53
470.72	268.97
471.08	268.28
471.45	267.75
471.82	267.22
472.18	266.64
472.55	266.24
472.92	265.74
473.28	265.28
473.65	264.83
474.02	264.42
474.38	264.11
474.75	263.79
475.11	263.47
475.48	263.24
475.85	262.99
476.21	262.71
476.58	262.56
476.94	262.42
477.31	262.23
477.67	262.13
478.04	262.05
478.41	261.98
478.77	262.07
479.14	262.03
479.50	262.05
479.87	262.14
480.23	262.20
480.60	262.22
480.96	262.30
481.33	262.53
481.69	262.68
482.06	262.85
482.42	263.06
482.79	263.32
483.15	263.65
483.52	264.04
483.88	264.41
484.25	264.77
484.61	265.18
484.98	265.63
485.34	266.20
485.71	266.78
486.07	267.37
486.44	267.95
486.80	268.65
487.17	269.36
487.53	270.14
487.90	271.01
488.26	271.99
488.62	272.97
488.99	273.93
489.35	275.02
489.72	276.17
490.08	277.37
490.44	278.61
490.81	279.94
491.17	281.33
491.54	282.81
491.90	284.38
492.26	286.08
492.63	287.86
492.99	289.67
493.36	291.58
493.72	293.66
494.08	295.80
494.45	298.09
494.81	300.48
495.17	302.97
495.54	305.54
495.90	308.25
496.26	311.11
496.63	314.09
496.99	317.21
497.35	320.48
497.72	323.92
498.08	327.51
498.44	331.18
498.80	335.08
499.17	339.12
499.53	343.30
499.89	347.66
500.26	352.16
500.62	356.86
500.98	361.77
501.34	366.81
501.71	372.15
502.07	377.64
502.43	383.27
502.79	389.09
503.16	395.21
503.52	401.49
503.88	407.89
504.24	414.52
504.60	421.43
504.97	428.58
505.33	435.93
505.69	443.59
506.05	451.34
506.41	459.18
506.78	467.41
507.14	475.86
507.50	484.56
507.86	493.57
508.22	502.68
508.59	511.92
508.95	521.49
509.31	531.29
509.67	541.39
510.03	551.68
510.39	562.28
510.75	573.04
511.12	583.92
511.48	595.27
511.84	606.73
512.20	618.21
512.56	630.10
512.92	642.30
513.28	654.66
513.64	667.15
514.00	679.92
514.37	692.72
514.73	705.74
515.09	718.80
515.45	732.03
515.81	745.64
516.17	759.61
516.53	773.80
516.89	787.91
517.25	801.97
517.61	816.26
517.97	830.62
518.33	845.02
518.69	859.78
519.05	874.70
519.41	889.81
519.77	905.29
520.13	920.71
520.49	935.99
520.85	951.36
521.21	967.04
521.57	983.20
521.93	998.95
522.29	1015.27
522.65	1031.49
523.01	1047.67
523.37	1063.59
523.73	1079.63
524.09	1095.63
524.45	1111.98
524.81	1128.58
525.17	1145.41
525.53	1162.18
525.89	1179.03
526.25	1195.88
526.61	1212.15
526.97	1228.84
527.33	1245.28
527.68	1261.78
528.04	1278.18
528.40	1294.62
528.76	1311.49
529.12	1327.99
529.48	1344.86
529.84	1360.81
530.20	1377.28
530.56	1394.24
530.91	1411.70
531.27	1428.44
531.63	1444.83
531.99	1461.17
532.35	1477.07
532.71	1492.92
533.07	1509.11
533.42	1524.89
533.78	1540.82
534.14	1557.02
534.50	1572.23
534.86	1588.07
535.21	1603.11
535.57	1618.89
535.93	1634.25
536.29	1649.09
536.65	1663.95
537.00	1678.56
537.36	1693.72
537.72	1708.13
538.08	1722.40
538.44	1736.03
538.79	1749.66
539.15	1763.05
539.51	1776.57
539.87	1790.66
540.22	1803.99
540.58	1817.55
540.94	1830.60
541.29	1843.10
541.65	1855.66
542.01	1868.56
542.37	1880.64
542.72	1892.96
543.08	1904.65
543.44	1916.97
543.79	1928.07
544.15	1939.03
544.51	1950.63
544.87	1961.48
545.22	1972.21
545.58	1982.30
545.94	1991.93
546.29	2001.82
546.65	2011.78
547.01	2021.11
547.36	2029.72
547.72	2038.36
548.07	2046.31
548.43	2054.47
548.79	2062.62
549.14	2070.13
549.50	2077.68
549.86	2085.35
550.21	2092.72
550.57	2099.89
550.92	2106.52
551.28	2113.42
551.64	2120.51
551.99	2126.82
552.35	2133.08
552.70	2139.28
553.06	2145.41
553.41	2151.64
553.77	2157.79
554.13	2163.74
554.48	2169.79
554.84	2175.47
555.19	2180.78
555.55	2185.85
555.90	2190.33
556.26	2195.34
556.61	2199.99
556.97	2204.39
557.32	2208.53
557.68	2212.57
558.03	2216.74
558.39	2220.36
558.74	2225.11
559.10	2228.92
559.45	2232.75
559.81	2237.02
560.16	2240.86
560.52	2243.96
560.87	2247.52
561.23	2250.06
561.58	2253.08
561.94	2255.77
562.29	2257.91
562.64	2260.64
563.00	2263.37
563.35	2266.90
563.71	2269.85
564.06	2273.26
564.42	2275.95
564.77	2278.53
565.12	2280.99
565.48	2283.07
565.83	2285.08
566.19	2286.44
566.54	2287.37
566.89	2288.47
567.25	2289.07
567.60	2290.21
567.96	2291.98
568.31	2292.71
568.66	2293.89
569.02	2294.40
569.37	2294.78
569.72	2295.90
570.08	2296.15
570.43	2296.27
570.78	2295.79
571.14	2294.42
571.49	2292.98
571.84	2292.81
572.20	2291.70
572.55	2290.68
572.90	2288.89
573.26	2287.54
573.61	2285.92
573.96	2284.32
574.31	2281.32
574.67	2278.31
575.02	2274.91
575.37	2271.59
575.72	2267.95
576.08	2264.57
576.43	2261.36
576.78	2257.73
577.13	2254.61
577.49	2251.45
577.84	2247.92
578.19	2244.24
578.54	2240.61
578.90	2236.51
579.25	2230.91
579.60	2226.01
579.95	2220.96
580.30	2216.23
580.66	2211.02
581.01	2206.06
581.36	2201.08
581.71	2197.11
582.06	2192.91
582.42	2188.45
582.77	2183.21
583.12	2178.76
583.47	2174.18
583.82	2169.25
584.17	2164.00
584.53	2158.48
584.88	2152.78
585.23	2147.12
585.58	2141.60
585.93	2136.15
586.28	2131.31
586.63	2126.39
586.98	2121.39
587.34	2116.87
587.69	2111.93
588.04	2106.75
588.39	2101.05
588.74	2094.72
589.09	2088.60
589.44	2081.67
589.79	2075.72
590.14	2070.15
590.49	2063.57
590.84	2057.25
591.19	2051.28
591.54	2044.90
591.89	2037.79
592.25	2031.17
592.60	2023.99
592.95	2016.54
593.30	2009.42
593.65	2001.89
594.00	1994.87
594.35	1987.62
594.70	1979.48
595.05	1972.56
595.40	1965.41
595.75	1958.08
596.10	1951.92
596.45	1945.40
596.80	1939.38
597.15	1932.88
597.50	1926.01
597.85	1919.61
598.19	1912.98
598.54	1906.00
598.89	1899.48
599.24	1893.41
599.59	1886.86
599.94	1880.68
600.29	1874.53
600.64	1867.83
600.99	1860.55
601.34	1853.82
601.69	1846.98
602.04	1840.19
602.39	1832.84
602.74	1826.10
603.08	1819.45
603.43	1812.78
603.78	1805.31
604.13	1798.19
604.48	1790.89
604.83	1783.98
605.18	1777.09
605.53	1769.23
605.87	1761.15
606.22	1753.81
606.57	1745.87
606.92	1738.42
607.27	1731.14
607.62	1724.11
607.96	1716.96
608.31	1710.42
608.66	1702.75
609.01	1695.16
609.36	1687.57
609.70	1679.49
610.05	1671.35
610.40	1663.53
610.75	1655.10
611.10	1647.44
611.44	1638.95
611.79	1630.84
612.14	1622.22
612.49	1613.05
612.83	1604.59
613.18	1596.51
613.53	1588.46
613.88	1579.99
614.22	1571.82
614.57	1563.38
614.92	1555.47
615.27	1547.97
615.61	1539.58
615.96	1531.56
616.31	1523.86
616.65	1516.58
617.00	1509.01
617.35	1501.35
617.70	1493.15
618.04	1484.76
618.39	1476.48
618.74	1468.93
619.08	1460.70
619.43	1453.05
619.78	1446.08
620.12	1438.93
620.47	1431.52
620.82	1423.38
621.16	1415.89
621.51	1408.26
621.85	1400.59
622.20	1391.97
622.55	1383.53
622.89	1375.71
623.24	1368.02
623.59	1360.62
623.93	1353.07
624.28	1345.85
624.62	1338.38
624.97	1331.16
625.32	1324.46
625.66	1317.49
626.01	1310.29
626.35	1302.84
626.70	1295.07
627.04	1287.44
627.39	1279.65
627.73	1272.16
628.08	1265.19
628.43	1257.97
628.77	1250.58
629.12	1243.09
629.46	1235.91
629.81	1228.50
630.15	1221.24
630.50	1213.91
630.84	1205.79
631.19	1197.81
631.53	1190.39
631.88	1182.76
632.22	1175.06
632.57	1167.67
632.91	1160.12
633.26	1152.73
633.60	1145.37
633.95	1138.20
634.29	1131.17
634.64	1124.51
634.98	1117.14
635.32	1110.03
635.67	1103.51
636.01	1096.86
636.36	1090.17
636.70	1083.65
637.05	1077.07
637.39	1070.59
637.73	1064.10
638.08	1058.24
638.42	1052.25
638.77	1045.70
639.11	1039.24
639.45	1032.97
639.80	1026.35
640.14	1019.96
640.49	1013.51
640.83	1007.22
641.17	1001.05
641.52	994.71
641.86	988.22
642.20	982.34
642.55	976.05
642.89	969.54
643.23	962.98
643.58	957.05
643.92	950.94
644.26	944.90
644.61	938.79
644.95	932.75
645.29	926.19
645.64	919.51
645.98	913.26
646.32	907.27
646.66	901.19
647.01	895.36
647.35	889.68
647.69	883.77
648.04	878.11
648.38	872.38
648.72	866.41
649.06	860.38
649.41	854.52
649.75	848.54
650.09	842.57
650.43	836.78
650.78	830.65
651.12	824.63
651.46	818.94
651.80	813.33
652.14	807.97
652.49	802.57
652.83	797.38
653.17	791.58
653.51	785.89
653.85	780.46
654.20	774.82
654.54	768.77
654.88	762.99
655.22	757.20
655.56	751.45
655.90	745.97
656.25	740.73
656.59	735.34
656.93	730.23
657.27	725.15
657.61	719.69
657.95	714.60
658.29	709.56
658.64	704.31
658.98	698.97
659.32	693.48
659.66	688.26
660.00	682.94
660.34	678.04
660.68	673.11
661.02	668.08
661.36	663.26
661.70	658.81
662.05	654.47
662.39	650.12
662.73	645.56
663.07	641.18
663.41	636.69
663.75	632.30
664.09	627.72
664.43	623.27
664.77	619.18
665.11	614.87
665.45	610.65
665.79	606.52
666.13	602.30
666.47	598.18
666.81	594.01
667.15	589.92
667.49	586.01
667.83	582.13
668.17	578.20
668.51	574.19
668.85	570.04
669.19	566.13
669.53	562.31
669.87	558.57
670.21	554.85
670.55	551.21
670.89	547.68
671.23	544.26
671.57	540.67
671.91	537.09
672.25	533.61
672.58	530.11
672.92	526.71
673.26	523.53
673.60	520.34
673.94	517.19
674.28	514.23
674.62	511.33
674.96	508.30
675.30	505.40
675.64	502.49
675.97	499.77
676.31	496.94
676.65	494.00
676.99	491.23
677.33	488.34
677.67	485.47
678.01	482.41
678.34	479.43
678.68	476.59
679.02	473.82
679.36	471.05
679.70	468.29
680.04	465.47
680.37	462.59
680.71	459.79
681.05	457.22
681.39	454.50
681.73	451.76
682.06	449.20
682.40	446.64
682.74	444.08
683.08	441.52
683.42	438.94
683.75	436.46
684.09	433.94
684.43	431.48
684.77	429.06
685.10	426.77
685.44	424.43
685.78	422.13
686.12	419.84
686.45	417.54
686.79	415.28
687.13	413.13
687.46	410.99
687.80	408.87
688.14	406.64
688.48	404.61
688.81	402.40
689.15	400.27
689.49	398.16
689.82	396.06
690.16	393.97
690.50	392.02
690.83	390.08
691.17	388.10
691.51	386.19
691.84	384.36
692.18	382.49
692.52	380.57
692.85	378.60
693.19	376.76
693.52	374.94
693.86	373.15
694.20	371.40
694.53	369.64
694.87	367.83
695.21	366.05
695.54	364.22
695.88	362.51
696.21	360.78
696.55	359.06
696.88	357.40
697.22	355.73
697.56	354.15
697.89	352.48
698.23	350.85
698.56	349.25
698.90	347.68
699.23	345.95
699.57	344.39
699.90	342.88
700.24	341.33
700.58	339.81
700.91	338.29
701.25	336.81
701.58	335.42
701.92	334.05
702.25	332.65
702.59	331.27
702.92	329.94
703.26	328.63
703.59	327.36
703.93	326.19
704.26	324.96
704.60	323.60
704.93	322.32
705.26	321.10
705.60	319.91
705.93	318.73
706.27	317.70
706.60	316.67
706.94	315.60
707.27	314.49
707.61	313.42
707.94	312.41
708.27	311.33
708.61	310.25
708.94	309.22
709.28	308.23
709.61	307.24
709.94	306.29
710.28	305.26
710.61	304.29
710.95	303.18
711.28	302.26
711.61	301.34
711.95	300.43
712.28	299.48
712.61	298.54
712.95	297.61
713.28	296.70
713.61	295.76
713.95	294.87
714.28	294.03
714.61	293.16
714.95	292.31
715.28	291.48
715.61	290.56
715.95	289.68
716.28	288.81
716.61	288.00
716.95	287.14
717.28	286.43
717.61	285.65
717.94	284.92
718.28	284.08
718.61	283.34
718.94	282.60
719.27	281.93
719.61	281.24
719.94	280.56
720.27	279.86
720.60	279.18
720.94	278.54
721.27	277.94
721.60	277.35
721.93	276.76
722.27	276.18
722.60	275.66
722.93	275.07
723.26	274.56
723.59	273.98
723.93	273.44
724.26	272.84
724.59	272.27
724.92	271.72
725.25	271.26
725.59	270.75
725.92	270.28
726.25	269.74
726.58	269.25
726.91	268.78
727.24	268.28
727.57	267.82
727.91	267.32
728.24	266.83
728.57	266.34
728.90	265.87
729.23	265.40
729.56	264.94
729.89	264.51
730.22	264.01
730.55	263.54
730.89	263.10
731.22	262.66
731.55	262.27
731.88	261.87
732.21	261.44
732.54	260.97
732.87	260.55
733.20	260.17
733.53	259.79
733.86	259.37
734.19	258.98
734.52	258.61
734.85	258.26
735.18	257.85
735.51	257.49
735.84	257.08
736.17	256.73
736.50	256.34
736.83	256.12
737.16	255.81
737.49	255.48
737.82	255.14
738.15	254.83
738.48	254.48
738.81	254.13
739.14	253.78
739.47	253.49
739.80	253.19
740.13	252.89
740.46	252.53
740.79	252.20
741.12	251.91
741.45	251.57
741.78	251.27
742.11	250.98
742.44	250.63
742.77	250.35
743.10	250.04
743.43	249.75
743.75	249.33
744.08	249.17
744.41	248.91
744.74	248.63
745.07	248.34
745.40	248.06
745.73	247.84
746.06	247.59
746.39	247.31
746.71	247.00
747.04	246.72
747.37	246.49
747.70	246.27
748.03	246.00
748.36	245.82
748.68	245.58
749.01	245.30
749.34	245.13
749.67	244.91
750.00	244.70
750.33	244.54
750.65	244.32
750.98	244.00
751.31	243.78
751.64	243.56
751.97	243.40
752.29	243.17
752.62	242.92
752.95	242.69
753.28	242.46
753.60	242.29
753.93	242.09
754.26	241.91
754.59	241.67
754.91	241.46
755.24	241.26
755.57	241.03
755.90	240.86
756.22	240.65
756.55	240.44
756.88	240.24
757.20	239.99
757.53	239.81
757.86	239.57
758.19	239.37
758.51	239.23
758.84	238.96
759.17	238.77
759.49	238.63
759.82	238.50
760.15	238.39
760.47	238.18
760.80	238.00
761.13	237.87
761.45	237.69
761.78	237.55
762.11	237.38
762.43	237.23
762.76	237.08
763.08	236.93
763.41	236.82
763.74	236.66
764.06	236.56
764.39	236.42
764.71	236.33
765.04	236.21
765.37	236.06
765.69	236.02
766.02	235.91
766.34	235.75
766.67	235.59
767.00	235.49
767.32	235.49
767.65	235.47
767.97	235.36
768.30	235.28
768.62	235.16
768.95	235.04
769.27	234.93
769.60	234.87
769.92	234.78
770.25	234.63
770.57	234.55
770.90	234.43
771.22	234.32
771.55	234.22
771.87	234.14
772.20	234.08
772.52	234.06
772.85	234.05
773.17	234.00
773.50	233.93
773.82	233.83
774.15	233.69
774.47	233.53
774.80	233.45
775.12	233.36
775.45	233.31
775.77	233.26
776.09	233.20
776.42	233.10
776.74	233.07
777.07	233.01
777.39	232.96
777.72	232.90
778.04	232.86
778.36	232.78
778.69	232.72
779.01	232.62
779.33	232.46
779.66	232.32
779.98	232.24
780.31	232.19
780.63	232.17
780.95	232.10
781.28	232.04
781.60	231.98
781.92	231.92
782.25	231.84
782.57	231.80
782.89	231.73
783.22	231.69
783.54	231.60
783.86	231.56
784.19	231.48
784.51	231.47
784.83	231.43
785.16	231.38
785.48	231.31
785.80	231.27
786.12	231.28
786.45	231.23
786.77	231.20
787.09	231.17
