SpectraSuite Data File
++++++++++++++++++++++++++++++++++++
Date: Fri Feb 01 15:52:38 EST 2013
User: group
Dark Spectrum Present: No
Reference Spectrum Present: No
Number of Sampled Component Spectra: 1
Spectrometers: USB2E7196
Integration Time (usec): 35000 (USB2E7196)
Spectra Averaged: 100 (USB2E7196)
Boxcar Smoothing: 10 (USB2E7196)
Correct for Electrical Dark: No (USB2E7196)
Strobe/Lamp Enabled: No (USB2E7196)
Correct for Detector Non-linearity: No (USB2E7196)
Correct for Stray Light: No (USB2E7196)
Number of Pixels in Processed Spectrum: 2048
>>>>>Begin Processed Spectral Data<<<<<
339.09	0.00
339.48	214.55
339.86	216.26
340.24	217.43
340.63	218.92
341.01	221.84
341.39	221.41
341.78	223.58
342.16	223.95
342.54	224.83
342.93	213.12
343.31	223.87
343.69	224.43
344.07	224.89
344.46	225.33
344.84	225.73
345.22	225.96
345.60	226.23
345.99	226.38
346.37	226.50
346.75	226.58
347.13	226.68
347.52	226.74
347.90	226.82
348.28	226.88
348.66	226.91
349.05	226.92
349.43	227.01
349.81	227.09
350.19	227.10
350.57	227.16
350.96	227.25
351.34	227.35
351.72	227.42
352.10	227.55
352.48	227.62
352.87	227.67
353.25	227.75
353.63	227.83
354.01	227.91
354.39	228.01
354.77	228.13
355.15	228.25
355.54	228.29
355.92	228.30
356.30	228.37
356.68	228.51
357.06	228.60
357.44	228.62
357.82	228.67
358.20	228.77
358.58	228.85
358.97	228.89
359.35	228.99
359.73	229.04
360.11	229.03
360.49	229.09
360.87	229.13
361.25	229.18
361.63	229.23
362.01	229.29
362.39	229.31
362.77	229.35
363.15	229.38
363.53	229.42
363.91	229.45
364.29	229.45
364.67	229.37
365.05	229.35
365.43	229.40
365.81	229.41
366.19	229.43
366.57	229.46
366.95	229.45
367.33	229.38
367.71	229.39
368.09	229.43
368.47	229.41
368.85	229.39
369.23	229.38
369.61	229.31
369.99	229.30
370.37	229.31
370.75	229.29
371.13	229.21
371.51	229.14
371.89	229.09
372.27	229.03
372.65	229.00
373.03	228.94
373.41	228.88
373.78	228.79
374.16	228.70
374.54	228.58
374.92	228.50
375.30	228.47
375.68	228.40
376.06	228.33
376.44	228.26
376.82	228.19
377.19	228.11
377.57	228.05
377.95	227.95
378.33	227.80
378.71	227.66
379.09	227.61
379.47	227.53
379.84	227.40
380.22	227.35
380.60	227.28
380.98	227.22
381.36	227.11
381.73	227.06
382.11	227.00
382.49	226.97
382.87	226.89
383.25	226.83
383.62	226.87
384.00	226.81
384.38	226.74
384.76	226.72
385.13	226.71
385.51	226.64
385.89	226.58
386.27	226.59
386.64	226.58
387.02	226.52
387.40	226.48
387.78	226.50
388.15	226.47
388.53	226.42
388.91	226.37
389.29	226.36
389.66	226.33
390.04	226.30
390.42	226.31
390.79	226.30
391.17	226.28
391.55	226.17
391.92	226.14
392.30	226.16
392.68	226.14
393.05	226.11
393.43	226.12
393.81	226.15
394.18	226.11
394.56	226.10
394.94	226.15
395.31	226.17
395.69	226.21
396.06	226.24
396.44	226.30
396.82	226.33
397.19	226.42
397.57	226.46
397.95	226.54
398.32	226.50
398.70	226.56
399.07	226.64
399.45	226.71
399.82	226.80
400.20	226.84
400.58	226.89
400.95	226.96
401.33	227.06
401.70	227.22
402.08	227.33
402.45	227.47
402.83	227.58
403.20	227.72
403.58	227.84
403.95	227.98
404.33	228.09
404.71	228.26
405.08	228.44
405.46	228.58
405.83	228.71
406.21	228.92
406.58	229.07
406.96	229.24
407.33	229.42
407.70	229.61
408.08	229.89
408.45	230.14
408.83	230.39
409.20	230.63
409.58	230.81
409.95	231.09
410.33	231.38
410.70	231.63
411.08	231.91
411.45	232.23
411.82	232.53
412.20	232.91
412.57	233.33
412.95	233.63
413.32	234.03
413.69	234.48
414.07	234.90
414.44	235.39
414.82	235.86
415.19	236.37
415.56	236.90
415.94	237.45
416.31	238.11
416.68	238.72
417.06	239.43
417.43	240.13
417.81	240.87
418.18	241.62
418.55	242.45
418.93	243.31
419.30	244.15
419.67	245.09
420.04	246.04
420.42	247.00
420.79	248.16
421.16	249.30
421.54	250.41
421.91	251.61
422.28	252.86
422.66	254.18
423.03	255.51
423.40	256.84
423.77	258.23
424.15	259.63
424.52	261.10
424.89	262.67
425.26	264.19
425.64	265.64
426.01	267.22
426.38	268.87
426.75	270.52
427.13	272.27
427.50	274.06
427.87	275.92
428.24	277.76
428.61	279.47
428.99	281.41
429.36	283.56
429.73	285.63
430.10	287.68
430.47	289.76
430.85	291.87
431.22	294.13
431.59	296.52
431.96	298.73
432.33	301.24
432.70	303.65
433.08	306.46
433.45	309.13
433.82	311.75
434.19	314.63
434.56	317.48
434.93	320.12
435.30	322.73
435.68	325.63
436.05	328.50
436.42	331.32
436.79	333.88
437.16	336.56
437.53	339.40
437.90	342.21
438.27	344.92
438.64	347.74
439.01	350.28
439.38	352.51
439.75	354.74
440.13	357.19
440.50	359.49
440.87	361.37
441.24	363.32
441.61	365.49
441.98	366.95
442.35	368.74
442.72	370.59
443.09	372.43
443.46	373.43
443.83	374.03
444.20	374.55
444.57	375.37
444.94	375.66
445.31	376.02
445.68	376.35
446.05	376.47
446.42	376.07
446.79	375.69
447.16	375.18
447.53	374.84
447.90	373.67
448.27	372.49
448.64	370.85
449.01	369.71
449.37	367.72
449.74	365.86
450.11	363.60
450.48	361.15
450.85	358.61
451.22	356.51
451.59	354.48
451.96	352.53
452.33	349.92
452.70	347.59
453.07	344.75
453.43	341.83
453.80	339.06
454.17	336.44
454.54	333.90
454.91	331.23
455.28	328.55
455.65	326.09
456.02	323.64
456.38	321.50
456.75	318.81
457.12	316.59
457.49	314.36
457.86	312.20
458.23	310.33
458.59	308.26
458.96	306.13
459.33	304.28
459.70	302.42
460.07	300.91
460.43	299.15
460.80	297.52
461.17	296.11
461.54	294.61
461.91	293.13
462.27	291.68
462.64	290.45
463.01	289.12
463.38	287.82
463.74	286.47
464.11	285.33
464.48	284.34
464.85	283.19
465.21	282.33
465.58	281.43
465.95	280.35
466.32	279.48
466.68	278.57
467.05	277.64
467.42	276.77
467.78	275.86
468.15	275.00
468.52	274.32
468.88	273.45
469.25	272.66
469.62	272.05
469.98	271.38
470.35	270.72
470.72	270.11
471.08	269.43
471.45	268.88
471.82	268.34
472.18	267.72
472.55	267.30
472.92	266.73
473.28	266.27
473.65	265.84
474.02	265.39
474.38	265.00
474.75	264.68
475.11	264.30
475.48	264.01
475.85	263.77
476.21	263.51
476.58	263.31
476.94	263.14
477.31	263.01
477.67	262.88
478.04	262.79
478.41	262.71
478.77	262.75
479.14	262.72
479.50	262.74
479.87	262.82
480.23	262.91
480.60	263.00
480.96	263.02
481.33	263.21
481.69	263.40
482.06	263.60
482.42	263.83
482.79	264.11
483.15	264.44
483.52	264.84
483.88	265.25
484.25	265.65
484.61	266.12
484.98	266.56
485.34	267.12
485.71	267.68
486.07	268.30
486.44	268.91
486.80	269.60
487.17	270.32
487.53	271.14
487.90	271.99
488.26	272.97
488.62	273.98
488.99	274.98
489.35	276.03
489.72	277.16
490.08	278.38
490.44	279.63
490.81	280.99
491.17	282.34
491.54	283.84
491.90	285.38
492.26	287.02
492.63	288.73
492.99	290.49
493.36	292.38
493.72	294.47
494.08	296.57
494.45	298.78
494.81	301.12
495.17	303.55
495.54	306.08
495.90	308.74
496.26	311.55
496.63	314.49
496.99	317.62
497.35	320.89
497.72	324.25
498.08	327.81
498.44	331.49
498.80	335.36
499.17	339.36
499.53	343.57
499.89	347.97
500.26	352.50
500.62	357.15
500.98	362.15
501.34	367.22
501.71	372.54
502.07	378.01
502.43	383.70
502.79	389.53
503.16	395.62
503.52	401.88
503.88	408.33
504.24	414.99
504.60	421.89
504.97	429.00
505.33	436.34
505.69	444.05
506.05	451.84
506.41	459.75
506.78	467.88
507.14	476.35
507.50	485.06
507.86	494.06
508.22	503.29
508.59	512.49
508.95	522.09
509.31	532.00
509.67	542.13
510.03	552.37
510.39	562.87
510.75	573.64
511.12	584.59
511.48	595.82
511.84	607.23
512.20	618.70
512.56	630.80
512.92	643.00
513.28	655.31
513.64	667.77
514.00	680.56
514.37	693.56
514.73	706.60
515.09	719.61
515.45	732.92
515.81	746.54
516.17	760.51
516.53	774.59
516.89	788.71
517.25	802.89
517.61	817.31
517.97	831.75
518.33	846.20
518.69	861.07
519.05	876.12
519.41	891.32
519.77	906.83
520.13	922.12
520.49	937.52
520.85	952.94
521.21	968.68
521.57	984.80
521.93	1000.45
522.29	1016.87
522.65	1033.15
523.01	1049.39
523.37	1065.36
523.73	1081.54
524.09	1097.54
524.45	1113.79
524.81	1130.39
525.17	1147.30
525.53	1164.37
525.89	1181.25
526.25	1198.02
526.61	1214.48
526.97	1231.25
527.33	1247.75
527.68	1264.50
528.04	1280.94
528.40	1297.44
528.76	1314.49
529.12	1331.19
529.48	1348.21
529.84	1364.14
530.20	1380.82
530.56	1397.81
530.91	1415.27
531.27	1431.89
531.63	1448.43
531.99	1464.95
532.35	1480.86
532.71	1496.56
533.07	1512.67
533.42	1528.51
533.78	1544.44
534.14	1560.58
534.50	1575.93
534.86	1591.85
535.21	1606.94
535.57	1622.82
535.93	1638.31
536.29	1653.01
536.65	1667.90
537.00	1682.54
537.36	1697.91
537.72	1712.40
538.08	1726.86
538.44	1740.42
538.79	1754.36
539.15	1767.99
539.51	1781.77
539.87	1796.17
540.22	1810.04
540.58	1823.88
540.94	1837.24
541.29	1850.15
541.65	1862.74
542.01	1875.88
542.37	1888.21
542.72	1900.54
543.08	1912.31
543.44	1924.86
543.79	1936.06
544.15	1947.08
544.51	1958.59
544.87	1969.48
545.22	1980.38
545.58	1990.42
545.94	2000.39
546.29	2010.20
546.65	2020.13
547.01	2029.44
547.36	2038.16
547.72	2046.50
548.07	2054.17
548.43	2062.25
548.79	2070.32
549.14	2077.96
549.50	2085.25
549.86	2092.81
550.21	2100.17
550.57	2107.36
550.92	2113.82
551.28	2120.83
551.64	2127.88
551.99	2134.47
552.35	2140.64
552.70	2146.79
553.06	2152.91
553.41	2159.24
553.77	2165.27
554.13	2171.29
554.48	2177.45
554.84	2182.82
555.19	2188.18
555.55	2193.38
555.90	2197.90
556.26	2202.76
556.61	2207.58
556.97	2211.86
557.32	2215.90
557.68	2219.98
558.03	2224.03
558.39	2227.88
558.74	2232.61
559.10	2236.67
559.45	2240.36
559.81	2244.69
560.16	2248.41
560.52	2251.64
560.87	2255.10
561.23	2257.72
561.58	2260.74
561.94	2263.18
562.29	2265.60
562.64	2268.23
563.00	2270.93
563.35	2274.37
563.71	2277.39
564.06	2280.50
564.42	2283.32
564.77	2285.86
565.12	2288.17
565.48	2290.25
565.83	2291.96
566.19	2293.21
566.54	2294.00
566.89	2295.02
567.25	2295.50
567.60	2296.75
567.96	2298.45
568.31	2299.39
568.66	2300.49
569.02	2300.96
569.37	2301.07
569.72	2301.89
570.08	2302.07
570.43	2302.04
570.78	2301.43
571.14	2299.99
571.49	2298.61
571.84	2298.31
572.20	2297.33
572.55	2296.35
572.90	2294.88
573.26	2293.37
573.61	2291.77
573.96	2289.97
574.31	2287.17
574.67	2284.20
575.02	2280.63
575.37	2277.20
575.72	2273.25
576.08	2269.95
576.43	2266.64
576.78	2263.17
577.13	2260.01
577.49	2256.99
577.84	2253.58
578.19	2249.86
578.54	2246.27
578.90	2241.99
579.25	2236.42
579.60	2231.36
579.95	2226.31
580.30	2221.22
580.66	2216.27
581.01	2211.29
581.36	2206.37
581.71	2202.03
582.06	2197.54
582.42	2193.05
582.77	2187.74
583.12	2183.14
583.47	2178.55
583.82	2173.62
584.17	2168.35
584.53	2162.89
584.88	2157.09
585.23	2151.30
585.58	2145.95
585.93	2140.49
586.28	2135.80
586.63	2130.82
586.98	2125.77
587.34	2121.02
587.69	2116.16
588.04	2110.70
588.39	2104.95
588.74	2098.56
589.09	2092.46
589.44	2085.78
589.79	2079.78
590.14	2074.08
590.49	2067.60
590.84	2061.17
591.19	2055.13
591.54	2048.70
591.89	2041.20
592.25	2034.46
592.60	2027.17
592.95	2019.49
593.30	2012.00
593.65	2004.50
594.00	1997.34
594.35	1990.23
594.70	1982.18
595.05	1974.93
595.40	1967.76
595.75	1960.29
596.10	1953.91
596.45	1947.20
596.80	1941.06
597.15	1934.33
597.50	1927.27
597.85	1920.70
598.19	1913.96
598.54	1906.80
598.89	1900.06
599.24	1894.27
599.59	1887.46
599.94	1881.26
600.29	1875.03
600.64	1868.55
600.99	1860.96
601.34	1854.23
601.69	1847.02
602.04	1840.11
602.39	1832.73
602.74	1825.89
603.08	1819.16
603.43	1812.41
603.78	1805.04
604.13	1797.80
604.48	1790.53
604.83	1783.75
605.18	1776.75
605.53	1768.80
605.87	1760.80
606.22	1753.69
606.57	1745.73
606.92	1738.48
607.27	1731.33
607.62	1724.32
607.96	1717.02
608.31	1710.49
608.66	1702.87
609.01	1695.25
609.36	1687.72
609.70	1679.76
610.05	1671.63
610.40	1663.91
610.75	1655.65
611.10	1647.95
611.44	1639.50
611.79	1631.48
612.14	1622.74
612.49	1613.59
612.83	1605.19
613.18	1597.01
613.53	1588.77
613.88	1580.22
614.22	1571.97
614.57	1563.41
614.92	1555.36
615.27	1547.76
615.61	1539.35
615.96	1531.26
616.31	1523.77
616.65	1516.50
617.00	1509.01
617.35	1501.39
617.70	1493.10
618.04	1484.69
618.39	1476.44
618.74	1468.89
619.08	1460.53
619.43	1452.97
619.78	1446.09
620.12	1438.87
620.47	1431.41
620.82	1423.29
621.16	1415.94
621.51	1408.26
621.85	1400.67
622.20	1392.14
622.55	1383.80
622.89	1376.01
623.24	1368.46
623.59	1361.11
623.93	1353.47
624.28	1346.16
624.62	1338.58
624.97	1331.43
625.32	1324.63
625.66	1317.68
626.01	1310.39
626.35	1303.10
626.70	1295.43
627.04	1287.71
627.39	1280.06
627.73	1272.66
628.08	1265.80
628.43	1258.45
628.77	1251.21
629.12	1243.61
629.46	1236.48
629.81	1229.12
630.15	1221.93
630.50	1214.50
630.84	1206.23
631.19	1198.26
631.53	1190.73
631.88	1183.24
632.22	1175.55
632.57	1168.24
632.91	1160.58
633.26	1153.17
633.60	1145.79
633.95	1138.72
634.29	1131.74
634.64	1125.03
634.98	1117.63
635.32	1110.45
635.67	1103.86
636.01	1097.15
636.36	1090.36
636.70	1083.86
637.05	1077.24
637.39	1070.72
637.73	1064.17
638.08	1058.38
638.42	1052.51
638.77	1046.16
639.11	1039.54
639.45	1033.16
639.80	1026.51
640.14	1020.20
640.49	1013.67
640.83	1007.28
641.17	1000.95
641.52	994.44
641.86	988.01
642.20	982.12
642.55	975.73
642.89	969.18
643.23	962.66
643.58	956.71
643.92	950.49
644.26	944.38
644.61	938.31
644.95	932.31
645.29	925.68
645.64	918.83
645.98	912.38
646.32	906.53
646.66	900.58
647.01	894.83
647.35	889.11
647.69	883.29
648.04	877.75
648.38	871.98
648.72	866.01
649.06	859.90
649.41	854.11
649.75	848.18
650.09	842.31
650.43	836.56
650.78	830.51
651.12	824.61
651.46	818.86
651.80	813.16
652.14	807.75
652.49	802.40
652.83	797.29
653.17	791.59
653.51	785.80
653.85	780.39
654.20	774.69
654.54	768.68
654.88	763.00
655.22	757.18
655.56	751.48
655.90	746.13
656.25	740.86
656.59	735.46
656.93	730.37
657.27	725.17
657.61	719.65
657.95	714.49
658.29	709.40
658.64	704.19
658.98	698.83
659.32	693.38
659.66	688.16
660.00	682.84
660.34	677.87
660.68	673.02
661.02	667.95
661.36	663.25
661.70	658.75
662.05	654.37
662.39	649.99
662.73	645.54
663.07	641.10
663.41	636.72
663.75	632.25
664.09	627.69
664.43	623.31
664.77	619.23
665.11	615.02
665.45	610.90
665.79	606.82
666.13	602.78
666.47	598.66
666.81	594.55
667.15	590.40
667.49	586.62
667.83	582.85
668.17	578.92
668.51	574.82
668.85	570.84
669.19	566.97
669.53	563.14
669.87	559.21
670.21	555.57
670.55	551.91
670.89	548.47
671.23	545.06
671.57	541.53
671.91	538.02
672.25	534.50
672.58	530.93
672.92	527.52
673.26	524.28
673.60	521.14
673.94	517.98
674.28	515.14
674.62	512.08
674.96	508.94
675.30	505.98
675.64	502.99
675.97	500.19
676.31	497.28
676.65	494.32
676.99	491.64
677.33	488.74
677.67	485.94
678.01	482.88
678.34	479.81
678.68	476.96
679.02	474.09
679.36	471.29
679.70	468.60
680.04	465.86
680.37	463.00
680.71	460.26
681.05	457.59
681.39	454.89
681.73	452.23
682.06	449.72
682.40	447.22
682.74	444.75
683.08	442.20
683.42	439.65
683.75	437.18
684.09	434.64
684.43	432.18
684.77	429.65
685.10	427.33
685.44	425.13
685.78	422.85
686.12	420.66
686.45	418.40
686.79	416.09
687.13	413.89
687.46	411.71
687.80	409.51
688.14	407.37
688.48	405.24
688.81	403.00
689.15	400.84
689.49	398.68
689.82	396.60
690.16	394.53
690.50	392.54
690.83	390.57
691.17	388.62
691.51	386.70
691.84	384.83
692.18	382.85
692.52	380.85
692.85	378.91
693.19	376.98
693.52	375.18
693.86	373.41
694.20	371.64
694.53	369.85
694.87	368.03
695.21	366.20
695.54	364.40
695.88	362.70
696.21	360.99
696.55	359.31
696.88	357.62
697.22	355.96
697.56	354.37
697.89	352.72
698.23	351.12
698.56	349.51
698.90	347.92
699.23	346.34
699.57	344.82
699.90	343.30
700.24	341.79
700.58	340.26
700.91	338.72
701.25	337.22
701.58	335.85
701.92	334.46
702.25	333.13
702.59	331.74
702.92	330.40
703.26	329.10
703.59	327.79
703.93	326.61
704.26	325.36
704.60	324.06
704.93	322.77
705.26	321.50
705.60	320.35
705.93	319.25
706.27	318.19
706.60	317.09
706.94	316.01
707.27	314.87
707.61	313.80
707.94	312.77
708.27	311.67
708.61	310.60
708.94	309.61
709.28	308.59
709.61	307.64
709.94	306.69
710.28	305.67
710.61	304.71
710.95	303.64
711.28	302.75
711.61	301.81
711.95	300.93
712.28	299.97
712.61	298.97
712.95	298.04
713.28	297.14
713.61	296.25
713.95	295.36
714.28	294.52
714.61	293.68
714.95	292.86
715.28	292.05
715.61	291.17
715.95	290.34
716.28	289.48
716.61	288.62
716.95	287.78
717.28	287.05
717.61	286.25
717.94	285.51
718.28	284.72
718.61	284.01
718.94	283.29
719.27	282.63
719.61	282.02
719.94	281.36
720.27	280.64
720.60	279.99
720.94	279.34
721.27	278.73
721.60	278.16
721.93	277.55
722.27	276.98
722.60	276.44
722.93	275.80
723.26	275.29
723.59	274.73
723.93	274.20
724.26	273.61
724.59	273.05
724.92	272.53
725.25	272.00
725.59	271.46
725.92	270.95
726.25	270.42
726.58	269.88
726.91	269.37
727.24	268.88
727.57	268.41
727.91	267.93
728.24	267.46
728.57	266.94
728.90	266.49
729.23	266.01
729.56	265.58
729.89	265.14
730.22	264.63
730.55	264.17
730.89	263.72
731.22	263.29
731.55	262.86
731.88	262.42
732.21	262.00
732.54	261.56
732.87	261.15
733.20	260.76
733.53	260.38
733.86	259.98
734.19	259.60
734.52	259.22
734.85	258.93
735.18	258.55
735.51	258.19
735.84	257.79
736.17	257.45
736.50	257.05
736.83	256.80
737.16	256.46
737.49	256.15
737.82	255.80
738.15	255.46
738.48	255.13
738.81	254.80
739.14	254.48
739.47	254.15
739.80	253.82
740.13	253.51
740.46	253.17
740.79	252.85
741.12	252.53
741.45	252.19
741.78	251.83
742.11	251.50
742.44	251.19
742.77	250.90
743.10	250.61
743.43	250.33
743.75	249.98
744.08	249.85
744.41	249.59
744.74	249.35
745.07	249.09
745.40	248.86
745.73	248.63
746.06	248.35
746.39	248.10
746.71	247.84
747.04	247.59
747.37	247.37
747.70	247.14
748.03	246.90
748.36	246.71
748.68	246.49
749.01	246.25
749.34	246.02
749.67	245.81
750.00	245.55
750.33	245.40
750.65	245.19
750.98	244.85
751.31	244.62
751.64	244.40
751.97	244.25
752.29	244.05
752.62	243.80
752.95	243.60
753.28	243.39
753.60	243.20
753.93	243.02
754.26	242.82
754.59	242.63
754.91	242.43
755.24	242.24
755.57	242.07
755.90	241.89
756.22	241.69
756.55	241.52
756.88	241.34
757.20	241.08
757.53	240.87
757.86	240.68
758.19	240.54
758.51	240.37
758.84	240.20
759.17	240.01
759.49	239.88
759.82	239.77
760.15	239.64
760.47	239.49
760.80	239.31
761.13	239.19
761.45	239.01
761.78	238.86
762.11	238.71
762.43	238.52
762.76	238.38
763.08	238.26
763.41	238.12
763.74	238.01
764.06	237.87
764.39	237.75
764.71	237.63
765.04	237.44
765.37	237.29
765.69	237.12
766.02	236.99
766.34	236.84
766.67	236.64
767.00	236.50
767.32	236.43
767.65	236.38
767.97	236.26
768.30	236.15
768.62	235.97
768.95	235.80
769.27	235.69
769.60	235.60
769.92	235.46
770.25	235.30
770.57	235.14
770.90	235.02
771.22	234.86
771.55	234.77
771.87	234.72
772.20	234.62
772.52	234.59
772.85	234.61
773.17	234.53
773.50	234.43
773.82	234.31
774.15	234.17
774.47	234.01
774.80	233.90
775.12	233.80
775.45	233.71
775.77	233.64
776.09	233.57
776.42	233.48
776.74	233.43
777.07	233.36
777.39	233.30
777.72	233.23
778.04	233.16
778.36	233.08
778.69	232.99
779.01	232.88
779.33	232.74
779.66	232.54
779.98	232.48
780.31	232.46
780.63	232.42
780.95	232.38
781.28	232.30
781.60	232.24
781.92	232.19
782.25	232.16
782.57	232.14
782.89	232.05
783.22	231.99
783.54	231.94
783.86	231.87
784.19	231.82
784.51	231.80
784.83	231.76
785.16	231.69
785.48	231.63
785.80	231.62
786.12	231.60
786.45	231.57
786.77	231.56
787.09	231.50
