SpectraSuite Data File
++++++++++++++++++++++++++++++++++++
Date: Fri Feb 01 15:02:58 EST 2013
User: group
Dark Spectrum Present: No
Reference Spectrum Present: No
Number of Sampled Component Spectra: 1
Spectrometers: USB2E7196
Integration Time (usec): 35000 (USB2E7196)
Spectra Averaged: 100 (USB2E7196)
Boxcar Smoothing: 10 (USB2E7196)
Correct for Electrical Dark: No (USB2E7196)
Strobe/Lamp Enabled: No (USB2E7196)
Correct for Detector Non-linearity: No (USB2E7196)
Correct for Stray Light: No (USB2E7196)
Number of Pixels in Processed Spectrum: 2048
>>>>>Begin Processed Spectral Data<<<<<
339.09	0.00
339.48	214.96
339.86	216.34
340.24	218.18
340.63	219.28
341.01	222.21
341.39	221.49
341.78	223.51
342.16	223.79
342.54	225.09
342.93	213.35
343.31	224.14
343.69	224.67
344.07	225.15
344.46	225.55
344.84	225.94
345.22	226.16
345.60	226.45
345.99	226.63
346.37	226.77
346.75	226.87
347.13	226.91
347.52	226.95
347.90	227.01
348.28	227.04
348.66	227.10
349.05	227.06
349.43	227.13
349.81	227.14
350.19	227.20
350.57	227.25
350.96	227.34
351.34	227.41
351.72	227.50
352.10	227.60
352.48	227.67
352.87	227.70
353.25	227.78
353.63	227.81
354.01	227.87
354.39	227.99
354.77	228.05
355.15	228.15
355.54	228.25
355.92	228.30
356.30	228.36
356.68	228.52
357.06	228.64
357.44	228.70
357.82	228.78
358.20	228.86
358.58	228.90
358.97	228.97
359.35	229.04
359.73	229.11
360.11	229.16
360.49	229.23
360.87	229.27
361.25	229.31
361.63	229.41
362.01	229.45
362.39	229.47
362.77	229.53
363.15	229.58
363.53	229.60
363.91	229.61
364.29	229.63
364.67	229.55
365.05	229.55
365.43	229.55
365.81	229.58
366.19	229.62
366.57	229.65
366.95	229.60
367.33	229.58
367.71	229.56
368.09	229.56
368.47	229.55
368.85	229.54
369.23	229.55
369.61	229.49
369.99	229.47
370.37	229.45
370.75	229.44
371.13	229.38
371.51	229.32
371.89	229.28
372.27	229.22
372.65	229.15
373.03	229.08
373.41	229.02
373.78	228.95
374.16	228.83
374.54	228.74
374.92	228.70
375.30	228.62
375.68	228.57
376.06	228.51
376.44	228.42
376.82	228.37
377.19	228.30
377.57	228.22
377.95	228.11
378.33	228.03
378.71	227.90
379.09	227.85
379.47	227.75
379.84	227.66
380.22	227.59
380.60	227.51
380.98	227.43
381.36	227.35
381.73	227.25
382.11	227.16
382.49	227.07
382.87	226.97
383.25	226.92
383.62	226.96
384.00	226.88
384.38	226.78
384.76	226.73
385.13	226.66
385.51	226.58
385.89	226.54
386.27	226.47
386.64	226.46
387.02	226.39
387.40	226.36
387.78	226.28
388.15	226.23
388.53	226.19
388.91	226.14
389.29	226.10
389.66	226.10
390.04	226.07
390.42	226.09
390.79	226.07
391.17	226.04
391.55	225.89
391.92	225.86
392.30	225.88
392.68	225.86
393.05	225.87
393.43	225.89
393.81	225.89
394.18	225.89
394.56	225.89
394.94	225.94
395.31	225.97
395.69	226.08
396.06	226.13
396.44	226.18
396.82	226.22
397.19	226.33
397.57	226.39
397.95	226.45
398.32	226.50
398.70	226.59
399.07	226.70
399.45	226.77
399.82	226.86
400.20	226.96
400.58	227.07
400.95	227.13
401.33	227.24
401.70	227.42
402.08	227.56
402.45	227.67
402.83	227.81
403.20	227.92
403.58	228.02
403.95	228.19
404.33	228.33
404.71	228.50
405.08	228.68
405.46	228.80
405.83	228.98
406.21	229.12
406.58	229.31
406.96	229.49
407.33	229.70
407.70	229.91
408.08	230.18
408.45	230.42
408.83	230.64
409.20	230.88
409.58	231.09
409.95	231.35
410.33	231.63
410.70	231.88
411.08	232.18
411.45	232.51
411.82	232.82
412.20	233.18
412.57	233.59
412.95	233.91
413.32	234.34
413.69	234.78
414.07	235.24
414.44	235.73
414.82	236.21
415.19	236.74
415.56	237.29
415.94	237.81
416.31	238.42
416.68	239.06
417.06	239.77
417.43	240.44
417.81	241.25
418.18	242.03
418.55	242.86
418.93	243.74
419.30	244.63
419.67	245.55
420.04	246.51
420.42	247.52
420.79	248.68
421.16	249.85
421.54	251.06
421.91	252.25
422.28	253.47
422.66	254.81
423.03	256.08
423.40	257.45
423.77	258.86
424.15	260.29
424.52	261.77
424.89	263.37
425.26	264.91
425.64	266.33
426.01	267.90
426.38	269.53
426.75	271.18
427.13	272.86
427.50	274.68
427.87	276.55
428.24	278.39
428.61	280.14
428.99	282.07
429.36	284.18
429.73	286.28
430.10	288.30
430.47	290.32
430.85	292.45
431.22	294.68
431.59	297.08
431.96	299.32
432.33	301.88
432.70	304.29
433.08	307.13
433.45	309.77
433.82	312.40
434.19	315.33
434.56	318.14
434.93	320.82
435.30	323.42
435.68	326.34
436.05	329.21
436.42	331.98
436.79	334.50
437.16	337.20
437.53	340.02
437.90	342.84
438.27	345.59
438.64	348.46
439.01	351.05
439.38	353.32
439.75	355.49
440.13	357.89
440.50	360.18
440.87	362.04
441.24	363.98
441.61	366.12
441.98	367.59
442.35	369.39
442.72	371.24
443.09	373.04
443.46	374.02
443.83	374.62
444.20	375.15
444.57	376.02
444.94	376.33
445.31	376.66
445.68	377.04
446.05	377.11
446.42	376.72
446.79	376.29
447.16	375.77
447.53	375.46
447.90	374.34
448.27	373.18
448.64	371.58
449.01	370.42
449.37	368.48
449.74	366.57
450.11	364.34
450.48	361.88
450.85	359.43
451.22	357.30
451.59	355.28
451.96	353.29
452.33	350.68
452.70	348.24
453.07	345.44
453.43	342.54
453.80	339.82
454.17	337.17
454.54	334.59
454.91	331.89
455.28	329.25
455.65	326.79
456.02	324.34
456.38	322.20
456.75	319.56
457.12	317.26
457.49	315.08
457.86	312.91
458.23	311.03
458.59	308.92
458.96	306.84
459.33	304.96
459.70	303.12
460.07	301.59
460.43	299.90
460.80	298.23
461.17	296.76
461.54	295.23
461.91	293.78
462.27	292.36
462.64	291.08
463.01	289.71
463.38	288.39
463.74	287.04
464.11	285.88
464.48	284.84
464.85	283.75
465.21	282.84
465.58	281.90
465.95	280.84
466.32	279.94
466.68	279.00
467.05	278.12
467.42	277.24
467.78	276.34
468.15	275.47
468.52	274.80
468.88	273.95
469.25	273.15
469.62	272.52
469.98	271.82
470.35	271.20
470.72	270.59
471.08	269.92
471.45	269.34
471.82	268.77
472.18	268.19
472.55	267.75
472.92	267.20
473.28	266.70
473.65	266.20
474.02	265.75
474.38	265.35
474.75	264.97
475.11	264.59
475.48	264.27
475.85	264.04
476.21	263.81
476.58	263.63
476.94	263.53
477.31	263.32
477.67	263.17
478.04	263.04
478.41	262.98
478.77	262.98
479.14	262.95
479.50	262.95
479.87	262.98
480.23	263.04
480.60	263.13
480.96	263.25
481.33	263.44
481.69	263.63
482.06	263.79
482.42	264.01
482.79	264.23
483.15	264.55
483.52	264.88
483.88	265.24
484.25	265.62
484.61	266.00
484.98	266.46
485.34	267.03
485.71	267.58
486.07	268.15
486.44	268.73
486.80	269.38
487.17	270.08
487.53	270.87
487.90	271.73
488.26	272.66
488.62	273.61
488.99	274.57
489.35	275.60
489.72	276.73
490.08	277.92
490.44	279.18
490.81	280.49
491.17	281.88
491.54	283.32
491.90	284.82
492.26	286.43
492.63	288.17
492.99	289.90
493.36	291.77
493.72	293.86
494.08	295.91
494.45	298.15
494.81	300.54
495.17	302.98
495.54	305.52
495.90	308.14
496.26	310.94
496.63	313.94
496.99	317.01
497.35	320.23
497.72	323.61
498.08	327.10
498.44	330.76
498.80	334.66
499.17	338.64
499.53	342.75
499.89	347.13
500.26	351.53
500.62	356.24
500.98	361.23
501.34	366.25
501.71	371.60
502.07	377.01
502.43	382.63
502.79	388.43
503.16	394.48
503.52	400.74
503.88	407.11
504.24	413.75
504.60	420.67
504.97	427.75
505.33	435.04
505.69	442.74
506.05	450.51
506.41	458.39
506.78	466.57
507.14	475.06
507.50	483.74
507.86	492.83
508.22	501.92
508.59	511.09
508.95	520.65
509.31	530.41
509.67	540.54
510.03	550.77
510.39	561.38
510.75	572.11
511.12	583.10
511.48	594.50
511.84	605.90
512.20	617.45
512.56	629.42
512.92	641.62
513.28	653.87
513.64	666.33
514.00	679.03
514.37	692.00
514.73	705.11
515.09	718.22
515.45	731.50
515.81	745.09
516.17	759.15
516.53	773.23
516.89	787.38
517.25	801.58
517.61	815.99
517.97	830.36
518.33	844.87
518.69	859.70
519.05	874.55
519.41	889.82
519.77	905.37
520.13	920.97
520.49	936.39
520.85	951.94
521.21	967.74
521.57	984.06
521.93	999.88
522.29	1016.30
522.65	1032.61
523.01	1048.94
523.37	1065.13
523.73	1081.43
524.09	1097.70
524.45	1114.13
524.81	1130.86
525.17	1147.90
525.53	1164.94
525.89	1181.90
526.25	1198.68
526.61	1215.25
526.97	1232.12
527.33	1248.65
527.68	1265.34
528.04	1281.97
528.40	1298.71
528.76	1315.77
529.12	1332.36
529.48	1349.28
529.84	1365.39
530.20	1382.10
530.56	1399.21
530.91	1416.70
531.27	1433.44
531.63	1449.85
531.99	1466.59
532.35	1482.57
532.71	1498.44
533.07	1514.72
533.42	1530.58
533.78	1546.76
534.14	1563.12
534.50	1578.45
534.86	1594.42
535.21	1609.53
535.57	1625.58
535.93	1640.99
536.29	1655.96
536.65	1671.16
537.00	1686.07
537.36	1701.44
537.72	1716.01
538.08	1730.51
538.44	1744.34
538.79	1758.34
539.15	1772.18
539.51	1785.91
539.87	1800.29
540.22	1814.07
540.58	1828.04
540.94	1841.59
541.29	1854.56
541.65	1867.37
542.01	1880.66
542.37	1892.85
542.72	1905.46
543.08	1917.19
543.44	1929.82
543.79	1941.09
544.15	1952.06
544.51	1963.59
544.87	1974.61
545.22	1985.39
545.58	1995.58
545.94	2005.38
546.29	2015.24
546.65	2025.00
547.01	2034.40
547.36	2043.26
547.72	2051.80
548.07	2059.50
548.43	2067.72
548.79	2075.87
549.14	2083.33
549.50	2090.70
549.86	2098.66
550.21	2106.01
550.57	2113.28
550.92	2119.88
551.28	2126.86
551.64	2134.06
551.99	2140.69
552.35	2146.92
552.70	2153.11
553.06	2159.08
553.41	2165.35
553.77	2171.36
554.13	2177.57
554.48	2183.55
554.84	2188.98
555.19	2194.42
555.55	2199.67
555.90	2204.16
556.26	2208.85
556.61	2213.66
556.97	2217.91
557.32	2221.99
557.68	2226.06
558.03	2230.24
558.39	2233.90
558.74	2238.58
559.10	2242.34
559.45	2245.83
559.81	2250.23
560.16	2253.97
560.52	2257.24
560.87	2260.72
561.23	2263.32
561.58	2266.16
561.94	2268.61
562.29	2270.94
562.64	2273.45
563.00	2276.05
563.35	2279.48
563.71	2282.77
564.06	2285.72
564.42	2288.45
564.77	2290.82
565.12	2292.88
565.48	2294.57
565.83	2296.14
566.19	2297.27
566.54	2298.19
566.89	2299.21
567.25	2299.50
567.60	2300.87
567.96	2302.28
568.31	2302.96
568.66	2303.93
569.02	2304.40
569.37	2304.70
569.72	2305.34
570.08	2305.23
570.43	2304.96
570.78	2304.05
571.14	2302.16
571.49	2300.80
571.84	2300.49
572.20	2299.15
572.55	2298.08
572.90	2296.47
573.26	2295.10
573.61	2293.26
573.96	2291.21
574.31	2288.13
574.67	2284.99
575.02	2281.12
575.37	2277.75
575.72	2273.77
576.08	2270.32
576.43	2266.92
576.78	2263.02
577.13	2259.90
577.49	2256.74
577.84	2253.23
578.19	2249.50
578.54	2245.69
578.90	2241.37
579.25	2235.54
579.60	2230.46
579.95	2225.29
580.30	2220.30
580.66	2215.00
581.01	2210.03
581.36	2205.04
581.71	2200.72
582.06	2196.05
582.42	2191.46
582.77	2186.09
583.12	2181.39
583.47	2176.54
583.82	2171.25
584.17	2165.94
584.53	2160.20
584.88	2154.40
585.23	2148.37
585.58	2142.85
585.93	2137.40
586.28	2132.49
586.63	2127.33
586.98	2122.26
587.34	2117.46
587.69	2112.24
588.04	2106.77
588.39	2100.95
588.74	2094.54
589.09	2088.29
589.44	2081.46
589.79	2075.31
590.14	2069.59
590.49	2062.88
590.84	2056.44
591.19	2050.52
591.54	2043.82
591.89	2036.20
592.25	2029.35
592.60	2022.15
592.95	2014.32
593.30	2006.86
593.65	1999.07
594.00	1991.98
594.35	1984.50
594.70	1976.34
595.05	1969.09
595.40	1961.86
595.75	1954.31
596.10	1947.68
596.45	1940.77
596.80	1934.41
597.15	1927.82
597.50	1920.56
597.85	1914.06
598.19	1907.26
598.54	1899.96
598.89	1893.40
599.24	1887.52
599.59	1880.66
599.94	1874.41
600.29	1868.03
600.64	1861.42
600.99	1853.83
601.34	1846.70
601.69	1839.75
602.04	1832.80
602.39	1825.37
602.74	1818.49
603.08	1811.69
603.43	1805.09
603.78	1797.88
604.13	1790.79
604.48	1783.24
604.83	1776.38
605.18	1769.36
605.53	1761.33
605.87	1753.26
606.22	1746.11
606.57	1738.23
606.92	1731.08
607.27	1723.68
607.62	1716.81
607.96	1709.48
608.31	1702.96
608.66	1695.49
609.01	1687.94
609.36	1680.51
609.70	1672.40
610.05	1664.30
610.40	1656.56
610.75	1648.30
611.10	1640.74
611.44	1632.30
611.79	1624.48
612.14	1615.86
612.49	1606.82
612.83	1598.59
613.18	1590.62
613.53	1582.45
613.88	1573.92
614.22	1565.57
614.57	1557.13
614.92	1549.10
615.27	1541.50
615.61	1533.23
615.96	1525.28
616.31	1517.79
616.65	1510.46
617.00	1503.07
617.35	1495.47
617.70	1487.12
618.04	1478.56
618.39	1470.28
618.74	1462.84
619.08	1454.51
619.43	1446.83
619.78	1439.87
620.12	1432.61
620.47	1424.98
620.82	1416.88
621.16	1409.55
621.51	1401.99
621.85	1394.38
622.20	1385.91
622.55	1377.68
622.89	1369.84
623.24	1362.31
623.59	1354.99
623.93	1347.30
624.28	1340.09
624.62	1332.66
624.97	1325.52
625.32	1318.81
625.66	1311.77
626.01	1304.41
626.35	1296.92
626.70	1289.29
627.04	1281.63
627.39	1273.99
627.73	1266.69
628.08	1259.74
628.43	1252.30
628.77	1244.91
629.12	1237.35
629.46	1230.22
629.81	1222.80
630.15	1215.57
630.50	1208.21
630.84	1199.91
631.19	1192.17
631.53	1184.71
631.88	1177.11
632.22	1169.56
632.57	1162.27
632.91	1154.77
633.26	1147.52
633.60	1140.27
633.95	1133.29
634.29	1126.31
634.64	1119.67
634.98	1112.38
635.32	1105.30
635.67	1098.98
636.01	1092.36
636.36	1085.67
636.70	1079.26
637.05	1072.78
637.39	1066.40
637.73	1059.84
638.08	1054.06
638.42	1048.10
638.77	1041.60
639.11	1034.96
639.45	1028.66
639.80	1021.99
640.14	1015.55
640.49	1008.97
640.83	1002.74
641.17	996.44
641.52	990.21
641.86	983.84
642.20	978.05
642.55	971.85
642.89	965.32
643.23	958.87
643.58	953.08
643.92	946.87
644.26	940.74
644.61	934.76
644.95	928.74
645.29	922.09
645.64	915.33
645.98	909.12
646.32	903.42
646.66	897.38
647.01	891.69
647.35	886.05
647.69	880.28
648.04	874.78
648.38	869.04
648.72	862.95
649.06	856.84
649.41	850.91
649.75	844.94
650.09	838.89
650.43	833.05
650.78	826.90
651.12	820.97
651.46	815.34
651.80	809.55
652.14	804.21
652.49	798.92
652.83	793.76
653.17	788.04
653.51	782.28
653.85	776.95
654.20	771.26
654.54	765.30
654.88	759.66
655.22	753.82
655.56	748.17
655.90	742.78
656.25	737.56
656.59	732.26
656.93	727.16
657.27	722.12
657.61	716.79
657.95	711.76
658.29	706.65
658.64	701.39
658.98	696.20
659.32	690.72
659.66	685.53
660.00	680.26
660.34	675.43
660.68	670.64
661.02	665.60
661.36	660.93
661.70	656.48
662.05	652.11
662.39	647.76
662.73	643.37
663.07	639.02
663.41	634.55
663.75	630.04
664.09	625.52
664.43	621.10
664.77	616.93
665.11	612.73
665.45	608.73
665.79	604.70
666.13	600.54
666.47	596.55
666.81	592.37
667.15	588.26
667.49	584.40
667.83	580.57
668.17	576.67
668.51	572.59
668.85	568.62
669.19	564.74
669.53	560.92
669.87	556.99
670.21	553.37
670.55	549.72
670.89	546.38
671.23	542.92
671.57	539.42
671.91	536.01
672.25	532.52
672.58	528.94
672.92	525.51
673.26	522.42
673.60	519.24
673.94	516.20
674.28	513.32
674.62	510.31
674.96	507.15
675.30	504.24
675.64	501.36
675.97	498.61
676.31	495.81
676.65	492.86
676.99	490.18
677.33	487.29
677.67	484.53
678.01	481.45
678.34	478.57
678.68	475.77
679.02	472.93
679.36	470.20
679.70	467.52
680.04	464.78
680.37	461.89
680.71	459.14
681.05	456.53
681.39	453.84
681.73	451.21
682.06	448.80
682.40	446.27
682.74	443.76
683.08	441.21
683.42	438.64
683.75	436.21
684.09	433.66
684.43	431.23
684.77	428.84
685.10	426.57
685.44	424.26
685.78	421.95
686.12	419.76
686.45	417.49
686.79	415.22
687.13	413.12
687.46	411.00
687.80	408.91
688.14	406.72
688.48	404.70
688.81	402.44
689.15	400.25
689.49	398.12
689.82	396.07
690.16	394.01
690.50	392.03
690.83	390.08
691.17	388.15
691.51	386.26
691.84	384.36
692.18	382.40
692.52	380.44
692.85	378.55
693.19	376.68
693.52	374.89
693.86	373.06
694.20	371.21
694.53	369.41
694.87	367.57
695.21	365.80
695.54	364.00
695.88	362.33
696.21	360.66
696.55	358.96
696.88	357.29
697.22	355.64
697.56	354.07
697.89	352.41
698.23	350.80
698.56	349.20
698.90	347.63
699.23	346.00
699.57	344.47
699.90	342.94
700.24	341.35
700.58	339.78
700.91	338.28
701.25	336.89
701.58	335.48
701.92	334.12
702.25	332.72
702.59	331.36
702.92	330.06
703.26	328.74
703.59	327.51
703.93	326.36
704.26	325.11
704.60	323.79
704.93	322.55
705.26	321.32
705.60	320.19
705.93	319.02
706.27	317.98
706.60	316.91
706.94	315.83
707.27	314.72
707.61	313.70
707.94	312.71
708.27	311.58
708.61	310.55
708.94	309.56
709.28	308.63
709.61	307.65
709.94	306.67
710.28	305.70
710.61	304.73
710.95	303.64
711.28	302.74
711.61	301.82
711.95	300.90
712.28	299.94
712.61	298.96
712.95	298.03
713.28	297.17
713.61	296.26
713.95	295.35
714.28	294.54
714.61	293.65
714.95	292.80
715.28	291.99
715.61	291.13
715.95	290.26
716.28	289.37
716.61	288.57
716.95	287.81
717.28	287.04
717.61	286.27
717.94	285.51
718.28	284.73
718.61	284.01
718.94	283.31
719.27	282.69
719.61	282.03
719.94	281.36
720.27	280.64
720.60	279.98
720.94	279.38
721.27	278.75
721.60	278.20
721.93	277.59
722.27	277.04
722.60	276.47
722.93	275.88
723.26	275.36
723.59	274.78
723.93	274.20
724.26	273.66
724.59	273.11
724.92	272.61
725.25	272.13
725.59	271.63
725.92	271.10
726.25	270.57
726.58	270.04
726.91	269.55
727.24	269.09
727.57	268.64
727.91	268.13
728.24	267.72
728.57	267.24
728.90	266.80
729.23	266.32
729.56	265.93
729.89	265.43
730.22	264.96
730.55	264.47
730.89	264.03
731.22	263.57
731.55	263.14
731.88	262.72
732.21	262.26
732.54	261.80
732.87	261.41
733.20	261.02
733.53	260.65
733.86	260.31
734.19	259.95
734.52	259.58
734.85	259.28
735.18	258.83
735.51	258.45
735.84	258.10
736.17	257.74
736.50	257.32
736.83	257.14
737.16	256.82
737.49	256.54
737.82	256.20
738.15	255.91
738.48	255.58
738.81	255.27
739.14	254.96
739.47	254.65
739.80	254.33
740.13	254.02
740.46	253.73
740.79	253.41
741.12	253.09
741.45	252.75
741.78	252.39
742.11	252.12
742.44	251.80
742.77	251.51
743.10	251.22
743.43	250.92
743.75	250.53
744.08	250.36
744.41	250.08
744.74	249.82
745.07	249.50
745.40	249.22
745.73	248.99
746.06	248.71
746.39	248.50
746.71	248.24
747.04	247.98
747.37	247.71
747.70	247.42
748.03	247.14
748.36	246.91
748.68	246.68
749.01	246.43
749.34	246.20
749.67	245.98
750.00	245.73
750.33	245.56
750.65	245.39
750.98	245.05
751.31	244.85
751.64	244.65
751.97	244.51
752.29	244.31
752.62	244.04
752.95	243.83
753.28	243.58
753.60	243.37
753.93	243.19
754.26	242.97
754.59	242.75
754.91	242.56
755.24	242.42
755.57	242.21
755.90	242.03
756.22	241.87
756.55	241.66
756.88	241.46
757.20	241.26
757.53	241.02
757.86	240.87
758.19	240.67
758.51	240.50
758.84	240.29
759.17	240.13
759.49	239.98
759.82	239.87
760.15	239.73
760.47	239.58
760.80	239.41
761.13	239.29
761.45	239.16
761.78	239.02
762.11	238.85
762.43	238.70
762.76	238.53
763.08	238.37
763.41	238.22
763.74	238.09
764.06	237.94
764.39	237.80
764.71	237.63
765.04	237.50
765.37	237.36
765.69	237.22
766.02	237.09
766.34	236.93
766.67	236.77
767.00	236.65
767.32	236.58
767.65	236.54
767.97	236.43
768.30	236.32
768.62	236.21
768.95	236.09
769.27	235.99
769.60	235.95
769.92	235.84
770.25	235.71
770.57	235.62
770.90	235.50
771.22	235.40
771.55	235.33
771.87	235.25
772.20	235.14
772.52	235.14
772.85	235.14
773.17	235.07
773.50	234.95
773.82	234.88
774.15	234.76
774.47	234.61
774.80	234.49
775.12	234.41
775.45	234.34
775.77	234.27
776.09	234.22
776.42	234.13
776.74	234.09
777.07	234.03
777.39	233.96
777.72	233.90
778.04	233.85
778.36	233.79
778.69	233.71
779.01	233.67
779.33	233.51
779.66	233.34
779.98	233.29
780.31	233.25
780.63	233.20
780.95	233.13
781.28	233.05
781.60	233.01
781.92	232.95
782.25	232.90
782.57	232.82
782.89	232.72
783.22	232.62
783.54	232.54
783.86	232.48
784.19	232.42
784.51	232.37
784.83	232.32
785.16	232.26
785.48	232.21
785.80	232.18
786.12	232.15
786.45	232.12
786.77	232.08
787.09	232.02
