SpectraSuite Data File
++++++++++++++++++++++++++++++++++++
Date: Fri Feb 01 16:04:48 EST 2013
User: group
Dark Spectrum Present: No
Reference Spectrum Present: No
Number of Sampled Component Spectra: 1
Spectrometers: USB2E7196
Integration Time (usec): 35000 (USB2E7196)
Spectra Averaged: 100 (USB2E7196)
Boxcar Smoothing: 10 (USB2E7196)
Correct for Electrical Dark: No (USB2E7196)
Strobe/Lamp Enabled: No (USB2E7196)
Correct for Detector Non-linearity: No (USB2E7196)
Correct for Stray Light: No (USB2E7196)
Number of Pixels in Processed Spectrum: 2048
>>>>>Begin Processed Spectral Data<<<<<
339.09	0.00
339.48	215.19
339.86	216.38
340.24	217.17
340.63	218.75
341.01	221.72
341.39	221.69
341.78	222.89
342.16	224.40
342.54	223.76
342.93	212.99
343.31	223.73
343.69	224.23
344.07	224.69
344.46	225.16
344.84	225.53
345.22	225.75
345.60	225.98
345.99	226.16
346.37	226.25
346.75	226.40
347.13	226.47
347.52	226.51
347.90	226.62
348.28	226.63
348.66	226.67
349.05	226.66
349.43	226.70
349.81	226.73
350.19	226.77
350.57	226.81
350.96	226.88
351.34	226.97
351.72	227.05
352.10	227.13
352.48	227.17
352.87	227.24
353.25	227.30
353.63	227.36
354.01	227.42
354.39	227.52
354.77	227.57
355.15	227.70
355.54	227.76
355.92	227.78
356.30	227.85
356.68	228.00
357.06	228.07
357.44	228.11
357.82	228.19
358.20	228.25
358.58	228.28
358.97	228.36
359.35	228.42
359.73	228.52
360.11	228.56
360.49	228.60
360.87	228.63
361.25	228.71
361.63	228.80
362.01	228.85
362.39	228.91
362.77	228.98
363.15	228.98
363.53	229.02
363.91	229.04
364.29	229.08
364.67	228.99
365.05	229.03
365.43	229.04
365.81	229.06
366.19	229.12
366.57	229.15
366.95	229.14
367.33	229.11
367.71	229.07
368.09	229.04
368.47	229.04
368.85	229.02
369.23	229.00
369.61	228.92
369.99	228.94
370.37	228.89
370.75	228.89
371.13	228.83
371.51	228.76
371.89	228.67
372.27	228.61
372.65	228.57
373.03	228.50
373.41	228.46
373.78	228.41
374.16	228.32
374.54	228.24
374.92	228.17
375.30	228.13
375.68	228.09
376.06	228.07
376.44	228.01
376.82	227.98
377.19	227.92
377.57	227.87
377.95	227.77
378.33	227.69
378.71	227.57
379.09	227.49
379.47	227.46
379.84	227.44
380.22	227.38
380.60	227.31
380.98	227.23
381.36	227.16
381.73	227.06
382.11	227.00
382.49	226.95
382.87	226.89
383.25	226.85
383.62	226.90
384.00	226.83
384.38	226.77
384.76	226.73
385.13	226.68
385.51	226.62
385.89	226.55
386.27	226.54
386.64	226.51
387.02	226.51
387.40	226.45
387.78	226.40
388.15	226.35
388.53	226.29
388.91	226.30
389.29	226.28
389.66	226.27
390.04	226.24
390.42	226.26
390.79	226.26
391.17	226.24
391.55	226.09
391.92	226.08
392.30	226.09
392.68	226.07
393.05	226.10
393.43	226.09
393.81	226.11
394.18	226.11
394.56	226.10
394.94	226.11
395.31	226.13
395.69	226.20
396.06	226.26
396.44	226.32
396.82	226.35
397.19	226.41
397.57	226.45
397.95	226.54
398.32	226.53
398.70	226.59
399.07	226.64
399.45	226.69
399.82	226.75
400.20	226.81
400.58	226.87
400.95	226.89
401.33	226.99
401.70	227.15
402.08	227.21
402.45	227.32
402.83	227.46
403.20	227.55
403.58	227.65
403.95	227.79
404.33	227.90
404.71	228.03
405.08	228.22
405.46	228.34
405.83	228.48
406.21	228.64
406.58	228.82
406.96	229.00
407.33	229.19
407.70	229.40
408.08	229.66
408.45	229.89
408.83	230.14
409.20	230.34
409.58	230.53
409.95	230.82
410.33	231.12
410.70	231.34
411.08	231.65
411.45	231.91
411.82	232.20
412.20	232.57
412.57	232.98
412.95	233.29
413.32	233.74
413.69	234.13
414.07	234.57
414.44	235.01
414.82	235.48
415.19	236.05
415.56	236.57
415.94	237.11
416.31	237.76
416.68	238.40
417.06	239.12
417.43	239.79
417.81	240.52
418.18	241.27
418.55	242.11
418.93	243.00
419.30	243.92
419.67	244.86
420.04	245.83
420.42	246.79
420.79	247.97
421.16	249.11
421.54	250.30
421.91	251.52
422.28	252.80
422.66	254.13
423.03	255.45
423.40	256.78
423.77	258.20
424.15	259.58
424.52	261.05
424.89	262.67
425.26	264.22
425.64	265.67
426.01	267.27
426.38	268.89
426.75	270.52
427.13	272.24
427.50	274.02
427.87	275.90
428.24	277.75
428.61	279.50
428.99	281.43
429.36	283.52
429.73	285.54
430.10	287.53
430.47	289.60
430.85	291.69
431.22	293.95
431.59	296.30
431.96	298.51
432.33	300.99
432.70	303.38
433.08	306.17
433.45	308.80
433.82	311.37
434.19	314.28
434.56	317.09
434.93	319.74
435.30	322.36
435.68	325.21
436.05	328.10
436.42	330.87
436.79	333.40
437.16	336.11
437.53	338.97
437.90	341.76
438.27	344.45
438.64	347.27
439.01	349.88
439.38	352.10
439.75	354.30
440.13	356.79
440.50	359.08
440.87	360.97
441.24	362.94
441.61	365.08
441.98	366.56
442.35	368.36
442.72	370.25
443.09	372.03
443.46	373.00
443.83	373.54
444.20	374.03
444.57	374.85
444.94	375.14
445.31	375.48
445.68	375.87
446.05	375.96
446.42	375.58
446.79	375.11
447.16	374.67
447.53	374.36
447.90	373.21
448.27	372.05
448.64	370.42
449.01	369.24
449.37	367.26
449.74	365.36
450.11	363.09
450.48	360.58
450.85	358.02
451.22	355.87
451.59	353.87
451.96	351.95
452.33	349.35
452.70	346.96
453.07	344.11
453.43	341.17
453.80	338.40
454.17	335.73
454.54	333.18
454.91	330.43
455.28	327.74
455.65	325.25
456.02	322.84
456.38	320.73
456.75	318.11
457.12	315.92
457.49	313.75
457.86	311.63
458.23	309.80
458.59	307.80
458.96	305.75
459.33	303.83
459.70	301.93
460.07	300.42
460.43	298.67
460.80	297.06
461.17	295.64
461.54	294.18
461.91	292.73
462.27	291.32
462.64	290.11
463.01	288.77
463.38	287.46
463.74	286.06
464.11	284.88
464.48	283.88
464.85	282.74
465.21	281.87
465.58	280.93
465.95	279.82
466.32	278.92
466.68	278.02
467.05	277.21
467.42	276.36
467.78	275.42
468.15	274.59
468.52	273.95
468.88	273.11
469.25	272.34
469.62	271.76
469.98	271.13
470.35	270.53
470.72	269.93
471.08	269.25
471.45	268.73
471.82	268.20
472.18	267.59
472.55	267.20
472.92	266.64
473.28	266.19
473.65	265.75
474.02	265.30
474.38	264.95
474.75	264.60
475.11	264.26
475.48	264.04
475.85	263.82
476.21	263.56
476.58	263.41
476.94	263.29
477.31	263.10
477.67	262.93
478.04	262.82
478.41	262.76
478.77	262.82
479.14	262.77
479.50	262.76
479.87	262.79
480.23	262.82
480.60	262.90
480.96	262.98
481.33	263.19
481.69	263.37
482.06	263.52
482.42	263.73
482.79	263.96
483.15	264.22
483.52	264.56
483.88	264.91
484.25	265.23
484.61	265.63
484.98	266.02
485.34	266.56
485.71	267.11
486.07	267.69
486.44	268.23
486.80	268.92
487.17	269.64
487.53	270.45
487.90	271.31
488.26	272.27
488.62	273.24
488.99	274.21
489.35	275.27
489.72	276.39
490.08	277.61
490.44	278.86
490.81	280.19
491.17	281.58
491.54	283.09
491.90	284.69
492.26	286.35
492.63	288.13
492.99	289.95
493.36	291.84
493.72	293.92
494.08	296.07
494.45	298.34
494.81	300.73
495.17	303.21
495.54	305.79
495.90	308.45
496.26	311.31
496.63	314.27
496.99	317.42
497.35	320.73
497.72	324.14
498.08	327.65
498.44	331.36
498.80	335.33
499.17	339.36
499.53	343.50
499.89	347.89
500.26	352.38
500.62	357.03
500.98	362.04
501.34	367.12
501.71	372.44
502.07	377.86
502.43	383.49
502.79	389.34
503.16	395.46
503.52	401.73
503.88	408.14
504.24	414.84
504.60	421.73
504.97	428.89
505.33	436.20
505.69	443.92
506.05	451.74
506.41	459.60
506.78	467.79
507.14	476.35
507.50	485.03
507.86	494.10
508.22	503.31
508.59	512.55
508.95	522.14
509.31	531.96
509.67	542.16
510.03	552.47
510.39	563.03
510.75	573.77
511.12	584.75
511.48	596.06
511.84	607.56
512.20	619.09
512.56	631.04
512.92	643.29
513.28	655.65
513.64	668.13
514.00	680.83
514.37	693.76
514.73	706.78
515.09	719.91
515.45	733.17
515.81	746.81
516.17	760.76
516.53	774.92
516.89	789.12
517.25	803.25
517.61	817.65
517.97	832.12
518.33	846.54
518.69	861.36
519.05	876.38
519.41	891.49
519.77	907.08
520.13	922.50
520.49	937.87
520.85	953.32
521.21	969.01
521.57	985.27
521.93	1001.03
522.29	1017.34
522.65	1033.47
523.01	1049.74
523.37	1065.82
523.73	1082.03
524.09	1098.12
524.45	1114.42
524.81	1130.99
525.17	1147.81
525.53	1164.73
525.89	1181.70
526.25	1198.47
526.61	1214.74
526.97	1231.43
527.33	1247.83
527.68	1264.40
528.04	1280.82
528.40	1297.35
528.76	1314.43
529.12	1330.96
529.48	1347.85
529.84	1363.83
530.20	1380.50
530.56	1397.38
530.91	1414.77
531.27	1431.46
531.63	1447.84
531.99	1464.37
532.35	1480.42
532.71	1496.27
533.07	1512.40
533.42	1528.19
533.78	1544.21
534.14	1560.46
534.50	1575.74
534.86	1591.55
535.21	1606.66
535.57	1622.45
535.93	1637.83
536.29	1652.46
536.65	1667.46
537.00	1682.09
537.36	1697.35
537.72	1711.64
538.08	1725.95
538.44	1739.51
538.79	1753.27
539.15	1766.82
539.51	1780.39
539.87	1794.59
540.22	1808.17
540.58	1821.71
540.94	1834.86
541.29	1847.51
541.65	1860.12
542.01	1873.16
542.37	1885.34
542.72	1897.73
543.08	1909.52
543.44	1921.89
543.79	1933.22
544.15	1944.12
544.51	1955.71
544.87	1966.58
545.22	1977.49
545.58	1987.84
545.94	1997.74
546.29	2007.68
546.65	2017.74
547.01	2026.99
547.36	2035.63
547.72	2044.17
548.07	2052.24
548.43	2060.37
548.79	2068.48
549.14	2076.05
549.50	2083.41
549.86	2091.13
550.21	2098.42
550.57	2105.58
550.92	2112.14
551.28	2119.18
551.64	2126.29
551.99	2132.84
552.35	2139.01
552.70	2145.22
553.06	2151.15
553.41	2157.36
553.77	2163.34
554.13	2169.29
554.48	2175.51
554.84	2181.15
555.19	2186.50
555.55	2191.61
555.90	2196.20
556.26	2201.12
556.61	2205.70
556.97	2209.97
557.32	2214.14
557.68	2218.26
558.03	2222.62
558.39	2226.36
558.74	2230.99
559.10	2234.94
559.45	2238.50
559.81	2242.88
560.16	2246.71
560.52	2249.96
560.87	2253.48
561.23	2256.25
561.58	2259.17
561.94	2261.73
562.29	2263.94
562.64	2266.56
563.00	2269.18
563.35	2272.74
563.71	2275.94
564.06	2279.22
564.42	2282.26
564.77	2284.95
565.12	2287.42
565.48	2289.28
565.83	2291.17
566.19	2292.62
566.54	2293.42
566.89	2294.70
567.25	2295.31
567.60	2296.57
567.96	2298.31
568.31	2299.16
568.66	2300.13
569.02	2300.71
569.37	2301.05
569.72	2302.05
570.08	2302.26
570.43	2302.28
570.78	2301.75
571.14	2300.14
571.49	2298.93
571.84	2298.61
572.20	2297.33
572.55	2296.07
572.90	2294.38
573.26	2292.98
573.61	2291.22
573.96	2289.54
574.31	2286.51
574.67	2283.48
575.02	2279.86
575.37	2276.51
575.72	2272.78
576.08	2269.47
576.43	2266.18
576.78	2262.49
577.13	2259.20
577.49	2255.99
577.84	2252.54
578.19	2248.71
578.54	2245.12
578.90	2240.88
579.25	2235.24
579.60	2230.40
579.95	2225.58
580.30	2220.76
580.66	2215.48
581.01	2210.55
581.36	2205.68
581.71	2201.54
582.06	2197.11
582.42	2192.65
582.77	2187.30
583.12	2182.60
583.47	2177.90
583.82	2172.96
584.17	2167.65
584.53	2162.18
584.88	2156.56
585.23	2150.72
585.58	2145.27
585.93	2139.78
586.28	2134.98
586.63	2130.01
586.98	2124.78
587.34	2119.99
587.69	2115.04
588.04	2109.85
588.39	2104.10
588.74	2097.58
589.09	2091.43
589.44	2084.81
589.79	2078.87
590.14	2073.36
590.49	2066.87
590.84	2060.50
591.19	2054.45
591.54	2048.19
591.89	2040.95
592.25	2034.35
592.60	2027.30
592.95	2019.82
593.30	2012.53
593.65	2004.96
594.00	1997.97
594.35	1990.64
594.70	1982.70
595.05	1975.64
595.40	1968.48
595.75	1961.04
596.10	1954.94
596.45	1948.18
596.80	1941.93
597.15	1935.30
597.50	1928.15
597.85	1921.72
598.19	1915.12
598.54	1908.03
598.89	1901.33
599.24	1895.40
599.59	1888.55
599.94	1882.24
600.29	1875.87
600.64	1869.39
600.99	1862.04
601.34	1855.19
601.69	1848.37
602.04	1841.56
602.39	1834.18
602.74	1827.37
603.08	1820.59
603.43	1813.71
603.78	1806.44
604.13	1799.23
604.48	1791.90
604.83	1785.08
605.18	1778.12
605.53	1770.04
605.87	1762.03
606.22	1754.57
606.57	1746.49
606.92	1739.06
607.27	1731.85
607.62	1724.90
607.96	1717.48
608.31	1710.76
608.66	1703.00
609.01	1695.42
609.36	1687.68
609.70	1679.55
610.05	1671.40
610.40	1663.67
610.75	1655.31
611.10	1647.54
611.44	1639.10
611.79	1631.10
612.14	1622.37
612.49	1613.08
612.83	1604.77
613.18	1596.50
613.53	1588.47
613.88	1579.98
614.22	1571.86
614.57	1563.31
614.92	1555.24
615.27	1547.78
615.61	1539.53
615.96	1531.69
616.31	1524.09
616.65	1516.68
617.00	1509.28
617.35	1501.62
617.70	1493.37
618.04	1484.96
618.39	1476.81
618.74	1469.25
619.08	1460.86
619.43	1453.34
619.78	1446.44
620.12	1439.31
620.47	1431.99
620.82	1423.85
621.16	1416.42
621.51	1408.84
621.85	1401.20
622.20	1392.72
622.55	1384.36
622.89	1376.38
623.24	1368.75
623.59	1361.35
623.93	1353.85
624.28	1346.55
624.62	1339.16
624.97	1331.95
625.32	1325.05
625.66	1317.96
626.01	1310.78
626.35	1303.45
626.70	1295.62
627.04	1288.03
627.39	1280.10
627.73	1272.56
628.08	1265.67
628.43	1258.47
628.77	1251.07
629.12	1243.50
629.46	1236.35
629.81	1228.88
630.15	1221.73
630.50	1214.25
630.84	1206.07
631.19	1198.17
631.53	1190.62
631.88	1182.94
632.22	1175.35
632.57	1168.21
632.91	1160.65
633.26	1153.14
633.60	1145.71
633.95	1138.69
634.29	1131.57
634.64	1124.94
634.98	1117.67
635.32	1110.53
635.67	1103.88
636.01	1097.14
636.36	1090.34
636.70	1083.84
637.05	1077.25
637.39	1070.78
637.73	1064.29
638.08	1058.38
638.42	1052.49
638.77	1045.99
639.11	1039.51
639.45	1033.08
639.80	1026.36
640.14	1020.00
640.49	1013.60
640.83	1007.33
641.17	1001.10
641.52	994.75
641.86	988.30
642.20	982.43
642.55	976.10
642.89	969.69
643.23	963.19
643.58	957.49
643.92	951.19
644.26	945.12
644.61	939.16
644.95	933.17
645.29	926.64
645.64	919.82
645.98	913.48
646.32	907.53
646.66	901.44
647.01	895.67
647.35	890.00
647.69	884.13
648.04	878.60
648.38	872.73
648.72	866.78
649.06	860.77
649.41	854.80
649.75	848.85
650.09	842.87
650.43	837.11
650.78	830.86
651.12	825.05
651.46	819.41
651.80	813.63
652.14	808.19
652.49	802.77
652.83	797.59
653.17	791.91
653.51	786.26
653.85	780.85
654.20	775.20
654.54	769.16
654.88	763.36
655.22	757.42
655.56	751.81
655.90	746.27
656.25	740.99
656.59	735.64
656.93	730.54
657.27	725.36
657.61	719.94
657.95	714.84
658.29	709.77
658.64	704.40
658.98	699.01
659.32	693.58
659.66	688.33
660.00	682.96
660.34	678.06
660.68	673.16
661.02	668.18
661.36	663.46
661.70	658.96
662.05	654.63
662.39	650.32
662.73	645.79
663.07	641.48
663.41	636.94
663.75	632.49
664.09	627.92
664.43	623.58
664.77	619.45
665.11	615.18
665.45	610.98
665.79	606.92
666.13	602.83
666.47	598.71
666.81	594.59
667.15	590.54
667.49	586.63
667.83	582.70
668.17	578.79
668.51	574.71
668.85	570.67
669.19	566.79
669.53	562.99
669.87	559.13
670.21	555.43
670.55	551.78
670.89	548.36
671.23	544.94
671.57	541.38
671.91	537.83
672.25	534.37
672.58	530.87
672.92	527.45
673.26	524.25
673.60	521.11
673.94	517.99
674.28	515.03
674.62	512.08
674.96	508.97
675.30	506.07
675.64	503.15
675.97	500.41
676.31	497.55
676.65	494.60
676.99	491.85
677.33	488.97
677.67	486.28
678.01	483.23
678.34	480.21
678.68	477.33
679.02	474.48
679.36	471.65
679.70	468.93
680.04	466.14
680.37	463.31
680.71	460.47
681.05	457.83
681.39	455.09
681.73	452.44
682.06	449.93
682.40	447.35
682.74	444.77
683.08	442.19
683.42	439.58
683.75	437.07
684.09	434.54
684.43	432.05
684.77	429.56
685.10	427.22
685.44	424.92
685.78	422.67
686.12	420.43
686.45	418.19
686.79	415.87
687.13	413.75
687.46	411.59
687.80	409.48
688.14	407.28
688.48	405.26
688.81	403.01
689.15	400.84
689.49	398.70
689.82	396.62
690.16	394.55
690.50	392.56
690.83	390.64
691.17	388.67
691.51	386.74
691.84	384.88
692.18	382.96
692.52	380.99
692.85	379.00
693.19	377.13
693.52	375.29
693.86	373.47
694.20	371.66
694.53	369.84
694.87	368.02
695.21	366.19
695.54	364.36
695.88	362.60
696.21	360.86
696.55	359.19
696.88	357.52
697.22	355.82
697.56	354.22
697.89	352.58
698.23	350.96
698.56	349.39
698.90	347.80
699.23	346.15
699.57	344.63
699.90	343.06
700.24	341.50
700.58	339.97
700.91	338.46
701.25	336.99
701.58	335.61
701.92	334.19
702.25	332.84
702.59	331.48
702.92	330.16
703.26	328.84
703.59	327.55
703.93	326.36
704.26	325.13
704.60	323.80
704.93	322.49
705.26	321.26
705.60	320.05
705.93	318.86
706.27	317.82
706.60	316.72
706.94	315.71
707.27	314.59
707.61	313.51
707.94	312.46
708.27	311.36
708.61	310.29
708.94	309.30
709.28	308.31
709.61	307.39
709.94	306.45
710.28	305.46
710.61	304.47
710.95	303.38
711.28	302.49
711.61	301.59
711.95	300.72
712.28	299.81
712.61	298.83
712.95	297.92
713.28	297.05
713.61	296.15
713.95	295.25
714.28	294.41
714.61	293.56
714.95	292.78
715.28	291.96
715.61	291.12
715.95	290.25
716.28	289.39
716.61	288.53
716.95	287.72
717.28	286.96
717.61	286.23
717.94	285.52
718.28	284.69
718.61	283.95
718.94	283.21
719.27	282.55
719.61	281.93
719.94	281.27
720.27	280.54
720.60	279.92
720.94	279.27
721.27	278.71
721.60	278.16
721.93	277.53
722.27	276.96
722.60	276.39
722.93	275.85
723.26	275.35
723.59	274.79
723.93	274.21
724.26	273.68
724.59	273.10
724.92	272.59
725.25	272.12
725.59	271.62
725.92	271.13
726.25	270.56
726.58	270.04
726.91	269.56
727.24	269.11
727.57	268.64
727.91	268.16
728.24	267.65
728.57	267.13
728.90	266.69
729.23	266.22
729.56	265.81
729.89	265.33
730.22	264.82
730.55	264.33
730.89	263.88
731.22	263.46
731.55	263.00
731.88	262.53
732.21	262.06
732.54	261.57
732.87	261.15
733.20	260.81
733.53	260.41
733.86	260.05
734.19	259.61
734.52	259.22
734.85	258.89
735.18	258.50
735.51	258.17
735.84	257.82
736.17	257.44
736.50	256.99
736.83	256.72
737.16	256.38
737.49	256.06
737.82	255.71
738.15	255.34
738.48	255.03
738.81	254.71
739.14	254.42
739.47	254.11
739.80	253.77
740.13	253.44
740.46	253.08
740.79	252.71
741.12	252.41
741.45	252.06
741.78	251.71
742.11	251.44
742.44	251.07
742.77	250.75
743.10	250.48
743.43	250.25
743.75	249.88
744.08	249.72
744.41	249.42
744.74	249.16
745.07	248.89
745.40	248.66
745.73	248.40
746.06	248.12
746.39	247.89
746.71	247.65
747.04	247.39
747.37	247.19
747.70	246.93
748.03	246.67
748.36	246.46
748.68	246.22
749.01	245.94
749.34	245.71
749.67	245.48
750.00	245.24
750.33	245.05
750.65	244.80
750.98	244.49
751.31	244.32
751.64	244.13
751.97	243.95
752.29	243.73
752.62	243.47
752.95	243.26
753.28	243.02
753.60	242.82
753.93	242.65
754.26	242.42
754.59	242.24
754.91	242.04
755.24	241.83
755.57	241.66
755.90	241.49
756.22	241.31
756.55	241.13
756.88	240.94
757.20	240.74
757.53	240.60
757.86	240.43
758.19	240.26
758.51	240.10
758.84	239.88
759.17	239.68
759.49	239.53
759.82	239.45
760.15	239.35
760.47	239.20
760.80	239.00
761.13	238.90
761.45	238.75
761.78	238.61
762.11	238.47
762.43	238.33
762.76	238.20
763.08	238.07
763.41	237.94
763.74	237.80
764.06	237.67
764.39	237.53
764.71	237.40
765.04	237.24
765.37	237.12
765.69	237.00
766.02	236.90
766.34	236.80
766.67	236.63
767.00	236.54
767.32	236.46
767.65	236.45
767.97	236.33
768.30	236.22
768.62	236.14
768.95	236.07
769.27	235.97
769.60	235.88
769.92	235.74
770.25	235.61
770.57	235.52
770.90	235.38
771.22	235.23
771.55	235.13
771.87	235.05
772.20	234.96
772.52	234.95
772.85	234.94
773.17	234.83
773.50	234.72
773.82	234.57
774.15	234.42
774.47	234.28
774.80	234.15
775.12	234.06
775.45	233.93
775.77	233.80
776.09	233.71
776.42	233.62
776.74	233.56
777.07	233.49
777.39	233.42
777.72	233.33
778.04	233.30
778.36	233.20
778.69	233.17
779.01	233.07
779.33	232.92
779.66	232.78
779.98	232.72
780.31	232.66
780.63	232.65
780.95	232.60
781.28	232.51
781.60	232.42
781.92	232.35
782.25	232.30
782.57	232.26
782.89	232.18
783.22	232.09
783.54	232.05
783.86	232.00
784.19	231.92
784.51	231.89
784.83	231.81
785.16	231.75
785.48	231.64
785.80	231.61
786.12	231.55
786.45	231.46
786.77	231.39
787.09	231.34
