SpectraSuite Data File
++++++++++++++++++++++++++++++++++++
Date: Fri Feb 01 14:52:55 EST 2013
User: group
Dark Spectrum Present: No
Reference Spectrum Present: No
Number of Sampled Component Spectra: 1
Spectrometers: USB2E7196
Integration Time (usec): 35000 (USB2E7196)
Spectra Averaged: 100 (USB2E7196)
Boxcar Smoothing: 10 (USB2E7196)
Correct for Electrical Dark: No (USB2E7196)
Strobe/Lamp Enabled: No (USB2E7196)
Correct for Detector Non-linearity: No (USB2E7196)
Correct for Stray Light: No (USB2E7196)
Number of Pixels in Processed Spectrum: 2048
>>>>>Begin Processed Spectral Data<<<<<
339.09	0.00
339.48	215.81
339.86	217.42
340.24	218.68
340.63	220.38
341.01	222.57
341.39	222.36
341.78	223.64
342.16	224.92
342.54	225.08
342.93	213.89
343.31	224.70
343.69	225.26
344.07	225.70
344.46	226.11
344.84	226.47
345.22	226.71
345.60	226.98
345.99	227.17
346.37	227.32
346.75	227.44
347.13	227.51
347.52	227.56
347.90	227.65
348.28	227.71
348.66	227.73
349.05	227.74
349.43	227.76
349.81	227.79
350.19	227.86
350.57	227.93
350.96	227.97
351.34	228.04
351.72	228.08
352.10	228.19
352.48	228.27
352.87	228.30
353.25	228.37
353.63	228.43
354.01	228.49
354.39	228.58
354.77	228.65
355.15	228.70
355.54	228.78
355.92	228.80
356.30	228.89
356.68	229.03
357.06	229.05
357.44	229.15
357.82	229.20
358.20	229.29
358.58	229.33
358.97	229.39
359.35	229.50
359.73	229.58
360.11	229.58
360.49	229.62
360.87	229.68
361.25	229.74
361.63	229.83
362.01	229.87
362.39	229.88
362.77	229.92
363.15	229.96
363.53	229.97
363.91	229.95
364.29	229.98
364.67	229.87
365.05	229.91
365.43	229.90
365.81	229.95
366.19	229.97
366.57	230.02
366.95	230.03
367.33	229.97
367.71	229.97
368.09	229.98
368.47	229.99
368.85	229.97
369.23	229.94
369.61	229.84
369.99	229.85
370.37	229.80
370.75	229.82
371.13	229.74
371.51	229.70
371.89	229.70
372.27	229.59
372.65	229.53
373.03	229.48
373.41	229.42
373.78	229.32
374.16	229.19
374.54	229.05
374.92	228.95
375.30	228.86
375.68	228.72
376.06	228.65
376.44	228.55
376.82	228.45
377.19	228.35
377.57	228.25
377.95	228.13
378.33	228.04
378.71	227.88
379.09	227.82
379.47	227.75
379.84	227.63
380.22	227.56
380.60	227.50
380.98	227.36
381.36	227.23
381.73	227.16
382.11	227.11
382.49	227.07
382.87	227.01
383.25	226.94
383.62	226.99
384.00	226.91
384.38	226.85
384.76	226.82
385.13	226.82
385.51	226.76
385.89	226.69
386.27	226.66
386.64	226.60
387.02	226.54
387.40	226.47
387.78	226.44
388.15	226.41
388.53	226.38
388.91	226.38
389.29	226.40
389.66	226.35
390.04	226.30
390.42	226.27
390.79	226.28
391.17	226.30
391.55	226.20
391.92	226.17
392.30	226.18
392.68	226.16
393.05	226.13
393.43	226.14
393.81	226.14
394.18	226.16
394.56	226.22
394.94	226.29
395.31	226.33
395.69	226.41
396.06	226.46
396.44	226.53
396.82	226.59
397.19	226.71
397.57	226.77
397.95	226.84
398.32	226.87
398.70	226.92
399.07	227.02
399.45	227.07
399.82	227.21
400.20	227.28
400.58	227.35
400.95	227.43
401.33	227.56
401.70	227.75
402.08	227.85
402.45	227.96
402.83	228.09
403.20	228.24
403.58	228.34
403.95	228.51
404.33	228.65
404.71	228.80
405.08	229.00
405.46	229.17
405.83	229.33
406.21	229.52
406.58	229.73
406.96	229.89
407.33	230.09
407.70	230.31
408.08	230.61
408.45	230.88
408.83	231.14
409.20	231.36
409.58	231.58
409.95	231.86
410.33	232.13
410.70	232.40
411.08	232.70
411.45	233.04
411.82	233.35
412.20	233.70
412.57	234.12
412.95	234.41
413.32	234.81
413.69	235.21
414.07	235.63
414.44	236.09
414.82	236.58
415.19	237.15
415.56	237.68
415.94	238.22
416.31	238.84
416.68	239.46
417.06	240.17
417.43	240.82
417.81	241.57
418.18	242.38
418.55	243.18
418.93	244.05
419.30	244.90
419.67	245.85
420.04	246.81
420.42	247.76
420.79	248.94
421.16	250.11
421.54	251.34
421.91	252.57
422.28	253.78
422.66	255.15
423.03	256.42
423.40	257.72
423.77	259.14
424.15	260.51
424.52	261.98
424.89	263.59
425.26	265.13
425.64	266.55
426.01	268.12
426.38	269.79
426.75	271.43
427.13	273.16
427.50	274.95
427.87	276.79
428.24	278.67
428.61	280.35
428.99	282.26
429.36	284.36
429.73	286.41
430.10	288.46
430.47	290.46
430.85	292.56
431.22	294.75
431.59	297.10
431.96	299.36
432.33	301.88
432.70	304.25
433.08	307.01
433.45	309.71
433.82	312.30
434.19	315.18
434.56	318.02
434.93	320.68
435.30	323.26
435.68	326.13
436.05	328.94
436.42	331.72
436.79	334.22
437.16	336.92
437.53	339.77
437.90	342.56
438.27	345.29
438.64	348.16
439.01	350.83
439.38	353.08
439.75	355.26
440.13	357.74
440.50	360.03
440.87	361.88
441.24	363.79
441.61	365.96
441.98	367.42
442.35	369.18
442.72	371.00
443.09	372.83
443.46	373.82
443.83	374.42
444.20	374.99
444.57	375.83
444.94	376.07
445.31	376.38
445.68	376.75
446.05	376.83
446.42	376.44
446.79	376.02
447.16	375.58
447.53	375.22
447.90	374.08
448.27	372.96
448.64	371.40
449.01	370.24
449.37	368.28
449.74	366.42
450.11	364.23
450.48	361.82
450.85	359.30
451.22	357.19
451.59	355.18
451.96	353.20
452.33	350.67
452.70	348.34
453.07	345.50
453.43	342.63
453.80	339.90
454.17	337.22
454.54	334.68
454.91	331.94
455.28	329.30
455.65	326.79
456.02	324.35
456.38	322.23
456.75	319.61
457.12	317.34
457.49	315.16
457.86	312.94
458.23	311.05
458.59	309.02
458.96	306.94
459.33	305.08
459.70	303.25
460.07	301.72
460.43	300.01
460.80	298.45
461.17	296.96
461.54	295.43
461.91	293.98
462.27	292.53
462.64	291.31
463.01	289.96
463.38	288.63
463.74	287.24
464.11	286.05
464.48	285.01
464.85	283.87
465.21	282.96
465.58	282.04
465.95	280.95
466.32	280.02
466.68	279.10
467.05	278.17
467.42	277.23
467.78	276.26
468.15	275.36
468.52	274.64
468.88	273.75
469.25	272.98
469.62	272.37
469.98	271.65
470.35	270.97
470.72	270.36
471.08	269.70
471.45	269.18
471.82	268.67
472.18	268.06
472.55	267.62
472.92	267.09
473.28	266.65
473.65	266.19
474.02	265.73
474.38	265.33
474.75	265.00
475.11	264.65
475.48	264.38
475.85	264.13
476.21	263.87
476.58	263.70
476.94	263.52
477.31	263.31
477.67	263.16
478.04	263.03
478.41	262.94
478.77	262.98
479.14	262.92
479.50	262.89
479.87	262.94
480.23	263.02
480.60	263.08
480.96	263.16
481.33	263.34
481.69	263.53
482.06	263.74
482.42	263.95
482.79	264.21
483.15	264.51
483.52	264.89
483.88	265.24
484.25	265.62
484.61	266.09
484.98	266.57
485.34	267.12
485.71	267.71
486.07	268.36
486.44	268.92
486.80	269.62
487.17	270.33
487.53	271.13
487.90	271.95
488.26	272.86
488.62	273.80
488.99	274.79
489.35	275.81
489.72	276.96
490.08	278.14
490.44	279.39
490.81	280.73
491.17	282.03
491.54	283.48
491.90	285.02
492.26	286.63
492.63	288.36
492.99	290.15
493.36	292.01
493.72	294.02
494.08	296.12
494.45	298.34
494.81	300.70
495.17	303.07
495.54	305.60
495.90	308.28
496.26	311.09
496.63	314.00
496.99	317.13
497.35	320.34
497.72	323.71
498.08	327.21
498.44	330.82
498.80	334.75
499.17	338.77
499.53	342.86
499.89	347.23
500.26	351.68
500.62	356.27
500.98	361.23
501.34	366.22
501.71	371.47
502.07	376.86
502.43	382.39
502.79	388.22
503.16	394.28
503.52	400.49
503.88	406.82
504.24	413.38
504.60	420.19
504.97	427.26
505.33	434.49
505.69	442.14
506.05	449.90
506.41	457.77
506.78	465.92
507.14	474.29
507.50	482.96
507.86	491.91
508.22	501.07
508.59	510.25
508.95	519.80
509.31	529.68
509.67	539.73
510.03	550.00
510.39	560.51
510.75	571.32
511.12	582.19
511.48	593.46
511.84	604.86
512.20	616.33
512.56	628.28
512.92	640.43
513.28	652.69
513.64	665.17
514.00	677.84
514.37	690.74
514.73	703.83
515.09	716.86
515.45	730.10
515.81	743.72
516.17	757.67
516.53	771.78
516.89	785.90
517.25	800.11
517.61	814.60
517.97	829.06
518.33	843.43
518.69	858.30
519.05	873.30
519.41	888.55
519.77	904.18
520.13	919.59
520.49	934.99
520.85	950.45
521.21	966.18
521.57	982.48
521.93	998.32
522.29	1014.71
522.65	1030.96
523.01	1047.26
523.37	1063.37
523.73	1079.63
524.09	1095.78
524.45	1112.09
524.81	1128.72
525.17	1145.60
525.53	1162.47
525.89	1179.41
526.25	1196.23
526.61	1212.75
526.97	1229.46
527.33	1245.90
527.68	1262.58
528.04	1279.21
528.40	1296.01
528.76	1313.17
529.12	1329.76
529.48	1346.65
529.84	1362.84
530.20	1379.47
530.56	1396.45
530.91	1413.76
531.27	1430.56
531.63	1447.16
531.99	1463.93
532.35	1480.08
532.71	1495.92
533.07	1512.44
533.42	1528.49
533.78	1544.62
534.14	1560.96
534.50	1576.27
534.86	1592.32
535.21	1607.52
535.57	1623.46
535.93	1638.85
536.29	1653.63
536.65	1668.87
537.00	1683.80
537.36	1699.12
537.72	1713.84
538.08	1728.45
538.44	1742.40
538.79	1756.40
539.15	1770.17
539.51	1783.93
539.87	1798.31
540.22	1812.09
540.58	1825.68
540.94	1838.87
541.29	1851.88
541.65	1864.63
542.01	1878.11
542.37	1890.43
542.72	1902.99
543.08	1914.82
543.44	1927.30
543.79	1938.75
544.15	1949.77
544.51	1961.27
544.87	1972.34
545.22	1983.28
545.58	1993.59
545.94	2003.42
546.29	2013.34
546.65	2023.09
547.01	2032.36
547.36	2041.05
547.72	2049.71
548.07	2057.80
548.43	2066.18
548.79	2074.04
549.14	2081.73
549.50	2089.04
549.86	2096.68
550.21	2103.85
550.57	2111.07
550.92	2117.82
551.28	2124.77
551.64	2131.69
551.99	2138.23
552.35	2144.32
552.70	2150.29
553.06	2156.10
553.41	2162.33
553.77	2168.34
554.13	2174.37
554.48	2180.38
554.84	2185.84
555.19	2190.91
555.55	2195.81
555.90	2200.16
556.26	2205.06
556.61	2209.58
556.97	2213.78
557.32	2217.92
557.68	2222.14
558.03	2226.29
558.39	2229.71
558.74	2234.22
559.10	2237.97
559.45	2241.48
559.81	2245.78
560.16	2249.47
560.52	2252.55
560.87	2255.99
561.23	2258.37
561.58	2261.26
561.94	2263.61
562.29	2266.00
562.64	2268.60
563.00	2271.19
563.35	2274.66
563.71	2277.65
564.06	2280.67
564.42	2283.40
564.77	2285.81
565.12	2288.03
565.48	2289.74
565.83	2291.36
566.19	2292.52
566.54	2293.42
566.89	2294.33
567.25	2294.57
567.60	2295.65
567.96	2297.15
568.31	2297.68
568.66	2298.50
569.02	2298.86
569.37	2299.16
569.72	2299.74
570.08	2299.66
570.43	2299.55
570.78	2298.61
571.14	2296.82
571.49	2295.23
571.84	2294.67
572.20	2292.94
572.55	2291.54
572.90	2289.64
573.26	2288.10
573.61	2286.15
573.96	2284.15
574.31	2280.98
574.67	2277.88
575.02	2274.12
575.37	2270.42
575.72	2266.49
576.08	2263.07
576.43	2259.51
576.78	2255.56
577.13	2252.07
577.49	2248.66
577.84	2244.94
578.19	2240.91
578.54	2237.11
578.90	2232.78
579.25	2227.14
579.60	2222.26
579.95	2217.05
580.30	2212.07
580.66	2206.74
581.01	2201.54
581.36	2196.46
581.71	2192.15
582.06	2187.47
582.42	2182.85
582.77	2177.54
583.12	2172.69
583.47	2167.85
583.82	2162.78
584.17	2157.35
584.53	2151.73
584.88	2146.14
585.23	2140.12
585.58	2134.58
585.93	2128.88
586.28	2123.95
586.63	2118.73
586.98	2113.52
587.34	2108.66
587.69	2103.64
588.04	2098.27
588.39	2092.48
588.74	2085.70
589.09	2079.46
589.44	2072.50
589.79	2066.17
590.14	2060.39
590.49	2053.68
590.84	2047.08
591.19	2040.68
591.54	2034.05
591.89	2026.56
592.25	2019.69
592.60	2012.55
592.95	2004.84
593.30	1997.42
593.65	1989.54
594.00	1982.21
594.35	1974.72
594.70	1966.62
595.05	1959.34
595.40	1952.03
595.75	1944.48
596.10	1938.21
596.45	1931.29
596.80	1925.05
597.15	1918.52
597.50	1911.55
597.85	1905.09
598.19	1898.39
598.54	1891.42
598.89	1884.84
599.24	1878.78
599.59	1871.97
599.94	1865.53
600.29	1859.31
600.64	1852.68
600.99	1845.33
601.34	1838.61
601.69	1831.67
602.04	1824.68
602.39	1817.32
602.74	1810.51
603.08	1803.73
603.43	1797.15
603.78	1789.91
604.13	1782.73
604.48	1775.48
604.83	1768.62
605.18	1761.75
605.53	1753.80
605.87	1745.80
606.22	1738.57
606.57	1730.68
606.92	1723.35
607.27	1716.14
607.62	1709.15
607.96	1701.93
608.31	1695.45
608.66	1687.78
609.01	1680.26
609.36	1672.90
609.70	1664.92
610.05	1656.93
610.40	1649.36
610.75	1640.99
611.10	1633.43
611.44	1625.15
611.79	1617.13
612.14	1608.41
612.49	1599.30
612.83	1590.99
613.18	1582.98
613.53	1574.84
613.88	1566.30
614.22	1558.14
614.57	1549.68
614.92	1541.78
615.27	1534.29
615.61	1525.87
615.96	1518.03
616.31	1510.53
616.65	1503.16
617.00	1495.67
617.35	1487.89
617.70	1479.60
618.04	1471.13
618.39	1462.91
618.74	1455.32
619.08	1447.17
619.43	1439.77
619.78	1432.91
620.12	1425.85
620.47	1418.28
620.82	1410.19
621.16	1402.89
621.51	1395.23
621.85	1387.76
622.20	1379.29
622.55	1371.11
622.89	1363.43
623.24	1355.89
623.59	1348.61
623.93	1341.11
624.28	1333.90
624.62	1326.61
624.97	1319.49
625.32	1312.82
625.66	1305.93
626.01	1298.75
626.35	1291.29
626.70	1283.45
627.04	1275.81
627.39	1268.06
627.73	1260.75
628.08	1253.95
628.43	1246.75
628.77	1239.55
629.12	1231.97
629.46	1224.93
629.81	1217.58
630.15	1210.47
630.50	1203.08
630.84	1195.01
631.19	1187.14
631.53	1179.74
631.88	1172.26
632.22	1164.77
632.57	1157.51
632.91	1149.96
633.26	1142.65
633.60	1135.44
633.95	1128.56
634.29	1121.64
634.64	1115.01
634.98	1107.78
635.32	1100.73
635.67	1094.25
636.01	1087.65
636.36	1080.88
636.70	1074.37
637.05	1067.82
637.39	1061.49
637.73	1055.09
638.08	1049.35
638.42	1043.52
638.77	1037.22
639.11	1030.60
639.45	1024.35
639.80	1017.77
640.14	1011.50
640.49	1005.09
640.83	998.91
641.17	992.76
641.52	986.45
641.86	980.18
642.20	974.44
642.55	968.24
642.89	961.89
643.23	955.51
643.58	949.91
643.92	943.84
644.26	937.91
644.61	931.85
644.95	925.91
645.29	919.28
645.64	912.63
645.98	906.20
646.32	900.55
646.66	894.47
647.01	888.82
647.35	883.18
647.69	877.40
648.04	871.83
648.38	866.10
648.72	860.19
649.06	854.16
649.41	848.29
649.75	842.30
650.09	836.29
650.43	830.47
650.78	824.36
651.12	818.37
651.46	812.65
651.80	806.94
652.14	801.50
652.49	796.20
652.83	790.96
653.17	785.35
653.51	779.57
653.85	774.25
654.20	768.59
654.54	762.62
654.88	756.89
655.22	751.06
655.56	745.34
655.90	739.89
656.25	734.71
656.59	729.39
656.93	724.38
657.27	719.34
657.61	713.96
657.95	708.92
658.29	703.95
658.64	698.77
658.98	693.51
659.32	688.17
659.66	683.00
660.00	677.75
660.34	672.91
660.68	668.06
661.02	663.11
661.36	658.47
661.70	654.09
662.05	649.79
662.39	645.57
662.73	641.15
663.07	636.88
663.41	632.40
663.75	627.95
664.09	623.44
664.43	619.08
664.77	615.05
665.11	610.88
665.45	606.80
665.79	602.71
666.13	598.60
666.47	594.53
666.81	590.44
667.15	586.40
667.49	582.40
667.83	578.58
668.17	574.68
668.51	570.68
668.85	566.68
669.19	562.92
669.53	559.06
669.87	555.31
670.21	551.68
670.55	548.13
670.89	544.73
671.23	541.35
671.57	537.92
671.91	534.46
672.25	531.00
672.58	527.55
672.92	524.26
673.26	521.21
673.60	518.10
673.94	515.08
674.28	512.20
674.62	509.36
674.96	506.43
675.30	503.58
675.64	500.71
675.97	498.01
676.31	495.17
676.65	492.33
676.99	489.69
677.33	486.82
677.67	484.04
678.01	481.07
678.34	478.18
678.68	475.33
679.02	472.53
679.36	469.75
679.70	467.04
680.04	464.26
680.37	461.39
680.71	458.67
681.05	456.07
681.39	453.44
681.73	450.87
682.06	448.34
682.40	445.75
682.74	443.22
683.08	440.68
683.42	438.09
683.75	435.62
684.09	433.09
684.43	430.67
684.77	428.26
685.10	425.93
685.44	423.62
685.78	421.36
686.12	419.15
686.45	416.93
686.79	414.65
687.13	412.56
687.46	410.46
687.80	408.29
688.14	406.10
688.48	404.06
688.81	401.87
689.15	399.76
689.49	397.70
689.82	395.68
690.16	393.60
690.50	391.72
690.83	389.77
691.17	387.77
691.51	385.90
691.84	384.08
692.18	382.18
692.52	380.20
692.85	378.27
693.19	376.38
693.52	374.59
693.86	372.79
694.20	370.99
694.53	369.22
694.87	367.38
695.21	365.63
695.54	363.77
695.88	362.03
696.21	360.28
696.55	358.56
696.88	356.87
697.22	355.22
697.56	353.57
697.89	351.93
698.23	350.32
698.56	348.73
698.90	347.13
699.23	345.51
699.57	343.96
699.90	342.45
700.24	340.91
700.58	339.38
700.91	337.93
701.25	336.49
701.58	335.12
701.92	333.80
702.25	332.42
702.59	331.07
702.92	329.74
703.26	328.49
703.59	327.24
703.93	326.05
704.26	324.83
704.60	323.54
704.93	322.31
705.26	321.09
705.60	319.89
705.93	318.78
706.27	317.74
706.60	316.73
706.94	315.69
707.27	314.61
707.61	313.57
707.94	312.55
708.27	311.46
708.61	310.41
708.94	309.44
709.28	308.46
709.61	307.55
709.94	306.60
710.28	305.54
710.61	304.58
710.95	303.55
711.28	302.69
711.61	301.77
711.95	300.86
712.28	299.95
712.61	299.01
712.95	298.10
713.28	297.27
713.61	296.40
713.95	295.51
714.28	294.68
714.61	293.84
714.95	293.00
715.28	292.20
715.61	291.34
715.95	290.49
716.28	289.67
716.61	288.86
716.95	288.10
717.28	287.37
717.61	286.63
717.94	285.90
718.28	285.10
718.61	284.38
718.94	283.73
719.27	283.08
719.61	282.43
719.94	281.76
720.27	281.04
720.60	280.37
720.94	279.77
721.27	279.18
721.60	278.58
721.93	277.99
722.27	277.44
722.60	276.86
722.93	276.30
723.26	275.71
723.59	275.13
723.93	274.60
724.26	274.05
724.59	273.46
724.92	272.95
725.25	272.43
725.59	271.93
725.92	271.39
726.25	270.84
726.58	270.35
726.91	269.82
727.24	269.35
727.57	268.88
727.91	268.37
728.24	267.94
728.57	267.49
728.90	267.08
729.23	266.60
729.56	266.21
729.89	265.71
730.22	265.28
730.55	264.83
730.89	264.36
731.22	263.91
731.55	263.51
731.88	263.07
732.21	262.65
732.54	262.18
732.87	261.77
733.20	261.44
733.53	261.03
733.86	260.68
734.19	260.26
734.52	259.90
734.85	259.58
735.18	259.10
735.51	258.68
735.84	258.24
736.17	257.87
736.50	257.43
736.83	257.19
737.16	256.84
737.49	256.51
737.82	256.15
738.15	255.84
738.48	255.50
738.81	255.15
739.14	254.81
739.47	254.51
739.80	254.20
740.13	253.85
740.46	253.49
740.79	253.15
741.12	252.86
741.45	252.49
741.78	252.15
742.11	251.87
742.44	251.53
742.77	251.26
743.10	250.96
743.43	250.67
743.75	250.31
744.08	250.18
744.41	249.90
744.74	249.62
745.07	249.36
745.40	249.11
745.73	248.88
746.06	248.62
746.39	248.37
746.71	248.09
747.04	247.81
747.37	247.59
747.70	247.35
748.03	247.10
748.36	246.91
748.68	246.67
749.01	246.43
749.34	246.28
749.67	246.03
750.00	245.81
750.33	245.67
750.65	245.46
750.98	245.10
751.31	244.88
751.64	244.70
751.97	244.55
752.29	244.34
752.62	244.09
752.95	243.91
753.28	243.69
753.60	243.49
753.93	243.35
754.26	243.16
754.59	242.93
754.91	242.72
755.24	242.50
755.57	242.35
755.90	242.19
756.22	241.97
756.55	241.81
756.88	241.64
757.20	241.40
757.53	241.18
757.86	241.04
758.19	240.89
758.51	240.72
758.84	240.50
759.17	240.35
759.49	240.23
759.82	240.10
760.15	239.98
760.47	239.85
760.80	239.66
761.13	239.54
761.45	239.43
761.78	239.27
762.11	239.14
762.43	238.99
762.76	238.84
763.08	238.71
763.41	238.60
763.74	238.48
764.06	238.35
764.39	238.24
764.71	238.09
765.04	237.94
765.37	237.80
765.69	237.66
766.02	237.53
766.34	237.40
766.67	237.23
767.00	237.10
767.32	237.04
767.65	236.98
767.97	236.86
768.30	236.75
768.62	236.68
768.95	236.57
769.27	236.46
769.60	236.36
769.92	236.25
770.25	236.12
770.57	235.99
770.90	235.93
771.22	235.82
771.55	235.72
771.87	235.63
772.20	235.57
772.52	235.59
772.85	235.59
773.17	235.46
773.50	235.40
773.82	235.31
774.15	235.15
774.47	235.02
774.80	234.90
775.12	234.82
775.45	234.76
775.77	234.65
776.09	234.60
776.42	234.49
776.74	234.43
777.07	234.34
777.39	234.23
777.72	234.12
778.04	234.07
778.36	234.00
778.69	233.91
779.01	233.82
779.33	233.65
779.66	233.48
779.98	233.44
780.31	233.34
780.63	233.31
780.95	233.25
781.28	233.18
781.60	233.12
781.92	233.04
782.25	232.99
782.57	232.92
782.89	232.80
783.22	232.75
783.54	232.67
783.86	232.63
784.19	232.58
784.51	232.55
784.83	232.49
785.16	232.44
785.48	232.46
785.80	232.41
786.12	232.38
786.45	232.31
786.77	232.27
787.09	232.25
