SpectraSuite Data File
++++++++++++++++++++++++++++++++++++
Date: Fri Feb 01 15:23:40 EST 2013
User: group
Dark Spectrum Present: No
Reference Spectrum Present: No
Number of Sampled Component Spectra: 1
Spectrometers: USB2E7196
Integration Time (usec): 35000 (USB2E7196)
Spectra Averaged: 100 (USB2E7196)
Boxcar Smoothing: 10 (USB2E7196)
Correct for Electrical Dark: No (USB2E7196)
Strobe/Lamp Enabled: No (USB2E7196)
Correct for Detector Non-linearity: No (USB2E7196)
Correct for Stray Light: No (USB2E7196)
Number of Pixels in Processed Spectrum: 2048
>>>>>Begin Processed Spectral Data<<<<<
339.09	0.00
339.48	215.16
339.86	216.20
340.24	217.94
340.63	219.43
341.01	222.14
341.39	222.23
341.78	223.18
342.16	224.68
342.54	224.96
342.93	213.39
343.31	224.17
343.69	224.72
344.07	225.22
344.46	225.63
344.84	226.02
345.22	226.25
345.60	226.49
345.99	226.70
346.37	226.83
346.75	226.94
347.13	227.00
347.52	227.07
347.90	227.15
348.28	227.15
348.66	227.20
349.05	227.22
349.43	227.21
349.81	227.25
350.19	227.29
350.57	227.38
350.96	227.43
351.34	227.55
351.72	227.61
352.10	227.68
352.48	227.76
352.87	227.78
353.25	227.84
353.63	227.91
354.01	227.96
354.39	228.03
354.77	228.13
355.15	228.22
355.54	228.26
355.92	228.30
356.30	228.38
356.68	228.53
357.06	228.58
357.44	228.64
357.82	228.70
358.20	228.76
358.58	228.78
358.97	228.82
359.35	228.85
359.73	228.92
360.11	228.99
360.49	229.04
360.87	229.08
361.25	229.15
361.63	229.21
362.01	229.27
362.39	229.30
362.77	229.31
363.15	229.34
363.53	229.37
363.91	229.37
364.29	229.39
364.67	229.27
365.05	229.29
365.43	229.31
365.81	229.31
366.19	229.35
366.57	229.40
366.95	229.40
367.33	229.35
367.71	229.33
368.09	229.28
368.47	229.28
368.85	229.26
369.23	229.27
369.61	229.19
369.99	229.18
370.37	229.17
370.75	229.17
371.13	229.11
371.51	229.05
371.89	229.02
372.27	228.98
372.65	228.95
373.03	228.89
373.41	228.85
373.78	228.79
374.16	228.66
374.54	228.57
374.92	228.48
375.30	228.43
375.68	228.36
376.06	228.32
376.44	228.23
376.82	228.19
377.19	228.08
377.57	228.05
377.95	227.91
378.33	227.81
378.71	227.67
379.09	227.62
379.47	227.58
379.84	227.50
380.22	227.41
380.60	227.30
380.98	227.24
381.36	227.19
381.73	227.15
382.11	227.10
382.49	227.04
382.87	226.99
383.25	226.94
383.62	226.95
384.00	226.87
384.38	226.83
384.76	226.78
385.13	226.76
385.51	226.67
385.89	226.63
386.27	226.59
386.64	226.57
387.02	226.50
387.40	226.44
387.78	226.40
388.15	226.37
388.53	226.36
388.91	226.34
389.29	226.29
389.66	226.24
390.04	226.20
390.42	226.17
390.79	226.17
391.17	226.15
391.55	226.08
391.92	226.07
392.30	226.06
392.68	226.05
393.05	226.07
393.43	226.11
393.81	226.15
394.18	226.13
394.56	226.17
394.94	226.21
395.31	226.25
395.69	226.32
396.06	226.37
396.44	226.42
396.82	226.48
397.19	226.58
397.57	226.68
397.95	226.76
398.32	226.84
398.70	226.91
399.07	227.01
399.45	227.05
399.82	227.15
400.20	227.24
400.58	227.34
400.95	227.40
401.33	227.52
401.70	227.64
402.08	227.73
402.45	227.80
402.83	227.96
403.20	228.08
403.58	228.20
403.95	228.34
404.33	228.49
404.71	228.62
405.08	228.77
405.46	228.88
405.83	229.05
406.21	229.20
406.58	229.37
406.96	229.54
407.33	229.75
407.70	229.93
408.08	230.20
408.45	230.44
408.83	230.66
409.20	230.86
409.58	231.08
409.95	231.38
410.33	231.67
410.70	231.87
411.08	232.20
411.45	232.53
411.82	232.84
412.20	233.20
412.57	233.64
412.95	233.96
413.32	234.37
413.69	234.78
414.07	235.24
414.44	235.68
414.82	236.16
415.19	236.66
415.56	237.21
415.94	237.76
416.31	238.36
416.68	239.00
417.06	239.73
417.43	240.42
417.81	241.17
418.18	241.95
418.55	242.80
418.93	243.62
419.30	244.50
419.67	245.40
420.04	246.34
420.42	247.29
420.79	248.46
421.16	249.60
421.54	250.80
421.91	251.96
422.28	253.22
422.66	254.54
423.03	255.90
423.40	257.22
423.77	258.62
424.15	260.04
424.52	261.48
424.89	263.08
425.26	264.59
425.64	266.07
426.01	267.69
426.38	269.36
426.75	271.07
427.13	272.79
427.50	274.61
427.87	276.51
428.24	278.40
428.61	280.15
428.99	282.10
429.36	284.17
429.73	286.27
430.10	288.34
430.47	290.40
430.85	292.51
431.22	294.76
431.59	297.14
431.96	299.42
432.33	301.93
432.70	304.33
433.08	307.13
433.45	309.75
433.82	312.39
434.19	315.26
434.56	318.10
434.93	320.78
435.30	323.39
435.68	326.30
436.05	329.15
436.42	331.97
436.79	334.48
437.16	337.24
437.53	340.08
437.90	342.87
438.27	345.66
438.64	348.47
439.01	351.06
439.38	353.30
439.75	355.48
440.13	358.01
440.50	360.33
440.87	362.21
441.24	364.16
441.61	366.29
441.98	367.78
442.35	369.55
442.72	371.38
443.09	373.25
443.46	374.18
443.83	374.76
444.20	375.26
444.57	376.08
444.94	376.31
445.31	376.66
445.68	377.05
446.05	377.13
446.42	376.75
446.79	376.32
447.16	375.89
447.53	375.59
447.90	374.38
448.27	373.20
448.64	371.59
449.01	370.47
449.37	368.49
449.74	366.60
450.11	364.33
450.48	361.84
450.85	359.26
451.22	357.20
451.59	355.17
451.96	353.20
452.33	350.58
452.70	348.20
453.07	345.36
453.43	342.43
453.80	339.62
454.17	336.96
454.54	334.39
454.91	331.62
455.28	328.87
455.65	326.39
456.02	323.94
456.38	321.80
456.75	319.10
457.12	316.84
457.49	314.59
457.86	312.41
458.23	310.60
458.59	308.53
458.96	306.40
459.33	304.52
459.70	302.65
460.07	301.16
460.43	299.48
460.80	297.83
461.17	296.37
461.54	294.84
461.91	293.43
462.27	292.00
462.64	290.78
463.01	289.47
463.38	288.16
463.74	286.78
464.11	285.61
464.48	284.59
464.85	283.49
465.21	282.64
465.58	281.72
465.95	280.60
466.32	279.69
466.68	278.78
467.05	277.89
467.42	277.00
467.78	276.07
468.15	275.19
468.52	274.53
468.88	273.68
469.25	272.90
469.62	272.22
469.98	271.54
470.35	270.87
470.72	270.23
471.08	269.56
471.45	269.05
471.82	268.50
472.18	267.88
472.55	267.42
472.92	266.87
473.28	266.39
473.65	265.92
474.02	265.48
474.38	265.12
474.75	264.79
475.11	264.42
475.48	264.12
475.85	263.85
476.21	263.60
476.58	263.40
476.94	263.26
477.31	263.13
477.67	262.99
478.04	262.89
478.41	262.84
478.77	262.89
479.14	262.82
479.50	262.83
479.87	262.96
480.23	263.00
480.60	263.09
480.96	263.18
481.33	263.40
481.69	263.61
482.06	263.80
482.42	263.99
482.79	264.29
483.15	264.63
483.52	265.02
483.88	265.40
484.25	265.81
484.61	266.20
484.98	266.64
485.34	267.22
485.71	267.81
486.07	268.43
486.44	269.00
486.80	269.73
487.17	270.43
487.53	271.19
487.90	272.04
488.26	272.97
488.62	273.97
488.99	274.92
489.35	275.94
489.72	277.06
490.08	278.30
490.44	279.50
490.81	280.83
491.17	282.21
491.54	283.66
491.90	285.21
492.26	286.85
492.63	288.59
492.99	290.35
493.36	292.21
493.72	294.28
494.08	296.39
494.45	298.60
494.81	300.98
495.17	303.41
495.54	306.02
495.90	308.66
496.26	311.45
496.63	314.41
496.99	317.54
497.35	320.79
497.72	324.15
498.08	327.66
498.44	331.35
498.80	335.23
499.17	339.31
499.53	343.43
499.89	347.85
500.26	352.34
500.62	357.03
500.98	362.00
501.34	367.04
501.71	372.34
502.07	377.80
502.43	383.36
502.79	389.17
503.16	395.22
503.52	401.54
503.88	407.98
504.24	414.66
504.60	421.45
504.97	428.56
505.33	435.92
505.69	443.64
506.05	451.39
506.41	459.31
506.78	467.45
507.14	475.94
507.50	484.59
507.86	493.59
508.22	502.75
508.59	511.95
508.95	521.50
509.31	531.34
509.67	541.40
510.03	551.73
510.39	562.27
510.75	573.09
511.12	584.05
511.48	595.32
511.84	606.78
512.20	618.39
512.56	630.43
512.92	642.57
513.28	654.91
513.64	667.48
514.00	680.20
514.37	693.13
514.73	706.14
515.09	719.27
515.45	732.54
515.81	746.21
516.17	760.14
516.53	774.29
516.89	788.42
517.25	802.68
517.61	817.13
517.97	831.69
518.33	846.07
518.69	860.78
519.05	875.77
519.41	890.89
519.77	906.56
520.13	921.94
520.49	937.39
520.85	952.81
521.21	968.44
521.57	984.69
521.93	1000.49
522.29	1016.85
522.65	1033.10
523.01	1049.41
523.37	1065.40
523.73	1081.66
524.09	1097.85
524.45	1114.22
524.81	1130.94
525.17	1147.84
525.53	1164.80
525.89	1181.82
526.25	1198.81
526.61	1215.25
526.97	1232.01
527.33	1248.42
527.68	1265.22
528.04	1281.78
528.40	1298.53
528.76	1315.77
529.12	1332.43
529.48	1349.41
529.84	1365.61
530.20	1382.32
530.56	1399.47
530.91	1416.98
531.27	1433.89
531.63	1450.45
531.99	1467.14
532.35	1483.15
532.71	1499.13
533.07	1515.40
533.42	1531.31
533.78	1547.36
534.14	1563.73
534.50	1579.17
534.86	1595.13
535.21	1610.35
535.57	1626.28
535.93	1641.80
536.29	1656.47
536.65	1671.65
537.00	1686.47
537.36	1701.83
537.72	1716.55
538.08	1730.93
538.44	1744.86
538.79	1758.90
539.15	1772.73
539.51	1786.53
539.87	1800.92
540.22	1814.64
540.58	1828.54
540.94	1842.11
541.29	1855.24
541.65	1867.99
542.01	1881.37
542.37	1893.75
542.72	1906.13
543.08	1917.96
543.44	1930.41
543.79	1941.76
544.15	1952.79
544.51	1964.39
544.87	1975.44
545.22	1986.12
545.58	1996.38
545.94	2006.10
546.29	2015.84
546.65	2025.54
547.01	2034.70
547.36	2043.49
547.72	2052.02
548.07	2059.81
548.43	2067.89
548.79	2075.82
549.14	2083.30
549.50	2090.62
549.86	2098.29
550.21	2105.68
550.57	2112.94
550.92	2119.50
551.28	2126.62
551.64	2133.67
551.99	2140.31
552.35	2146.31
552.70	2152.53
553.06	2158.57
553.41	2164.98
553.77	2171.07
554.13	2177.09
554.48	2183.26
554.84	2188.55
555.19	2193.87
555.55	2199.00
555.90	2203.50
556.26	2208.32
556.61	2213.21
556.97	2217.36
557.32	2221.55
557.68	2225.61
558.03	2229.93
558.39	2233.78
558.74	2238.44
559.10	2242.26
559.45	2245.86
559.81	2250.33
560.16	2254.09
560.52	2257.27
560.87	2260.68
561.23	2263.29
561.58	2266.32
561.94	2268.88
562.29	2271.31
562.64	2274.00
563.00	2276.66
563.35	2280.10
563.71	2283.21
564.06	2286.27
564.42	2289.27
564.77	2291.69
565.12	2293.97
565.48	2295.72
565.83	2297.24
566.19	2298.43
566.54	2299.48
566.89	2300.55
567.25	2301.03
567.60	2302.43
567.96	2304.17
568.31	2304.98
568.66	2305.96
569.02	2306.54
569.37	2306.86
569.72	2307.64
570.08	2307.70
570.43	2307.65
570.78	2306.97
571.14	2305.39
571.49	2304.05
571.84	2303.57
572.20	2302.45
572.55	2301.40
572.90	2299.90
573.26	2298.64
573.61	2297.07
573.96	2295.02
574.31	2291.97
574.67	2288.91
575.02	2285.10
575.37	2281.65
575.72	2277.59
576.08	2274.37
576.43	2271.02
576.78	2267.31
577.13	2264.21
577.49	2261.03
577.84	2257.52
578.19	2253.71
578.54	2249.96
578.90	2245.77
579.25	2240.25
579.60	2235.05
579.95	2230.07
580.30	2225.01
580.66	2219.86
581.01	2214.69
581.36	2209.82
581.71	2205.50
582.06	2200.92
582.42	2196.33
582.77	2190.99
583.12	2186.34
583.47	2181.40
583.82	2176.17
584.17	2170.87
584.53	2165.23
584.88	2159.56
585.23	2153.64
585.58	2148.14
585.93	2142.75
586.28	2137.82
586.63	2132.53
586.98	2127.42
587.34	2122.58
587.69	2117.53
588.04	2112.24
588.39	2106.43
588.74	2099.96
589.09	2093.77
589.44	2086.99
589.79	2081.08
590.14	2075.27
590.49	2068.81
590.84	2062.43
591.19	2056.40
591.54	2049.84
591.89	2042.30
592.25	2035.39
592.60	2028.16
592.95	2020.38
593.30	2012.80
593.65	2005.08
594.00	1998.03
594.35	1990.71
594.70	1982.52
595.05	1975.20
595.40	1967.72
595.75	1960.19
596.10	1953.72
596.45	1946.83
596.80	1940.56
597.15	1933.65
597.50	1926.39
597.85	1919.85
598.19	1913.07
598.54	1905.79
598.89	1899.12
599.24	1893.27
599.59	1886.37
599.94	1880.11
600.29	1873.89
600.64	1867.36
600.99	1859.84
601.34	1852.92
601.69	1845.95
602.04	1839.04
602.39	1831.60
602.74	1824.74
603.08	1818.04
603.43	1811.38
603.78	1804.19
604.13	1797.03
604.48	1789.79
604.83	1783.12
605.18	1776.02
605.53	1767.96
605.87	1759.92
606.22	1752.66
606.57	1744.61
606.92	1737.37
607.27	1730.08
607.62	1723.09
607.96	1715.68
608.31	1709.03
608.66	1701.36
609.01	1693.77
609.36	1686.10
609.70	1678.07
610.05	1669.93
610.40	1662.11
610.75	1653.62
611.10	1645.88
611.44	1637.43
611.79	1629.45
612.14	1620.78
612.49	1611.71
612.83	1603.36
613.18	1595.38
613.53	1587.30
613.88	1578.69
614.22	1570.53
614.57	1562.14
614.92	1554.01
615.27	1546.38
615.61	1538.07
615.96	1530.07
616.31	1522.55
616.65	1515.24
617.00	1507.72
617.35	1500.14
617.70	1491.73
618.04	1483.22
618.39	1475.00
618.74	1467.31
619.08	1459.01
619.43	1451.35
619.78	1444.38
620.12	1437.19
620.47	1429.60
620.82	1421.35
621.16	1414.09
621.51	1406.37
621.85	1398.68
622.20	1390.20
622.55	1381.97
622.89	1374.19
623.24	1366.67
623.59	1359.21
623.93	1351.67
624.28	1344.56
624.62	1336.94
624.97	1329.95
625.32	1323.37
625.66	1316.38
626.01	1309.18
626.35	1301.71
626.70	1294.01
627.04	1286.24
627.39	1278.62
627.73	1271.15
628.08	1264.23
628.43	1256.83
628.77	1249.45
629.12	1241.80
629.46	1234.71
629.81	1227.28
630.15	1220.03
630.50	1212.59
630.84	1204.39
631.19	1196.47
631.53	1188.89
631.88	1181.38
632.22	1173.68
632.57	1166.36
632.91	1158.76
633.26	1151.38
633.60	1144.05
633.95	1136.99
634.29	1130.07
634.64	1123.25
634.98	1115.98
635.32	1108.88
635.67	1102.44
636.01	1095.79
636.36	1088.93
636.70	1082.35
637.05	1075.74
637.39	1069.26
637.73	1062.74
638.08	1057.01
638.42	1051.11
638.77	1044.60
639.11	1037.99
639.45	1031.58
639.80	1024.73
640.14	1018.29
640.49	1011.77
640.83	1005.46
641.17	999.21
641.52	992.80
641.86	986.39
642.20	980.63
642.55	974.37
642.89	967.71
643.23	961.24
643.58	955.51
643.92	949.34
644.26	943.31
644.61	937.36
644.95	931.38
645.29	924.62
645.64	917.82
645.98	911.60
646.32	905.78
646.66	899.78
647.01	894.12
647.35	888.49
647.69	882.68
648.04	877.14
648.38	871.35
648.72	865.36
649.06	859.33
649.41	853.35
649.75	847.35
650.09	841.50
650.43	835.66
650.78	829.55
651.12	823.65
651.46	817.97
651.80	812.14
652.14	806.67
652.49	801.39
652.83	796.21
653.17	790.46
653.51	784.69
653.85	779.34
654.20	773.71
654.54	767.71
654.88	762.02
655.22	756.17
655.56	750.46
655.90	745.05
656.25	739.80
656.59	734.44
656.93	729.27
657.27	724.08
657.61	718.66
657.95	713.55
658.29	708.44
658.64	703.25
658.98	697.89
659.32	692.45
659.66	687.20
660.00	681.83
660.34	676.87
660.68	672.01
661.02	666.98
661.36	662.22
661.70	657.77
662.05	653.43
662.39	649.09
662.73	644.62
663.07	640.24
663.41	635.77
663.75	631.29
664.09	626.80
664.43	622.55
664.77	618.41
665.11	614.19
665.45	610.14
665.79	606.02
666.13	601.98
666.47	597.92
666.81	593.72
667.15	589.64
667.49	585.80
667.83	582.03
668.17	578.05
668.51	573.95
668.85	569.91
669.19	566.02
669.53	562.12
669.87	558.25
670.21	554.55
670.55	550.93
670.89	547.58
671.23	544.13
671.57	540.59
671.91	537.10
672.25	533.53
672.58	529.95
672.92	526.53
673.26	523.35
673.60	520.22
673.94	517.15
674.28	514.28
674.62	511.34
674.96	508.29
675.30	505.42
675.64	502.56
675.97	499.82
676.31	496.97
676.65	494.07
676.99	491.39
677.33	488.56
677.67	485.72
678.01	482.67
678.34	479.68
678.68	476.80
679.02	473.93
679.36	471.22
679.70	468.47
680.04	465.71
680.37	462.78
680.71	460.00
681.05	457.38
681.39	454.70
681.73	452.05
682.06	449.46
682.40	446.88
682.74	444.35
683.08	441.74
683.42	439.09
683.75	436.65
684.09	434.11
684.43	431.64
684.77	429.24
685.10	426.87
685.44	424.59
685.78	422.35
686.12	420.14
686.45	417.86
686.79	415.61
687.13	413.46
687.46	411.37
687.80	409.24
688.14	407.04
688.48	404.97
688.81	402.71
689.15	400.60
689.49	398.48
689.82	396.42
690.16	394.34
690.50	392.46
690.83	390.48
691.17	388.49
691.51	386.56
691.84	384.71
692.18	382.78
692.52	380.79
692.85	378.83
693.19	376.97
693.52	375.18
693.86	373.38
694.20	371.60
694.53	369.79
694.87	368.00
695.21	366.26
695.54	364.43
695.88	362.74
696.21	361.01
696.55	359.37
696.88	357.72
697.22	356.12
697.56	354.50
697.89	352.86
698.23	351.25
698.56	349.67
698.90	348.05
699.23	346.43
699.57	344.90
699.90	343.35
700.24	341.80
700.58	340.25
700.91	338.72
701.25	337.26
701.58	335.89
701.92	334.49
702.25	333.09
702.59	331.77
702.92	330.41
703.26	329.12
703.59	327.84
703.93	326.66
704.26	325.41
704.60	324.11
704.93	322.84
705.26	321.62
705.60	320.46
705.93	319.31
706.27	318.30
706.60	317.21
706.94	316.13
707.27	315.03
707.61	313.97
707.94	313.00
708.27	311.91
708.61	310.85
708.94	309.84
709.28	308.84
709.61	307.85
709.94	306.89
710.28	305.84
710.61	304.87
710.95	303.75
711.28	302.83
711.61	301.87
711.95	300.96
712.28	300.03
712.61	299.05
712.95	298.12
713.28	297.20
713.61	296.37
713.95	295.50
714.28	294.65
714.61	293.77
714.95	292.92
715.28	292.05
715.61	291.20
715.95	290.33
716.28	289.51
716.61	288.69
716.95	287.88
717.28	287.12
717.61	286.36
717.94	285.63
718.28	284.87
718.61	284.20
718.94	283.50
719.27	282.85
719.61	282.22
719.94	281.54
720.27	280.84
720.60	280.17
720.94	279.56
721.27	278.97
721.60	278.42
721.93	277.80
722.27	277.24
722.60	276.68
722.93	276.08
723.26	275.56
723.59	274.97
723.93	274.45
724.26	273.92
724.59	273.33
724.92	272.81
725.25	272.28
725.59	271.74
725.92	271.20
726.25	270.68
726.58	270.17
726.91	269.64
727.24	269.20
727.57	268.72
727.91	268.20
728.24	267.73
728.57	267.20
728.90	266.77
729.23	266.31
729.56	265.87
729.89	265.43
730.22	264.93
730.55	264.48
730.89	264.04
731.22	263.58
731.55	263.18
731.88	262.76
732.21	262.30
732.54	261.87
732.87	261.44
733.20	261.05
733.53	260.63
733.86	260.28
734.19	259.87
734.52	259.50
734.85	259.19
735.18	258.74
735.51	258.42
735.84	258.01
736.17	257.66
736.50	257.25
736.83	257.00
737.16	256.68
737.49	256.33
737.82	255.98
738.15	255.69
738.48	255.37
738.81	255.02
739.14	254.72
739.47	254.41
739.80	254.10
740.13	253.81
740.46	253.49
740.79	253.22
741.12	252.89
741.45	252.58
741.78	252.22
742.11	251.97
742.44	251.64
742.77	251.39
743.10	251.08
743.43	250.80
743.75	250.42
744.08	250.27
744.41	250.03
744.74	249.77
745.07	249.41
745.40	249.16
745.73	248.95
746.06	248.64
746.39	248.37
746.71	248.10
747.04	247.81
747.37	247.55
747.70	247.25
748.03	247.02
748.36	246.79
748.68	246.53
749.01	246.25
749.34	246.02
749.67	245.76
750.00	245.53
750.33	245.35
750.65	245.12
750.98	244.73
751.31	244.52
751.64	244.34
751.97	244.21
752.29	243.97
752.62	243.72
752.95	243.54
753.28	243.32
753.60	243.12
753.93	242.94
754.26	242.77
754.59	242.53
754.91	242.32
755.24	242.08
755.57	241.90
755.90	241.71
756.22	241.53
756.55	241.34
756.88	241.14
757.20	240.92
757.53	240.77
757.86	240.64
758.19	240.47
758.51	240.27
758.84	240.08
759.17	239.93
759.49	239.77
759.82	239.68
760.15	239.51
760.47	239.37
760.80	239.18
761.13	239.07
761.45	238.94
761.78	238.82
762.11	238.70
762.43	238.57
762.76	238.45
763.08	238.33
763.41	238.21
763.74	238.09
764.06	237.94
764.39	237.78
764.71	237.62
765.04	237.49
765.37	237.38
765.69	237.24
766.02	237.08
766.34	236.94
766.67	236.77
767.00	236.72
767.32	236.65
767.65	236.60
767.97	236.47
768.30	236.38
768.62	236.23
768.95	236.10
769.27	235.98
769.60	235.88
769.92	235.77
770.25	235.66
770.57	235.55
770.90	235.46
771.22	235.39
771.55	235.33
771.87	235.26
772.20	235.13
772.52	235.10
772.85	235.16
773.17	235.06
773.50	235.00
773.82	234.86
774.15	234.72
774.47	234.58
774.80	234.48
775.12	234.39
775.45	234.31
775.77	234.25
776.09	234.17
776.42	234.10
776.74	234.04
777.07	233.95
777.39	233.88
777.72	233.80
778.04	233.72
778.36	233.62
778.69	233.54
779.01	233.49
779.33	233.36
779.66	233.19
779.98	233.14
780.31	233.07
780.63	233.05
780.95	233.04
781.28	232.96
781.60	232.91
781.92	232.86
782.25	232.81
782.57	232.75
782.89	232.68
783.22	232.59
783.54	232.52
783.86	232.49
784.19	232.43
784.51	232.40
784.83	232.36
785.16	232.29
785.48	232.19
785.80	232.15
786.12	232.07
786.45	232.02
786.77	231.93
787.09	231.84
