SpectraSuite Data File
++++++++++++++++++++++++++++++++++++
Date: Fri Feb 01 15:15:42 EST 2013
User: group
Dark Spectrum Present: No
Reference Spectrum Present: No
Number of Sampled Component Spectra: 1
Spectrometers: USB2E7196
Integration Time (usec): 35000 (USB2E7196)
Spectra Averaged: 100 (USB2E7196)
Boxcar Smoothing: 10 (USB2E7196)
Correct for Electrical Dark: No (USB2E7196)
Strobe/Lamp Enabled: No (USB2E7196)
Correct for Detector Non-linearity: No (USB2E7196)
Correct for Stray Light: No (USB2E7196)
Number of Pixels in Processed Spectrum: 2048
>>>>>Begin Processed Spectral Data<<<<<
339.09	0.00
339.48	215.61
339.86	216.31
340.24	217.63
340.63	219.43
341.01	222.05
341.39	222.41
341.78	223.62
342.16	224.28
342.54	224.42
342.93	213.59
343.31	224.41
343.69	224.94
344.07	225.42
344.46	225.86
344.84	226.24
345.22	226.48
345.60	226.72
345.99	226.89
346.37	227.03
346.75	227.15
347.13	227.26
347.52	227.27
347.90	227.37
348.28	227.38
348.66	227.42
349.05	227.39
349.43	227.43
349.81	227.46
350.19	227.51
350.57	227.53
350.96	227.65
351.34	227.70
351.72	227.78
352.10	227.88
352.48	227.96
352.87	228.01
353.25	228.08
353.63	228.13
354.01	228.20
354.39	228.28
354.77	228.36
355.15	228.42
355.54	228.51
355.92	228.51
356.30	228.57
356.68	228.69
357.06	228.78
357.44	228.83
357.82	228.84
358.20	228.90
358.58	228.97
358.97	229.01
359.35	229.06
359.73	229.12
360.11	229.17
360.49	229.19
360.87	229.24
361.25	229.27
361.63	229.34
362.01	229.38
362.39	229.41
362.77	229.46
363.15	229.50
363.53	229.47
363.91	229.48
364.29	229.52
364.67	229.45
365.05	229.46
365.43	229.45
365.81	229.48
366.19	229.50
366.57	229.52
366.95	229.52
367.33	229.48
367.71	229.50
368.09	229.49
368.47	229.48
368.85	229.47
369.23	229.47
369.61	229.39
369.99	229.39
370.37	229.38
370.75	229.35
371.13	229.29
371.51	229.24
371.89	229.23
372.27	229.14
372.65	229.07
373.03	229.00
373.41	228.96
373.78	228.89
374.16	228.78
374.54	228.68
374.92	228.59
375.30	228.55
375.68	228.45
376.06	228.41
376.44	228.32
376.82	228.26
377.19	228.20
377.57	228.12
377.95	228.00
378.33	227.90
378.71	227.78
379.09	227.71
379.47	227.66
379.84	227.56
380.22	227.49
380.60	227.43
380.98	227.34
381.36	227.28
381.73	227.18
382.11	227.16
382.49	227.07
382.87	227.02
383.25	226.92
383.62	226.97
384.00	226.86
384.38	226.82
384.76	226.76
385.13	226.73
385.51	226.68
385.89	226.62
386.27	226.57
386.64	226.55
387.02	226.49
387.40	226.46
387.78	226.43
388.15	226.42
388.53	226.36
388.91	226.33
389.29	226.26
389.66	226.30
390.04	226.23
390.42	226.25
390.79	226.23
391.17	226.23
391.55	226.09
391.92	226.10
392.30	226.08
392.68	226.09
393.05	226.08
393.43	226.10
393.81	226.15
394.18	226.16
394.56	226.21
394.94	226.27
395.31	226.29
395.69	226.35
396.06	226.38
396.44	226.44
396.82	226.46
397.19	226.59
397.57	226.61
397.95	226.69
398.32	226.72
398.70	226.81
399.07	226.92
399.45	227.00
399.82	227.10
400.20	227.17
400.58	227.25
400.95	227.29
401.33	227.44
401.70	227.59
402.08	227.72
402.45	227.81
402.83	227.92
403.20	228.06
403.58	228.16
403.95	228.28
404.33	228.45
404.71	228.60
405.08	228.78
405.46	228.92
405.83	229.09
406.21	229.24
406.58	229.40
406.96	229.59
407.33	229.77
407.70	229.97
408.08	230.26
408.45	230.48
408.83	230.76
409.20	230.96
409.58	231.15
409.95	231.40
410.33	231.67
410.70	231.93
411.08	232.22
411.45	232.54
411.82	232.86
412.20	233.18
412.57	233.63
412.95	233.91
413.32	234.33
413.69	234.75
414.07	235.19
414.44	235.66
414.82	236.14
415.19	236.70
415.56	237.21
415.94	237.75
416.31	238.37
416.68	239.00
417.06	239.69
417.43	240.33
417.81	241.07
418.18	241.85
418.55	242.69
418.93	243.54
419.30	244.42
419.67	245.35
420.04	246.32
420.42	247.31
420.79	248.49
421.16	249.65
421.54	250.85
421.91	252.08
422.28	253.33
422.66	254.65
423.03	255.97
423.40	257.36
423.77	258.75
424.15	260.19
424.52	261.62
424.89	263.23
425.26	264.77
425.64	266.24
426.01	267.85
426.38	269.50
426.75	271.19
427.13	272.91
427.50	274.72
427.87	276.59
428.24	278.45
428.61	280.15
428.99	282.09
429.36	284.19
429.73	286.25
430.10	288.28
430.47	290.35
430.85	292.45
431.22	294.68
431.59	297.07
431.96	299.31
432.33	301.83
432.70	304.27
433.08	307.12
433.45	309.77
433.82	312.41
434.19	315.30
434.56	318.13
434.93	320.76
435.30	323.45
435.68	326.35
436.05	329.21
436.42	332.11
436.79	334.66
437.16	337.37
437.53	340.19
437.90	343.05
438.27	345.80
438.64	348.65
439.01	351.26
439.38	353.51
439.75	355.72
440.13	358.27
440.50	360.55
440.87	362.37
441.24	364.34
441.61	366.45
441.98	367.98
442.35	369.78
442.72	371.68
443.09	373.43
443.46	374.45
443.83	375.01
444.20	375.51
444.57	376.30
444.94	376.59
445.31	376.93
445.68	377.19
446.05	377.23
446.42	376.82
446.79	376.40
447.16	375.90
447.53	375.55
447.90	374.35
448.27	373.22
448.64	371.69
449.01	370.59
449.37	368.64
449.74	366.69
450.11	364.45
450.48	361.99
450.85	359.50
451.22	357.31
451.59	355.28
451.96	353.30
452.33	350.70
452.70	348.34
453.07	345.52
453.43	342.70
453.80	339.92
454.17	337.25
454.54	334.67
454.91	331.99
455.28	329.34
455.65	326.85
456.02	324.39
456.38	322.22
456.75	319.51
457.12	317.26
457.49	315.07
457.86	312.91
458.23	311.03
458.59	308.97
458.96	306.89
459.33	305.03
459.70	303.16
460.07	301.65
460.43	299.89
460.80	298.28
461.17	296.79
461.54	295.32
461.91	293.88
462.27	292.40
462.64	291.15
463.01	289.75
463.38	288.46
463.74	287.06
464.11	285.83
464.48	284.76
464.85	283.64
465.21	282.73
465.58	281.79
465.95	280.67
466.32	279.73
466.68	278.83
467.05	277.90
467.42	276.99
467.78	276.05
468.15	275.19
468.52	274.51
468.88	273.64
469.25	272.85
469.62	272.23
469.98	271.55
470.35	270.90
470.72	270.29
471.08	269.61
471.45	269.07
471.82	268.53
472.18	267.91
472.55	267.50
472.92	266.96
473.28	266.44
473.65	266.02
474.02	265.55
474.38	265.16
474.75	264.82
475.11	264.46
475.48	264.18
475.85	263.91
476.21	263.70
476.58	263.49
476.94	263.32
477.31	263.12
477.67	262.96
478.04	262.83
478.41	262.74
478.77	262.78
479.14	262.71
479.50	262.75
479.87	262.84
480.23	262.86
480.60	262.91
480.96	263.03
481.33	263.21
481.69	263.43
482.06	263.64
482.42	263.85
482.79	264.12
483.15	264.41
483.52	264.81
483.88	265.16
484.25	265.56
484.61	265.99
484.98	266.48
485.34	267.05
485.71	267.64
486.07	268.24
486.44	268.81
486.80	269.52
487.17	270.23
487.53	271.02
487.90	271.90
488.26	272.85
488.62	273.84
488.99	274.80
489.35	275.83
489.72	276.95
490.08	278.15
490.44	279.40
490.81	280.74
491.17	282.08
491.54	283.55
491.90	285.11
492.26	286.76
492.63	288.50
492.99	290.24
493.36	292.15
493.72	294.24
494.08	296.36
494.45	298.57
494.81	300.92
495.17	303.36
495.54	305.90
495.90	308.59
496.26	311.37
496.63	314.34
496.99	317.43
497.35	320.69
497.72	324.06
498.08	327.60
498.44	331.24
498.80	335.16
499.17	339.16
499.53	343.31
499.89	347.68
500.26	352.11
500.62	356.80
500.98	361.77
501.34	366.82
501.71	372.09
502.07	377.54
502.43	383.16
502.79	388.98
503.16	395.03
503.52	401.26
503.88	407.66
504.24	414.26
504.60	421.16
504.97	428.24
505.33	435.55
505.69	443.18
506.05	450.95
506.41	458.80
506.78	466.93
507.14	475.38
507.50	484.05
507.86	493.10
508.22	502.24
508.59	511.43
508.95	520.93
509.31	530.72
509.67	540.82
510.03	551.10
510.39	561.67
510.75	572.48
511.12	583.43
511.48	594.69
511.84	606.13
512.20	617.69
512.56	629.69
512.92	641.88
513.28	654.25
513.64	666.74
514.00	679.48
514.37	692.48
514.73	705.55
515.09	718.64
515.45	731.91
515.81	745.60
516.17	759.51
516.53	773.67
516.89	787.89
517.25	802.11
517.61	816.52
517.97	830.97
518.33	845.45
518.69	860.25
519.05	875.35
519.41	890.55
519.77	906.07
520.13	921.54
520.49	936.90
520.85	952.33
521.21	968.10
521.57	984.42
521.93	1000.26
522.29	1016.75
522.65	1033.03
523.01	1049.28
523.37	1065.33
523.73	1081.62
524.09	1097.81
524.45	1114.25
524.81	1130.87
525.17	1147.80
525.53	1164.86
525.89	1181.75
526.25	1198.62
526.61	1215.03
526.97	1231.86
527.33	1248.40
527.68	1265.01
528.04	1281.66
528.40	1298.47
528.76	1315.63
529.12	1332.30
529.48	1349.14
529.84	1365.17
530.20	1381.88
530.56	1399.09
530.91	1416.49
531.27	1433.43
531.63	1449.94
531.99	1466.67
532.35	1482.69
532.71	1498.64
533.07	1514.94
533.42	1530.94
533.78	1547.12
534.14	1563.42
534.50	1578.90
534.86	1594.94
535.21	1610.30
535.57	1626.30
535.93	1641.79
536.29	1656.70
536.65	1671.84
537.00	1686.75
537.36	1702.13
537.72	1716.72
538.08	1731.18
538.44	1745.06
538.79	1758.95
539.15	1772.93
539.51	1786.62
539.87	1801.20
540.22	1815.04
540.58	1828.94
540.94	1842.37
541.29	1855.46
541.65	1868.31
542.01	1881.65
542.37	1893.96
542.72	1906.34
543.08	1918.26
543.44	1930.81
543.79	1942.03
544.15	1953.14
544.51	1964.78
544.87	1975.88
545.22	1986.69
545.58	1996.85
545.94	2006.64
546.29	2016.69
546.65	2026.36
547.01	2035.66
547.36	2044.45
547.72	2052.89
548.07	2060.73
548.43	2068.98
548.79	2076.95
549.14	2084.52
549.50	2091.88
549.86	2099.64
550.21	2107.15
550.57	2114.31
550.92	2120.81
551.28	2127.93
551.64	2134.92
551.99	2141.47
552.35	2147.56
552.70	2153.79
553.06	2159.78
553.41	2166.22
553.77	2172.18
554.13	2178.29
554.48	2184.36
554.84	2189.63
555.19	2195.03
555.55	2200.04
555.90	2204.36
556.26	2209.27
556.61	2213.95
556.97	2218.15
557.32	2222.22
557.68	2226.25
558.03	2230.48
558.39	2234.28
558.74	2238.86
559.10	2242.57
559.45	2246.24
559.81	2250.60
560.16	2254.52
560.52	2257.83
560.87	2261.21
561.23	2263.81
561.58	2266.72
561.94	2269.16
562.29	2271.75
562.64	2274.38
563.00	2276.99
563.35	2280.56
563.71	2283.50
564.06	2286.70
564.42	2289.48
564.77	2291.91
565.12	2294.10
565.48	2295.90
565.83	2297.65
566.19	2298.92
566.54	2300.01
566.89	2301.05
567.25	2301.43
567.60	2302.55
567.96	2304.04
568.31	2304.87
568.66	2305.91
569.02	2306.46
569.37	2306.70
569.72	2307.29
570.08	2307.28
570.43	2307.08
570.78	2306.28
571.14	2304.84
571.49	2303.54
571.84	2303.19
572.20	2301.90
572.55	2300.76
572.90	2299.16
573.26	2297.63
573.61	2295.85
573.96	2293.87
574.31	2290.76
574.67	2287.76
575.02	2284.03
575.37	2280.65
575.72	2276.68
576.08	2273.25
576.43	2269.92
576.78	2266.23
577.13	2263.08
577.49	2259.98
577.84	2256.57
578.19	2252.76
578.54	2248.98
578.90	2244.42
579.25	2238.74
579.60	2233.78
579.95	2228.68
580.30	2223.60
580.66	2218.46
581.01	2213.49
581.36	2208.47
581.71	2204.20
582.06	2199.68
582.42	2195.21
582.77	2189.97
583.12	2185.38
583.47	2180.48
583.82	2175.19
584.17	2169.87
584.53	2164.25
584.88	2158.40
585.23	2152.40
585.58	2147.05
585.93	2141.49
586.28	2136.82
586.63	2131.64
586.98	2126.44
587.34	2121.75
587.69	2116.84
588.04	2111.45
588.39	2105.64
588.74	2099.15
589.09	2092.90
589.44	2086.00
589.79	2080.00
590.14	2074.17
590.49	2067.41
590.84	2060.94
591.19	2054.91
591.54	2048.33
591.89	2040.75
592.25	2033.97
592.60	2026.87
592.95	2019.04
593.30	2011.54
593.65	2003.71
594.00	1996.64
594.35	1989.37
594.70	1981.25
595.05	1973.79
595.40	1966.41
595.75	1958.85
596.10	1952.43
596.45	1945.58
596.80	1939.30
597.15	1932.39
597.50	1925.24
597.85	1918.81
598.19	1912.12
598.54	1904.84
598.89	1898.20
599.24	1892.25
599.59	1885.43
599.94	1878.97
600.29	1872.84
600.64	1866.25
600.99	1858.78
601.34	1851.92
601.69	1844.94
602.04	1837.86
602.39	1830.48
602.74	1823.50
603.08	1816.65
603.43	1809.85
603.78	1802.65
604.13	1795.46
604.48	1788.12
604.83	1781.33
605.18	1774.25
605.53	1766.14
605.87	1758.23
606.22	1750.98
606.57	1743.03
606.92	1735.67
607.27	1728.57
607.62	1721.42
607.96	1714.07
608.31	1707.35
608.66	1699.60
609.01	1691.96
609.36	1684.43
609.70	1676.39
610.05	1668.39
610.40	1660.67
610.75	1652.44
611.10	1644.64
611.44	1636.26
611.79	1628.45
612.14	1619.73
612.49	1610.70
612.83	1602.47
613.18	1594.24
613.53	1586.12
613.88	1577.59
614.22	1569.38
614.57	1560.83
614.92	1552.84
615.27	1545.32
615.61	1537.15
615.96	1529.17
616.31	1521.49
616.65	1514.09
617.00	1506.57
617.35	1498.91
617.70	1490.57
618.04	1482.04
618.39	1473.82
618.74	1466.24
619.08	1457.73
619.43	1450.16
619.78	1443.22
620.12	1436.00
620.47	1428.60
620.82	1420.53
621.16	1413.25
621.51	1405.72
621.85	1398.14
622.20	1389.57
622.55	1381.20
622.89	1373.32
623.24	1365.73
623.59	1358.49
623.93	1351.00
624.28	1343.81
624.62	1336.24
624.97	1329.14
625.32	1322.46
625.66	1315.57
626.01	1308.27
626.35	1300.80
626.70	1293.10
627.04	1285.28
627.39	1277.49
627.73	1270.06
628.08	1263.11
628.43	1255.64
628.77	1248.06
629.12	1240.51
629.46	1233.36
629.81	1225.98
630.15	1218.74
630.50	1211.31
630.84	1203.09
631.19	1195.22
631.53	1187.70
631.88	1180.15
632.22	1172.52
632.57	1165.22
632.91	1157.65
633.26	1150.28
633.60	1143.07
633.95	1135.95
634.29	1129.02
634.64	1122.40
634.98	1115.05
635.32	1107.93
635.67	1101.51
636.01	1095.03
636.36	1088.31
636.70	1081.90
637.05	1075.39
637.39	1068.95
637.73	1062.57
638.08	1056.72
638.42	1050.76
638.77	1044.38
639.11	1037.76
639.45	1031.41
639.80	1024.66
640.14	1018.26
640.49	1011.77
640.83	1005.43
641.17	999.17
641.52	992.86
641.86	986.50
642.20	980.65
642.55	974.41
642.89	967.84
643.23	961.29
643.58	955.36
643.92	949.05
644.26	942.85
644.61	936.86
644.95	930.78
645.29	924.13
645.64	917.36
645.98	911.04
646.32	905.32
646.66	899.30
647.01	893.48
647.35	887.75
647.69	882.03
648.04	876.55
648.38	870.77
648.72	864.75
649.06	858.61
649.41	852.75
649.75	846.60
650.09	840.64
650.43	834.84
650.78	828.70
651.12	822.76
651.46	817.12
651.80	811.34
652.14	805.91
652.49	800.58
652.83	795.44
653.17	789.69
653.51	783.92
653.85	778.59
654.20	772.96
654.54	766.91
654.88	761.10
655.22	755.25
655.56	749.52
655.90	744.10
656.25	738.84
656.59	733.42
656.93	728.42
657.27	723.30
657.61	717.85
657.95	712.88
658.29	707.76
658.64	702.49
658.98	697.21
659.32	691.73
659.66	686.52
660.00	681.19
660.34	676.33
660.68	671.41
661.02	666.34
661.36	661.69
661.70	657.23
662.05	652.80
662.39	648.40
662.73	644.02
663.07	639.64
663.41	635.23
663.75	630.79
664.09	626.32
664.43	621.95
664.77	617.88
665.11	613.55
665.45	609.56
665.79	605.57
666.13	601.46
666.47	597.40
666.81	593.23
667.15	589.14
667.49	585.23
667.83	581.54
668.17	577.62
668.51	573.55
668.85	569.53
669.19	565.78
669.53	561.98
669.87	558.07
670.21	554.39
670.55	550.76
670.89	547.35
671.23	543.90
671.57	540.39
671.91	536.85
672.25	533.41
672.58	529.81
672.92	526.42
673.26	523.31
673.60	520.16
673.94	517.13
674.28	514.25
674.62	511.30
674.96	508.09
675.30	505.19
675.64	502.25
675.97	499.52
676.31	496.68
676.65	493.79
676.99	491.06
677.33	488.20
677.67	485.32
678.01	482.27
678.34	479.26
678.68	476.41
679.02	473.62
679.36	470.91
679.70	468.25
680.04	465.48
680.37	462.53
680.71	459.84
681.05	457.20
681.39	454.49
681.73	451.89
682.06	449.38
682.40	446.82
682.74	444.36
683.08	441.82
683.42	439.21
683.75	436.70
684.09	434.23
684.43	431.77
684.77	429.34
685.10	427.03
685.44	424.80
685.78	422.54
686.12	420.28
686.45	417.94
686.79	415.67
687.13	413.45
687.46	411.37
687.80	409.21
688.14	407.01
688.48	404.92
688.81	402.65
689.15	400.57
689.49	398.44
689.82	396.35
690.16	394.30
690.50	392.33
690.83	390.39
691.17	388.42
691.51	386.52
691.84	384.71
692.18	382.79
692.52	380.82
692.85	378.90
693.19	377.03
693.52	375.28
693.86	373.48
694.20	371.72
694.53	369.91
694.87	368.02
695.21	366.22
695.54	364.40
695.88	362.71
696.21	360.97
696.55	359.31
696.88	357.60
697.22	355.95
697.56	354.35
697.89	352.72
698.23	351.10
698.56	349.49
698.90	347.91
699.23	346.23
699.57	344.65
699.90	343.12
700.24	341.58
700.58	340.02
700.91	338.48
701.25	337.07
701.58	335.71
701.92	334.39
702.25	333.08
702.59	331.75
702.92	330.38
703.26	329.07
703.59	327.78
703.93	326.65
704.26	325.42
704.60	324.14
704.93	322.87
705.26	321.65
705.60	320.52
705.93	319.37
706.27	318.36
706.60	317.31
706.94	316.24
707.27	315.13
707.61	314.04
707.94	313.05
708.27	311.90
708.61	310.79
708.94	309.81
709.28	308.77
709.61	307.77
709.94	306.83
710.28	305.81
710.61	304.87
710.95	303.77
711.28	302.83
711.61	301.89
711.95	300.98
712.28	300.02
712.61	298.99
712.95	298.05
713.28	297.19
713.61	296.34
713.95	295.43
714.28	294.61
714.61	293.77
714.95	292.92
715.28	292.08
715.61	291.20
715.95	290.31
716.28	289.46
716.61	288.69
716.95	287.90
717.28	287.14
717.61	286.35
717.94	285.61
718.28	284.82
718.61	284.08
718.94	283.36
719.27	282.69
719.61	282.06
719.94	281.43
720.27	280.66
720.60	279.94
720.94	279.30
721.27	278.68
721.60	278.12
721.93	277.51
722.27	276.97
722.60	276.47
722.93	275.96
723.26	275.41
723.59	274.87
723.93	274.32
724.26	273.79
724.59	273.22
724.92	272.73
725.25	272.25
725.59	271.75
725.92	271.27
726.25	270.74
726.58	270.26
726.91	269.74
727.24	269.31
727.57	268.86
727.91	268.36
728.24	267.90
728.57	267.40
728.90	266.94
729.23	266.45
729.56	266.03
729.89	265.56
730.22	265.09
730.55	264.59
730.89	264.14
731.22	263.67
731.55	263.26
731.88	262.81
732.21	262.32
732.54	261.87
732.87	261.41
733.20	261.06
733.53	260.67
733.86	260.31
734.19	259.90
734.52	259.53
734.85	259.23
735.18	258.80
735.51	258.44
735.84	258.08
736.17	257.71
736.50	257.27
736.83	257.01
737.16	256.69
737.49	256.36
737.82	256.02
738.15	255.71
738.48	255.37
738.81	255.02
739.14	254.72
739.47	254.37
739.80	254.05
740.13	253.70
740.46	253.37
740.79	253.02
741.12	252.71
741.45	252.37
741.78	252.02
742.11	251.76
742.44	251.40
742.77	251.12
743.10	250.84
743.43	250.57
743.75	250.18
744.08	250.00
744.41	249.74
744.74	249.49
745.07	249.20
745.40	248.93
745.73	248.74
746.06	248.48
746.39	248.26
746.71	248.03
747.04	247.77
747.37	247.50
747.70	247.27
748.03	247.03
748.36	246.84
748.68	246.63
749.01	246.36
749.34	246.19
749.67	245.98
750.00	245.75
750.33	245.60
750.65	245.39
750.98	245.11
751.31	244.90
751.64	244.66
751.97	244.53
752.29	244.32
752.62	244.07
752.95	243.89
753.28	243.70
753.60	243.47
753.93	243.31
754.26	243.13
754.59	242.89
754.91	242.69
755.24	242.47
755.57	242.27
755.90	242.09
756.22	241.88
756.55	241.67
756.88	241.47
757.20	241.24
757.53	241.04
757.86	240.86
758.19	240.69
758.51	240.57
758.84	240.32
759.17	240.21
759.49	240.08
759.82	239.95
760.15	239.80
760.47	239.69
760.80	239.54
761.13	239.44
761.45	239.30
761.78	239.17
762.11	239.06
762.43	238.94
762.76	238.81
763.08	238.69
763.41	238.56
763.74	238.42
764.06	238.25
764.39	238.12
764.71	237.96
765.04	237.80
765.37	237.65
765.69	237.56
766.02	237.40
766.34	237.24
766.67	237.05
767.00	236.93
767.32	236.84
767.65	236.76
767.97	236.60
768.30	236.48
768.62	236.35
768.95	236.18
769.27	236.05
769.60	235.92
769.92	235.79
770.25	235.65
770.57	235.54
770.90	235.47
771.22	235.38
771.55	235.23
771.87	235.12
772.20	234.98
772.52	234.96
772.85	234.96
773.17	234.87
773.50	234.78
773.82	234.68
774.15	234.54
774.47	234.39
774.80	234.27
775.12	234.19
775.45	234.09
775.77	234.01
776.09	233.91
776.42	233.82
776.74	233.77
777.07	233.66
777.39	233.59
777.72	233.47
778.04	233.38
778.36	233.31
778.69	233.24
779.01	233.21
779.33	233.06
779.66	232.86
779.98	232.75
780.31	232.69
780.63	232.65
780.95	232.56
781.28	232.49
781.60	232.44
781.92	232.39
782.25	232.32
782.57	232.28
782.89	232.22
783.22	232.16
783.54	232.06
783.86	232.03
784.19	231.97
784.51	231.96
784.83	231.93
785.16	231.90
785.48	231.88
785.80	231.79
786.12	231.74
786.45	231.73
786.77	231.71
787.09	231.67
