SpectraSuite Data File
++++++++++++++++++++++++++++++++++++
Date: Fri Feb 01 15:36:10 EST 2013
User: group
Dark Spectrum Present: No
Reference Spectrum Present: No
Number of Sampled Component Spectra: 1
Spectrometers: USB2E7196
Integration Time (usec): 35000 (USB2E7196)
Spectra Averaged: 100 (USB2E7196)
Boxcar Smoothing: 10 (USB2E7196)
Correct for Electrical Dark: No (USB2E7196)
Strobe/Lamp Enabled: No (USB2E7196)
Correct for Detector Non-linearity: No (USB2E7196)
Correct for Stray Light: No (USB2E7196)
Number of Pixels in Processed Spectrum: 2048
>>>>>Begin Processed Spectral Data<<<<<
339.09	0.00
339.48	214.93
339.86	215.38
340.24	217.24
340.63	218.57
341.01	222.08
341.39	221.49
341.78	222.61
342.16	224.52
342.54	224.14
342.93	213.04
343.31	223.77
343.69	224.30
344.07	224.78
344.46	225.21
344.84	225.60
345.22	225.82
345.60	226.10
345.99	226.29
346.37	226.42
346.75	226.53
347.13	226.60
347.52	226.64
347.90	226.70
348.28	226.76
348.66	226.78
349.05	226.79
349.43	226.83
349.81	226.90
350.19	226.98
350.57	227.02
350.96	227.12
351.34	227.27
351.72	227.36
352.10	227.49
352.48	227.59
352.87	227.69
353.25	227.78
353.63	227.82
354.01	227.89
354.39	227.96
354.77	228.07
355.15	228.21
355.54	228.28
355.92	228.32
356.30	228.43
356.68	228.55
357.06	228.60
357.44	228.70
357.82	228.74
358.20	228.77
358.58	228.81
358.97	228.88
359.35	228.98
359.73	229.08
360.11	229.16
360.49	229.22
360.87	229.24
361.25	229.26
361.63	229.36
362.01	229.43
362.39	229.50
362.77	229.55
363.15	229.57
363.53	229.59
363.91	229.65
364.29	229.61
364.67	229.56
365.05	229.58
365.43	229.57
365.81	229.59
366.19	229.64
366.57	229.71
366.95	229.69
367.33	229.64
367.71	229.62
368.09	229.60
368.47	229.58
368.85	229.57
369.23	229.58
369.61	229.52
369.99	229.53
370.37	229.48
370.75	229.47
371.13	229.39
371.51	229.32
371.89	229.28
372.27	229.26
372.65	229.25
373.03	229.20
373.41	229.14
373.78	229.09
374.16	228.99
374.54	228.87
374.92	228.81
375.30	228.74
375.68	228.63
376.06	228.57
376.44	228.49
376.82	228.43
377.19	228.35
377.57	228.29
377.95	228.19
378.33	228.11
378.71	227.99
379.09	227.93
379.47	227.87
379.84	227.80
380.22	227.72
380.60	227.63
380.98	227.56
381.36	227.51
381.73	227.39
382.11	227.35
382.49	227.28
382.87	227.19
383.25	227.14
383.62	227.21
384.00	227.11
384.38	227.04
384.76	227.00
385.13	227.01
385.51	226.94
385.89	226.86
386.27	226.80
386.64	226.76
387.02	226.71
387.40	226.66
387.78	226.64
388.15	226.60
388.53	226.55
388.91	226.52
389.29	226.47
389.66	226.51
390.04	226.50
390.42	226.48
390.79	226.50
391.17	226.50
391.55	226.36
391.92	226.40
392.30	226.42
392.68	226.40
393.05	226.38
393.43	226.39
393.81	226.42
394.18	226.42
394.56	226.42
394.94	226.47
395.31	226.51
395.69	226.55
396.06	226.63
396.44	226.65
396.82	226.68
397.19	226.78
397.57	226.78
397.95	226.85
398.32	226.88
398.70	226.92
399.07	227.02
399.45	227.09
399.82	227.13
400.20	227.21
400.58	227.29
400.95	227.33
401.33	227.47
401.70	227.62
402.08	227.73
402.45	227.85
402.83	227.98
403.20	228.09
403.58	228.16
403.95	228.28
404.33	228.43
404.71	228.57
405.08	228.74
405.46	228.87
405.83	228.99
406.21	229.14
406.58	229.34
406.96	229.48
407.33	229.65
407.70	229.82
408.08	230.09
408.45	230.33
408.83	230.61
409.20	230.78
409.58	230.98
409.95	231.25
410.33	231.51
410.70	231.77
411.08	232.08
411.45	232.40
411.82	232.69
412.20	233.07
412.57	233.46
412.95	233.76
413.32	234.19
413.69	234.63
414.07	235.11
414.44	235.55
414.82	236.02
415.19	236.57
415.56	237.12
415.94	237.64
416.31	238.27
416.68	238.81
417.06	239.53
417.43	240.15
417.81	240.91
418.18	241.69
418.55	242.51
418.93	243.37
419.30	244.27
419.67	245.22
420.04	246.14
420.42	247.16
420.79	248.33
421.16	249.48
421.54	250.65
421.91	251.83
422.28	253.06
422.66	254.40
423.03	255.67
423.40	256.99
423.77	258.39
424.15	259.81
424.52	261.33
424.89	262.94
425.26	264.53
425.64	265.98
426.01	267.59
426.38	269.22
426.75	270.90
427.13	272.62
427.50	274.40
427.87	276.27
428.24	278.14
428.61	279.83
428.99	281.74
429.36	283.82
429.73	285.84
430.10	287.90
430.47	289.96
430.85	292.10
431.22	294.38
431.59	296.75
431.96	298.99
432.33	301.50
432.70	303.87
433.08	306.65
433.45	309.30
433.82	311.89
434.19	314.78
434.56	317.58
434.93	320.22
435.30	322.84
435.68	325.76
436.05	328.59
436.42	331.41
436.79	333.94
437.16	336.65
437.53	339.57
437.90	342.38
438.27	345.14
438.64	348.01
439.01	350.59
439.38	352.84
439.75	354.99
440.13	357.47
440.50	359.78
440.87	361.67
441.24	363.57
441.61	365.70
441.98	367.21
442.35	369.06
442.72	370.96
443.09	372.79
443.46	373.77
443.83	374.38
444.20	374.92
444.57	375.81
444.94	376.16
445.31	376.43
445.68	376.81
446.05	376.89
446.42	376.48
446.79	376.07
447.16	375.65
447.53	375.38
447.90	374.22
448.27	373.07
448.64	371.45
449.01	370.32
449.37	368.39
449.74	366.48
450.11	364.19
450.48	361.65
450.85	359.12
451.22	356.98
451.59	354.94
451.96	352.99
452.33	350.31
452.70	347.89
453.07	345.12
453.43	342.18
453.80	339.43
454.17	336.75
454.54	334.19
454.91	331.39
455.28	328.68
455.65	326.21
456.02	323.77
456.38	321.65
456.75	319.01
457.12	316.74
457.49	314.49
457.86	312.30
458.23	310.45
458.59	308.39
458.96	306.30
459.33	304.39
459.70	302.51
460.07	301.05
460.43	299.33
460.80	297.68
461.17	296.24
461.54	294.73
461.91	293.27
462.27	291.83
462.64	290.62
463.01	289.28
463.38	287.97
463.74	286.58
464.11	285.41
464.48	284.38
464.85	283.26
465.21	282.41
465.58	281.51
465.95	280.39
466.32	279.49
466.68	278.58
467.05	277.71
467.42	276.84
467.78	275.89
468.15	275.03
468.52	274.34
468.88	273.44
469.25	272.64
469.62	272.01
469.98	271.34
470.35	270.69
470.72	270.07
471.08	269.43
471.45	268.92
471.82	268.36
472.18	267.72
472.55	267.31
472.92	266.78
473.28	266.31
473.65	265.86
474.02	265.42
474.38	265.07
474.75	264.73
475.11	264.37
475.48	264.11
475.85	263.86
476.21	263.66
476.58	263.48
476.94	263.31
477.31	263.15
477.67	262.95
478.04	262.86
478.41	262.80
478.77	262.81
479.14	262.74
479.50	262.78
479.87	262.89
480.23	262.98
480.60	263.04
480.96	263.15
481.33	263.40
481.69	263.59
482.06	263.79
482.42	264.01
482.79	264.26
483.15	264.57
483.52	264.99
483.88	265.29
484.25	265.70
484.61	266.13
484.98	266.62
485.34	267.22
485.71	267.81
486.07	268.42
486.44	268.99
486.80	269.72
487.17	270.42
487.53	271.23
487.90	272.08
488.26	273.04
488.62	274.02
488.99	275.01
489.35	276.09
489.72	277.19
490.08	278.44
490.44	279.70
490.81	281.02
491.17	282.33
491.54	283.86
491.90	285.41
492.26	287.07
492.63	288.81
492.99	290.64
493.36	292.51
493.72	294.56
494.08	296.67
494.45	298.90
494.81	301.22
495.17	303.66
495.54	306.22
495.90	308.86
496.26	311.63
496.63	314.59
496.99	317.69
497.35	320.92
497.72	324.24
498.08	327.79
498.44	331.48
498.80	335.41
499.17	339.37
499.53	343.54
499.89	347.92
500.26	352.41
500.62	357.09
500.98	362.12
501.34	367.24
501.71	372.54
502.07	377.97
502.43	383.66
502.79	389.45
503.16	395.52
503.52	401.80
503.88	408.21
504.24	414.76
504.60	421.61
504.97	428.79
505.33	436.11
505.69	443.75
506.05	451.53
506.41	459.42
506.78	467.57
507.14	475.95
507.50	484.63
507.86	493.66
508.22	502.79
508.59	511.98
508.95	521.52
509.31	531.35
509.67	541.48
510.03	551.74
510.39	562.32
510.75	573.13
511.12	584.10
511.48	595.37
511.84	606.85
512.20	618.42
512.56	630.35
512.92	642.59
513.28	654.86
513.64	667.29
514.00	680.01
514.37	693.01
514.73	706.13
515.09	719.23
515.45	732.48
515.81	746.11
516.17	760.13
516.53	774.21
516.89	788.46
517.25	802.63
517.61	817.04
517.97	831.49
518.33	845.92
518.69	860.77
519.05	875.92
519.41	891.19
519.77	906.74
520.13	922.22
520.49	937.66
520.85	953.15
521.21	968.93
521.57	985.24
521.93	1001.07
522.29	1017.55
522.65	1033.86
523.01	1050.12
523.37	1066.12
523.73	1082.28
524.09	1098.40
524.45	1114.68
524.81	1131.41
525.17	1148.30
525.53	1165.26
525.89	1182.17
526.25	1199.01
526.61	1215.31
526.97	1232.00
527.33	1248.47
527.68	1265.12
528.04	1281.58
528.40	1298.36
528.76	1315.46
529.12	1332.01
529.48	1348.98
529.84	1364.91
530.20	1381.39
530.56	1398.54
530.91	1415.94
531.27	1432.72
531.63	1449.31
531.99	1465.84
532.35	1481.82
532.71	1497.65
533.07	1513.98
533.42	1529.84
533.78	1545.88
534.14	1562.21
534.50	1577.68
534.86	1593.53
535.21	1608.64
535.57	1624.68
535.93	1640.14
536.29	1654.95
536.65	1670.10
537.00	1684.78
537.36	1700.17
537.72	1714.91
538.08	1729.23
538.44	1743.09
538.79	1757.11
539.15	1770.80
539.51	1784.62
539.87	1799.00
540.22	1812.84
540.58	1826.57
540.94	1840.00
541.29	1852.99
541.65	1865.84
542.01	1879.03
542.37	1891.32
542.72	1903.83
543.08	1915.57
543.44	1927.85
543.79	1939.05
544.15	1949.93
544.51	1961.61
544.87	1972.67
545.22	1983.43
545.58	1993.74
545.94	2003.62
546.29	2013.35
546.65	2023.26
547.01	2032.49
547.36	2041.17
547.72	2049.61
548.07	2057.37
548.43	2065.54
548.79	2073.59
549.14	2081.03
549.50	2088.48
549.86	2096.40
550.21	2103.69
550.57	2110.91
550.92	2117.55
551.28	2124.66
551.64	2131.82
551.99	2138.29
552.35	2144.33
552.70	2150.30
553.06	2156.36
553.41	2162.73
553.77	2168.92
554.13	2174.95
554.48	2181.21
554.84	2186.76
555.19	2192.04
555.55	2197.23
555.90	2201.66
556.26	2206.44
556.61	2211.06
556.97	2215.15
557.32	2219.12
557.68	2223.21
558.03	2227.38
558.39	2231.23
558.74	2235.87
559.10	2239.80
559.45	2243.43
559.81	2247.77
560.16	2251.67
560.52	2254.81
560.87	2258.23
561.23	2260.79
561.58	2263.79
561.94	2266.21
562.29	2268.48
562.64	2271.12
563.00	2273.78
563.35	2277.31
563.71	2280.41
564.06	2283.65
564.42	2286.47
564.77	2289.10
565.12	2291.36
565.48	2293.27
565.83	2294.92
566.19	2296.22
566.54	2297.07
566.89	2298.25
567.25	2298.90
567.60	2300.39
567.96	2301.99
568.31	2302.76
568.66	2303.73
569.02	2304.05
569.37	2304.40
569.72	2305.27
570.08	2305.39
570.43	2305.38
570.78	2304.71
571.14	2303.17
571.49	2301.83
571.84	2301.59
572.20	2300.31
572.55	2299.34
572.90	2297.72
573.26	2296.30
573.61	2294.66
573.96	2292.89
574.31	2289.85
574.67	2286.73
575.02	2282.98
575.37	2279.64
575.72	2275.78
576.08	2272.53
576.43	2269.40
576.78	2265.64
577.13	2262.57
577.49	2259.57
577.84	2255.99
578.19	2252.32
578.54	2248.57
578.90	2244.27
579.25	2238.77
579.60	2233.66
579.95	2228.61
580.30	2223.46
580.66	2218.49
581.01	2213.48
581.36	2208.51
581.71	2204.30
582.06	2199.86
582.42	2195.27
582.77	2189.92
583.12	2185.19
583.47	2180.36
583.82	2175.16
584.17	2169.99
584.53	2164.26
584.88	2158.52
585.23	2152.74
585.58	2147.20
585.93	2141.87
586.28	2137.16
586.63	2131.86
586.98	2126.90
587.34	2122.13
587.69	2117.40
588.04	2112.00
588.39	2106.26
588.74	2099.72
589.09	2093.44
589.44	2086.44
589.79	2080.50
590.14	2074.88
590.49	2068.31
590.84	2061.86
591.19	2055.77
591.54	2049.14
591.89	2041.77
592.25	2034.90
592.60	2027.58
592.95	2019.90
593.30	2012.54
593.65	2004.86
594.00	1997.87
594.35	1990.70
594.70	1982.64
595.05	1975.34
595.40	1967.98
595.75	1960.37
596.10	1954.01
596.45	1947.19
596.80	1941.23
597.15	1934.52
597.50	1927.29
597.85	1920.92
598.19	1914.19
598.54	1907.10
598.89	1900.47
599.24	1894.62
599.59	1887.80
599.94	1881.72
600.29	1875.35
600.64	1868.51
600.99	1861.04
601.34	1854.17
601.69	1847.07
602.04	1840.16
602.39	1832.70
602.74	1825.86
603.08	1819.14
603.43	1812.53
603.78	1805.34
604.13	1797.92
604.48	1790.54
604.83	1783.79
605.18	1776.77
605.53	1768.81
605.87	1760.80
606.22	1753.53
606.57	1745.38
606.92	1738.20
607.27	1730.95
607.62	1724.11
607.96	1716.94
608.31	1710.12
608.66	1702.52
609.01	1694.88
609.36	1687.14
609.70	1679.22
610.05	1671.07
610.40	1663.30
610.75	1654.90
611.10	1647.13
611.44	1638.82
611.79	1630.89
612.14	1622.02
612.49	1612.85
612.83	1604.55
613.18	1596.45
613.53	1588.34
613.88	1579.94
614.22	1571.50
614.57	1562.88
614.92	1554.75
615.27	1547.17
615.61	1538.90
615.96	1530.98
616.31	1523.32
616.65	1516.15
617.00	1508.53
617.35	1500.95
617.70	1492.59
618.04	1484.06
618.39	1475.93
618.74	1468.27
619.08	1459.98
619.43	1452.48
619.78	1445.56
620.12	1438.31
620.47	1430.69
620.82	1422.52
621.16	1415.14
621.51	1407.58
621.85	1400.01
622.20	1391.57
622.55	1383.27
622.89	1375.50
623.24	1367.77
623.59	1360.49
623.93	1352.81
624.28	1345.63
624.62	1338.09
624.97	1330.91
625.32	1324.18
625.66	1317.21
626.01	1310.02
626.35	1302.49
626.70	1294.75
627.04	1286.98
627.39	1279.26
627.73	1271.96
628.08	1265.08
628.43	1257.69
628.77	1250.31
629.12	1242.65
629.46	1235.43
629.81	1228.01
630.15	1220.72
630.50	1213.22
630.84	1204.95
631.19	1197.12
631.53	1189.58
631.88	1181.99
632.22	1174.48
632.57	1167.18
632.91	1159.49
633.26	1151.99
633.60	1144.70
633.95	1137.59
634.29	1130.64
634.64	1123.97
634.98	1116.58
635.32	1109.40
635.67	1102.81
636.01	1096.25
636.36	1089.53
636.70	1083.04
637.05	1076.39
637.39	1070.04
637.73	1063.58
638.08	1057.74
638.42	1051.68
638.77	1045.20
639.11	1038.60
639.45	1032.13
639.80	1025.45
640.14	1019.07
640.49	1012.61
640.83	1006.28
641.17	1000.03
641.52	993.66
641.86	987.26
642.20	981.44
642.55	975.15
642.89	968.68
643.23	962.08
643.58	956.22
643.92	949.93
644.26	943.81
644.61	937.71
644.95	931.67
645.29	925.13
645.64	918.47
645.98	912.15
646.32	906.36
646.66	900.31
647.01	894.51
647.35	888.87
647.69	883.04
648.04	877.54
648.38	871.73
648.72	865.61
649.06	859.50
649.41	853.56
649.75	847.57
650.09	841.59
650.43	835.79
650.78	829.68
651.12	823.83
651.46	818.13
651.80	812.43
652.14	807.09
652.49	801.70
652.83	796.52
653.17	790.86
653.51	785.07
653.85	779.69
654.20	774.00
654.54	767.93
654.88	762.22
655.22	756.33
655.56	750.67
655.90	745.28
656.25	739.96
656.59	734.58
656.93	729.48
657.27	724.36
657.61	718.90
657.95	713.83
658.29	708.67
658.64	703.47
658.98	698.18
659.32	692.68
659.66	687.55
660.00	682.13
660.34	677.14
660.68	672.26
661.02	667.21
661.36	662.55
661.70	658.07
662.05	653.66
662.39	649.35
662.73	644.89
663.07	640.56
663.41	636.14
663.75	631.69
664.09	627.24
664.43	622.89
664.77	618.77
665.11	614.48
665.45	610.37
665.79	606.28
666.13	602.08
666.47	598.06
666.81	593.75
667.15	589.71
667.49	585.89
667.83	582.09
668.17	578.16
668.51	574.09
668.85	570.05
669.19	566.23
669.53	562.36
669.87	558.46
670.21	554.70
670.55	551.12
670.89	547.70
671.23	544.16
671.57	540.65
671.91	537.16
672.25	533.68
672.58	530.22
672.92	526.84
673.26	523.71
673.60	520.56
673.94	517.48
674.28	514.57
674.62	511.59
674.96	508.43
675.30	505.57
675.64	502.63
675.97	499.88
676.31	497.07
676.65	494.16
676.99	491.47
677.33	488.60
677.67	485.78
678.01	482.73
678.34	479.78
678.68	476.89
679.02	474.06
679.36	471.33
679.70	468.59
680.04	465.84
680.37	462.92
680.71	460.18
681.05	457.58
681.39	454.86
681.73	452.16
682.06	449.72
682.40	447.19
682.74	444.71
683.08	442.21
683.42	439.57
683.75	437.13
684.09	434.61
684.43	432.23
684.77	429.79
685.10	427.46
685.44	425.17
685.78	422.87
686.12	420.66
686.45	418.35
686.79	416.03
687.13	413.87
687.46	411.77
687.80	409.56
688.14	407.39
688.48	405.36
688.81	403.15
689.15	400.96
689.49	398.78
689.82	396.68
690.16	394.59
690.50	392.61
690.83	390.64
691.17	388.61
691.51	386.69
691.84	384.82
692.18	382.91
692.52	380.93
692.85	379.05
693.19	377.14
693.52	375.37
693.86	373.59
694.20	371.82
694.53	370.04
694.87	368.21
695.21	366.40
695.54	364.57
695.88	362.87
696.21	361.17
696.55	359.47
696.88	357.79
697.22	356.13
697.56	354.52
697.89	352.88
698.23	351.32
698.56	349.70
698.90	348.11
699.23	346.46
699.57	344.90
699.90	343.38
700.24	341.89
700.58	340.33
700.91	338.83
701.25	337.34
701.58	335.95
701.92	334.57
702.25	333.19
702.59	331.84
702.92	330.50
703.26	329.22
703.59	327.95
703.93	326.83
704.26	325.60
704.60	324.32
704.93	323.04
705.26	321.81
705.60	320.66
705.93	319.48
706.27	318.41
706.60	317.36
706.94	316.22
707.27	315.07
707.61	314.05
707.94	313.02
708.27	311.94
708.61	310.84
708.94	309.88
709.28	308.92
709.61	307.97
709.94	307.03
710.28	306.00
710.61	305.05
710.95	303.90
711.28	302.95
711.61	302.01
711.95	301.12
712.28	300.17
712.61	299.14
712.95	298.22
713.28	297.33
713.61	296.46
713.95	295.60
714.28	294.74
714.61	293.87
714.95	293.00
715.28	292.13
715.61	291.26
715.95	290.37
716.28	289.51
716.61	288.66
716.95	287.83
717.28	287.08
717.61	286.30
717.94	285.57
718.28	284.79
718.61	284.07
718.94	283.36
719.27	282.68
719.61	282.08
719.94	281.42
720.27	280.73
720.60	279.98
720.94	279.33
721.27	278.73
721.60	278.14
721.93	277.53
722.27	276.98
722.60	276.40
722.93	275.83
723.26	275.27
723.59	274.70
723.93	274.16
724.26	273.62
724.59	273.04
724.92	272.53
725.25	272.03
725.59	271.51
725.92	271.01
726.25	270.49
726.58	269.96
726.91	269.49
727.24	269.02
727.57	268.60
727.91	268.08
728.24	267.61
728.57	267.13
728.90	266.68
729.23	266.20
729.56	265.79
729.89	265.33
730.22	264.85
730.55	264.38
730.89	263.92
731.22	263.48
731.55	263.08
731.88	262.66
732.21	262.20
732.54	261.74
732.87	261.30
733.20	260.91
733.53	260.49
733.86	260.11
734.19	259.74
734.52	259.35
734.85	259.05
735.18	258.62
735.51	258.23
735.84	257.85
736.17	257.51
736.50	257.11
736.83	256.87
737.16	256.52
737.49	256.19
737.82	255.88
738.15	255.52
738.48	255.16
738.81	254.81
739.14	254.49
739.47	254.18
739.80	253.85
740.13	253.54
740.46	253.21
740.79	252.84
741.12	252.52
741.45	252.19
741.78	251.84
742.11	251.61
742.44	251.31
742.77	251.03
743.10	250.75
743.43	250.48
743.75	250.11
744.08	249.99
744.41	249.72
744.74	249.43
745.07	249.14
745.40	248.91
745.73	248.68
746.06	248.38
746.39	248.14
746.71	247.88
747.04	247.60
747.37	247.37
747.70	247.14
748.03	246.89
748.36	246.69
748.68	246.48
749.01	246.19
749.34	245.96
749.67	245.71
750.00	245.46
750.33	245.27
750.65	245.05
750.98	244.69
751.31	244.49
751.64	244.29
751.97	244.17
752.29	243.97
752.62	243.75
752.95	243.56
753.28	243.35
753.60	243.17
753.93	243.01
754.26	242.83
754.59	242.63
754.91	242.41
755.24	242.20
755.57	241.99
755.90	241.82
756.22	241.64
756.55	241.45
756.88	241.24
757.20	241.01
757.53	240.82
757.86	240.67
758.19	240.52
758.51	240.35
758.84	240.09
759.17	239.93
759.49	239.76
759.82	239.65
760.15	239.52
760.47	239.37
760.80	239.19
761.13	239.04
761.45	238.88
761.78	238.75
762.11	238.62
762.43	238.47
762.76	238.32
763.08	238.19
763.41	238.07
763.74	237.96
764.06	237.86
764.39	237.75
764.71	237.59
765.04	237.45
765.37	237.30
765.69	237.22
766.02	237.09
766.34	236.96
766.67	236.81
767.00	236.69
767.32	236.63
767.65	236.58
767.97	236.47
768.30	236.35
768.62	236.25
768.95	236.12
769.27	236.02
769.60	235.93
769.92	235.78
770.25	235.66
770.57	235.54
770.90	235.43
771.22	235.29
771.55	235.21
771.87	235.10
772.20	235.00
772.52	234.96
772.85	234.95
773.17	234.86
773.50	234.75
773.82	234.62
774.15	234.46
774.47	234.30
774.80	234.20
775.12	234.12
775.45	234.02
775.77	233.95
776.09	233.87
776.42	233.79
776.74	233.76
777.07	233.70
777.39	233.63
777.72	233.52
778.04	233.45
778.36	233.37
778.69	233.30
779.01	233.22
779.33	233.06
779.66	232.89
779.98	232.82
780.31	232.75
780.63	232.73
780.95	232.70
781.28	232.64
781.60	232.58
781.92	232.53
782.25	232.50
782.57	232.43
782.89	232.37
783.22	232.30
783.54	232.25
783.86	232.20
784.19	232.14
784.51	232.12
784.83	232.08
785.16	232.02
785.48	231.96
785.80	231.92
786.12	231.88
786.45	231.85
786.77	231.85
787.09	231.81
