SpectraSuite Data File
++++++++++++++++++++++++++++++++++++
Date: Fri Feb 01 15:59:47 EST 2013
User: group
Dark Spectrum Present: No
Reference Spectrum Present: No
Number of Sampled Component Spectra: 1
Spectrometers: USB2E7196
Integration Time (usec): 35000 (USB2E7196)
Spectra Averaged: 100 (USB2E7196)
Boxcar Smoothing: 10 (USB2E7196)
Correct for Electrical Dark: No (USB2E7196)
Strobe/Lamp Enabled: No (USB2E7196)
Correct for Detector Non-linearity: No (USB2E7196)
Correct for Stray Light: No (USB2E7196)
Number of Pixels in Processed Spectrum: 2048
>>>>>Begin Processed Spectral Data<<<<<
339.09	0.00
339.48	214.74
339.86	215.98
340.24	217.61
340.63	218.67
341.01	221.81
341.39	221.52
341.78	222.93
342.16	224.61
342.54	224.85
342.93	213.14
343.31	223.92
343.69	224.45
344.07	224.90
344.46	225.33
344.84	225.71
345.22	225.95
345.60	226.22
345.99	226.42
346.37	226.57
346.75	226.66
347.13	226.71
347.52	226.73
347.90	226.78
348.28	226.82
348.66	226.83
349.05	226.79
349.43	226.87
349.81	226.91
350.19	226.92
350.57	226.97
350.96	227.03
351.34	227.09
351.72	227.17
352.10	227.27
352.48	227.33
352.87	227.40
353.25	227.46
353.63	227.51
354.01	227.55
354.39	227.59
354.77	227.66
355.15	227.77
355.54	227.84
355.92	227.86
356.30	227.92
356.68	228.06
357.06	228.16
357.44	228.18
357.82	228.23
358.20	228.30
358.58	228.40
358.97	228.46
359.35	228.53
359.73	228.59
360.11	228.66
360.49	228.72
360.87	228.73
361.25	228.78
361.63	228.87
362.01	228.91
362.39	228.91
362.77	228.95
363.15	228.96
363.53	228.97
363.91	229.00
364.29	229.02
364.67	228.92
365.05	228.95
365.43	228.99
365.81	228.99
366.19	229.05
366.57	229.05
366.95	229.05
367.33	229.02
367.71	229.02
368.09	229.01
368.47	229.01
368.85	229.02
369.23	229.02
369.61	228.91
369.99	228.93
370.37	228.91
370.75	228.90
371.13	228.87
371.51	228.83
371.89	228.82
372.27	228.76
372.65	228.75
373.03	228.72
373.41	228.67
373.78	228.62
374.16	228.50
374.54	228.41
374.92	228.34
375.30	228.29
375.68	228.20
376.06	228.17
376.44	228.06
376.82	227.99
377.19	227.91
377.57	227.86
377.95	227.78
378.33	227.70
378.71	227.62
379.09	227.55
379.47	227.51
379.84	227.40
380.22	227.33
380.60	227.24
380.98	227.17
381.36	227.08
381.73	227.02
382.11	226.97
382.49	226.93
382.87	226.86
383.25	226.81
383.62	226.85
384.00	226.77
384.38	226.74
384.76	226.69
385.13	226.67
385.51	226.62
385.89	226.53
386.27	226.51
386.64	226.47
387.02	226.41
387.40	226.36
387.78	226.36
388.15	226.34
388.53	226.27
388.91	226.21
389.29	226.16
389.66	226.15
390.04	226.14
390.42	226.13
390.79	226.14
391.17	226.11
391.55	226.00
391.92	225.98
392.30	225.96
392.68	225.97
393.05	225.96
393.43	226.00
393.81	226.05
394.18	226.03
394.56	226.05
394.94	226.10
395.31	226.12
395.69	226.19
396.06	226.22
396.44	226.28
396.82	226.31
397.19	226.41
397.57	226.44
397.95	226.48
398.32	226.52
398.70	226.58
399.07	226.65
399.45	226.70
399.82	226.79
400.20	226.88
400.58	226.95
400.95	226.99
401.33	227.05
401.70	227.19
402.08	227.30
402.45	227.39
402.83	227.50
403.20	227.58
403.58	227.66
403.95	227.80
404.33	227.94
404.71	228.10
405.08	228.28
405.46	228.40
405.83	228.55
406.21	228.70
406.58	228.86
406.96	229.05
407.33	229.27
407.70	229.45
408.08	229.73
408.45	229.94
408.83	230.20
409.20	230.45
409.58	230.64
409.95	230.87
410.33	231.13
410.70	231.37
411.08	231.67
411.45	231.97
411.82	232.31
412.20	232.66
412.57	233.10
412.95	233.43
413.32	233.86
413.69	234.28
414.07	234.71
414.44	235.17
414.82	235.62
415.19	236.14
415.56	236.70
415.94	237.21
416.31	237.90
416.68	238.51
417.06	239.22
417.43	239.90
417.81	240.67
418.18	241.45
418.55	242.28
418.93	243.18
419.30	244.12
419.67	245.00
420.04	245.97
420.42	246.92
420.79	248.07
421.16	249.23
421.54	250.43
421.91	251.66
422.28	252.86
422.66	254.19
423.03	255.48
423.40	256.81
423.77	258.20
424.15	259.58
424.52	261.05
424.89	262.65
425.26	264.18
425.64	265.68
426.01	267.27
426.38	268.96
426.75	270.64
427.13	272.30
427.50	274.13
427.87	276.02
428.24	277.88
428.61	279.59
428.99	281.51
429.36	283.60
429.73	285.67
430.10	287.70
430.47	289.81
430.85	291.95
431.22	294.18
431.59	296.59
431.96	298.81
432.33	301.29
432.70	303.65
433.08	306.43
433.45	309.00
433.82	311.59
434.19	314.43
434.56	317.22
434.93	319.86
435.30	322.49
435.68	325.33
436.05	328.17
436.42	330.93
436.79	333.45
437.16	336.15
437.53	338.98
437.90	341.81
438.27	344.47
438.64	347.29
439.01	349.90
439.38	352.13
439.75	354.34
440.13	356.86
440.50	359.21
440.87	361.07
441.24	363.03
441.61	365.18
441.98	366.65
442.35	368.41
442.72	370.25
443.09	372.04
443.46	373.02
443.83	373.59
444.20	374.13
444.57	374.92
444.94	375.20
445.31	375.54
445.68	375.89
446.05	376.00
446.42	375.62
446.79	375.16
447.16	374.72
447.53	374.39
447.90	373.21
448.27	372.04
448.64	370.43
449.01	369.29
449.37	367.31
449.74	365.46
450.11	363.26
450.48	360.85
450.85	358.28
451.22	356.18
451.59	354.21
451.96	352.25
452.33	349.67
452.70	347.29
453.07	344.45
453.43	341.55
453.80	338.77
454.17	336.09
454.54	333.55
454.91	330.81
455.28	328.12
455.65	325.63
456.02	323.19
456.38	321.06
456.75	318.43
457.12	316.20
457.49	313.94
457.86	311.77
458.23	309.94
458.59	307.91
458.96	305.80
459.33	303.92
459.70	302.06
460.07	300.60
460.43	298.91
460.80	297.28
461.17	295.88
461.54	294.39
461.91	293.01
462.27	291.55
462.64	290.33
463.01	288.98
463.38	287.72
463.74	286.35
464.11	285.21
464.48	284.20
464.85	283.15
465.21	282.32
465.58	281.43
465.95	280.31
466.32	279.44
466.68	278.55
467.05	277.69
467.42	276.83
467.78	275.89
468.15	275.02
468.52	274.38
468.88	273.53
469.25	272.77
469.62	272.11
469.98	271.46
470.35	270.84
470.72	270.26
471.08	269.60
471.45	269.07
471.82	268.50
472.18	267.92
472.55	267.43
472.92	266.91
473.28	266.44
473.65	266.02
474.02	265.60
474.38	265.23
474.75	264.89
475.11	264.51
475.48	264.22
475.85	263.99
476.21	263.74
476.58	263.57
476.94	263.42
477.31	263.25
477.67	263.13
478.04	263.00
478.41	262.91
478.77	262.92
479.14	262.89
479.50	262.92
479.87	262.93
480.23	262.98
480.60	263.09
480.96	263.17
481.33	263.35
481.69	263.51
482.06	263.74
482.42	263.93
482.79	264.21
483.15	264.55
483.52	264.94
483.88	265.23
484.25	265.59
484.61	266.01
484.98	266.50
485.34	267.00
485.71	267.59
486.07	268.21
486.44	268.79
486.80	269.48
487.17	270.22
487.53	271.06
487.90	271.95
488.26	272.85
488.62	273.81
488.99	274.80
489.35	275.87
489.72	276.96
490.08	278.17
490.44	279.40
490.81	280.73
491.17	282.11
491.54	283.62
491.90	285.17
492.26	286.82
492.63	288.53
492.99	290.33
493.36	292.21
493.72	294.28
494.08	296.38
494.45	298.62
494.81	300.97
495.17	303.41
495.54	305.98
495.90	308.64
496.26	311.43
496.63	314.35
496.99	317.46
497.35	320.72
497.72	324.12
498.08	327.66
498.44	331.32
498.80	335.26
499.17	339.31
499.53	343.48
499.89	347.87
500.26	352.38
500.62	357.09
500.98	362.09
501.34	367.13
501.71	372.51
502.07	377.98
502.43	383.61
502.79	389.47
503.16	395.52
503.52	401.87
503.88	408.27
504.24	414.91
504.60	421.77
504.97	428.92
505.33	436.23
505.69	443.91
506.05	451.66
506.41	459.59
506.78	467.78
507.14	476.29
507.50	484.98
507.86	493.96
508.22	503.15
508.59	512.39
508.95	522.01
509.31	531.85
509.67	542.00
510.03	552.25
510.39	562.72
510.75	573.56
511.12	584.44
511.48	595.82
511.84	607.31
512.20	618.83
512.56	630.79
512.92	643.03
513.28	655.47
513.64	668.00
514.00	680.73
514.37	693.63
514.73	706.66
515.09	719.69
515.45	733.07
515.81	746.61
516.17	760.60
516.53	774.73
516.89	788.81
517.25	802.91
517.61	817.38
517.97	831.85
518.33	846.26
518.69	861.05
519.05	876.01
519.41	891.17
519.77	906.73
520.13	922.13
520.49	937.44
520.85	952.87
521.21	968.54
521.57	984.69
521.93	1000.41
522.29	1016.85
522.65	1033.09
523.01	1049.20
523.37	1065.28
523.73	1081.35
524.09	1097.33
524.45	1113.70
524.81	1130.27
525.17	1147.05
525.53	1163.90
525.89	1180.79
526.25	1197.56
526.61	1213.84
526.97	1230.47
527.33	1246.83
527.68	1263.41
528.04	1279.87
528.40	1296.34
528.76	1313.39
529.12	1329.85
529.48	1346.67
529.84	1362.52
530.20	1379.05
530.56	1396.08
530.91	1413.51
531.27	1430.21
531.63	1446.73
531.99	1463.14
532.35	1479.07
532.71	1494.83
533.07	1511.06
533.42	1526.91
533.78	1542.94
534.14	1559.28
534.50	1574.64
534.86	1590.60
535.21	1605.72
535.57	1621.70
535.93	1637.20
536.29	1651.91
536.65	1667.08
537.00	1681.89
537.36	1697.27
537.72	1711.76
538.08	1726.13
538.44	1739.82
538.79	1753.71
539.15	1767.32
539.51	1781.12
539.87	1795.44
540.22	1809.31
540.58	1823.07
540.94	1836.43
541.29	1849.34
541.65	1861.97
542.01	1875.15
542.37	1887.45
542.72	1899.89
543.08	1911.50
543.44	1923.86
543.79	1935.15
544.15	1946.01
544.51	1957.53
544.87	1968.50
545.22	1979.43
545.58	1989.45
545.94	1998.98
546.29	2008.84
546.65	2018.70
547.01	2027.96
547.36	2036.77
547.72	2045.13
548.07	2052.83
548.43	2060.93
548.79	2068.87
549.14	2076.38
549.50	2083.66
549.86	2091.31
550.21	2098.54
550.57	2105.76
550.92	2112.37
551.28	2119.34
551.64	2126.53
551.99	2133.15
552.35	2139.26
552.70	2145.33
553.06	2151.43
553.41	2158.02
553.77	2164.04
554.13	2170.20
554.48	2176.44
554.84	2181.79
555.19	2187.05
555.55	2192.40
555.90	2196.81
556.26	2201.80
556.61	2206.56
556.97	2210.94
557.32	2214.98
557.68	2219.19
558.03	2223.58
558.39	2227.21
558.74	2231.87
559.10	2235.73
559.45	2239.30
559.81	2243.66
560.16	2247.64
560.52	2251.08
560.87	2254.39
561.23	2256.93
561.58	2259.92
561.94	2262.28
562.29	2264.72
562.64	2267.35
563.00	2269.76
563.35	2273.30
563.71	2276.37
564.06	2279.66
564.42	2282.39
564.77	2284.78
565.12	2287.01
565.48	2288.87
565.83	2290.72
566.19	2291.90
566.54	2292.75
566.89	2293.88
567.25	2294.36
567.60	2295.56
567.96	2297.08
568.31	2297.96
568.66	2299.13
569.02	2299.57
569.37	2299.86
569.72	2300.63
570.08	2300.87
570.43	2301.03
570.78	2300.43
571.14	2298.84
571.49	2297.46
571.84	2297.29
572.20	2296.28
572.55	2295.34
572.90	2293.77
573.26	2292.51
573.61	2290.90
573.96	2289.20
574.31	2286.27
574.67	2283.28
575.02	2279.81
575.37	2276.47
575.72	2272.74
576.08	2269.63
576.43	2266.42
576.78	2262.82
577.13	2259.78
577.49	2256.74
577.84	2253.24
578.19	2249.61
578.54	2245.96
578.90	2241.78
579.25	2236.15
579.60	2231.20
579.95	2226.13
580.30	2221.14
580.66	2216.05
581.01	2211.19
581.36	2206.22
581.71	2202.06
582.06	2197.61
582.42	2193.00
582.77	2187.66
583.12	2183.08
583.47	2178.23
583.82	2173.14
584.17	2167.94
584.53	2162.32
584.88	2156.63
585.23	2150.94
585.58	2145.45
585.93	2140.06
586.28	2135.19
586.63	2130.17
586.98	2125.15
587.34	2120.41
587.69	2115.48
588.04	2110.02
588.39	2104.24
588.74	2097.72
589.09	2091.63
589.44	2084.88
589.79	2079.00
590.14	2073.44
590.49	2066.90
590.84	2060.48
591.19	2054.45
591.54	2048.04
591.89	2040.70
592.25	2033.91
592.60	2026.72
592.95	2019.09
593.30	2011.80
593.65	2004.17
594.00	1997.16
594.35	1989.91
594.70	1981.99
595.05	1974.74
595.40	1967.48
595.75	1960.04
596.10	1953.93
596.45	1947.10
596.80	1940.94
597.15	1934.17
597.50	1927.13
597.85	1920.79
598.19	1914.16
598.54	1906.96
598.89	1900.28
599.24	1894.39
599.59	1887.72
599.94	1881.49
600.29	1875.20
600.64	1868.67
600.99	1861.28
601.34	1854.54
601.69	1847.68
602.04	1840.80
602.39	1833.48
602.74	1826.67
603.08	1819.95
603.43	1813.10
603.78	1805.74
604.13	1798.56
604.48	1791.22
604.83	1784.30
605.18	1777.18
605.53	1769.10
605.87	1761.18
606.22	1753.89
606.57	1745.99
606.92	1738.67
607.27	1731.40
607.62	1724.46
607.96	1716.99
608.31	1710.46
608.66	1702.75
609.01	1694.97
609.36	1687.35
609.70	1679.21
610.05	1671.16
610.40	1663.36
610.75	1655.00
611.10	1647.32
611.44	1638.92
611.79	1630.96
612.14	1622.34
612.49	1613.21
612.83	1604.86
613.18	1596.72
613.53	1588.57
613.88	1579.94
614.22	1571.66
614.57	1563.21
614.92	1555.11
615.27	1547.60
615.61	1539.09
615.96	1531.04
616.31	1523.48
616.65	1516.11
617.00	1508.69
617.35	1501.05
617.70	1492.73
618.04	1484.28
618.39	1476.07
618.74	1468.42
619.08	1460.22
619.43	1452.52
619.78	1445.69
620.12	1438.60
620.47	1431.18
620.82	1423.04
621.16	1415.70
621.51	1408.17
621.85	1400.40
622.20	1391.84
622.55	1383.51
622.89	1375.76
623.24	1368.17
623.59	1360.88
623.93	1353.28
624.28	1345.99
624.62	1338.40
624.97	1331.27
625.32	1324.59
625.66	1317.64
626.01	1310.43
626.35	1302.88
626.70	1295.21
627.04	1287.38
627.39	1279.52
627.73	1272.01
628.08	1265.18
628.43	1257.84
628.77	1250.39
629.12	1242.87
629.46	1235.77
629.81	1228.41
630.15	1221.20
630.50	1213.80
630.84	1205.63
631.19	1197.72
631.53	1190.35
631.88	1182.85
632.22	1175.24
632.57	1167.90
632.91	1160.27
633.26	1152.78
633.60	1145.53
633.95	1138.50
634.29	1131.52
634.64	1124.94
634.98	1117.60
635.32	1110.35
635.67	1103.86
636.01	1097.31
636.36	1090.57
636.70	1084.08
637.05	1077.41
637.39	1070.96
637.73	1064.43
638.08	1058.57
638.42	1052.60
638.77	1046.10
639.11	1039.47
639.45	1033.10
639.80	1026.52
640.14	1020.18
640.49	1013.69
640.83	1007.33
641.17	1000.97
641.52	994.58
641.86	988.10
642.20	982.18
642.55	976.02
642.89	969.48
643.23	962.80
643.58	957.03
643.92	950.85
644.26	944.80
644.61	938.73
644.95	932.68
645.29	925.98
645.64	919.23
645.98	912.90
646.32	907.11
646.66	901.12
647.01	895.23
647.35	889.46
647.69	883.62
648.04	878.10
648.38	872.37
648.72	866.30
649.06	860.18
649.41	854.37
649.75	848.31
650.09	842.37
650.43	836.65
650.78	830.41
651.12	824.43
651.46	818.75
651.80	813.02
652.14	807.51
652.49	802.16
652.83	797.04
653.17	791.22
653.51	785.41
653.85	780.01
654.20	774.42
654.54	768.45
654.88	762.71
655.22	756.71
655.56	751.02
655.90	745.65
656.25	740.39
656.59	734.94
656.93	729.79
657.27	724.58
657.61	719.11
657.95	714.09
658.29	709.00
658.64	703.79
658.98	698.53
659.32	693.22
659.66	688.12
660.00	682.75
660.34	677.90
660.68	672.97
661.02	667.95
661.36	663.20
661.70	658.70
662.05	654.36
662.39	650.08
662.73	645.63
663.07	641.25
663.41	636.89
663.75	632.46
664.09	627.92
664.43	623.54
664.77	619.44
665.11	615.18
665.45	611.06
665.79	606.89
666.13	602.71
666.47	598.52
666.81	594.28
667.15	590.23
667.49	586.34
667.83	582.56
668.17	578.51
668.51	574.42
668.85	570.41
669.19	566.62
669.53	562.79
669.87	558.94
670.21	555.17
670.55	551.54
670.89	548.10
671.23	544.70
671.57	541.20
671.91	537.61
672.25	534.07
672.58	530.59
672.92	527.25
673.26	524.14
673.60	521.04
673.94	517.93
674.28	515.01
674.62	512.02
674.96	508.97
675.30	506.16
675.64	503.30
675.97	500.54
676.31	497.66
676.65	494.72
676.99	491.98
677.33	489.19
677.67	486.32
678.01	483.38
678.34	480.49
678.68	477.63
679.02	474.86
679.36	472.15
679.70	469.42
680.04	466.63
680.37	463.71
680.71	460.93
681.05	458.28
681.39	455.53
681.73	452.93
682.06	450.39
682.40	447.87
682.74	445.30
683.08	442.76
683.42	440.11
683.75	437.68
684.09	435.12
684.43	432.67
684.77	430.18
685.10	427.80
685.44	425.40
685.78	423.11
686.12	420.90
686.45	418.61
686.79	416.26
687.13	414.02
687.46	411.92
687.80	409.71
688.14	407.52
688.48	405.46
688.81	403.20
689.15	401.02
689.49	398.83
689.82	396.78
690.16	394.66
690.50	392.74
690.83	390.75
691.17	388.79
691.51	386.83
691.84	385.02
692.18	383.09
692.52	381.12
692.85	379.17
693.19	377.27
693.52	375.41
693.86	373.61
694.20	371.85
694.53	370.01
694.87	368.15
695.21	366.37
695.54	364.55
695.88	362.81
696.21	361.09
696.55	359.40
696.88	357.67
697.22	356.01
697.56	354.37
697.89	352.69
698.23	351.08
698.56	349.47
698.90	347.86
699.23	346.17
699.57	344.58
699.90	343.07
700.24	341.53
700.58	339.96
700.91	338.43
701.25	336.99
701.58	335.61
701.92	334.26
702.25	332.86
702.59	331.53
702.92	330.19
703.26	328.87
703.59	327.57
703.93	326.38
704.26	325.15
704.60	323.87
704.93	322.65
705.26	321.40
705.60	320.22
705.93	319.07
706.27	318.05
706.60	317.02
706.94	315.90
707.27	314.74
707.61	313.72
707.94	312.71
708.27	311.63
708.61	310.56
708.94	309.54
709.28	308.62
709.61	307.66
709.94	306.72
710.28	305.74
710.61	304.77
710.95	303.70
711.28	302.75
711.61	301.78
711.95	300.86
712.28	299.90
712.61	298.93
712.95	297.99
713.28	297.12
713.61	296.25
713.95	295.41
714.28	294.59
714.61	293.71
714.95	292.92
715.28	292.04
715.61	291.15
715.95	290.33
716.28	289.46
716.61	288.62
716.95	287.81
717.28	287.06
717.61	286.31
717.94	285.58
718.28	284.80
718.61	284.11
718.94	283.43
719.27	282.78
719.61	282.12
719.94	281.47
720.27	280.73
720.60	280.08
720.94	279.43
721.27	278.84
721.60	278.25
721.93	277.61
722.27	277.10
722.60	276.55
722.93	276.00
723.26	275.47
723.59	274.91
723.93	274.33
724.26	273.80
724.59	273.26
724.92	272.76
725.25	272.28
725.59	271.75
725.92	271.21
726.25	270.71
726.58	270.24
726.91	269.72
727.24	269.28
727.57	268.81
727.91	268.29
728.24	267.82
728.57	267.29
728.90	266.88
729.23	266.35
729.56	265.95
729.89	265.44
730.22	264.94
730.55	264.47
730.89	264.05
731.22	263.56
731.55	263.10
731.88	262.68
732.21	262.26
732.54	261.80
732.87	261.39
733.20	260.97
733.53	260.59
733.86	260.22
734.19	259.79
734.52	259.38
734.85	259.06
735.18	258.66
735.51	258.36
735.84	257.95
736.17	257.59
736.50	257.15
736.83	256.94
737.16	256.61
737.49	256.25
737.82	255.87
738.15	255.56
738.48	255.23
738.81	254.89
739.14	254.56
739.47	254.27
739.80	253.93
740.13	253.61
740.46	253.25
740.79	252.93
741.12	252.64
741.45	252.30
741.78	251.96
742.11	251.63
742.44	251.28
742.77	250.98
743.10	250.70
743.43	250.44
743.75	250.05
744.08	249.90
744.41	249.62
744.74	249.38
745.07	249.10
745.40	248.87
745.73	248.61
746.06	248.32
746.39	248.06
746.71	247.79
747.04	247.55
747.37	247.33
747.70	247.07
748.03	246.80
748.36	246.62
748.68	246.42
749.01	246.20
749.34	245.99
749.67	245.78
750.00	245.56
750.33	245.42
750.65	245.21
750.98	244.88
751.31	244.65
751.64	244.45
751.97	244.31
752.29	244.08
752.62	243.83
752.95	243.62
753.28	243.37
753.60	243.15
753.93	242.97
754.26	242.77
754.59	242.58
754.91	242.37
755.24	242.17
755.57	241.96
755.90	241.81
756.22	241.61
756.55	241.40
756.88	241.21
757.20	240.94
757.53	240.74
757.86	240.56
758.19	240.42
758.51	240.26
758.84	240.00
759.17	239.87
759.49	239.69
759.82	239.59
760.15	239.46
760.47	239.32
760.80	239.11
761.13	238.98
761.45	238.78
761.78	238.63
762.11	238.45
762.43	238.29
762.76	238.10
763.08	237.99
763.41	237.84
763.74	237.70
764.06	237.57
764.39	237.41
764.71	237.27
765.04	237.12
765.37	236.92
765.69	236.79
766.02	236.64
766.34	236.53
766.67	236.34
767.00	236.25
767.32	236.17
767.65	236.12
767.97	235.98
768.30	235.89
768.62	235.78
768.95	235.63
769.27	235.54
769.60	235.45
769.92	235.29
770.25	235.16
770.57	235.03
770.90	234.90
771.22	234.81
771.55	234.72
771.87	234.62
772.20	234.53
772.52	234.51
772.85	234.52
773.17	234.42
773.50	234.35
773.82	234.24
774.15	234.10
774.47	233.96
774.80	233.85
775.12	233.76
775.45	233.70
775.77	233.67
776.09	233.55
776.42	233.48
776.74	233.43
777.07	233.38
777.39	233.34
777.72	233.31
778.04	233.25
778.36	233.18
778.69	233.10
779.01	233.10
779.33	232.96
779.66	232.83
779.98	232.79
780.31	232.70
780.63	232.66
780.95	232.62
781.28	232.56
781.60	232.49
781.92	232.45
782.25	232.42
782.57	232.34
782.89	232.28
783.22	232.23
783.54	232.15
783.86	232.16
784.19	232.10
784.51	232.05
784.83	232.01
785.16	231.99
785.48	232.00
785.80	231.91
786.12	231.87
786.45	231.83
786.77	231.78
787.09	231.75
