SpectraSuite Data File
++++++++++++++++++++++++++++++++++++
Date: Fri Feb 01 15:23:47 EST 2013
User: group
Dark Spectrum Present: No
Reference Spectrum Present: No
Number of Sampled Component Spectra: 1
Spectrometers: USB2E7196
Integration Time (usec): 35000 (USB2E7196)
Spectra Averaged: 100 (USB2E7196)
Boxcar Smoothing: 10 (USB2E7196)
Correct for Electrical Dark: No (USB2E7196)
Strobe/Lamp Enabled: No (USB2E7196)
Correct for Detector Non-linearity: No (USB2E7196)
Correct for Stray Light: No (USB2E7196)
Number of Pixels in Processed Spectrum: 2048
>>>>>Begin Processed Spectral Data<<<<<
339.09	0.00
339.48	215.48
339.86	217.26
340.24	217.81
340.63	219.57
341.01	222.70
341.39	222.38
341.78	223.74
342.16	224.53
342.54	225.17
342.93	213.62
343.31	224.43
343.69	224.95
344.07	225.37
344.46	225.82
344.84	226.18
345.22	226.42
345.60	226.66
345.99	226.82
346.37	226.95
346.75	227.05
347.13	227.11
347.52	227.17
347.90	227.26
348.28	227.31
348.66	227.35
349.05	227.29
349.43	227.36
349.81	227.40
350.19	227.42
350.57	227.47
350.96	227.54
351.34	227.61
351.72	227.71
352.10	227.82
352.48	227.88
352.87	227.97
353.25	227.98
353.63	228.04
354.01	228.12
354.39	228.17
354.77	228.25
355.15	228.32
355.54	228.38
355.92	228.39
356.30	228.45
356.68	228.55
357.06	228.61
357.44	228.63
357.82	228.66
358.20	228.77
358.58	228.81
358.97	228.89
359.35	228.95
359.73	229.04
360.11	229.05
360.49	229.11
360.87	229.14
361.25	229.21
361.63	229.30
362.01	229.34
362.39	229.38
362.77	229.41
363.15	229.44
363.53	229.50
363.91	229.55
364.29	229.59
364.67	229.56
365.05	229.60
365.43	229.63
365.81	229.68
366.19	229.68
366.57	229.72
366.95	229.68
367.33	229.64
367.71	229.60
368.09	229.64
368.47	229.62
368.85	229.62
369.23	229.64
369.61	229.56
369.99	229.55
370.37	229.52
370.75	229.52
371.13	229.48
371.51	229.39
371.89	229.32
372.27	229.23
372.65	229.15
373.03	229.10
373.41	229.02
373.78	228.95
374.16	228.84
374.54	228.75
374.92	228.71
375.30	228.68
375.68	228.60
376.06	228.52
376.44	228.43
376.82	228.34
377.19	228.25
377.57	228.18
377.95	228.09
378.33	228.02
378.71	227.89
379.09	227.81
379.47	227.77
379.84	227.71
380.22	227.62
380.60	227.56
380.98	227.47
381.36	227.42
381.73	227.33
382.11	227.26
382.49	227.21
382.87	227.14
383.25	227.08
383.62	227.13
384.00	227.05
384.38	227.00
384.76	226.96
385.13	226.91
385.51	226.86
385.89	226.77
386.27	226.74
386.64	226.70
387.02	226.68
387.40	226.64
387.78	226.64
388.15	226.64
388.53	226.62
388.91	226.61
389.29	226.58
389.66	226.58
390.04	226.53
390.42	226.54
390.79	226.53
391.17	226.48
391.55	226.34
391.92	226.33
392.30	226.35
392.68	226.34
393.05	226.37
393.43	226.41
393.81	226.44
394.18	226.45
394.56	226.46
394.94	226.50
395.31	226.47
395.69	226.50
396.06	226.50
396.44	226.51
396.82	226.55
397.19	226.65
397.57	226.67
397.95	226.76
398.32	226.77
398.70	226.81
399.07	226.93
399.45	227.01
399.82	227.07
400.20	227.16
400.58	227.23
400.95	227.26
401.33	227.35
401.70	227.52
402.08	227.62
402.45	227.73
402.83	227.86
403.20	228.02
403.58	228.15
403.95	228.29
404.33	228.45
404.71	228.56
405.08	228.75
405.46	228.91
405.83	229.08
406.21	229.28
406.58	229.46
406.96	229.64
407.33	229.83
407.70	230.07
408.08	230.33
408.45	230.54
408.83	230.76
409.20	230.94
409.58	231.11
409.95	231.39
410.33	231.68
410.70	231.91
411.08	232.19
411.45	232.47
411.82	232.81
412.20	233.16
412.57	233.62
412.95	233.87
413.32	234.28
413.69	234.67
414.07	235.07
414.44	235.53
414.82	235.99
415.19	236.53
415.56	237.09
415.94	237.63
416.31	238.30
416.68	238.95
417.06	239.70
417.43	240.41
417.81	241.17
418.18	241.94
418.55	242.80
418.93	243.68
419.30	244.58
419.67	245.49
420.04	246.51
420.42	247.50
420.79	248.67
421.16	249.81
421.54	251.01
421.91	252.23
422.28	253.47
422.66	254.81
423.03	256.10
423.40	257.39
423.77	258.76
424.15	260.14
424.52	261.69
424.89	263.27
425.26	264.80
425.64	266.20
426.01	267.79
426.38	269.41
426.75	271.09
427.13	272.83
427.50	274.65
427.87	276.47
428.24	278.30
428.61	280.09
428.99	282.04
429.36	284.17
429.73	286.26
430.10	288.31
430.47	290.36
430.85	292.46
431.22	294.75
431.59	297.16
431.96	299.45
432.33	301.90
432.70	304.33
433.08	307.15
433.45	309.85
433.82	312.48
434.19	315.38
434.56	318.20
434.93	320.80
435.30	323.40
435.68	326.32
436.05	329.14
436.42	331.89
436.79	334.40
437.16	337.08
437.53	339.91
437.90	342.71
438.27	345.48
438.64	348.37
439.01	350.92
439.38	353.15
439.75	355.27
440.13	357.74
440.50	360.00
440.87	361.84
441.24	363.72
441.61	365.85
441.98	367.34
442.35	369.13
442.72	371.05
443.09	372.87
443.46	373.90
443.83	374.50
444.20	375.04
444.57	375.87
444.94	376.19
445.31	376.50
445.68	376.88
446.05	376.90
446.42	376.50
446.79	376.13
447.16	375.72
447.53	375.42
447.90	374.27
448.27	373.14
448.64	371.55
449.01	370.41
449.37	368.49
449.74	366.57
450.11	364.35
450.48	361.86
450.85	359.33
451.22	357.14
451.59	355.11
451.96	353.18
452.33	350.62
452.70	348.21
453.07	345.39
453.43	342.46
453.80	339.73
454.17	337.02
454.54	334.47
454.91	331.72
455.28	329.04
455.65	326.51
456.02	324.09
456.38	321.95
456.75	319.34
457.12	317.05
457.49	314.86
457.86	312.67
458.23	310.79
458.59	308.72
458.96	306.63
459.33	304.79
459.70	302.88
460.07	301.37
460.43	299.65
460.80	298.01
461.17	296.56
461.54	295.06
461.91	293.63
462.27	292.18
462.64	290.93
463.01	289.58
463.38	288.34
463.74	286.96
464.11	285.79
464.48	284.74
464.85	283.63
465.21	282.76
465.58	281.84
465.95	280.75
466.32	279.85
466.68	278.96
467.05	278.09
467.42	277.21
467.78	276.25
468.15	275.38
468.52	274.73
468.88	273.86
469.25	273.09
469.62	272.48
469.98	271.76
470.35	271.09
470.72	270.45
471.08	269.77
471.45	269.19
471.82	268.63
472.18	268.04
472.55	267.59
472.92	267.01
473.28	266.51
473.65	266.06
474.02	265.61
474.38	265.23
474.75	264.88
475.11	264.54
475.48	264.28
475.85	264.02
476.21	263.76
476.58	263.59
476.94	263.44
477.31	263.25
477.67	263.11
478.04	263.01
478.41	262.97
478.77	263.02
479.14	262.95
479.50	262.97
479.87	263.04
480.23	263.11
480.60	263.20
480.96	263.30
481.33	263.49
481.69	263.68
482.06	263.86
482.42	264.07
482.79	264.32
483.15	264.65
483.52	265.07
483.88	265.42
484.25	265.83
484.61	266.25
484.98	266.72
485.34	267.25
485.71	267.86
486.07	268.47
486.44	269.00
486.80	269.76
487.17	270.49
487.53	271.31
487.90	272.18
488.26	273.11
488.62	274.10
488.99	275.08
489.35	276.13
489.72	277.28
490.08	278.45
490.44	279.70
490.81	281.01
491.17	282.31
491.54	283.79
491.90	285.27
492.26	286.94
492.63	288.65
492.99	290.44
493.36	292.32
493.72	294.35
494.08	296.47
494.45	298.69
494.81	301.06
495.17	303.44
495.54	306.01
495.90	308.72
496.26	311.52
496.63	314.49
496.99	317.61
497.35	320.86
497.72	324.30
498.08	327.80
498.44	331.47
498.80	335.41
499.17	339.43
499.53	343.65
499.89	347.99
500.26	352.49
500.62	357.16
500.98	362.10
501.34	367.17
501.71	372.49
502.07	377.95
502.43	383.58
502.79	389.42
503.16	395.49
503.52	401.76
503.88	408.20
504.24	414.85
504.60	421.77
504.97	428.88
505.33	436.17
505.69	443.84
506.05	451.63
506.41	459.51
506.78	467.65
507.14	476.10
507.50	484.80
507.86	493.91
508.22	503.05
508.59	512.32
508.95	521.97
509.31	531.84
509.67	541.89
510.03	552.12
510.39	562.61
510.75	573.46
511.12	584.39
511.48	595.68
511.84	607.14
512.20	618.61
512.56	630.52
512.92	642.77
513.28	655.12
513.64	667.58
514.00	680.31
514.37	693.32
514.73	706.44
515.09	719.54
515.45	732.76
515.81	746.47
516.17	760.42
516.53	774.52
516.89	788.67
517.25	802.92
517.61	817.45
517.97	832.02
518.33	846.44
518.69	861.34
519.05	876.37
519.41	891.61
519.77	907.26
520.13	922.72
520.49	938.03
520.85	953.59
521.21	969.42
521.57	985.84
521.93	1001.59
522.29	1017.98
522.65	1034.28
523.01	1050.57
523.37	1066.63
523.73	1082.91
524.09	1098.97
524.45	1115.38
524.81	1132.12
525.17	1148.93
525.53	1165.85
525.89	1182.80
526.25	1199.61
526.61	1216.06
526.97	1232.76
527.33	1249.27
527.68	1266.03
528.04	1282.63
528.40	1299.29
528.76	1316.26
529.12	1332.80
529.48	1349.66
529.84	1365.75
530.20	1382.38
530.56	1399.60
530.91	1417.02
531.27	1433.78
531.63	1450.37
531.99	1466.96
532.35	1482.91
532.71	1498.84
533.07	1515.09
533.42	1530.98
533.78	1547.08
534.14	1563.36
534.50	1578.74
534.86	1594.64
535.21	1609.85
535.57	1625.95
535.93	1641.45
536.29	1656.37
536.65	1671.63
537.00	1686.66
537.36	1702.07
537.72	1716.66
538.08	1731.06
538.44	1745.02
538.79	1759.03
539.15	1772.93
539.51	1786.75
539.87	1801.13
540.22	1814.90
540.58	1828.88
540.94	1842.31
541.29	1855.30
541.65	1868.19
542.01	1881.62
542.37	1894.00
542.72	1906.46
543.08	1918.04
543.44	1930.47
543.79	1941.76
544.15	1952.75
544.51	1964.29
544.87	1975.22
545.22	1986.10
545.58	1996.38
545.94	2006.08
546.29	2015.93
546.65	2025.60
547.01	2034.96
547.36	2043.74
547.72	2052.28
548.07	2060.04
548.43	2068.34
548.79	2076.37
549.14	2083.79
549.50	2091.25
549.86	2099.04
550.21	2106.35
550.57	2113.65
550.92	2120.23
551.28	2127.36
551.64	2134.33
551.99	2140.89
552.35	2147.08
552.70	2153.17
553.06	2159.10
553.41	2165.44
553.77	2171.50
554.13	2177.68
554.48	2183.72
554.84	2189.14
555.19	2194.53
555.55	2199.63
555.90	2203.90
556.26	2208.76
556.61	2213.43
556.97	2217.46
557.32	2221.48
557.68	2225.63
558.03	2229.89
558.39	2233.66
558.74	2238.19
559.10	2241.96
559.45	2245.62
559.81	2249.91
560.16	2253.79
560.52	2257.06
560.87	2260.56
561.23	2263.30
561.58	2266.24
561.94	2268.64
562.29	2271.05
562.64	2273.72
563.00	2276.43
563.35	2280.09
563.71	2283.13
564.06	2286.33
564.42	2289.23
564.77	2291.57
565.12	2293.79
565.48	2295.75
565.83	2297.49
566.19	2298.81
566.54	2299.81
566.89	2300.86
567.25	2301.34
567.60	2302.62
567.96	2304.19
568.31	2304.96
568.66	2305.86
569.02	2306.36
569.37	2306.81
569.72	2307.66
570.08	2307.53
570.43	2307.48
570.78	2306.65
571.14	2305.22
571.49	2303.86
571.84	2303.41
572.20	2302.38
572.55	2301.30
572.90	2299.72
573.26	2298.33
573.61	2296.49
573.96	2294.67
574.31	2291.65
574.67	2288.55
575.02	2284.96
575.37	2281.47
575.72	2277.55
576.08	2274.21
576.43	2271.03
576.78	2267.25
577.13	2264.02
577.49	2261.07
577.84	2257.40
578.19	2253.77
578.54	2249.89
578.90	2245.50
579.25	2239.93
579.60	2234.83
579.95	2229.74
580.30	2224.66
580.66	2219.37
581.01	2214.48
581.36	2209.46
581.71	2205.16
582.06	2200.62
582.42	2195.94
582.77	2190.84
583.12	2186.18
583.47	2181.34
583.82	2175.94
584.17	2170.58
584.53	2164.98
584.88	2159.22
585.23	2153.48
585.58	2148.02
585.93	2142.58
586.28	2138.06
586.63	2132.94
586.98	2127.85
587.34	2123.17
587.69	2118.20
588.04	2112.87
588.39	2107.03
588.74	2100.65
589.09	2094.48
589.44	2087.59
589.79	2081.61
590.14	2075.82
590.49	2069.04
590.84	2062.65
591.19	2056.62
591.54	2050.16
591.89	2042.50
592.25	2035.61
592.60	2028.29
592.95	2020.50
593.30	2013.11
593.65	2005.25
594.00	1998.21
594.35	1990.98
594.70	1982.80
595.05	1975.35
595.40	1968.15
595.75	1960.61
596.10	1954.12
596.45	1947.32
596.80	1941.14
597.15	1934.37
597.50	1927.05
597.85	1920.79
598.19	1914.03
598.54	1906.92
598.89	1900.14
599.24	1894.37
599.59	1887.65
599.94	1881.42
600.29	1875.09
600.64	1868.37
600.99	1860.87
601.34	1853.81
601.69	1846.67
602.04	1839.66
602.39	1832.33
602.74	1825.30
603.08	1818.51
603.43	1811.80
603.78	1804.36
604.13	1797.10
604.48	1789.54
604.83	1782.67
605.18	1775.47
605.53	1767.42
605.87	1759.38
606.22	1752.21
606.57	1744.20
606.92	1736.90
607.27	1729.68
607.62	1722.63
607.96	1715.34
608.31	1708.70
608.66	1701.06
609.01	1693.41
609.36	1685.92
609.70	1677.91
610.05	1669.79
610.40	1662.14
610.75	1653.84
611.10	1646.18
611.44	1637.93
611.79	1630.09
612.14	1621.38
612.49	1612.35
612.83	1604.01
613.18	1595.87
613.53	1587.75
613.88	1579.27
614.22	1570.89
614.57	1562.31
614.92	1554.27
615.27	1546.66
615.61	1538.38
615.96	1530.42
616.31	1522.87
616.65	1515.43
617.00	1507.92
617.35	1500.35
617.70	1491.84
618.04	1483.27
618.39	1474.99
618.74	1467.35
619.08	1459.15
619.43	1451.57
619.78	1444.62
620.12	1437.38
620.47	1429.81
620.82	1421.68
621.16	1414.22
621.51	1406.66
621.85	1399.08
622.20	1390.63
622.55	1382.44
622.89	1374.44
623.24	1366.88
623.59	1359.53
623.93	1352.02
624.28	1344.71
624.62	1337.09
624.97	1329.98
625.32	1323.29
625.66	1316.28
626.01	1309.02
626.35	1301.56
626.70	1293.88
627.04	1286.08
627.39	1278.31
627.73	1270.93
628.08	1263.88
628.43	1256.51
628.77	1249.06
629.12	1241.41
629.46	1234.19
629.81	1226.66
630.15	1219.50
630.50	1212.14
630.84	1203.97
631.19	1195.95
631.53	1188.51
631.88	1181.07
632.22	1173.48
632.57	1166.24
632.91	1158.77
633.26	1151.40
633.60	1144.01
633.95	1136.87
634.29	1129.88
634.64	1123.21
634.98	1115.86
635.32	1108.69
635.67	1102.23
636.01	1095.65
636.36	1088.85
636.70	1082.32
637.05	1075.73
637.39	1069.33
637.73	1062.74
638.08	1056.87
638.42	1050.97
638.77	1044.51
639.11	1037.85
639.45	1031.48
639.80	1024.71
640.14	1018.25
640.49	1011.69
640.83	1005.35
641.17	999.12
641.52	992.80
641.86	986.42
642.20	980.52
642.55	974.30
642.89	967.80
643.23	961.23
643.58	955.47
643.92	949.27
644.26	943.16
644.61	937.10
644.95	931.09
645.29	924.41
645.64	917.77
645.98	911.42
646.32	905.53
646.66	899.49
647.01	893.67
647.35	888.01
647.69	882.25
648.04	876.75
648.38	871.06
648.72	865.04
649.06	858.97
649.41	853.14
649.75	847.17
650.09	841.17
650.43	835.35
650.78	829.20
651.12	823.28
651.46	817.58
651.80	811.79
652.14	806.30
652.49	801.00
652.83	795.81
653.17	790.10
653.51	784.47
653.85	779.12
654.20	773.53
654.54	767.58
654.88	761.86
655.22	755.95
655.56	750.28
655.90	744.87
656.25	739.61
656.59	734.26
656.93	729.11
657.27	723.97
657.61	718.66
657.95	713.58
658.29	708.53
658.64	703.29
658.98	698.07
659.32	692.66
659.66	687.42
660.00	682.02
660.34	677.14
660.68	672.19
661.02	667.20
661.36	662.41
661.70	657.87
662.05	653.47
662.39	649.16
662.73	644.71
663.07	640.36
663.41	635.92
663.75	631.43
664.09	627.00
664.43	622.63
664.77	618.43
665.11	614.20
665.45	610.05
665.79	606.04
666.13	601.92
666.47	597.82
666.81	593.71
667.15	589.65
667.49	585.70
667.83	581.94
668.17	577.99
668.51	573.97
668.85	569.98
669.19	566.13
669.53	562.31
669.87	558.41
670.21	554.72
670.55	551.05
670.89	547.64
671.23	544.16
671.57	540.70
671.91	537.20
672.25	533.66
672.58	530.20
672.92	526.79
673.26	523.62
673.60	520.57
673.94	517.42
674.28	514.56
674.62	511.72
674.96	508.58
675.30	505.66
675.64	502.75
675.97	500.02
676.31	497.16
676.65	494.24
676.99	491.55
677.33	488.65
677.67	485.82
678.01	482.80
678.34	479.82
678.68	476.90
679.02	474.07
679.36	471.37
679.70	468.61
680.04	465.77
680.37	462.90
680.71	460.11
681.05	457.54
681.39	454.81
681.73	452.07
682.06	449.55
682.40	447.00
682.74	444.49
683.08	441.90
683.42	439.25
683.75	436.79
684.09	434.22
684.43	431.78
684.77	429.32
685.10	426.98
685.44	424.66
685.78	422.42
686.12	420.20
686.45	417.91
686.79	415.65
687.13	413.54
687.46	411.40
687.80	409.27
688.14	407.08
688.48	405.01
688.81	402.81
689.15	400.66
689.49	398.54
689.82	396.48
690.16	394.39
690.50	392.50
690.83	390.53
691.17	388.59
691.51	386.65
691.84	384.85
692.18	382.91
692.52	380.95
692.85	379.05
693.19	377.17
693.52	375.36
693.86	373.56
694.20	371.80
694.53	370.00
694.87	368.11
695.21	366.30
695.54	364.51
695.88	362.81
696.21	361.15
696.55	359.51
696.88	357.83
697.22	356.22
697.56	354.58
697.89	352.92
698.23	351.28
698.56	349.67
698.90	348.07
699.23	346.45
699.57	344.92
699.90	343.33
700.24	341.77
700.58	340.21
700.91	338.71
701.25	337.23
701.58	335.84
701.92	334.48
702.25	333.07
702.59	331.71
702.92	330.38
703.26	329.02
703.59	327.71
703.93	326.50
704.26	325.27
704.60	323.95
704.93	322.68
705.26	321.40
705.60	320.32
705.93	319.12
706.27	318.08
706.60	317.06
706.94	316.00
707.27	314.90
707.61	313.87
707.94	312.83
708.27	311.77
708.61	310.67
708.94	309.67
709.28	308.73
709.61	307.75
709.94	306.76
710.28	305.80
710.61	304.82
710.95	303.74
711.28	302.82
711.61	301.90
711.95	301.02
712.28	300.11
712.61	299.10
712.95	298.21
713.28	297.32
713.61	296.42
713.95	295.51
714.28	294.68
714.61	293.78
714.95	292.96
715.28	292.09
715.61	291.27
715.95	290.40
716.28	289.54
716.61	288.73
716.95	287.94
717.28	287.16
717.61	286.40
717.94	285.70
718.28	284.87
718.61	284.17
718.94	283.47
719.27	282.84
719.61	282.18
719.94	281.52
720.27	280.87
720.60	280.19
720.94	279.56
721.27	278.93
721.60	278.41
721.93	277.83
722.27	277.28
722.60	276.72
722.93	276.18
723.26	275.68
723.59	275.10
723.93	274.56
724.26	274.04
724.59	273.48
724.92	272.91
725.25	272.43
725.59	271.92
725.92	271.40
726.25	270.86
726.58	270.38
726.91	269.93
727.24	269.40
727.57	268.92
727.91	268.40
728.24	267.97
728.57	267.45
728.90	267.01
729.23	266.56
729.56	266.15
729.89	265.70
730.22	265.20
730.55	264.76
730.89	264.32
731.22	263.86
731.55	263.45
731.88	263.08
732.21	262.68
732.54	262.23
732.87	261.82
733.20	261.46
733.53	261.06
733.86	260.68
734.19	260.31
734.52	259.95
734.85	259.65
735.18	259.23
735.51	258.88
735.84	258.48
736.17	258.12
736.50	257.70
736.83	257.44
737.16	257.10
737.49	256.77
737.82	256.40
738.15	256.11
738.48	255.79
738.81	255.43
739.14	255.09
739.47	254.80
739.80	254.51
740.13	254.21
740.46	253.86
740.79	253.50
741.12	253.20
741.45	252.86
741.78	252.52
742.11	252.24
742.44	251.92
742.77	251.66
743.10	251.35
743.43	251.07
743.75	250.68
744.08	250.55
744.41	250.27
744.74	250.01
745.07	249.68
745.40	249.43
745.73	249.23
746.06	248.93
746.39	248.67
746.71	248.36
747.04	248.06
747.37	247.81
747.70	247.57
748.03	247.30
748.36	247.06
748.68	246.84
749.01	246.59
749.34	246.37
749.67	246.10
750.00	245.88
750.33	245.73
750.65	245.54
750.98	245.16
751.31	244.94
751.64	244.74
751.97	244.60
752.29	244.36
752.62	244.10
752.95	243.94
753.28	243.71
753.60	243.49
753.93	243.36
754.26	243.18
754.59	242.95
754.91	242.72
755.24	242.53
755.57	242.30
755.90	242.12
756.22	241.90
756.55	241.68
756.88	241.47
757.20	241.19
757.53	241.02
757.86	240.84
758.19	240.70
758.51	240.51
758.84	240.26
759.17	240.09
759.49	239.93
759.82	239.75
760.15	239.61
760.47	239.50
760.80	239.28
761.13	239.14
761.45	238.99
761.78	238.87
762.11	238.76
762.43	238.59
762.76	238.42
763.08	238.32
763.41	238.22
763.74	238.10
764.06	237.97
764.39	237.81
764.71	237.68
765.04	237.55
765.37	237.39
765.69	237.28
766.02	237.15
766.34	237.01
766.67	236.86
767.00	236.77
767.32	236.67
767.65	236.62
767.97	236.52
768.30	236.41
768.62	236.31
768.95	236.17
769.27	236.10
769.60	236.01
769.92	235.89
770.25	235.73
770.57	235.63
770.90	235.56
771.22	235.44
771.55	235.35
771.87	235.22
772.20	235.17
772.52	235.17
772.85	235.19
773.17	235.12
773.50	235.06
773.82	234.96
774.15	234.81
774.47	234.70
774.80	234.62
775.12	234.52
775.45	234.45
775.77	234.40
776.09	234.33
776.42	234.26
776.74	234.24
777.07	234.20
777.39	234.14
777.72	234.00
778.04	233.97
778.36	233.91
778.69	233.84
779.01	233.77
779.33	233.62
779.66	233.45
779.98	233.37
780.31	233.29
780.63	233.25
780.95	233.24
781.28	233.15
781.60	233.07
781.92	233.01
782.25	232.96
782.57	232.88
782.89	232.77
783.22	232.72
783.54	232.63
783.86	232.57
784.19	232.50
784.51	232.51
784.83	232.43
785.16	232.38
785.48	232.31
785.80	232.26
786.12	232.21
786.45	232.15
786.77	232.12
787.09	232.07
