SpectraSuite Data File
++++++++++++++++++++++++++++++++++++
Date: Fri Feb 01 17:17:59 EST 2013
User: group
Dark Spectrum Present: No
Reference Spectrum Present: No
Number of Sampled Component Spectra: 1
Spectrometers: USB2E7196
Integration Time (usec): 35000 (USB2E7196)
Spectra Averaged: 100 (USB2E7196)
Boxcar Smoothing: 10 (USB2E7196)
Correct for Electrical Dark: No (USB2E7196)
Strobe/Lamp Enabled: No (USB2E7196)
Correct for Detector Non-linearity: No (USB2E7196)
Correct for Stray Light: No (USB2E7196)
Number of Pixels in Processed Spectrum: 2048
>>>>>Begin Processed Spectral Data<<<<<
339.09	0.00
339.48	213.52
339.86	214.19
340.24	215.75
340.63	217.58
341.01	219.97
341.39	220.42
341.78	221.57
342.16	222.34
342.54	222.91
342.93	211.53
343.31	222.25
343.69	222.78
344.07	223.26
344.46	223.70
344.84	224.03
345.22	224.30
345.60	224.54
345.99	224.71
346.37	224.87
346.75	224.97
347.13	225.04
347.52	225.15
347.90	225.23
348.28	225.27
348.66	225.36
349.05	225.35
349.43	225.40
349.81	225.47
350.19	225.52
350.57	225.56
350.96	225.64
351.34	225.70
351.72	225.78
352.10	225.87
352.48	225.93
352.87	226.03
353.25	226.07
353.63	226.11
354.01	226.20
354.39	226.25
354.77	226.35
355.15	226.45
355.54	226.47
355.92	226.50
356.30	226.58
356.68	226.70
357.06	226.77
357.44	226.80
357.82	226.85
358.20	226.94
358.58	227.01
358.97	227.08
359.35	227.15
359.73	227.24
360.11	227.29
360.49	227.34
360.87	227.38
361.25	227.44
361.63	227.55
362.01	227.61
362.39	227.60
362.77	227.62
363.15	227.63
363.53	227.68
363.91	227.69
364.29	227.71
364.67	227.61
365.05	227.60
365.43	227.61
365.81	227.62
366.19	227.62
366.57	227.63
366.95	227.60
367.33	227.56
367.71	227.53
368.09	227.50
368.47	227.48
368.85	227.45
369.23	227.41
369.61	227.30
369.99	227.28
370.37	227.28
370.75	227.31
371.13	227.24
371.51	227.16
371.89	227.12
372.27	227.04
372.65	226.99
373.03	226.98
373.41	226.92
373.78	226.83
374.16	226.73
374.54	226.67
374.92	226.62
375.30	226.54
375.68	226.46
376.06	226.42
376.44	226.38
376.82	226.31
377.19	226.25
377.57	226.21
377.95	226.11
378.33	226.05
378.71	225.89
379.09	225.83
379.47	225.79
379.84	225.73
380.22	225.66
380.60	225.58
380.98	225.48
381.36	225.41
381.73	225.35
382.11	225.26
382.49	225.18
382.87	225.11
383.25	225.05
383.62	225.11
384.00	225.05
384.38	224.97
384.76	224.96
385.13	224.97
385.51	224.92
385.89	224.88
386.27	224.83
386.64	224.81
387.02	224.76
387.40	224.74
387.78	224.72
388.15	224.69
388.53	224.66
388.91	224.65
389.29	224.62
389.66	224.62
390.04	224.62
390.42	224.64
390.79	224.63
391.17	224.64
391.55	224.50
391.92	224.51
392.30	224.53
392.68	224.46
393.05	224.39
393.43	224.39
393.81	224.36
394.18	224.34
394.56	224.36
394.94	224.41
395.31	224.39
395.69	224.40
396.06	224.46
396.44	224.51
396.82	224.50
397.19	224.59
397.57	224.59
397.95	224.64
398.32	224.64
398.70	224.70
399.07	224.78
399.45	224.81
399.82	224.85
400.20	224.88
400.58	224.96
400.95	225.03
401.33	225.12
401.70	225.26
402.08	225.35
402.45	225.48
402.83	225.55
403.20	225.65
403.58	225.75
403.95	225.82
404.33	225.96
404.71	226.09
405.08	226.24
405.46	226.42
405.83	226.52
406.21	226.67
406.58	226.84
406.96	226.97
407.33	227.15
407.70	227.34
408.08	227.61
408.45	227.82
408.83	228.03
409.20	228.26
409.58	228.43
409.95	228.70
410.33	228.91
410.70	229.19
411.08	229.48
411.45	229.79
411.82	230.13
412.20	230.43
412.57	230.87
412.95	231.16
413.32	231.56
413.69	231.99
414.07	232.44
414.44	232.93
414.82	233.38
415.19	233.98
415.56	234.55
415.94	235.08
416.31	235.76
416.68	236.41
417.06	237.14
417.43	237.86
417.81	238.64
418.18	239.48
418.55	240.34
418.93	241.23
419.30	242.17
419.67	243.10
420.04	244.11
420.42	245.12
420.79	246.33
421.16	247.51
421.54	248.74
421.91	250.02
422.28	251.31
422.66	252.66
423.03	253.99
423.40	255.37
423.77	256.86
424.15	258.33
424.52	259.87
424.89	261.49
425.26	263.09
425.64	264.59
426.01	266.24
426.38	267.92
426.75	269.69
427.13	271.45
427.50	273.33
427.87	275.29
428.24	277.24
428.61	279.04
428.99	281.07
429.36	283.27
429.73	285.42
430.10	287.47
430.47	289.65
430.85	291.88
431.22	294.21
431.59	296.64
431.96	298.96
432.33	301.54
432.70	304.06
433.08	306.95
433.45	309.72
433.82	312.38
434.19	315.40
434.56	318.25
434.93	321.02
435.30	323.69
435.68	326.66
436.05	329.55
436.42	332.45
436.79	335.01
437.16	337.82
437.53	340.70
437.90	343.63
438.27	346.43
438.64	349.32
439.01	351.99
439.38	354.27
439.75	356.54
440.13	359.11
440.50	361.47
440.87	363.37
441.24	365.35
441.61	367.59
441.98	369.14
442.35	371.00
442.72	372.93
443.09	374.85
443.46	375.88
443.83	376.49
444.20	377.03
444.57	377.91
444.94	378.22
445.31	378.63
445.68	379.01
446.05	379.10
446.42	378.74
446.79	378.33
447.16	377.93
447.53	377.58
447.90	376.41
448.27	375.22
448.64	373.71
449.01	372.56
449.37	370.57
449.74	368.61
450.11	366.36
450.48	363.81
450.85	361.22
451.22	359.06
451.59	357.04
451.96	355.05
452.33	352.41
452.70	349.97
453.07	347.02
453.43	344.04
453.80	341.23
454.17	338.48
454.54	335.84
454.91	333.07
455.28	330.35
455.65	327.80
456.02	325.31
456.38	323.02
456.75	320.28
457.12	317.97
457.49	315.70
457.86	313.42
458.23	311.56
458.59	309.43
458.96	307.24
459.33	305.32
459.70	303.41
460.07	301.83
460.43	300.05
460.80	298.39
461.17	296.88
461.54	295.29
461.91	293.80
462.27	292.30
462.64	291.00
463.01	289.57
463.38	288.19
463.74	286.77
464.11	285.59
464.48	284.49
464.85	283.29
465.21	282.40
465.58	281.48
465.95	280.30
466.32	279.36
466.68	278.43
467.05	277.51
467.42	276.59
467.78	275.63
468.15	274.70
468.52	274.04
468.88	273.13
469.25	272.38
469.62	271.76
469.98	271.07
470.35	270.39
470.72	269.82
471.08	269.11
471.45	268.60
471.82	268.03
472.18	267.46
472.55	267.07
472.92	266.49
473.28	266.00
473.65	265.57
474.02	265.14
474.38	264.81
474.75	264.49
475.11	264.13
475.48	263.85
475.85	263.61
476.21	263.38
476.58	263.25
476.94	263.11
477.31	262.94
477.67	262.81
478.04	262.72
478.41	262.66
478.77	262.77
479.14	262.69
479.50	262.71
479.87	262.78
480.23	262.82
480.60	262.92
480.96	263.05
481.33	263.27
481.69	263.48
482.06	263.65
482.42	263.83
482.79	264.08
483.15	264.41
483.52	264.79
483.88	265.12
484.25	265.48
484.61	265.92
484.98	266.37
485.34	266.93
485.71	267.52
486.07	268.10
486.44	268.63
486.80	269.33
487.17	270.07
487.53	270.87
487.90	271.74
488.26	272.70
488.62	273.70
488.99	274.65
489.35	275.67
489.72	276.79
490.08	278.01
490.44	279.28
490.81	280.62
491.17	281.98
491.54	283.48
491.90	285.01
492.26	286.62
492.63	288.35
492.99	290.12
493.36	291.99
493.72	294.01
494.08	296.15
494.45	298.39
494.81	300.71
495.17	303.17
495.54	305.72
495.90	308.36
496.26	311.13
496.63	314.06
496.99	317.15
497.35	320.39
497.72	323.79
498.08	327.27
498.44	330.90
498.80	334.87
499.17	338.90
499.53	343.03
499.89	347.39
500.26	351.88
500.62	356.51
500.98	361.43
501.34	366.48
501.71	371.74
502.07	377.19
502.43	382.73
502.79	388.48
503.16	394.44
503.52	400.69
503.88	407.00
504.24	413.59
504.60	420.40
504.97	427.48
505.33	434.71
505.69	442.35
506.05	450.04
506.41	457.74
506.78	465.78
507.14	474.16
507.50	482.72
507.86	491.62
508.22	500.67
508.59	509.75
508.95	519.20
509.31	528.89
509.67	538.83
510.03	549.02
510.39	559.44
510.75	570.15
511.12	580.89
511.48	592.03
511.84	603.33
512.20	614.64
512.56	626.37
512.92	638.33
513.28	650.43
513.64	662.74
514.00	675.26
514.37	687.96
514.73	700.77
515.09	713.65
515.45	726.63
515.81	740.00
516.17	753.72
516.53	767.58
516.89	781.47
517.25	795.32
517.61	809.49
517.97	823.60
518.33	837.81
518.69	852.33
519.05	866.97
519.41	881.77
519.77	896.93
520.13	911.99
520.49	927.12
520.85	942.19
521.21	957.48
521.57	973.35
521.93	988.86
522.29	1004.94
522.65	1020.79
523.01	1036.67
523.37	1052.37
523.73	1068.23
524.09	1083.99
524.45	1099.97
524.81	1116.33
525.17	1132.62
525.53	1149.10
525.89	1165.54
526.25	1181.98
526.61	1198.01
526.97	1214.41
527.33	1230.54
527.68	1246.83
528.04	1262.91
528.40	1279.07
528.76	1295.86
529.12	1312.13
529.48	1328.71
529.84	1344.22
530.20	1360.57
530.56	1377.26
530.91	1394.27
531.27	1410.79
531.63	1426.88
531.99	1443.05
532.35	1458.83
532.71	1474.51
533.07	1490.45
533.42	1506.09
533.78	1521.92
534.14	1538.03
534.50	1553.13
534.86	1568.79
535.21	1583.66
535.57	1599.29
535.93	1614.57
536.29	1629.10
536.65	1643.78
537.00	1658.20
537.36	1673.39
537.72	1687.63
538.08	1701.88
538.44	1715.39
538.79	1729.00
539.15	1742.45
539.51	1756.10
539.87	1770.18
540.22	1783.68
540.58	1797.33
540.94	1810.43
541.29	1822.92
541.65	1835.23
542.01	1848.42
542.37	1860.72
542.72	1873.10
543.08	1884.91
543.44	1897.29
543.79	1908.50
544.15	1919.66
544.51	1931.22
544.87	1942.21
545.22	1953.10
545.58	1963.35
545.94	1973.27
546.29	1983.22
546.65	1993.13
547.01	2002.55
547.36	2011.32
547.72	2020.03
548.07	2028.01
548.43	2036.23
548.79	2044.38
549.14	2052.15
549.50	2059.54
549.86	2067.22
550.21	2074.64
550.57	2081.97
550.92	2088.76
551.28	2095.95
551.64	2103.04
551.99	2109.69
552.35	2115.98
552.70	2122.25
553.06	2128.42
553.41	2134.91
553.77	2140.99
554.13	2147.24
554.48	2153.35
554.84	2159.26
555.19	2164.60
555.55	2170.08
555.90	2174.91
556.26	2180.24
556.61	2185.19
556.97	2189.80
557.32	2194.23
557.68	2198.71
558.03	2203.21
558.39	2206.98
558.74	2211.91
559.10	2216.05
559.45	2219.91
559.81	2224.57
560.16	2228.73
560.52	2232.31
560.87	2235.94
561.23	2238.97
561.58	2242.10
561.94	2245.10
562.29	2247.42
562.64	2250.52
563.00	2253.41
563.35	2257.08
563.71	2260.52
564.06	2264.07
564.42	2267.28
564.77	2270.21
565.12	2272.82
565.48	2275.15
565.83	2277.62
566.19	2279.38
566.54	2280.47
566.89	2282.07
567.25	2283.12
567.60	2284.61
567.96	2286.61
568.31	2287.96
568.66	2289.45
569.02	2290.45
569.37	2291.00
569.72	2292.31
570.08	2292.83
570.43	2293.15
570.78	2293.02
571.14	2291.90
571.49	2290.78
571.84	2290.69
572.20	2289.89
572.55	2289.17
572.90	2287.65
573.26	2286.53
573.61	2284.83
573.96	2283.80
574.31	2281.18
574.67	2278.36
575.02	2275.02
575.37	2271.82
575.72	2268.33
576.08	2265.12
576.43	2262.09
576.78	2258.82
577.13	2255.82
577.49	2252.85
577.84	2249.66
578.19	2246.11
578.54	2242.68
578.90	2238.97
579.25	2233.66
579.60	2229.04
579.95	2224.33
580.30	2219.71
580.66	2214.81
581.01	2210.19
581.36	2205.24
581.71	2201.38
582.06	2197.29
582.42	2193.28
582.77	2188.37
583.12	2184.16
583.47	2179.92
583.82	2175.40
584.17	2170.44
584.53	2165.14
584.88	2159.78
585.23	2154.35
585.58	2149.08
585.93	2143.76
586.28	2139.04
586.63	2134.33
586.98	2129.42
587.34	2124.74
587.69	2120.01
588.04	2114.94
588.39	2109.55
588.74	2103.44
589.09	2097.49
589.44	2090.85
589.79	2084.73
590.14	2079.24
590.49	2072.70
590.84	2066.28
591.19	2060.34
591.54	2054.02
591.89	2047.03
592.25	2040.58
592.60	2033.58
592.95	2026.39
593.30	2019.32
593.65	2011.97
594.00	2004.90
594.35	1997.82
594.70	1990.05
595.05	1983.24
595.40	1976.08
595.75	1968.79
596.10	1962.79
596.45	1956.10
596.80	1950.08
597.15	1943.78
597.50	1937.08
597.85	1930.65
598.19	1924.22
598.54	1917.40
598.89	1910.92
599.24	1905.05
599.59	1898.54
599.94	1892.07
600.29	1885.76
600.64	1879.09
600.99	1871.65
601.34	1865.03
601.69	1858.00
602.04	1851.17
602.39	1843.71
602.74	1836.94
603.08	1830.20
603.43	1823.36
603.78	1816.20
604.13	1809.00
604.48	1801.86
604.83	1794.91
605.18	1788.28
605.53	1780.41
605.87	1772.19
606.22	1764.84
606.57	1756.94
606.92	1749.57
607.27	1742.69
607.62	1735.82
607.96	1728.75
608.31	1722.48
608.66	1714.92
609.01	1707.53
609.36	1700.08
609.70	1692.09
610.05	1684.17
610.40	1676.48
610.75	1668.23
611.10	1660.51
611.44	1651.96
611.79	1643.82
612.14	1635.05
612.49	1625.67
612.83	1617.12
613.18	1609.01
613.53	1600.94
613.88	1592.35
614.22	1583.94
614.57	1575.21
614.92	1567.05
615.27	1559.59
615.61	1550.99
615.96	1542.85
616.31	1535.00
616.65	1527.55
617.00	1519.95
617.35	1512.06
617.70	1503.81
618.04	1495.27
618.39	1486.92
618.74	1479.39
619.08	1470.95
619.43	1463.33
619.78	1456.29
620.12	1449.14
620.47	1441.62
620.82	1433.23
621.16	1425.65
621.51	1417.89
621.85	1410.12
622.20	1401.56
622.55	1392.92
622.89	1384.93
623.24	1377.14
623.59	1369.70
623.93	1362.05
624.28	1354.83
624.62	1347.39
624.97	1340.08
625.32	1333.03
625.66	1325.91
626.01	1318.64
626.35	1311.36
626.70	1303.50
627.04	1295.77
627.39	1287.79
627.73	1280.21
628.08	1273.36
628.43	1266.17
628.77	1258.80
629.12	1251.27
629.46	1244.09
629.81	1236.53
630.15	1229.25
630.50	1221.90
630.84	1213.64
631.19	1205.56
631.53	1197.73
631.88	1190.02
632.22	1182.34
632.57	1175.08
632.91	1167.56
633.26	1160.08
633.60	1152.38
633.95	1145.13
634.29	1137.88
634.64	1131.15
634.98	1123.79
635.32	1116.63
635.67	1109.83
636.01	1103.14
636.36	1096.18
636.70	1089.44
637.05	1082.85
637.39	1076.33
637.73	1069.74
638.08	1063.78
638.42	1057.80
638.77	1051.39
639.11	1044.78
639.45	1038.31
639.80	1031.64
640.14	1025.10
640.49	1018.59
640.83	1012.36
641.17	1006.09
641.52	999.83
641.86	993.29
642.20	987.33
642.55	980.82
642.89	974.28
643.23	967.63
643.58	961.92
643.92	955.72
644.26	949.70
644.61	943.56
644.95	937.47
645.29	930.89
645.64	924.15
645.98	917.73
646.32	911.68
646.66	905.57
647.01	899.65
647.35	893.91
647.69	887.87
648.04	882.26
648.38	876.48
648.72	870.49
649.06	864.52
649.41	858.62
649.75	852.69
650.09	846.73
650.43	840.94
650.78	834.70
651.12	828.69
651.46	822.86
651.80	817.23
652.14	811.76
652.49	806.42
652.83	801.11
653.17	795.52
653.51	789.86
653.85	784.48
654.20	778.90
654.54	772.84
654.88	767.12
655.22	761.15
655.56	755.42
655.90	749.82
656.25	744.54
656.59	739.08
656.93	733.99
657.27	728.89
657.61	723.37
657.95	718.28
658.29	713.17
658.64	707.87
658.98	702.40
659.32	696.87
659.66	691.59
660.00	686.34
660.34	681.28
660.68	676.32
661.02	671.28
661.36	666.47
661.70	662.00
662.05	657.68
662.39	653.37
662.73	648.89
663.07	644.53
663.41	640.03
663.75	635.53
664.09	630.85
664.43	626.38
664.77	622.28
665.11	618.04
665.45	613.89
665.79	609.81
666.13	605.73
666.47	601.61
666.81	597.43
667.15	593.25
667.49	589.33
667.83	585.49
668.17	581.44
668.51	577.43
668.85	573.35
669.19	569.43
669.53	565.58
669.87	561.72
670.21	557.99
670.55	554.31
670.89	550.85
671.23	547.44
671.57	543.85
671.91	540.32
672.25	536.72
672.58	533.16
672.92	529.74
673.26	526.47
673.60	523.33
673.94	520.18
674.28	517.27
674.62	514.34
674.96	511.19
675.30	508.28
675.64	505.29
675.97	502.45
676.31	499.54
676.65	496.62
676.99	493.91
677.33	491.07
677.67	488.25
678.01	485.27
678.34	482.31
678.68	479.44
679.02	476.60
679.36	473.80
679.70	471.12
680.04	468.34
680.37	465.48
680.71	462.66
681.05	460.00
681.39	457.25
681.73	454.50
682.06	451.99
682.40	449.46
682.74	446.88
683.08	444.31
683.42	441.67
683.75	439.13
684.09	436.53
684.43	433.99
684.77	431.53
685.10	429.10
685.44	426.71
685.78	424.36
686.12	422.02
686.45	419.68
686.79	417.36
687.13	415.09
687.46	412.91
687.80	410.72
688.14	408.47
688.48	406.41
688.81	404.16
689.15	401.93
689.49	399.69
689.82	397.62
690.16	395.46
690.50	393.47
690.83	391.54
691.17	389.41
691.51	387.45
691.84	385.55
692.18	383.66
692.52	381.66
692.85	379.71
693.19	377.86
693.52	376.00
693.86	374.14
694.20	372.32
694.53	370.51
694.87	368.61
695.21	366.78
695.54	364.84
695.88	363.10
696.21	361.36
696.55	359.67
696.88	357.93
697.22	356.22
697.56	354.52
697.89	352.82
698.23	351.27
698.56	349.66
698.90	348.05
699.23	346.36
699.57	344.80
699.90	343.22
700.24	341.63
700.58	340.12
700.91	338.60
701.25	337.12
701.58	335.71
701.92	334.35
702.25	332.96
702.59	331.63
702.92	330.26
703.26	328.94
703.59	327.64
703.93	326.46
704.26	325.25
704.60	323.98
704.93	322.64
705.26	321.36
705.60	320.11
705.93	318.92
706.27	317.86
706.60	316.81
706.94	315.74
707.27	314.61
707.61	313.53
707.94	312.51
708.27	311.44
708.61	310.38
708.94	309.39
709.28	308.42
709.61	307.41
709.94	306.48
710.28	305.46
710.61	304.49
710.95	303.34
711.28	302.42
711.61	301.48
711.95	300.57
712.28	299.64
712.61	298.71
712.95	297.78
713.28	296.89
713.61	296.00
713.95	295.10
714.28	294.22
714.61	293.34
714.95	292.49
715.28	291.62
715.61	290.71
715.95	289.82
716.28	288.96
716.61	288.12
716.95	287.29
717.28	286.52
717.61	285.75
717.94	285.03
718.28	284.17
718.61	283.45
718.94	282.77
719.27	282.10
719.61	281.45
719.94	280.79
720.27	280.01
720.60	279.31
720.94	278.66
721.27	278.05
721.60	277.48
721.93	276.89
722.27	276.36
722.60	275.78
722.93	275.19
723.26	274.66
723.59	274.10
723.93	273.56
724.26	273.00
724.59	272.37
724.92	271.84
725.25	271.35
725.59	270.84
725.92	270.33
726.25	269.80
726.58	269.28
726.91	268.77
727.24	268.31
727.57	267.85
727.91	267.34
728.24	266.88
728.57	266.36
728.90	265.86
729.23	265.33
729.56	264.86
729.89	264.36
730.22	263.84
730.55	263.36
730.89	262.85
731.22	262.39
731.55	261.98
731.88	261.49
732.21	261.03
732.54	260.55
732.87	260.08
733.20	259.63
733.53	259.21
733.86	258.80
734.19	258.35
734.52	257.92
734.85	257.63
735.18	257.18
735.51	256.82
735.84	256.45
736.17	256.09
736.50	255.67
736.83	255.45
737.16	255.11
737.49	254.73
737.82	254.40
738.15	254.05
738.48	253.67
738.81	253.35
739.14	253.03
739.47	252.69
739.80	252.38
740.13	252.07
740.46	251.72
740.79	251.41
741.12	251.13
741.45	250.84
741.78	250.45
742.11	250.19
742.44	249.83
742.77	249.52
743.10	249.22
743.43	248.96
743.75	248.53
744.08	248.40
744.41	248.13
744.74	247.84
745.07	247.55
745.40	247.36
745.73	247.13
746.06	246.87
746.39	246.62
746.71	246.34
747.04	246.09
747.37	245.81
747.70	245.58
748.03	245.32
748.36	245.12
748.68	244.90
749.01	244.64
749.34	244.43
749.67	244.23
750.00	244.01
750.33	243.87
750.65	243.69
750.98	243.36
751.31	243.17
751.64	243.00
751.97	242.89
752.29	242.64
752.62	242.39
752.95	242.20
753.28	242.04
753.60	241.85
753.93	241.66
754.26	241.53
754.59	241.31
754.91	241.08
755.24	240.83
755.57	240.62
755.90	240.43
756.22	240.24
756.55	240.03
756.88	239.85
757.20	239.63
757.53	239.42
757.86	239.24
758.19	239.09
758.51	238.90
758.84	238.66
759.17	238.52
759.49	238.36
759.82	238.22
760.15	238.06
760.47	237.90
760.80	237.72
761.13	237.59
761.45	237.43
761.78	237.31
762.11	237.17
762.43	237.04
762.76	236.89
763.08	236.76
763.41	236.61
763.74	236.45
764.06	236.29
764.39	236.18
764.71	236.04
765.04	235.86
765.37	235.73
765.69	235.56
766.02	235.42
766.34	235.30
766.67	235.12
767.00	234.98
767.32	234.93
767.65	234.89
767.97	234.77
768.30	234.64
768.62	234.54
768.95	234.41
769.27	234.31
769.60	234.20
769.92	234.06
770.25	233.94
770.57	233.80
770.90	233.69
771.22	233.56
771.55	233.47
771.87	233.39
772.20	233.28
772.52	233.29
772.85	233.32
773.17	233.23
773.50	233.10
773.82	232.99
774.15	232.83
774.47	232.68
774.80	232.54
775.12	232.47
775.45	232.35
775.77	232.28
776.09	232.17
776.42	232.10
776.74	232.04
777.07	231.95
777.39	231.85
777.72	231.77
778.04	231.71
778.36	231.60
778.69	231.51
779.01	231.46
779.33	231.29
779.66	231.09
779.98	231.00
780.31	230.96
780.63	230.94
780.95	230.89
781.28	230.79
781.60	230.72
781.92	230.65
782.25	230.61
782.57	230.56
782.89	230.49
783.22	230.39
783.54	230.29
783.86	230.24
784.19	230.20
784.51	230.15
784.83	230.10
785.16	230.04
785.48	230.00
785.80	229.94
786.12	229.86
786.45	229.79
786.77	229.77
787.09	229.70
