SpectraSuite Data File
++++++++++++++++++++++++++++++++++++
Date: Fri Feb 01 16:02:40 EST 2013
User: group
Dark Spectrum Present: No
Reference Spectrum Present: No
Number of Sampled Component Spectra: 1
Spectrometers: USB2E7196
Integration Time (usec): 35000 (USB2E7196)
Spectra Averaged: 100 (USB2E7196)
Boxcar Smoothing: 10 (USB2E7196)
Correct for Electrical Dark: No (USB2E7196)
Strobe/Lamp Enabled: No (USB2E7196)
Correct for Detector Non-linearity: No (USB2E7196)
Correct for Stray Light: No (USB2E7196)
Number of Pixels in Processed Spectrum: 2048
>>>>>Begin Processed Spectral Data<<<<<
339.09	0.00
339.48	214.32
339.86	215.94
340.24	217.28
340.63	219.06
341.01	221.73
341.39	221.52
341.78	222.36
342.16	224.38
342.54	224.87
342.93	213.08
343.31	223.84
343.69	224.42
344.07	224.90
344.46	225.33
344.84	225.70
345.22	225.93
345.60	226.18
345.99	226.37
346.37	226.47
346.75	226.55
347.13	226.63
347.52	226.68
347.90	226.76
348.28	226.77
348.66	226.80
349.05	226.77
349.43	226.80
349.81	226.83
350.19	226.86
350.57	226.92
350.96	226.99
351.34	227.07
351.72	227.10
352.10	227.21
352.48	227.28
352.87	227.35
353.25	227.43
353.63	227.51
354.01	227.61
354.39	227.72
354.77	227.82
355.15	227.94
355.54	228.01
355.92	228.04
356.30	228.12
356.68	228.28
357.06	228.35
357.44	228.41
357.82	228.49
358.20	228.57
358.58	228.63
358.97	228.67
359.35	228.76
359.73	228.86
360.11	228.91
360.49	229.00
360.87	229.05
361.25	229.11
361.63	229.16
362.01	229.19
362.39	229.23
362.77	229.24
363.15	229.25
363.53	229.27
363.91	229.30
364.29	229.31
364.67	229.19
365.05	229.22
365.43	229.23
365.81	229.24
366.19	229.30
366.57	229.34
366.95	229.37
367.33	229.33
367.71	229.30
368.09	229.27
368.47	229.21
368.85	229.16
369.23	229.16
369.61	229.07
369.99	229.06
370.37	229.02
370.75	229.07
371.13	228.99
371.51	228.94
371.89	228.89
372.27	228.85
372.65	228.83
373.03	228.77
373.41	228.72
373.78	228.63
374.16	228.48
374.54	228.39
374.92	228.30
375.30	228.27
375.68	228.21
376.06	228.15
376.44	228.10
376.82	228.06
377.19	227.96
377.57	227.93
377.95	227.82
378.33	227.73
378.71	227.58
379.09	227.54
379.47	227.50
379.84	227.43
380.22	227.37
380.60	227.28
380.98	227.19
381.36	227.12
381.73	227.06
382.11	227.02
382.49	226.92
382.87	226.84
383.25	226.76
383.62	226.82
384.00	226.77
384.38	226.69
384.76	226.67
385.13	226.67
385.51	226.64
385.89	226.58
386.27	226.53
386.64	226.52
387.02	226.47
387.40	226.41
387.78	226.36
388.15	226.33
388.53	226.29
388.91	226.25
389.29	226.23
389.66	226.24
390.04	226.18
390.42	226.22
390.79	226.22
391.17	226.20
391.55	226.03
391.92	225.99
392.30	226.01
392.68	225.96
393.05	225.95
393.43	225.97
393.81	226.02
394.18	226.02
394.56	226.03
394.94	226.08
395.31	226.08
395.69	226.13
396.06	226.16
396.44	226.22
396.82	226.30
397.19	226.38
397.57	226.37
397.95	226.45
398.32	226.47
398.70	226.54
399.07	226.59
399.45	226.68
399.82	226.76
400.20	226.82
400.58	226.89
400.95	226.93
401.33	227.03
401.70	227.19
402.08	227.32
402.45	227.41
402.83	227.55
403.20	227.64
403.58	227.75
403.95	227.87
404.33	228.01
404.71	228.11
405.08	228.27
405.46	228.42
405.83	228.58
406.21	228.76
406.58	228.94
406.96	229.13
407.33	229.34
407.70	229.51
408.08	229.77
408.45	229.97
408.83	230.20
409.20	230.38
409.58	230.49
409.95	230.72
410.33	230.98
410.70	231.20
411.08	231.51
411.45	231.86
411.82	232.17
412.20	232.50
412.57	232.95
412.95	233.28
413.32	233.65
413.69	234.06
414.07	234.47
414.44	234.94
414.82	235.43
415.19	235.95
415.56	236.48
415.94	237.02
416.31	237.66
416.68	238.27
417.06	238.99
417.43	239.72
417.81	240.51
418.18	241.28
418.55	242.11
418.93	242.97
419.30	243.85
419.67	244.78
420.04	245.74
420.42	246.69
420.79	247.85
421.16	249.05
421.54	250.24
421.91	251.42
422.28	252.68
422.66	253.94
423.03	255.24
423.40	256.64
423.77	258.06
424.15	259.50
424.52	261.03
424.89	262.63
425.26	264.16
425.64	265.57
426.01	267.15
426.38	268.83
426.75	270.50
427.13	272.20
427.50	273.98
427.87	275.86
428.24	277.68
428.61	279.45
428.99	281.37
429.36	283.49
429.73	285.56
430.10	287.55
430.47	289.66
430.85	291.78
431.22	293.96
431.59	296.35
431.96	298.60
432.33	301.08
432.70	303.46
433.08	306.27
433.45	308.99
433.82	311.61
434.19	314.47
434.56	317.32
434.93	319.99
435.30	322.61
435.68	325.46
436.05	328.30
436.42	331.07
436.79	333.61
437.16	336.25
437.53	339.09
437.90	341.93
438.27	344.66
438.64	347.49
439.01	350.08
439.38	352.29
439.75	354.49
440.13	356.95
440.50	359.26
440.87	361.09
441.24	362.96
441.61	365.14
441.98	366.62
442.35	368.40
442.72	370.27
443.09	372.14
443.46	373.13
443.83	373.73
444.20	374.23
444.57	375.03
444.94	375.35
445.31	375.66
445.68	375.98
446.05	376.07
446.42	375.66
446.79	375.27
447.16	374.83
447.53	374.45
447.90	373.30
448.27	372.16
448.64	370.57
449.01	369.47
449.37	367.52
449.74	365.59
450.11	363.31
450.48	360.79
450.85	358.22
451.22	356.11
451.59	354.07
451.96	352.12
452.33	349.54
452.70	347.19
453.07	344.40
453.43	341.50
453.80	338.70
454.17	336.10
454.54	333.56
454.91	330.85
455.28	328.24
455.65	325.76
456.02	323.31
456.38	321.19
456.75	318.47
457.12	316.20
457.49	314.03
457.86	311.87
458.23	310.06
458.59	308.02
458.96	305.94
459.33	304.11
459.70	302.27
460.07	300.74
460.43	299.05
460.80	297.45
461.17	296.05
461.54	294.57
461.91	293.10
462.27	291.65
462.64	290.42
463.01	289.04
463.38	287.73
463.74	286.36
464.11	285.21
464.48	284.24
464.85	283.14
465.21	282.24
465.58	281.32
465.95	280.19
466.32	279.28
466.68	278.32
467.05	277.45
467.42	276.53
467.78	275.60
468.15	274.72
468.52	274.03
468.88	273.11
469.25	272.37
469.62	271.75
469.98	271.05
470.35	270.38
470.72	269.75
471.08	269.10
471.45	268.58
471.82	268.02
472.18	267.39
472.55	266.92
472.92	266.43
473.28	265.99
473.65	265.58
474.02	265.14
474.38	264.83
474.75	264.49
475.11	264.17
475.48	263.92
475.85	263.68
476.21	263.47
476.58	263.36
476.94	263.21
477.31	263.03
477.67	262.92
478.04	262.83
478.41	262.82
478.77	262.87
479.14	262.84
479.50	262.84
479.87	262.95
480.23	263.06
480.60	263.10
480.96	263.18
481.33	263.39
481.69	263.61
482.06	263.79
482.42	264.00
482.79	264.27
483.15	264.58
483.52	264.97
483.88	265.31
484.25	265.68
484.61	266.12
484.98	266.57
485.34	267.13
485.71	267.72
486.07	268.33
486.44	268.91
486.80	269.61
487.17	270.35
487.53	271.16
487.90	272.07
488.26	273.01
488.62	273.98
488.99	274.92
489.35	275.93
489.72	277.04
490.08	278.25
490.44	279.48
490.81	280.86
491.17	282.23
491.54	283.73
491.90	285.24
492.26	286.88
492.63	288.60
492.99	290.37
493.36	292.28
493.72	294.30
494.08	296.44
494.45	298.63
494.81	301.00
495.17	303.45
495.54	305.98
495.90	308.70
496.26	311.56
496.63	314.54
496.99	317.69
497.35	320.98
497.72	324.34
498.08	327.84
498.44	331.48
498.80	335.40
499.17	339.43
499.53	343.60
499.89	347.96
500.26	352.49
500.62	357.18
500.98	362.14
501.34	367.24
501.71	372.56
502.07	378.02
502.43	383.64
502.79	389.43
503.16	395.49
503.52	401.76
503.88	408.13
504.24	414.77
504.60	421.68
504.97	428.76
505.33	436.07
505.69	443.77
506.05	451.57
506.41	459.44
506.78	467.60
507.14	476.09
507.50	484.83
507.86	493.85
508.22	503.01
508.59	512.23
508.95	521.85
509.31	531.69
509.67	541.84
510.03	552.16
510.39	562.76
510.75	573.57
511.12	584.56
511.48	595.90
511.84	607.37
512.20	618.85
512.56	630.88
512.92	643.10
513.28	655.47
513.64	667.93
514.00	680.61
514.37	693.51
514.73	706.66
515.09	719.76
515.45	733.04
515.81	746.72
516.17	760.71
516.53	774.76
516.89	788.88
517.25	803.07
517.61	817.46
517.97	831.97
518.33	846.37
518.69	861.12
519.05	876.16
519.41	891.36
519.77	906.96
520.13	922.34
520.49	937.70
520.85	953.12
521.21	968.87
521.57	985.16
521.93	1000.93
522.29	1017.20
522.65	1033.33
523.01	1049.56
523.37	1065.56
523.73	1081.78
524.09	1097.76
524.45	1114.02
524.81	1130.53
525.17	1147.31
525.53	1164.07
525.89	1180.94
526.25	1197.62
526.61	1214.03
526.97	1230.79
527.33	1247.13
527.68	1263.68
528.04	1280.21
528.40	1296.77
528.76	1313.75
529.12	1330.31
529.48	1347.21
529.84	1363.16
530.20	1379.81
530.56	1396.84
530.91	1414.24
531.27	1430.87
531.63	1447.48
531.99	1464.03
532.35	1479.93
532.71	1495.74
533.07	1512.03
533.42	1527.96
533.78	1544.08
534.14	1560.23
534.50	1575.39
534.86	1591.35
535.21	1606.51
535.57	1622.36
535.93	1637.90
536.29	1652.59
536.65	1667.57
537.00	1682.18
537.36	1697.45
537.72	1711.93
538.08	1726.18
538.44	1739.86
538.79	1753.75
539.15	1767.32
539.51	1781.01
539.87	1795.33
540.22	1809.06
540.58	1822.67
540.94	1835.89
541.29	1848.73
541.65	1861.28
542.01	1874.57
542.37	1886.68
542.72	1899.11
543.08	1910.85
543.44	1923.16
543.79	1934.39
544.15	1945.44
544.51	1957.08
544.87	1968.05
545.22	1978.78
545.58	1989.09
545.94	1998.87
546.29	2008.77
546.65	2018.60
547.01	2027.91
547.36	2036.66
547.72	2045.17
548.07	2052.93
548.43	2061.19
548.79	2069.28
549.14	2076.83
549.50	2084.01
549.86	2091.75
550.21	2099.04
550.57	2106.19
550.92	2112.62
551.28	2119.67
551.64	2126.67
551.99	2133.18
552.35	2139.33
552.70	2145.43
553.06	2151.36
553.41	2157.57
553.77	2163.58
554.13	2169.67
554.48	2175.81
554.84	2181.32
555.19	2186.53
555.55	2191.68
555.90	2196.02
556.26	2200.80
556.61	2205.56
556.97	2209.80
557.32	2213.92
557.68	2218.05
558.03	2222.36
558.39	2226.10
558.74	2230.79
559.10	2234.64
559.45	2238.25
559.81	2242.57
560.16	2246.47
560.52	2249.68
560.87	2253.11
561.23	2255.83
561.58	2258.81
561.94	2261.36
562.29	2263.75
562.64	2266.35
563.00	2269.02
563.35	2272.63
563.71	2275.74
564.06	2279.08
564.42	2282.15
564.77	2284.69
565.12	2286.99
565.48	2288.90
565.83	2290.73
566.19	2292.00
566.54	2292.91
566.89	2294.13
567.25	2294.60
567.60	2295.95
567.96	2297.70
568.31	2298.70
568.66	2299.68
569.02	2300.16
569.37	2300.46
569.72	2301.15
570.08	2301.35
570.43	2301.61
570.78	2300.95
571.14	2299.41
571.49	2297.97
571.84	2297.52
572.20	2296.47
572.55	2295.46
572.90	2293.91
573.26	2292.71
573.61	2291.06
573.96	2289.24
574.31	2286.29
574.67	2283.50
575.02	2279.89
575.37	2276.33
575.72	2272.59
576.08	2269.33
576.43	2265.94
576.78	2262.36
577.13	2259.25
577.49	2256.27
577.84	2252.48
578.19	2248.89
578.54	2245.41
578.90	2241.15
579.25	2235.64
579.60	2230.59
579.95	2225.60
580.30	2220.70
580.66	2215.54
581.01	2210.59
581.36	2205.81
581.71	2201.63
582.06	2197.08
582.42	2192.67
582.77	2187.60
583.12	2182.99
583.47	2178.21
583.82	2173.35
584.17	2168.13
584.53	2162.63
584.88	2157.04
585.23	2151.45
585.58	2146.02
585.93	2140.28
586.28	2135.49
586.63	2130.57
586.98	2125.51
587.34	2120.71
587.69	2115.68
588.04	2110.21
588.39	2104.57
588.74	2098.14
589.09	2092.03
589.44	2085.20
589.79	2079.34
590.14	2073.79
590.49	2067.27
590.84	2060.98
591.19	2055.00
591.54	2048.44
591.89	2041.22
592.25	2034.34
592.60	2027.09
592.95	2019.46
593.30	2012.35
593.65	2004.92
594.00	1997.79
594.35	1990.68
594.70	1982.63
595.05	1975.57
595.40	1968.49
595.75	1961.02
596.10	1954.81
596.45	1948.03
596.80	1941.86
597.15	1935.10
597.50	1927.97
597.85	1921.55
598.19	1914.79
598.54	1907.57
598.89	1900.96
599.24	1895.02
599.59	1888.30
599.94	1882.12
600.29	1875.81
600.64	1869.23
600.99	1861.64
601.34	1854.88
601.69	1847.96
602.04	1841.21
602.39	1833.80
602.74	1826.94
603.08	1820.15
603.43	1813.35
603.78	1806.08
604.13	1798.91
604.48	1791.52
604.83	1784.57
605.18	1777.48
605.53	1769.42
605.87	1761.51
606.22	1754.30
606.57	1746.44
606.92	1739.23
607.27	1731.96
607.62	1724.92
607.96	1717.59
608.31	1711.01
608.66	1703.32
609.01	1695.60
609.36	1687.99
609.70	1679.95
610.05	1671.88
610.40	1664.29
610.75	1655.98
611.10	1648.26
611.44	1639.82
611.79	1631.97
612.14	1623.24
612.49	1614.12
612.83	1605.87
613.18	1597.73
613.53	1589.51
613.88	1580.88
614.22	1572.61
614.57	1564.17
614.92	1556.25
615.27	1548.66
615.61	1540.35
615.96	1532.35
616.31	1524.85
616.65	1517.48
617.00	1509.91
617.35	1502.30
617.70	1493.86
618.04	1485.41
618.39	1477.26
618.74	1469.68
619.08	1461.28
619.43	1453.84
619.78	1446.92
620.12	1439.68
620.47	1432.08
620.82	1423.99
621.16	1416.61
621.51	1408.96
621.85	1401.24
622.20	1392.57
622.55	1384.26
622.89	1376.49
623.24	1368.82
623.59	1361.41
623.93	1353.83
624.28	1346.71
624.62	1339.09
624.97	1331.90
625.32	1325.15
625.66	1318.10
626.01	1310.99
626.35	1303.51
626.70	1295.68
627.04	1287.98
627.39	1280.21
627.73	1272.88
628.08	1265.90
628.43	1258.53
628.77	1251.10
629.12	1243.75
629.46	1236.66
629.81	1229.25
630.15	1221.99
630.50	1214.56
630.84	1206.29
631.19	1198.50
631.53	1190.98
631.88	1183.54
632.22	1175.90
632.57	1168.60
632.91	1161.02
633.26	1153.59
633.60	1146.30
633.95	1139.27
634.29	1132.21
634.64	1125.63
634.98	1118.24
635.32	1111.14
635.67	1104.59
636.01	1098.02
636.36	1091.11
636.70	1084.56
637.05	1077.99
637.39	1071.43
637.73	1064.85
638.08	1058.97
638.42	1052.84
638.77	1046.26
639.11	1039.62
639.45	1033.33
639.80	1026.66
640.14	1020.26
640.49	1013.68
640.83	1007.36
641.17	1001.12
641.52	994.70
641.86	988.16
642.20	982.30
642.55	976.05
642.89	969.56
643.23	962.94
643.58	957.14
643.92	950.92
644.26	944.80
644.61	938.86
644.95	932.90
645.29	926.32
645.64	919.57
645.98	913.34
646.32	907.48
646.66	901.35
647.01	895.41
647.35	889.69
647.69	883.86
648.04	878.32
648.38	872.49
648.72	866.52
649.06	860.49
649.41	854.61
649.75	848.58
650.09	842.67
650.43	836.95
650.78	830.76
651.12	824.82
651.46	819.01
651.80	813.19
652.14	807.83
652.49	802.52
652.83	797.35
653.17	791.60
653.51	785.85
653.85	780.51
654.20	774.88
654.54	768.85
654.88	763.12
655.22	757.22
655.56	751.52
655.90	746.13
656.25	740.77
656.59	735.40
656.93	730.34
657.27	725.14
657.61	719.67
657.95	714.60
658.29	709.53
658.64	704.41
658.98	699.21
659.32	693.79
659.66	688.46
660.00	683.10
660.34	678.16
660.68	673.28
661.02	668.22
661.36	663.52
661.70	659.03
662.05	654.65
662.39	650.25
662.73	645.82
663.07	641.43
663.41	637.05
663.75	632.52
664.09	627.91
664.43	623.52
664.77	619.44
665.11	615.17
665.45	611.04
665.79	606.89
666.13	602.69
666.47	598.51
666.81	594.38
667.15	590.35
667.49	586.38
667.83	582.56
668.17	578.64
668.51	574.56
668.85	570.54
669.19	566.67
669.53	562.81
669.87	558.92
670.21	555.21
670.55	551.56
670.89	548.22
671.23	544.80
671.57	541.22
671.91	537.58
672.25	534.09
672.58	530.57
672.92	527.17
673.26	524.00
673.60	520.91
673.94	517.78
674.28	514.90
674.62	511.96
674.96	508.88
675.30	505.91
675.64	502.99
675.97	500.20
676.31	497.37
676.65	494.48
676.99	491.76
677.33	488.88
677.67	486.08
678.01	482.97
678.34	479.99
678.68	477.16
679.02	474.43
679.36	471.67
679.70	468.94
680.04	466.18
680.37	463.35
680.71	460.51
681.05	457.91
681.39	455.15
681.73	452.56
682.06	450.01
682.40	447.47
682.74	445.00
683.08	442.48
683.42	439.91
683.75	437.37
684.09	434.80
684.43	432.38
684.77	429.91
685.10	427.63
685.44	425.29
685.78	423.02
686.12	420.77
686.45	418.46
686.79	416.17
687.13	413.96
687.46	411.79
687.80	409.61
688.14	407.41
688.48	405.34
688.81	403.06
689.15	400.91
689.49	398.77
689.82	396.61
690.16	394.49
690.50	392.51
690.83	390.65
691.17	388.69
691.51	386.74
691.84	384.89
692.18	382.90
692.52	380.95
692.85	378.98
693.19	377.07
693.52	375.23
693.86	373.41
694.20	371.62
694.53	369.85
694.87	368.06
695.21	366.26
695.54	364.44
695.88	362.69
696.21	360.94
696.55	359.26
696.88	357.62
697.22	355.99
697.56	354.34
697.89	352.68
698.23	351.07
698.56	349.46
698.90	347.83
699.23	346.20
699.57	344.67
699.90	343.16
700.24	341.62
700.58	340.10
700.91	338.57
701.25	337.10
701.58	335.65
701.92	334.25
702.25	332.92
702.59	331.52
702.92	330.16
703.26	328.85
703.59	327.58
703.93	326.39
704.26	325.15
704.60	323.84
704.93	322.51
705.26	321.26
705.60	320.09
705.93	318.95
706.27	317.92
706.60	316.85
706.94	315.74
707.27	314.60
707.61	313.53
707.94	312.53
708.27	311.51
708.61	310.46
708.94	309.45
709.28	308.44
709.61	307.52
709.94	306.61
710.28	305.61
710.61	304.63
710.95	303.59
711.28	302.64
711.61	301.70
711.95	300.77
712.28	299.81
712.61	298.78
712.95	297.83
713.28	296.93
713.61	296.00
713.95	295.15
714.28	294.34
714.61	293.49
714.95	292.62
715.28	291.72
715.61	290.85
715.95	290.04
716.28	289.15
716.61	288.30
716.95	287.49
717.28	286.76
717.61	285.98
717.94	285.25
718.28	284.47
718.61	283.78
718.94	283.11
719.27	282.46
719.61	281.84
719.94	281.19
720.27	280.50
720.60	279.85
720.94	279.22
721.27	278.62
721.60	278.04
721.93	277.43
722.27	276.89
722.60	276.33
722.93	275.77
723.26	275.26
723.59	274.70
723.93	274.13
724.26	273.58
724.59	273.06
724.92	272.49
725.25	272.02
725.59	271.47
725.92	270.97
726.25	270.48
726.58	270.01
726.91	269.51
727.24	269.05
727.57	268.61
727.91	268.06
728.24	267.58
728.57	267.06
728.90	266.63
729.23	266.15
729.56	265.75
729.89	265.26
730.22	264.77
730.55	264.31
730.89	263.84
731.22	263.39
731.55	262.97
731.88	262.58
732.21	262.10
732.54	261.69
732.87	261.25
733.20	260.85
733.53	260.46
733.86	260.09
734.19	259.67
734.52	259.29
734.85	259.00
735.18	258.57
735.51	258.19
735.84	257.82
736.17	257.46
736.50	257.04
736.83	256.78
737.16	256.46
737.49	256.13
737.82	255.82
738.15	255.48
738.48	255.09
738.81	254.75
739.14	254.45
739.47	254.08
739.80	253.79
740.13	253.49
740.46	253.14
740.79	252.79
741.12	252.50
741.45	252.19
741.78	251.85
742.11	251.57
742.44	251.25
742.77	250.96
743.10	250.67
743.43	250.35
743.75	249.99
744.08	249.83
744.41	249.56
744.74	249.25
745.07	248.97
745.40	248.73
745.73	248.48
746.06	248.18
746.39	247.94
746.71	247.66
747.04	247.36
747.37	247.11
747.70	246.89
748.03	246.61
748.36	246.35
748.68	246.07
749.01	245.86
749.34	245.68
749.67	245.43
750.00	245.20
750.33	245.05
750.65	244.83
750.98	244.47
751.31	244.26
751.64	244.06
751.97	243.92
752.29	243.72
752.62	243.44
752.95	243.22
753.28	243.02
753.60	242.82
753.93	242.68
754.26	242.50
754.59	242.25
754.91	242.07
755.24	241.90
755.57	241.71
755.90	241.50
756.22	241.30
756.55	241.13
756.88	240.94
757.20	240.71
757.53	240.54
757.86	240.38
758.19	240.21
758.51	240.08
758.84	239.90
759.17	239.74
759.49	239.60
759.82	239.49
760.15	239.37
760.47	239.23
760.80	239.04
761.13	238.92
761.45	238.77
761.78	238.63
762.11	238.48
762.43	238.35
762.76	238.22
763.08	238.09
763.41	237.97
763.74	237.85
764.06	237.73
764.39	237.56
764.71	237.41
765.04	237.29
765.37	237.14
765.69	236.98
766.02	236.84
766.34	236.71
766.67	236.55
767.00	236.44
767.32	236.37
767.65	236.31
767.97	236.21
768.30	236.14
768.62	236.04
768.95	235.93
769.27	235.80
769.60	235.69
769.92	235.59
770.25	235.43
770.57	235.32
770.90	235.17
771.22	235.09
771.55	234.99
771.87	234.90
772.20	234.82
772.52	234.84
772.85	234.85
773.17	234.78
773.50	234.71
773.82	234.60
774.15	234.46
774.47	234.31
774.80	234.18
775.12	234.07
775.45	233.96
775.77	233.89
776.09	233.83
776.42	233.73
776.74	233.67
777.07	233.58
777.39	233.50
777.72	233.44
778.04	233.37
778.36	233.30
778.69	233.19
779.01	233.10
779.33	232.91
779.66	232.77
779.98	232.68
780.31	232.61
780.63	232.59
780.95	232.56
781.28	232.50
781.60	232.44
781.92	232.36
782.25	232.30
782.57	232.22
782.89	232.16
783.22	232.10
783.54	231.98
783.86	231.95
784.19	231.86
784.51	231.87
784.83	231.78
785.16	231.70
785.48	231.67
785.80	231.62
786.12	231.57
786.45	231.50
786.77	231.47
787.09	231.42
