SpectraSuite Data File
++++++++++++++++++++++++++++++++++++
Date: Fri Feb 01 15:16:52 EST 2013
User: group
Dark Spectrum Present: No
Reference Spectrum Present: No
Number of Sampled Component Spectra: 1
Spectrometers: USB2E7196
Integration Time (usec): 35000 (USB2E7196)
Spectra Averaged: 100 (USB2E7196)
Boxcar Smoothing: 10 (USB2E7196)
Correct for Electrical Dark: No (USB2E7196)
Strobe/Lamp Enabled: No (USB2E7196)
Correct for Detector Non-linearity: No (USB2E7196)
Correct for Stray Light: No (USB2E7196)
Number of Pixels in Processed Spectrum: 2048
>>>>>Begin Processed Spectral Data<<<<<
339.09	0.00
339.48	215.46
339.86	216.29
340.24	217.78
340.63	219.48
341.01	222.43
341.39	221.77
341.78	223.68
342.16	223.92
342.54	225.15
342.93	213.34
343.31	224.12
343.69	224.64
344.07	225.14
344.46	225.55
344.84	225.94
345.22	226.17
345.60	226.42
345.99	226.60
346.37	226.78
346.75	226.86
347.13	226.93
347.52	226.97
347.90	227.07
348.28	227.08
348.66	227.11
349.05	227.10
349.43	227.14
349.81	227.20
350.19	227.24
350.57	227.33
350.96	227.40
351.34	227.49
351.72	227.58
352.10	227.65
352.48	227.75
352.87	227.78
353.25	227.86
353.63	227.93
354.01	227.98
354.39	228.05
354.77	228.13
355.15	228.20
355.54	228.32
355.92	228.35
356.30	228.43
356.68	228.59
357.06	228.68
357.44	228.75
357.82	228.81
358.20	228.92
358.58	228.98
358.97	229.05
359.35	229.15
359.73	229.22
360.11	229.27
360.49	229.29
360.87	229.35
361.25	229.39
361.63	229.45
362.01	229.51
362.39	229.51
362.77	229.56
363.15	229.61
363.53	229.62
363.91	229.64
364.29	229.62
364.67	229.53
365.05	229.56
365.43	229.58
365.81	229.59
366.19	229.62
366.57	229.66
366.95	229.64
367.33	229.60
367.71	229.59
368.09	229.60
368.47	229.61
368.85	229.60
369.23	229.59
369.61	229.56
369.99	229.55
370.37	229.53
370.75	229.53
371.13	229.49
371.51	229.43
371.89	229.39
372.27	229.35
372.65	229.31
373.03	229.22
373.41	229.13
373.78	229.07
374.16	228.94
374.54	228.84
374.92	228.77
375.30	228.67
375.68	228.58
376.06	228.55
376.44	228.46
376.82	228.36
377.19	228.28
377.57	228.16
377.95	228.05
378.33	227.96
378.71	227.82
379.09	227.73
379.47	227.67
379.84	227.60
380.22	227.51
380.60	227.42
380.98	227.37
381.36	227.33
381.73	227.24
382.11	227.21
382.49	227.11
382.87	227.04
383.25	227.01
383.62	227.04
384.00	226.90
384.38	226.84
384.76	226.81
385.13	226.76
385.51	226.73
385.89	226.68
386.27	226.61
386.64	226.61
387.02	226.55
387.40	226.50
387.78	226.46
388.15	226.43
388.53	226.43
388.91	226.35
389.29	226.29
389.66	226.26
390.04	226.22
390.42	226.24
390.79	226.24
391.17	226.18
391.55	226.07
391.92	226.08
392.30	226.11
392.68	226.12
393.05	226.12
393.43	226.15
393.81	226.17
394.18	226.16
394.56	226.18
394.94	226.24
395.31	226.23
395.69	226.30
396.06	226.36
396.44	226.34
396.82	226.38
397.19	226.49
397.57	226.55
397.95	226.63
398.32	226.67
398.70	226.74
399.07	226.83
399.45	226.94
399.82	227.04
400.20	227.09
400.58	227.16
400.95	227.21
401.33	227.32
401.70	227.45
402.08	227.60
402.45	227.69
402.83	227.84
403.20	227.97
403.58	228.09
403.95	228.21
404.33	228.39
404.71	228.56
405.08	228.76
405.46	228.91
405.83	229.06
406.21	229.21
406.58	229.37
406.96	229.56
407.33	229.73
407.70	229.90
408.08	230.18
408.45	230.38
408.83	230.63
409.20	230.83
409.58	231.06
409.95	231.32
410.33	231.62
410.70	231.85
411.08	232.15
411.45	232.46
411.82	232.81
412.20	233.16
412.57	233.56
412.95	233.87
413.32	234.30
413.69	234.71
414.07	235.15
414.44	235.61
414.82	236.10
415.19	236.66
415.56	237.22
415.94	237.76
416.31	238.44
416.68	239.06
417.06	239.77
417.43	240.43
417.81	241.23
418.18	241.98
418.55	242.83
418.93	243.73
419.30	244.63
419.67	245.54
420.04	246.48
420.42	247.49
420.79	248.67
421.16	249.78
421.54	250.95
421.91	252.20
422.28	253.48
422.66	254.77
423.03	256.08
423.40	257.43
423.77	258.87
424.15	260.30
424.52	261.81
424.89	263.44
425.26	265.02
425.64	266.46
426.01	268.07
426.38	269.74
426.75	271.39
427.13	273.09
427.50	274.94
427.87	276.84
428.24	278.69
428.61	280.41
428.99	282.41
429.36	284.51
429.73	286.52
430.10	288.51
430.47	290.58
430.85	292.67
431.22	294.90
431.59	297.31
431.96	299.54
432.33	302.01
432.70	304.39
433.08	307.18
433.45	309.79
433.82	312.42
434.19	315.30
434.56	318.12
434.93	320.83
435.30	323.44
435.68	326.31
436.05	329.21
436.42	332.07
436.79	334.55
437.16	337.26
437.53	340.15
437.90	343.00
438.27	345.77
438.64	348.65
439.01	351.23
439.38	353.47
439.75	355.65
440.13	358.16
440.50	360.50
440.87	362.38
441.24	364.31
441.61	366.50
441.98	368.02
442.35	369.82
442.72	371.69
443.09	373.53
443.46	374.57
443.83	375.14
444.20	375.58
444.57	376.50
444.94	376.81
445.31	377.14
445.68	377.50
446.05	377.55
446.42	377.13
446.79	376.73
447.16	376.23
447.53	375.91
447.90	374.75
448.27	373.56
448.64	371.97
449.01	370.87
449.37	368.84
449.74	366.90
450.11	364.65
450.48	362.12
450.85	359.58
451.22	357.41
451.59	355.36
451.96	353.41
452.33	350.70
452.70	348.31
453.07	345.42
453.43	342.46
453.80	339.73
454.17	337.05
454.54	334.49
454.91	331.76
455.28	329.06
455.65	326.54
456.02	324.07
456.38	321.92
456.75	319.25
457.12	316.97
457.49	314.77
457.86	312.60
458.23	310.73
458.59	308.63
458.96	306.54
459.33	304.68
459.70	302.83
460.07	301.35
460.43	299.67
460.80	298.10
461.17	296.66
461.54	295.13
461.91	293.73
462.27	292.27
462.64	290.99
463.01	289.63
463.38	288.38
463.74	287.04
464.11	285.85
464.48	284.81
464.85	283.71
465.21	282.84
465.58	281.90
465.95	280.81
466.32	279.90
466.68	278.96
467.05	278.06
467.42	277.18
467.78	276.25
468.15	275.34
468.52	274.68
468.88	273.82
469.25	273.04
469.62	272.41
469.98	271.76
470.35	271.16
470.72	270.57
471.08	269.87
471.45	269.33
471.82	268.77
472.18	268.15
472.55	267.71
472.92	267.17
473.28	266.73
473.65	266.26
474.02	265.80
474.38	265.44
474.75	265.11
475.11	264.74
475.48	264.47
475.85	264.21
476.21	263.96
476.58	263.79
476.94	263.63
477.31	263.41
477.67	263.21
478.04	263.06
478.41	263.01
478.77	263.05
479.14	262.95
479.50	262.98
479.87	263.04
480.23	263.09
480.60	263.16
480.96	263.21
481.33	263.44
481.69	263.65
482.06	263.85
482.42	264.06
482.79	264.30
483.15	264.61
483.52	265.00
483.88	265.32
484.25	265.67
484.61	266.09
484.98	266.56
485.34	267.14
485.71	267.73
486.07	268.33
486.44	268.89
486.80	269.60
487.17	270.30
487.53	271.10
487.90	271.97
488.26	272.89
488.62	273.88
488.99	274.80
489.35	275.82
489.72	276.95
490.08	278.12
490.44	279.36
490.81	280.72
491.17	282.09
491.54	283.58
491.90	285.07
492.26	286.73
492.63	288.47
492.99	290.25
493.36	292.14
493.72	294.15
494.08	296.25
494.45	298.49
494.81	300.85
495.17	303.30
495.54	305.86
495.90	308.53
496.26	311.34
496.63	314.32
496.99	317.41
497.35	320.65
497.72	324.07
498.08	327.59
498.44	331.22
498.80	335.11
499.17	339.14
499.53	343.36
499.89	347.66
500.26	352.17
500.62	356.85
500.98	361.83
501.34	366.91
501.71	372.20
502.07	377.66
502.43	383.27
502.79	389.04
503.16	395.13
503.52	401.36
503.88	407.73
504.24	414.34
504.60	421.23
504.97	428.34
505.33	435.62
505.69	443.38
506.05	451.17
506.41	459.04
506.78	467.24
507.14	475.66
507.50	484.43
507.86	493.41
508.22	502.57
508.59	511.80
508.95	521.40
509.31	531.23
509.67	541.32
510.03	551.57
510.39	562.18
510.75	573.04
511.12	583.95
511.48	595.28
511.84	606.78
512.20	618.34
512.56	630.31
512.92	642.49
513.28	654.76
513.64	667.18
514.00	679.87
514.37	692.82
514.73	705.94
515.09	718.99
515.45	732.28
515.81	745.90
516.17	759.88
516.53	774.00
516.89	788.21
517.25	802.36
517.61	816.85
517.97	831.32
518.33	845.62
518.69	860.41
519.05	875.46
519.41	890.62
519.77	906.23
520.13	921.81
520.49	937.31
520.85	952.76
521.21	968.61
521.57	984.92
521.93	1000.74
522.29	1017.19
522.65	1033.49
523.01	1049.79
523.37	1065.80
523.73	1082.10
524.09	1098.24
524.45	1114.68
524.81	1131.41
525.17	1148.33
525.53	1165.29
525.89	1182.29
526.25	1199.30
526.61	1215.75
526.97	1232.58
527.33	1249.08
527.68	1265.70
528.04	1282.30
528.40	1298.96
528.76	1316.07
529.12	1332.78
529.48	1349.62
529.84	1365.63
530.20	1382.23
530.56	1399.36
530.91	1416.79
531.27	1433.56
531.63	1450.10
531.99	1466.76
532.35	1482.78
532.71	1498.76
533.07	1515.11
533.42	1531.05
533.78	1547.13
534.14	1563.37
534.50	1578.81
534.86	1594.68
535.21	1609.72
535.57	1625.78
535.93	1641.40
536.29	1656.26
536.65	1671.30
537.00	1686.32
537.36	1701.67
537.72	1716.39
538.08	1730.76
538.44	1744.68
538.79	1758.56
539.15	1772.31
539.51	1786.03
539.87	1800.55
540.22	1814.13
540.58	1827.92
540.94	1841.42
541.29	1854.46
541.65	1867.31
542.01	1880.70
542.37	1893.19
542.72	1905.79
543.08	1917.50
543.44	1929.99
543.79	1941.30
544.15	1952.39
544.51	1963.93
544.87	1975.01
545.22	1985.84
545.58	1996.09
545.94	2005.88
546.29	2015.90
546.65	2025.79
547.01	2035.01
547.36	2043.75
547.72	2052.31
548.07	2060.23
548.43	2068.47
548.79	2076.42
549.14	2083.93
549.50	2091.14
549.86	2098.85
550.21	2106.18
550.57	2113.33
550.92	2119.84
551.28	2126.92
551.64	2133.94
551.99	2140.44
552.35	2146.77
552.70	2152.82
553.06	2158.76
553.41	2165.14
553.77	2171.11
554.13	2177.28
554.48	2183.41
554.84	2188.75
555.19	2194.34
555.55	2199.55
555.90	2203.98
556.26	2208.79
556.61	2213.63
556.97	2217.89
557.32	2221.95
557.68	2226.18
558.03	2230.40
558.39	2234.20
558.74	2238.82
559.10	2242.71
559.45	2246.35
559.81	2250.42
560.16	2254.20
560.52	2257.52
560.87	2261.02
561.23	2263.60
561.58	2266.40
561.94	2268.90
562.29	2271.36
562.64	2273.93
563.00	2276.45
563.35	2279.87
563.71	2282.95
564.06	2286.06
564.42	2288.87
564.77	2291.27
565.12	2293.38
565.48	2295.34
565.83	2297.08
566.19	2298.32
566.54	2299.24
566.89	2300.43
567.25	2301.04
567.60	2302.53
567.96	2304.11
568.31	2304.81
568.66	2305.83
569.02	2306.45
569.37	2306.78
569.72	2307.44
570.08	2307.46
570.43	2307.41
570.78	2306.70
571.14	2305.13
571.49	2303.77
571.84	2303.45
572.20	2302.30
572.55	2301.20
572.90	2299.62
573.26	2298.21
573.61	2296.46
573.96	2294.47
574.31	2291.42
574.67	2288.39
575.02	2284.73
575.37	2281.37
575.72	2277.42
576.08	2274.05
576.43	2270.68
576.78	2266.99
577.13	2263.81
577.49	2260.66
577.84	2256.95
578.19	2253.19
578.54	2249.44
578.90	2245.06
579.25	2239.35
579.60	2234.16
579.95	2229.15
580.30	2224.00
580.66	2218.56
581.01	2213.50
581.36	2208.52
581.71	2204.03
582.06	2199.51
582.42	2194.83
582.77	2189.35
583.12	2184.73
583.47	2179.95
583.82	2174.70
584.17	2169.18
584.53	2163.62
584.88	2157.81
585.23	2151.91
585.58	2146.39
585.93	2140.95
586.28	2136.21
586.63	2131.10
586.98	2126.03
587.34	2121.11
587.69	2116.13
588.04	2110.80
588.39	2105.05
588.74	2098.61
589.09	2092.41
589.44	2085.42
589.79	2079.28
590.14	2073.61
590.49	2066.97
590.84	2060.41
591.19	2054.26
591.54	2047.77
591.89	2040.14
592.25	2033.27
592.60	2026.08
592.95	2018.30
593.30	2010.83
593.65	2002.99
594.00	1995.83
594.35	1988.66
594.70	1980.69
595.05	1973.32
595.40	1966.07
595.75	1958.50
596.10	1952.08
596.45	1945.29
596.80	1939.04
597.15	1932.32
597.50	1925.17
597.85	1918.74
598.19	1912.14
598.54	1905.13
598.89	1898.47
599.24	1892.65
599.59	1885.81
599.94	1879.59
600.29	1873.37
600.64	1866.70
600.99	1859.24
601.34	1852.42
601.69	1845.39
602.04	1838.35
602.39	1831.07
602.74	1824.18
603.08	1817.47
603.43	1810.71
603.78	1803.43
604.13	1796.18
604.48	1788.82
604.83	1781.95
605.18	1774.86
605.53	1766.76
605.87	1758.61
606.22	1751.34
606.57	1743.33
606.92	1736.13
607.27	1728.90
607.62	1721.97
607.96	1714.64
608.31	1707.91
608.66	1700.16
609.01	1692.60
609.36	1685.02
609.70	1676.88
610.05	1668.70
610.40	1661.01
610.75	1652.80
611.10	1645.15
611.44	1636.79
611.79	1628.85
612.14	1620.27
612.49	1611.13
612.83	1602.72
613.18	1594.65
613.53	1586.57
613.88	1578.09
614.22	1569.80
614.57	1561.22
614.92	1553.05
615.27	1545.49
615.61	1537.24
615.96	1529.24
616.31	1521.47
616.65	1514.09
617.00	1506.60
617.35	1499.07
617.70	1490.52
618.04	1481.84
618.39	1473.61
618.74	1465.96
619.08	1457.70
619.43	1450.05
619.78	1443.15
620.12	1436.06
620.47	1428.49
620.82	1420.34
621.16	1412.93
621.51	1405.34
621.85	1397.78
622.20	1389.32
622.55	1381.02
622.89	1373.20
623.24	1365.71
623.59	1358.51
623.93	1351.00
624.28	1343.74
624.62	1336.14
624.97	1329.02
625.32	1322.35
625.66	1315.20
626.01	1308.06
626.35	1300.53
626.70	1292.80
627.04	1285.06
627.39	1277.32
627.73	1269.86
628.08	1262.92
628.43	1255.54
628.77	1248.05
629.12	1240.38
629.46	1233.15
629.81	1225.82
630.15	1218.60
630.50	1211.14
630.84	1202.89
631.19	1195.05
631.53	1187.53
631.88	1180.13
632.22	1172.62
632.57	1165.43
632.91	1158.02
633.26	1150.60
633.60	1143.34
633.95	1136.31
634.29	1129.28
634.64	1122.52
634.98	1115.26
635.32	1108.22
635.67	1101.84
636.01	1095.26
636.36	1088.53
636.70	1082.15
637.05	1075.57
637.39	1069.09
637.73	1062.64
638.08	1056.70
638.42	1050.66
638.77	1044.28
639.11	1037.60
639.45	1031.27
639.80	1024.52
640.14	1018.03
640.49	1011.48
640.83	1005.21
641.17	998.99
641.52	992.74
641.86	986.42
642.20	980.67
642.55	974.33
642.89	967.73
643.23	961.24
643.58	955.44
643.92	949.16
644.26	943.04
644.61	937.00
644.95	930.89
645.29	924.36
645.64	917.62
645.98	911.36
646.32	905.57
646.66	899.48
647.01	893.74
647.35	888.12
647.69	882.32
648.04	876.74
648.38	870.89
648.72	864.81
649.06	858.71
649.41	852.71
649.75	846.67
650.09	840.73
650.43	834.91
650.78	828.79
651.12	822.88
651.46	817.21
651.80	811.51
652.14	806.16
652.49	800.82
652.83	795.65
653.17	789.80
653.51	784.03
653.85	778.69
654.20	773.02
654.54	767.06
654.88	761.37
655.22	755.50
655.56	749.83
655.90	744.39
656.25	739.16
656.59	733.84
656.93	728.82
657.27	723.63
657.61	718.24
657.95	713.17
658.29	708.09
658.64	702.83
658.98	697.49
659.32	692.04
659.66	686.79
660.00	681.49
660.34	676.66
660.68	671.71
661.02	666.66
661.36	661.95
661.70	657.34
662.05	652.96
662.39	648.58
662.73	644.13
663.07	639.78
663.41	635.31
663.75	630.83
664.09	626.29
664.43	621.93
664.77	617.79
665.11	613.49
665.45	609.41
665.79	605.31
666.13	601.21
666.47	597.09
666.81	592.93
667.15	588.86
667.49	584.92
667.83	581.20
668.17	577.27
668.51	573.22
668.85	569.28
669.19	565.43
669.53	561.61
669.87	557.76
670.21	554.06
670.55	550.50
670.89	547.05
671.23	543.60
671.57	540.08
671.91	536.60
672.25	533.19
672.58	529.65
672.92	526.31
673.26	523.21
673.60	520.09
673.94	517.02
674.28	514.10
674.62	511.18
674.96	508.05
675.30	505.15
675.64	502.25
675.97	499.49
676.31	496.65
676.65	493.73
676.99	491.03
677.33	488.23
677.67	485.43
678.01	482.43
678.34	479.46
678.68	476.66
679.02	473.83
679.36	471.09
679.70	468.40
680.04	465.62
680.37	462.78
680.71	460.06
681.05	457.49
681.39	454.81
681.73	452.19
682.06	449.73
682.40	447.19
682.74	444.69
683.08	442.16
683.42	439.64
683.75	437.17
684.09	434.65
684.43	432.18
684.77	429.71
685.10	427.42
685.44	425.14
685.78	422.86
686.12	420.62
686.45	418.29
686.79	416.05
687.13	413.88
687.46	411.69
687.80	409.53
688.14	407.31
688.48	405.28
688.81	402.99
689.15	400.83
689.49	398.64
689.82	396.55
690.16	394.48
690.50	392.45
690.83	390.52
691.17	388.55
691.51	386.66
691.84	384.80
692.18	382.82
692.52	380.86
692.85	378.96
693.19	377.09
693.52	375.30
693.86	373.46
694.20	371.71
694.53	369.93
694.87	368.08
695.21	366.29
695.54	364.45
695.88	362.79
696.21	361.08
696.55	359.48
696.88	357.81
697.22	356.15
697.56	354.58
697.89	352.89
698.23	351.24
698.56	349.65
698.90	348.03
699.23	346.39
699.57	344.83
699.90	343.29
700.24	341.73
700.58	340.17
700.91	338.64
701.25	337.14
701.58	335.74
701.92	334.38
702.25	333.01
702.59	331.67
702.92	330.33
703.26	329.01
703.59	327.72
703.93	326.53
704.26	325.28
704.60	323.96
704.93	322.71
705.26	321.47
705.60	320.28
705.93	319.15
706.27	318.12
706.60	317.04
706.94	315.90
707.27	314.78
707.61	313.73
707.94	312.73
708.27	311.66
708.61	310.57
708.94	309.58
709.28	308.54
709.61	307.54
709.94	306.55
710.28	305.55
710.61	304.51
710.95	303.40
711.28	302.52
711.61	301.61
711.95	300.70
712.28	299.75
712.61	298.76
712.95	297.79
713.28	296.90
713.61	296.04
713.95	295.18
714.28	294.37
714.61	293.51
714.95	292.68
715.28	291.81
715.61	290.98
715.95	290.15
716.28	289.32
716.61	288.52
716.95	287.73
717.28	287.01
717.61	286.27
717.94	285.59
718.28	284.77
718.61	284.01
718.94	283.34
719.27	282.69
719.61	282.07
719.94	281.44
720.27	280.77
720.60	280.11
720.94	279.49
721.27	278.87
721.60	278.30
721.93	277.70
722.27	277.16
722.60	276.62
722.93	276.01
723.26	275.51
723.59	274.93
723.93	274.36
724.26	273.81
724.59	273.27
724.92	272.73
725.25	272.27
725.59	271.78
725.92	271.29
726.25	270.78
726.58	270.30
726.91	269.81
727.24	269.31
727.57	268.88
727.91	268.38
728.24	267.93
728.57	267.46
728.90	267.01
729.23	266.53
729.56	266.11
729.89	265.67
730.22	265.17
730.55	264.74
730.89	264.33
731.22	263.85
731.55	263.41
731.88	262.99
732.21	262.57
732.54	262.13
732.87	261.70
733.20	261.29
733.53	260.92
733.86	260.53
734.19	260.15
734.52	259.73
734.85	259.41
735.18	259.00
735.51	258.62
735.84	258.25
736.17	257.89
736.50	257.49
736.83	257.24
737.16	256.92
737.49	256.61
737.82	256.26
738.15	255.97
738.48	255.65
738.81	255.34
739.14	255.00
739.47	254.68
739.80	254.38
740.13	254.11
740.46	253.79
740.79	253.47
741.12	253.16
741.45	252.83
741.78	252.49
742.11	252.19
742.44	251.85
742.77	251.54
743.10	251.26
743.43	250.95
743.75	250.57
744.08	250.38
744.41	250.06
744.74	249.78
745.07	249.49
745.40	249.23
745.73	248.94
746.06	248.65
746.39	248.37
746.71	248.06
747.04	247.77
747.37	247.51
747.70	247.26
748.03	247.00
748.36	246.80
748.68	246.52
749.01	246.26
749.34	246.06
749.67	245.85
750.00	245.59
750.33	245.43
750.65	245.18
750.98	244.85
751.31	244.64
751.64	244.43
751.97	244.22
752.29	243.99
752.62	243.74
752.95	243.53
753.28	243.28
753.60	243.06
753.93	242.91
754.26	242.66
754.59	242.43
754.91	242.20
755.24	241.99
755.57	241.81
755.90	241.65
756.22	241.45
756.55	241.25
756.88	241.04
757.20	240.81
757.53	240.63
757.86	240.47
758.19	240.31
758.51	240.16
758.84	239.95
759.17	239.77
759.49	239.61
759.82	239.51
760.15	239.41
760.47	239.29
760.80	239.07
761.13	238.98
761.45	238.82
761.78	238.73
762.11	238.59
762.43	238.46
762.76	238.31
763.08	238.19
763.41	238.06
763.74	237.98
764.06	237.84
764.39	237.70
764.71	237.57
765.04	237.44
765.37	237.30
765.69	237.18
766.02	237.07
766.34	236.96
766.67	236.82
767.00	236.75
767.32	236.67
767.65	236.63
767.97	236.51
768.30	236.43
768.62	236.29
768.95	236.17
769.27	236.07
769.60	236.01
769.92	235.90
770.25	235.78
770.57	235.66
770.90	235.55
771.22	235.44
771.55	235.38
771.87	235.29
772.20	235.18
772.52	235.19
772.85	235.22
773.17	235.14
773.50	235.01
773.82	234.89
774.15	234.78
774.47	234.64
774.80	234.56
775.12	234.48
775.45	234.41
775.77	234.33
776.09	234.26
776.42	234.14
776.74	234.07
777.07	233.98
777.39	233.91
777.72	233.85
778.04	233.81
778.36	233.71
778.69	233.66
779.01	233.63
779.33	233.48
779.66	233.30
779.98	233.22
780.31	233.21
780.63	233.14
780.95	233.13
781.28	233.06
781.60	232.99
781.92	232.94
782.25	232.87
782.57	232.83
782.89	232.75
783.22	232.69
783.54	232.65
783.86	232.63
784.19	232.56
784.51	232.53
784.83	232.49
785.16	232.44
785.48	232.38
785.80	232.31
786.12	232.24
786.45	232.22
786.77	232.19
787.09	232.10
