SpectraSuite Data File
++++++++++++++++++++++++++++++++++++
Date: Fri Feb 01 16:28:34 EST 2013
User: group
Dark Spectrum Present: No
Reference Spectrum Present: No
Number of Sampled Component Spectra: 1
Spectrometers: USB2E7196
Integration Time (usec): 35000 (USB2E7196)
Spectra Averaged: 100 (USB2E7196)
Boxcar Smoothing: 10 (USB2E7196)
Correct for Electrical Dark: No (USB2E7196)
Strobe/Lamp Enabled: No (USB2E7196)
Correct for Detector Non-linearity: No (USB2E7196)
Correct for Stray Light: No (USB2E7196)
Number of Pixels in Processed Spectrum: 2048
>>>>>Begin Processed Spectral Data<<<<<
339.09	0.00
339.48	214.17
339.86	215.65
340.24	217.13
340.63	218.28
341.01	221.30
341.39	220.90
341.78	223.20
342.16	223.71
342.54	224.14
342.93	212.54
343.31	223.30
343.69	223.84
344.07	224.30
344.46	224.70
344.84	225.07
345.22	225.31
345.60	225.53
345.99	225.66
346.37	225.76
346.75	225.85
347.13	225.89
347.52	225.95
347.90	225.99
348.28	225.96
348.66	225.98
349.05	225.96
349.43	225.98
349.81	226.01
350.19	226.02
350.57	226.07
350.96	226.11
351.34	226.18
351.72	226.23
352.10	226.31
352.48	226.38
352.87	226.42
353.25	226.47
353.63	226.52
354.01	226.59
354.39	226.70
354.77	226.78
355.15	226.85
355.54	226.93
355.92	226.97
356.30	227.09
356.68	227.25
357.06	227.33
357.44	227.37
357.82	227.45
358.20	227.58
358.58	227.66
358.97	227.74
359.35	227.80
359.73	227.86
360.11	227.88
360.49	227.96
360.87	228.03
361.25	228.06
361.63	228.14
362.01	228.20
362.39	228.18
362.77	228.23
363.15	228.26
363.53	228.30
363.91	228.31
364.29	228.29
364.67	228.19
365.05	228.20
365.43	228.24
365.81	228.26
366.19	228.29
366.57	228.32
366.95	228.32
367.33	228.32
367.71	228.35
368.09	228.38
368.47	228.36
368.85	228.31
369.23	228.35
369.61	228.35
369.99	228.36
370.37	228.39
370.75	228.40
371.13	228.37
371.51	228.31
371.89	228.31
372.27	228.29
372.65	228.29
373.03	228.24
373.41	228.19
373.78	228.13
374.16	228.02
374.54	227.94
374.92	227.88
375.30	227.83
375.68	227.73
376.06	227.67
376.44	227.63
376.82	227.60
377.19	227.52
377.57	227.42
377.95	227.35
378.33	227.25
378.71	227.12
379.09	227.08
379.47	227.06
379.84	226.99
380.22	226.93
380.60	226.85
380.98	226.77
381.36	226.71
381.73	226.61
382.11	226.57
382.49	226.52
382.87	226.42
383.25	226.35
383.62	226.42
384.00	226.36
384.38	226.28
384.76	226.22
385.13	226.21
385.51	226.16
385.89	226.05
386.27	226.02
386.64	225.99
387.02	225.91
387.40	225.86
387.78	225.81
388.15	225.77
388.53	225.73
388.91	225.73
389.29	225.72
389.66	225.72
390.04	225.70
390.42	225.71
390.79	225.73
391.17	225.70
391.55	225.56
391.92	225.58
392.30	225.60
392.68	225.58
393.05	225.56
393.43	225.55
393.81	225.59
394.18	225.56
394.56	225.55
394.94	225.58
395.31	225.59
395.69	225.64
396.06	225.68
396.44	225.69
396.82	225.67
397.19	225.74
397.57	225.77
397.95	225.79
398.32	225.80
398.70	225.84
399.07	225.90
399.45	225.96
399.82	225.99
400.20	226.01
400.58	226.10
400.95	226.12
401.33	226.23
401.70	226.35
402.08	226.42
402.45	226.51
402.83	226.62
403.20	226.71
403.58	226.79
403.95	226.87
404.33	226.99
404.71	227.12
405.08	227.30
405.46	227.42
405.83	227.56
406.21	227.67
406.58	227.83
406.96	228.01
407.33	228.18
407.70	228.36
408.08	228.65
408.45	228.83
408.83	229.06
409.20	229.29
409.58	229.48
409.95	229.78
410.33	230.08
410.70	230.33
411.08	230.65
411.45	230.95
411.82	231.24
412.20	231.58
412.57	232.01
412.95	232.28
413.32	232.69
413.69	233.10
414.07	233.56
414.44	234.01
414.82	234.50
415.19	235.05
415.56	235.56
415.94	236.10
416.31	236.76
416.68	237.40
417.06	238.10
417.43	238.78
417.81	239.54
418.18	240.28
418.55	241.10
418.93	241.97
419.30	242.89
419.67	243.86
420.04	244.82
420.42	245.82
420.79	247.02
421.16	248.18
421.54	249.39
421.91	250.62
422.28	251.88
422.66	253.23
423.03	254.52
423.40	255.89
423.77	257.30
424.15	258.71
424.52	260.19
424.89	261.83
425.26	263.39
425.64	264.84
426.01	266.47
426.38	268.11
426.75	269.76
427.13	271.47
427.50	273.27
427.87	275.18
428.24	277.03
428.61	278.76
428.99	280.66
429.36	282.75
429.73	284.81
430.10	286.83
430.47	288.82
430.85	290.97
431.22	293.16
431.59	295.52
431.96	297.74
432.33	300.19
432.70	302.50
433.08	305.26
433.45	307.88
433.82	310.45
434.19	313.33
434.56	316.15
434.93	318.80
435.30	321.41
435.68	324.27
436.05	327.08
436.42	329.85
436.79	332.34
437.16	335.05
437.53	337.85
437.90	340.66
438.27	343.42
438.64	346.18
439.01	348.80
439.38	351.04
439.75	353.22
440.13	355.71
440.50	358.02
440.87	359.84
441.24	361.73
441.61	363.92
441.98	365.41
442.35	367.18
442.72	369.00
443.09	370.83
443.46	371.81
443.83	372.42
444.20	372.93
444.57	373.75
444.94	374.01
445.31	374.34
445.68	374.64
446.05	374.70
446.42	374.31
446.79	373.88
447.16	373.43
447.53	373.10
447.90	371.98
448.27	370.86
448.64	369.30
449.01	368.20
449.37	366.22
449.74	364.36
450.11	362.16
450.48	359.70
450.85	357.13
451.22	355.02
451.59	353.01
451.96	351.10
452.33	348.55
452.70	346.17
453.07	343.35
453.43	340.50
453.80	337.76
454.17	335.13
454.54	332.64
454.91	329.90
455.28	327.29
455.65	324.84
456.02	322.41
456.38	320.28
456.75	317.58
457.12	315.31
457.49	313.07
457.86	310.91
458.23	309.07
458.59	307.07
458.96	304.98
459.33	303.14
459.70	301.30
460.07	299.87
460.43	298.17
460.80	296.64
461.17	295.18
461.54	293.73
461.91	292.34
462.27	290.87
462.64	289.66
463.01	288.30
463.38	286.98
463.74	285.63
464.11	284.47
464.48	283.54
464.85	282.49
465.21	281.60
465.58	280.67
465.95	279.60
466.32	278.69
466.68	277.78
467.05	276.84
467.42	275.93
467.78	274.98
468.15	274.13
468.52	273.45
468.88	272.65
469.25	271.86
469.62	271.18
469.98	270.53
470.35	269.91
470.72	269.29
471.08	268.67
471.45	268.10
471.82	267.58
472.18	266.96
472.55	266.53
472.92	266.04
473.28	265.59
473.65	265.17
474.02	264.73
474.38	264.38
474.75	264.13
475.11	263.79
475.48	263.51
475.85	263.30
476.21	263.06
476.58	262.86
476.94	262.69
477.31	262.54
477.67	262.37
478.04	262.22
478.41	262.19
478.77	262.19
479.14	262.17
479.50	262.18
479.87	262.27
480.23	262.34
480.60	262.41
480.96	262.51
481.33	262.69
481.69	262.92
482.06	263.10
482.42	263.25
482.79	263.50
483.15	263.84
483.52	264.18
483.88	264.53
484.25	264.91
484.61	265.37
484.98	265.84
485.34	266.42
485.71	267.03
486.07	267.64
486.44	268.24
486.80	268.94
487.17	269.68
487.53	270.48
487.90	271.30
488.26	272.21
488.62	273.17
488.99	274.15
489.35	275.15
489.72	276.28
490.08	277.52
490.44	278.81
490.81	280.12
491.17	281.51
491.54	282.99
491.90	284.53
492.26	286.17
492.63	287.91
492.99	289.68
493.36	291.58
493.72	293.63
494.08	295.73
494.45	297.97
494.81	300.36
495.17	302.84
495.54	305.45
495.90	308.20
496.26	311.04
496.63	314.03
496.99	317.23
497.35	320.47
497.72	323.91
498.08	327.43
498.44	331.13
498.80	335.03
499.17	339.10
499.53	343.35
499.89	347.76
500.26	352.22
500.62	356.90
500.98	361.93
501.34	367.02
501.71	372.36
502.07	377.85
502.43	383.43
502.79	389.22
503.16	395.33
503.52	401.61
503.88	408.01
504.24	414.64
504.60	421.50
504.97	428.66
505.33	435.94
505.69	443.64
506.05	451.46
506.41	459.39
506.78	467.56
507.14	475.93
507.50	484.65
507.86	493.73
508.22	502.94
508.59	512.13
508.95	521.72
509.31	531.55
509.67	541.66
510.03	551.96
510.39	562.58
510.75	573.39
511.12	584.34
511.48	595.66
511.84	607.16
512.20	618.69
512.56	630.68
512.92	642.89
513.28	655.22
513.64	667.67
514.00	680.30
514.37	693.19
514.73	706.31
515.09	719.38
515.45	732.59
515.81	746.12
516.17	760.06
516.53	774.11
516.89	788.30
517.25	802.38
517.61	816.78
517.97	831.09
518.33	845.45
518.69	860.14
519.05	875.08
519.41	890.15
519.77	905.62
520.13	921.02
520.49	936.25
520.85	951.56
521.21	967.19
521.57	983.34
521.93	998.99
522.29	1015.23
522.65	1031.38
523.01	1047.58
523.37	1063.57
523.73	1079.67
524.09	1095.68
524.45	1111.87
524.81	1128.37
525.17	1145.09
525.53	1161.92
525.89	1178.74
526.25	1195.44
526.61	1211.80
526.97	1228.50
527.33	1244.91
527.68	1261.43
528.04	1277.95
528.40	1294.43
528.76	1311.48
529.12	1328.06
529.48	1344.93
529.84	1360.90
530.20	1377.48
530.56	1394.43
530.91	1411.74
531.27	1428.44
531.63	1444.88
531.99	1461.31
532.35	1477.25
532.71	1493.05
533.07	1509.11
533.42	1524.94
533.78	1540.89
534.14	1557.01
534.50	1572.25
534.86	1588.14
535.21	1603.07
535.57	1618.71
535.93	1634.24
536.29	1648.86
536.65	1663.78
537.00	1678.52
537.36	1693.77
537.72	1708.18
538.08	1722.49
538.44	1736.19
538.79	1749.94
539.15	1763.50
539.51	1777.06
539.87	1791.26
540.22	1804.86
540.58	1818.63
540.94	1831.87
541.29	1844.77
541.65	1857.26
542.01	1870.39
542.37	1882.45
542.72	1894.98
543.08	1906.81
543.44	1919.07
543.79	1930.17
544.15	1941.10
544.51	1952.55
544.87	1963.36
545.22	1974.12
545.58	1984.24
545.94	1993.84
546.29	2003.66
546.65	2013.60
547.01	2023.03
547.36	2031.78
547.72	2040.28
548.07	2048.07
548.43	2056.19
548.79	2064.17
549.14	2071.63
549.50	2078.95
549.86	2086.58
550.21	2093.78
550.57	2100.98
550.92	2107.42
551.28	2114.50
551.64	2121.55
551.99	2128.05
552.35	2134.28
552.70	2140.36
553.06	2146.34
553.41	2152.83
553.77	2158.82
554.13	2164.74
554.48	2170.73
554.84	2176.16
555.19	2181.38
555.55	2186.58
555.90	2191.05
556.26	2195.86
556.61	2200.74
556.97	2205.00
557.32	2209.08
557.68	2213.11
558.03	2217.32
558.39	2221.09
558.74	2225.70
559.10	2229.60
559.45	2233.29
559.81	2237.56
560.16	2241.32
560.52	2244.62
560.87	2247.95
561.23	2250.66
561.58	2253.74
561.94	2256.25
562.29	2258.57
562.64	2261.23
563.00	2263.76
563.35	2267.26
563.71	2270.37
564.06	2273.55
564.42	2276.34
564.77	2279.04
565.12	2281.44
565.48	2283.32
565.83	2285.24
566.19	2286.52
566.54	2287.37
566.89	2288.40
567.25	2288.88
567.60	2290.34
567.96	2292.02
568.31	2292.79
568.66	2294.01
569.02	2294.48
569.37	2294.80
569.72	2295.80
570.08	2295.98
570.43	2296.18
570.78	2295.69
571.14	2294.27
571.49	2293.00
571.84	2292.77
572.20	2291.64
572.55	2290.70
572.90	2289.21
573.26	2287.95
573.61	2286.39
573.96	2284.68
574.31	2281.83
574.67	2278.97
575.02	2275.47
575.37	2271.92
575.72	2268.34
576.08	2264.88
576.43	2261.74
576.78	2258.25
577.13	2255.15
577.49	2252.22
577.84	2248.70
578.19	2245.01
578.54	2241.42
578.90	2237.32
579.25	2231.80
579.60	2226.80
579.95	2221.91
580.30	2217.10
580.66	2212.04
581.01	2207.15
581.36	2202.30
581.71	2198.22
582.06	2193.80
582.42	2189.29
582.77	2184.38
583.12	2179.91
583.47	2175.27
583.82	2170.23
584.17	2164.88
584.53	2159.45
584.88	2153.90
585.23	2148.20
585.58	2142.84
585.93	2137.45
586.28	2132.68
586.63	2127.76
586.98	2122.80
587.34	2117.96
587.69	2113.05
588.04	2107.69
588.39	2101.88
588.74	2095.50
589.09	2089.34
589.44	2082.66
589.79	2076.82
590.14	2071.18
590.49	2064.66
590.84	2058.46
591.19	2052.56
591.54	2046.32
591.89	2039.00
592.25	2032.15
592.60	2024.99
592.95	2017.41
593.30	2010.10
593.65	2002.58
594.00	1995.60
594.35	1988.34
594.70	1980.45
595.05	1973.17
595.40	1965.98
595.75	1958.80
596.10	1952.78
596.45	1946.18
596.80	1940.01
597.15	1933.38
597.50	1926.33
597.85	1919.82
598.19	1913.19
598.54	1906.06
598.89	1899.41
599.24	1893.54
599.59	1886.95
599.94	1881.00
600.29	1874.71
600.64	1868.20
600.99	1860.83
601.34	1854.07
601.69	1847.22
602.04	1840.40
602.39	1833.34
602.74	1826.62
603.08	1819.82
603.43	1813.01
603.78	1805.73
604.13	1798.59
604.48	1791.17
604.83	1784.28
605.18	1777.44
605.53	1769.40
605.87	1761.39
606.22	1754.19
606.57	1746.30
606.92	1739.07
607.27	1731.68
607.62	1724.63
607.96	1717.30
608.31	1710.57
608.66	1702.96
609.01	1695.42
609.36	1687.89
609.70	1679.68
610.05	1671.56
610.40	1663.84
610.75	1655.59
611.10	1647.96
611.44	1639.55
611.79	1631.65
612.14	1622.97
612.49	1613.79
612.83	1605.53
613.18	1597.43
613.53	1589.29
613.88	1580.63
614.22	1572.25
614.57	1563.71
614.92	1555.71
615.27	1548.22
615.61	1539.94
615.96	1531.96
616.31	1524.37
616.65	1516.92
617.00	1509.54
617.35	1501.86
617.70	1493.60
618.04	1485.08
618.39	1476.83
618.74	1469.20
619.08	1460.88
619.43	1453.33
619.78	1446.48
620.12	1439.18
620.47	1431.55
620.82	1423.47
621.16	1416.09
621.51	1408.56
621.85	1400.98
622.20	1392.48
622.55	1384.17
622.89	1376.37
623.24	1368.70
623.59	1361.18
623.93	1353.68
624.28	1346.33
624.62	1338.81
624.97	1331.52
625.32	1324.74
625.66	1317.61
626.01	1310.46
626.35	1302.99
626.70	1295.30
627.04	1287.45
627.39	1279.66
627.73	1272.34
628.08	1265.34
628.43	1258.09
628.77	1250.62
629.12	1243.05
629.46	1236.00
629.81	1228.48
630.15	1221.21
630.50	1213.79
630.84	1205.72
631.19	1197.83
631.53	1190.26
631.88	1182.72
632.22	1175.18
632.57	1167.88
632.91	1160.36
633.26	1152.97
633.60	1145.66
633.95	1138.54
634.29	1131.54
634.64	1124.94
634.98	1117.60
635.32	1110.44
635.67	1103.79
636.01	1097.21
636.36	1090.37
636.70	1083.70
637.05	1077.15
637.39	1070.69
637.73	1064.09
638.08	1058.15
638.42	1052.16
638.77	1045.74
639.11	1039.15
639.45	1032.76
639.80	1026.04
640.14	1019.77
640.49	1013.20
640.83	1006.81
641.17	1000.53
641.52	994.08
641.86	987.56
642.20	981.70
642.55	975.37
642.89	968.90
643.23	962.28
643.58	956.50
643.92	950.33
644.26	944.29
644.61	938.20
644.95	932.22
645.29	925.61
645.64	918.84
645.98	912.51
646.32	906.65
646.66	900.58
647.01	894.87
647.35	888.98
647.69	883.21
648.04	877.72
648.38	871.94
648.72	866.01
649.06	859.98
649.41	854.14
649.75	848.23
650.09	842.33
650.43	836.58
650.78	830.47
651.12	824.56
651.46	818.80
651.80	813.07
652.14	807.65
652.49	802.27
652.83	797.07
653.17	791.35
653.51	785.62
653.85	780.21
654.20	774.48
654.54	768.56
654.88	762.74
655.22	756.84
655.56	751.21
655.90	745.82
656.25	740.59
656.59	735.18
656.93	730.10
657.27	724.93
657.61	719.47
657.95	714.33
658.29	709.26
658.64	703.99
658.98	698.69
659.32	693.20
659.66	688.04
660.00	682.72
660.34	677.80
660.68	672.86
661.02	667.89
661.36	663.21
661.70	658.64
662.05	654.31
662.39	649.99
662.73	645.43
663.07	641.06
663.41	636.59
663.75	632.07
664.09	627.45
664.43	623.02
664.77	618.93
665.11	614.70
665.45	610.56
665.79	606.48
666.13	602.37
666.47	598.35
666.81	594.15
667.15	590.02
667.49	586.13
667.83	582.37
668.17	578.45
668.51	574.31
668.85	570.30
669.19	566.49
669.53	562.61
669.87	558.85
670.21	555.08
670.55	551.42
670.89	548.02
671.23	544.63
671.57	541.17
671.91	537.59
672.25	534.04
672.58	530.55
672.92	527.12
673.26	523.92
673.60	520.72
673.94	517.58
674.28	514.71
674.62	511.73
674.96	508.62
675.30	505.73
675.64	502.82
675.97	500.06
676.31	497.13
676.65	494.26
676.99	491.55
677.33	488.73
677.67	485.91
678.01	482.90
678.34	479.94
678.68	477.03
679.02	474.25
679.36	471.49
679.70	468.73
680.04	465.95
680.37	463.17
680.71	460.38
681.05	457.78
681.39	455.01
681.73	452.38
682.06	449.81
682.40	447.19
682.74	444.70
683.08	442.15
683.42	439.56
683.75	437.00
684.09	434.39
684.43	431.91
684.77	429.50
685.10	427.15
685.44	424.80
685.78	422.48
686.12	420.19
686.45	417.89
686.79	415.57
687.13	413.43
687.46	411.22
687.80	409.11
688.14	406.92
688.48	404.89
688.81	402.60
689.15	400.47
689.49	398.36
689.82	396.25
690.16	394.20
690.50	392.29
690.83	390.36
691.17	388.37
691.51	386.44
691.84	384.56
692.18	382.59
692.52	380.62
692.85	378.72
693.19	376.88
693.52	375.03
693.86	373.27
694.20	371.50
694.53	369.68
694.87	367.79
695.21	365.99
695.54	364.13
695.88	362.42
696.21	360.69
696.55	358.97
696.88	357.25
697.22	355.59
697.56	353.93
697.89	352.28
698.23	350.71
698.56	349.07
698.90	347.44
699.23	345.75
699.57	344.21
699.90	342.64
700.24	341.09
700.58	339.59
700.91	338.06
701.25	336.58
701.58	335.20
701.92	333.82
702.25	332.43
702.59	331.11
702.92	329.80
703.26	328.43
703.59	327.18
703.93	326.02
704.26	324.74
704.60	323.41
704.93	322.13
705.26	320.81
705.60	319.62
705.93	318.43
706.27	317.45
706.60	316.37
706.94	315.28
707.27	314.13
707.61	313.06
707.94	312.06
708.27	310.95
708.61	309.84
708.94	308.88
709.28	307.91
709.61	306.89
709.94	305.98
710.28	304.99
710.61	304.00
710.95	302.90
711.28	301.99
711.61	301.05
711.95	300.09
712.28	299.17
712.61	298.21
712.95	297.30
713.28	296.41
713.61	295.54
713.95	294.67
714.28	293.86
714.61	293.00
714.95	292.10
715.28	291.24
715.61	290.38
715.95	289.48
716.28	288.59
716.61	287.77
716.95	286.95
717.28	286.21
717.61	285.44
717.94	284.73
718.28	283.93
718.61	283.19
718.94	282.56
719.27	281.94
719.61	281.31
719.94	280.67
720.27	279.97
720.60	279.29
720.94	278.65
721.27	278.02
721.60	277.44
721.93	276.88
722.27	276.36
722.60	275.85
722.93	275.28
723.26	274.76
723.59	274.23
723.93	273.66
724.26	273.13
724.59	272.60
724.92	272.08
725.25	271.57
725.59	271.08
725.92	270.56
726.25	270.01
726.58	269.50
726.91	268.99
727.24	268.47
727.57	268.03
727.91	267.51
728.24	267.05
728.57	266.58
728.90	266.09
729.23	265.56
729.56	265.11
729.89	264.65
730.22	264.13
730.55	263.64
730.89	263.20
731.22	262.72
731.55	262.24
731.88	261.79
732.21	261.36
732.54	260.92
732.87	260.48
733.20	260.13
733.53	259.74
733.86	259.39
734.19	259.00
734.52	258.62
734.85	258.32
735.18	257.91
735.51	257.55
735.84	257.17
736.17	256.85
736.50	256.44
736.83	256.20
737.16	255.90
737.49	255.57
737.82	255.18
738.15	254.84
738.48	254.54
738.81	254.25
739.14	253.92
739.47	253.61
739.80	253.31
740.13	252.96
740.46	252.62
740.79	252.23
741.12	251.92
741.45	251.57
741.78	251.21
742.11	250.92
742.44	250.57
742.77	250.29
743.10	250.02
743.43	249.74
743.75	249.35
744.08	249.20
744.41	248.91
744.74	248.67
745.07	248.42
745.40	248.13
745.73	247.84
746.06	247.55
746.39	247.27
746.71	246.98
747.04	246.70
747.37	246.46
747.70	246.23
748.03	246.01
748.36	245.79
748.68	245.55
749.01	245.31
749.34	245.11
749.67	244.89
750.00	244.64
750.33	244.50
750.65	244.31
750.98	243.98
751.31	243.78
751.64	243.60
751.97	243.42
752.29	243.20
752.62	242.98
752.95	242.78
753.28	242.59
753.60	242.41
753.93	242.25
754.26	242.07
754.59	241.86
754.91	241.61
755.24	241.42
755.57	241.19
755.90	240.99
756.22	240.79
756.55	240.58
756.88	240.39
757.20	240.14
757.53	239.91
757.86	239.75
758.19	239.59
758.51	239.41
758.84	239.23
759.17	239.09
759.49	238.92
759.82	238.81
760.15	238.65
760.47	238.48
760.80	238.34
761.13	238.21
761.45	238.06
761.78	237.97
762.11	237.83
762.43	237.74
762.76	237.61
763.08	237.49
763.41	237.38
763.74	237.29
764.06	237.14
764.39	237.04
764.71	236.88
765.04	236.74
765.37	236.62
765.69	236.50
766.02	236.38
766.34	236.29
766.67	236.15
767.00	236.06
767.32	236.01
767.65	235.94
767.97	235.82
768.30	235.70
768.62	235.57
768.95	235.45
769.27	235.32
769.60	235.26
769.92	235.11
770.25	234.98
770.57	234.84
770.90	234.75
771.22	234.62
771.55	234.53
771.87	234.45
772.20	234.34
772.52	234.31
772.85	234.33
773.17	234.19
773.50	234.07
773.82	233.97
774.15	233.82
774.47	233.68
774.80	233.57
775.12	233.48
775.45	233.43
775.77	233.36
776.09	233.27
776.42	233.17
776.74	233.17
777.07	233.11
777.39	233.00
777.72	232.91
778.04	232.83
778.36	232.78
778.69	232.69
779.01	232.60
779.33	232.44
779.66	232.27
779.98	232.20
780.31	232.15
780.63	232.10
780.95	232.05
781.28	232.00
781.60	231.95
781.92	231.89
782.25	231.81
782.57	231.74
782.89	231.69
783.22	231.60
783.54	231.49
783.86	231.40
784.19	231.37
784.51	231.33
784.83	231.28
785.16	231.17
785.48	231.11
785.80	231.06
786.12	231.00
786.45	230.95
786.77	230.92
787.09	230.84
