SpectraSuite Data File
++++++++++++++++++++++++++++++++++++
Date: Fri Feb 01 15:30:55 EST 2013
User: group
Dark Spectrum Present: No
Reference Spectrum Present: No
Number of Sampled Component Spectra: 1
Spectrometers: USB2E7196
Integration Time (usec): 35000 (USB2E7196)
Spectra Averaged: 100 (USB2E7196)
Boxcar Smoothing: 10 (USB2E7196)
Correct for Electrical Dark: No (USB2E7196)
Strobe/Lamp Enabled: No (USB2E7196)
Correct for Detector Non-linearity: No (USB2E7196)
Correct for Stray Light: No (USB2E7196)
Number of Pixels in Processed Spectrum: 2048
>>>>>Begin Processed Spectral Data<<<<<
339.09	0.00
339.48	215.38
339.86	216.40
340.24	217.90
340.63	219.34
341.01	221.68
341.39	222.14
341.78	223.59
342.16	224.60
342.54	225.04
342.93	213.41
343.31	224.21
343.69	224.76
344.07	225.23
344.46	225.66
344.84	226.04
345.22	226.28
345.60	226.51
345.99	226.66
346.37	226.78
346.75	226.88
347.13	226.95
347.52	227.00
347.90	227.09
348.28	227.12
348.66	227.15
349.05	227.09
349.43	227.08
349.81	227.12
350.19	227.17
350.57	227.24
350.96	227.29
351.34	227.37
351.72	227.43
352.10	227.53
352.48	227.60
352.87	227.65
353.25	227.72
353.63	227.75
354.01	227.84
354.39	227.89
354.77	227.95
355.15	228.04
355.54	228.10
355.92	228.12
356.30	228.19
356.68	228.31
357.06	228.38
357.44	228.46
357.82	228.53
358.20	228.57
358.58	228.64
358.97	228.69
359.35	228.76
359.73	228.81
360.11	228.86
360.49	228.91
360.87	228.93
361.25	229.00
361.63	229.07
362.01	229.13
362.39	229.18
362.77	229.22
363.15	229.25
363.53	229.29
363.91	229.38
364.29	229.38
364.67	229.29
365.05	229.33
365.43	229.34
365.81	229.37
366.19	229.44
366.57	229.46
366.95	229.46
367.33	229.43
367.71	229.41
368.09	229.39
368.47	229.36
368.85	229.36
369.23	229.33
369.61	229.29
369.99	229.28
370.37	229.24
370.75	229.23
371.13	229.16
371.51	229.12
371.89	229.04
372.27	229.01
372.65	228.96
373.03	228.92
373.41	228.84
373.78	228.76
374.16	228.67
374.54	228.62
374.92	228.55
375.30	228.50
375.68	228.46
376.06	228.38
376.44	228.29
376.82	228.23
377.19	228.19
377.57	228.14
377.95	228.06
378.33	228.01
378.71	227.92
379.09	227.85
379.47	227.80
379.84	227.70
380.22	227.60
380.60	227.54
380.98	227.47
381.36	227.41
381.73	227.35
382.11	227.26
382.49	227.15
382.87	227.09
383.25	227.02
383.62	227.04
384.00	226.97
384.38	226.93
384.76	226.89
385.13	226.86
385.51	226.80
385.89	226.70
386.27	226.66
386.64	226.62
387.02	226.58
387.40	226.51
387.78	226.49
388.15	226.46
388.53	226.40
388.91	226.35
389.29	226.32
389.66	226.28
390.04	226.27
390.42	226.27
390.79	226.25
391.17	226.23
391.55	226.13
391.92	226.11
392.30	226.11
392.68	226.08
393.05	226.08
393.43	226.06
393.81	226.10
394.18	226.08
394.56	226.09
394.94	226.13
395.31	226.14
395.69	226.15
396.06	226.23
396.44	226.28
396.82	226.33
397.19	226.40
397.57	226.48
397.95	226.53
398.32	226.57
398.70	226.64
399.07	226.72
399.45	226.76
399.82	226.84
400.20	226.93
400.58	227.01
400.95	227.00
401.33	227.11
401.70	227.26
402.08	227.37
402.45	227.44
402.83	227.57
403.20	227.70
403.58	227.81
403.95	227.91
404.33	228.07
404.71	228.18
405.08	228.36
405.46	228.49
405.83	228.64
406.21	228.79
406.58	228.97
406.96	229.15
407.33	229.37
407.70	229.60
408.08	229.87
408.45	230.09
408.83	230.38
409.20	230.60
409.58	230.81
409.95	231.06
410.33	231.33
410.70	231.54
411.08	231.85
411.45	232.18
411.82	232.51
412.20	232.83
412.57	233.26
412.95	233.58
413.32	234.02
413.69	234.47
414.07	234.90
414.44	235.38
414.82	235.86
415.19	236.38
415.56	236.94
415.94	237.48
416.31	238.12
416.68	238.74
417.06	239.46
417.43	240.13
417.81	240.89
418.18	241.69
418.55	242.59
418.93	243.42
419.30	244.32
419.67	245.26
420.04	246.21
420.42	247.20
420.79	248.40
421.16	249.53
421.54	250.72
421.91	251.95
422.28	253.21
422.66	254.53
423.03	255.83
423.40	257.14
423.77	258.57
424.15	259.98
424.52	261.49
424.89	263.09
425.26	264.64
425.64	266.07
426.01	267.68
426.38	269.34
426.75	271.05
427.13	272.77
427.50	274.59
427.87	276.50
428.24	278.38
428.61	280.08
428.99	282.02
429.36	284.09
429.73	286.12
430.10	288.18
430.47	290.25
430.85	292.38
431.22	294.67
431.59	297.03
431.96	299.34
432.33	301.85
432.70	304.23
433.08	307.04
433.45	309.74
433.82	312.35
434.19	315.19
434.56	318.03
434.93	320.69
435.30	323.28
435.68	326.15
436.05	328.99
436.42	331.84
436.79	334.38
437.16	337.09
437.53	339.98
437.90	342.75
438.27	345.48
438.64	348.34
439.01	350.86
439.38	353.13
439.75	355.22
440.13	357.69
440.50	360.03
440.87	361.87
441.24	363.86
441.61	366.02
441.98	367.50
442.35	369.27
442.72	371.17
443.09	373.00
443.46	374.00
443.83	374.58
444.20	375.04
444.57	375.84
444.94	376.19
445.31	376.49
445.68	376.84
446.05	376.93
446.42	376.52
446.79	376.13
447.16	375.64
447.53	375.37
447.90	374.20
448.27	373.01
448.64	371.45
449.01	370.23
449.37	368.26
449.74	366.38
450.11	364.14
450.48	361.61
450.85	359.03
451.22	356.92
451.59	354.90
451.96	352.98
452.33	350.36
452.70	347.98
453.07	345.13
453.43	342.27
453.80	339.47
454.17	336.79
454.54	334.25
454.91	331.56
455.28	328.85
455.65	326.37
456.02	323.94
456.38	321.79
456.75	319.11
457.12	316.85
457.49	314.62
457.86	312.44
458.23	310.63
458.59	308.61
458.96	306.51
459.33	304.65
459.70	302.79
460.07	301.27
460.43	299.51
460.80	297.89
461.17	296.41
461.54	294.93
461.91	293.47
462.27	292.02
462.64	290.79
463.01	289.44
463.38	288.15
463.74	286.76
464.11	285.61
464.48	284.60
464.85	283.48
465.21	282.62
465.58	281.69
465.95	280.54
466.32	279.65
466.68	278.77
467.05	277.86
467.42	276.97
467.78	276.07
468.15	275.21
468.52	274.54
468.88	273.68
469.25	272.92
469.62	272.30
469.98	271.62
470.35	270.95
470.72	270.34
471.08	269.69
471.45	269.19
471.82	268.63
472.18	268.02
472.55	267.59
472.92	267.05
473.28	266.59
473.65	266.16
474.02	265.71
474.38	265.29
474.75	264.95
475.11	264.59
475.48	264.32
475.85	264.12
476.21	263.88
476.58	263.69
476.94	263.54
477.31	263.37
477.67	263.23
478.04	263.12
478.41	263.05
478.77	263.09
479.14	262.96
479.50	262.99
479.87	263.06
480.23	263.14
480.60	263.21
480.96	263.34
481.33	263.51
481.69	263.71
482.06	263.91
482.42	264.10
482.79	264.34
483.15	264.67
483.52	265.05
483.88	265.41
484.25	265.80
484.61	266.23
484.98	266.66
485.34	267.20
485.71	267.76
486.07	268.38
486.44	268.93
486.80	269.66
487.17	270.41
487.53	271.25
487.90	272.11
488.26	273.06
488.62	273.98
488.99	274.97
489.35	276.02
489.72	277.16
490.08	278.35
490.44	279.58
490.81	280.91
491.17	282.23
491.54	283.74
491.90	285.26
492.26	286.91
492.63	288.67
492.99	290.46
493.36	292.36
493.72	294.40
494.08	296.46
494.45	298.73
494.81	301.06
495.17	303.49
495.54	306.05
495.90	308.71
496.26	311.55
496.63	314.55
496.99	317.65
497.35	320.90
497.72	324.31
498.08	327.85
498.44	331.51
498.80	335.39
499.17	339.36
499.53	343.54
499.89	347.89
500.26	352.38
500.62	357.03
500.98	362.02
501.34	367.12
501.71	372.50
502.07	377.93
502.43	383.54
502.79	389.32
503.16	395.40
503.52	401.68
503.88	408.11
504.24	414.76
504.60	421.64
504.97	428.84
505.33	436.20
505.69	443.93
506.05	451.68
506.41	459.56
506.78	467.80
507.14	476.29
507.50	485.07
507.86	494.16
508.22	503.34
508.59	512.52
508.95	522.09
509.31	531.88
509.67	541.97
510.03	552.37
510.39	562.92
510.75	573.78
511.12	584.77
511.48	596.13
511.84	607.52
512.20	619.11
512.56	631.03
512.92	643.24
513.28	655.59
513.64	668.11
514.00	680.88
514.37	693.77
514.73	706.79
515.09	719.77
515.45	733.05
515.81	746.72
516.17	760.79
516.53	774.89
516.89	789.09
517.25	803.30
517.61	817.65
517.97	832.15
518.33	846.60
518.69	861.43
519.05	876.34
519.41	891.56
519.77	907.09
520.13	922.58
520.49	937.87
520.85	953.36
521.21	969.12
521.57	985.43
521.93	1001.24
522.29	1017.63
522.65	1033.91
523.01	1050.14
523.37	1066.19
523.73	1082.43
524.09	1098.64
524.45	1114.96
524.81	1131.65
525.17	1148.50
525.53	1165.50
525.89	1182.40
526.25	1199.19
526.61	1215.62
526.97	1232.39
527.33	1248.90
527.68	1265.60
528.04	1282.34
528.40	1299.06
528.76	1316.21
529.12	1332.77
529.48	1349.66
529.84	1365.96
530.20	1382.61
530.56	1399.74
530.91	1417.13
531.27	1433.93
531.63	1450.35
531.99	1467.08
532.35	1483.08
532.71	1498.97
533.07	1515.16
533.42	1531.05
533.78	1547.22
534.14	1563.58
534.50	1579.05
534.86	1595.06
535.21	1610.27
535.57	1626.13
535.93	1641.59
536.29	1656.37
536.65	1671.59
537.00	1686.50
537.36	1701.66
537.72	1716.23
538.08	1730.61
538.44	1744.57
538.79	1758.37
539.15	1772.29
539.51	1786.08
539.87	1800.49
540.22	1814.35
540.58	1828.28
540.94	1841.65
541.29	1854.56
541.65	1867.42
542.01	1880.77
542.37	1893.05
542.72	1905.43
543.08	1917.18
543.44	1929.58
543.79	1940.87
544.15	1951.79
544.51	1963.37
544.87	1974.37
545.22	1985.15
545.58	1995.39
545.94	2005.14
546.29	2015.10
546.65	2024.90
547.01	2034.11
547.36	2042.92
547.72	2051.40
548.07	2059.38
548.43	2067.70
548.79	2075.74
549.14	2083.10
549.50	2090.38
549.86	2098.03
550.21	2105.34
550.57	2112.69
550.92	2119.32
551.28	2126.44
551.64	2133.68
551.99	2140.15
552.35	2146.24
552.70	2152.47
553.06	2158.54
553.41	2164.84
553.77	2170.94
554.13	2177.08
554.48	2183.36
554.84	2188.58
555.19	2193.96
555.55	2198.91
555.90	2203.32
556.26	2208.18
556.61	2212.99
556.97	2217.19
557.32	2221.40
557.68	2225.57
558.03	2229.76
558.39	2233.59
558.74	2238.11
559.10	2241.88
559.45	2245.69
559.81	2250.16
560.16	2254.01
560.52	2257.23
560.87	2260.66
561.23	2263.26
561.58	2266.20
561.94	2268.51
562.29	2271.08
562.64	2273.70
563.00	2276.52
563.35	2280.11
563.71	2283.30
564.06	2286.39
564.42	2289.30
564.77	2291.84
565.12	2294.02
565.48	2295.86
565.83	2297.67
566.19	2299.01
566.54	2299.94
566.89	2301.05
567.25	2301.51
567.60	2302.92
567.96	2304.66
568.31	2305.59
568.66	2306.70
569.02	2307.05
569.37	2307.30
569.72	2308.08
570.08	2308.18
570.43	2307.97
570.78	2307.19
571.14	2305.53
571.49	2304.32
571.84	2303.91
572.20	2302.70
572.55	2301.69
572.90	2300.16
573.26	2298.60
573.61	2296.87
573.96	2294.90
574.31	2291.81
574.67	2288.72
575.02	2285.04
575.37	2281.51
575.72	2277.51
576.08	2274.02
576.43	2270.83
576.78	2267.23
577.13	2264.10
577.49	2261.03
577.84	2257.56
578.19	2253.80
578.54	2250.15
578.90	2245.66
579.25	2239.97
579.60	2234.91
579.95	2229.89
580.30	2224.74
580.66	2219.42
581.01	2214.45
581.36	2209.46
581.71	2205.22
582.06	2200.72
582.42	2196.09
582.77	2190.90
583.12	2186.29
583.47	2181.46
583.82	2176.25
584.17	2170.88
584.53	2165.26
584.88	2159.43
585.23	2153.41
585.58	2147.95
585.93	2142.46
586.28	2137.74
586.63	2132.68
586.98	2127.38
587.34	2122.59
587.69	2117.70
588.04	2112.43
588.39	2106.62
588.74	2100.20
589.09	2094.01
589.44	2087.08
589.79	2081.03
590.14	2075.15
590.49	2068.62
590.84	2062.23
591.19	2056.19
591.54	2049.69
591.89	2042.16
592.25	2035.28
592.60	2028.17
592.95	2020.39
593.30	2012.90
593.65	2005.15
594.00	1998.08
594.35	1990.99
594.70	1982.84
595.05	1975.52
595.40	1968.16
595.75	1960.66
596.10	1954.33
596.45	1947.46
596.80	1941.34
597.15	1934.54
597.50	1927.44
597.85	1921.01
598.19	1914.36
598.54	1907.23
598.89	1900.61
599.24	1894.74
599.59	1888.05
599.94	1881.85
600.29	1875.63
600.64	1869.12
600.99	1861.65
601.34	1854.84
601.69	1847.79
602.04	1840.82
602.39	1833.49
602.74	1826.61
603.08	1819.83
603.43	1813.04
603.78	1805.78
604.13	1798.54
604.48	1791.38
604.83	1784.46
605.18	1777.29
605.53	1769.20
605.87	1761.13
606.22	1753.88
606.57	1745.96
606.92	1738.58
607.27	1731.33
607.62	1724.31
607.96	1717.00
608.31	1710.44
608.66	1702.66
609.01	1695.04
609.36	1687.48
609.70	1679.51
610.05	1671.32
610.40	1663.62
610.75	1655.37
611.10	1647.70
611.44	1639.35
611.79	1631.37
612.14	1622.69
612.49	1613.71
612.83	1605.38
613.18	1597.30
613.53	1589.20
613.88	1580.62
614.22	1572.27
614.57	1563.67
614.92	1555.63
615.27	1547.99
615.61	1539.67
615.96	1531.69
616.31	1524.01
616.65	1516.72
617.00	1509.05
617.35	1501.60
617.70	1493.27
618.04	1484.65
618.39	1476.37
618.74	1468.76
619.08	1460.32
619.43	1452.69
619.78	1445.66
620.12	1438.57
620.47	1431.05
620.82	1422.87
621.16	1415.52
621.51	1407.94
621.85	1400.21
622.20	1391.73
622.55	1383.33
622.89	1375.46
623.24	1367.76
623.59	1360.49
623.93	1352.99
624.28	1345.81
624.62	1338.22
624.97	1331.01
625.32	1324.28
625.66	1317.21
626.01	1310.00
626.35	1302.50
626.70	1294.75
627.04	1286.96
627.39	1279.11
627.73	1271.69
628.08	1264.66
628.43	1257.20
628.77	1249.82
629.12	1242.30
629.46	1235.02
629.81	1227.60
630.15	1220.42
630.50	1213.02
630.84	1204.90
631.19	1196.95
631.53	1189.38
631.88	1181.86
632.22	1174.26
632.57	1167.10
632.91	1159.50
633.26	1152.08
633.60	1144.87
633.95	1137.84
634.29	1130.85
634.64	1124.12
634.98	1116.65
635.32	1109.52
635.67	1103.03
636.01	1096.50
636.36	1089.79
636.70	1083.26
637.05	1076.79
637.39	1070.36
637.73	1063.89
638.08	1057.93
638.42	1051.97
638.77	1045.53
639.11	1038.84
639.45	1032.48
639.80	1025.69
640.14	1019.38
640.49	1012.84
640.83	1006.61
641.17	1000.32
641.52	994.00
641.86	987.66
642.20	981.91
642.55	975.62
642.89	969.05
643.23	962.39
643.58	956.58
643.92	950.44
644.26	944.32
644.61	938.20
644.95	932.25
645.29	925.62
645.64	918.85
645.98	912.53
646.32	906.70
646.66	900.65
647.01	894.85
647.35	889.18
647.69	883.33
648.04	877.72
648.38	871.92
648.72	865.82
649.06	859.72
649.41	853.79
649.75	847.84
650.09	841.92
650.43	836.14
650.78	829.90
651.12	823.93
651.46	818.20
651.80	812.40
652.14	806.92
652.49	801.57
652.83	796.40
653.17	790.67
653.51	784.98
653.85	779.63
654.20	774.00
654.54	767.90
654.88	762.29
655.22	756.33
655.56	750.63
655.90	745.25
656.25	740.01
656.59	734.72
656.93	729.62
657.27	724.51
657.61	719.14
657.95	714.08
658.29	709.00
658.64	703.78
658.98	698.63
659.32	693.15
659.66	687.92
660.00	682.56
660.34	677.65
660.68	672.75
661.02	667.65
661.36	662.97
661.70	658.58
662.05	654.13
662.39	649.85
662.73	645.49
663.07	641.10
663.41	636.65
663.75	632.07
664.09	627.55
664.43	623.12
664.77	618.98
665.11	614.73
665.45	610.62
665.79	606.47
666.13	602.29
666.47	598.22
666.81	594.07
667.15	590.00
667.49	586.13
667.83	582.34
668.17	578.41
668.51	574.24
668.85	570.19
669.19	566.34
669.53	562.44
669.87	558.51
670.21	554.82
670.55	551.20
670.89	547.72
671.23	544.25
671.57	540.75
671.91	537.18
672.25	533.77
672.58	530.27
672.92	526.90
673.26	523.70
673.60	520.57
673.94	517.44
674.28	514.54
674.62	511.57
674.96	508.43
675.30	505.49
675.64	502.63
675.97	499.82
676.31	496.96
676.65	494.04
676.99	491.34
677.33	488.49
677.67	485.62
678.01	482.61
678.34	479.64
678.68	476.85
679.02	474.03
679.36	471.19
679.70	468.48
680.04	465.65
680.37	462.81
680.71	460.02
681.05	457.43
681.39	454.68
681.73	452.05
682.06	449.54
682.40	447.03
682.74	444.52
683.08	441.99
683.42	439.39
683.75	436.92
684.09	434.37
684.43	431.91
684.77	429.47
685.10	427.19
685.44	424.92
685.78	422.68
686.12	420.49
686.45	418.25
686.79	415.95
687.13	413.81
687.46	411.66
687.80	409.52
688.14	407.29
688.48	405.25
688.81	402.98
689.15	400.82
689.49	398.68
689.82	396.63
690.16	394.52
690.50	392.55
690.83	390.61
691.17	388.64
691.51	386.76
691.84	384.92
692.18	382.96
692.52	380.95
692.85	378.99
693.19	377.09
693.52	375.24
693.86	373.41
694.20	371.66
694.53	369.86
694.87	368.04
695.21	366.23
695.54	364.44
695.88	362.73
696.21	361.05
696.55	359.36
696.88	357.66
697.22	356.04
697.56	354.44
697.89	352.76
698.23	351.14
698.56	349.55
698.90	347.94
699.23	346.26
699.57	344.73
699.90	343.14
700.24	341.60
700.58	340.11
700.91	338.63
701.25	337.23
701.58	335.84
701.92	334.47
702.25	333.14
702.59	331.78
702.92	330.47
703.26	329.15
703.59	327.86
703.93	326.68
704.26	325.45
704.60	324.12
704.93	322.88
705.26	321.68
705.60	320.48
705.93	319.33
706.27	318.31
706.60	317.26
706.94	316.22
707.27	315.06
707.61	314.01
707.94	312.99
708.27	311.88
708.61	310.83
708.94	309.82
709.28	308.85
709.61	307.83
709.94	306.91
710.28	305.93
710.61	304.96
710.95	303.88
711.28	302.94
711.61	302.04
711.95	301.14
712.28	300.16
712.61	299.18
712.95	298.26
713.28	297.39
713.61	296.47
713.95	295.57
714.28	294.73
714.61	293.88
714.95	293.03
715.28	292.19
715.61	291.30
715.95	290.44
716.28	289.56
716.61	288.76
716.95	287.91
717.28	287.15
717.61	286.36
717.94	285.62
718.28	284.82
718.61	284.10
718.94	283.37
719.27	282.74
719.61	282.11
719.94	281.46
720.27	280.80
720.60	280.12
720.94	279.50
721.27	278.92
721.60	278.33
721.93	277.69
722.27	277.12
722.60	276.56
722.93	275.95
723.26	275.39
723.59	274.82
723.93	274.27
724.26	273.71
724.59	273.16
724.92	272.65
725.25	272.13
725.59	271.62
725.92	271.10
726.25	270.55
726.58	270.04
726.91	269.53
727.24	269.01
727.57	268.57
727.91	268.08
728.24	267.61
728.57	267.13
728.90	266.73
729.23	266.23
729.56	265.83
729.89	265.37
730.22	264.94
730.55	264.51
730.89	264.09
731.22	263.66
731.55	263.20
731.88	262.77
732.21	262.36
732.54	261.92
732.87	261.50
733.20	261.14
733.53	260.76
733.86	260.40
734.19	260.02
734.52	259.64
734.85	259.32
735.18	258.89
735.51	258.53
735.84	258.13
736.17	257.78
736.50	257.37
736.83	257.15
737.16	256.79
737.49	256.47
737.82	256.10
738.15	255.76
738.48	255.46
738.81	255.15
739.14	254.84
739.47	254.53
739.80	254.22
740.13	253.90
740.46	253.58
740.79	253.23
741.12	252.96
741.45	252.63
741.78	252.28
742.11	252.01
742.44	251.67
742.77	251.40
743.10	251.09
743.43	250.82
743.75	250.43
744.08	250.29
744.41	250.01
744.74	249.75
745.07	249.46
745.40	249.22
745.73	248.94
746.06	248.67
746.39	248.40
746.71	248.17
747.04	247.93
747.37	247.67
747.70	247.44
748.03	247.14
748.36	246.93
748.68	246.67
749.01	246.42
749.34	246.21
749.67	245.98
750.00	245.76
750.33	245.59
750.65	245.39
750.98	245.03
751.31	244.82
751.64	244.60
751.97	244.47
752.29	244.25
752.62	244.04
752.95	243.82
753.28	243.63
753.60	243.40
753.93	243.21
754.26	243.00
754.59	242.76
754.91	242.57
755.24	242.35
755.57	242.18
755.90	242.00
756.22	241.79
756.55	241.59
756.88	241.40
757.20	241.15
757.53	240.95
757.86	240.79
758.19	240.56
758.51	240.41
758.84	240.20
759.17	240.06
759.49	239.88
759.82	239.76
760.15	239.59
760.47	239.47
760.80	239.27
761.13	239.14
761.45	238.98
761.78	238.85
762.11	238.71
762.43	238.58
762.76	238.41
763.08	238.28
763.41	238.15
763.74	238.00
764.06	237.87
764.39	237.75
764.71	237.62
765.04	237.49
765.37	237.33
765.69	237.19
766.02	237.00
766.34	236.91
766.67	236.73
767.00	236.66
767.32	236.56
767.65	236.52
767.97	236.40
768.30	236.30
768.62	236.17
768.95	236.05
769.27	235.91
769.60	235.85
769.92	235.73
770.25	235.62
770.57	235.53
770.90	235.41
771.22	235.35
771.55	235.25
771.87	235.17
772.20	235.08
772.52	235.09
772.85	235.13
773.17	235.00
773.50	234.91
773.82	234.78
774.15	234.64
774.47	234.47
774.80	234.39
775.12	234.31
775.45	234.24
775.77	234.15
776.09	234.07
776.42	234.00
776.74	233.97
777.07	233.93
777.39	233.83
777.72	233.74
778.04	233.65
778.36	233.57
778.69	233.50
779.01	233.45
779.33	233.32
779.66	233.19
779.98	233.13
780.31	233.07
780.63	233.04
780.95	233.02
781.28	232.97
781.60	232.92
781.92	232.85
782.25	232.79
782.57	232.76
782.89	232.74
783.22	232.64
783.54	232.57
783.86	232.47
784.19	232.43
784.51	232.42
784.83	232.33
785.16	232.28
785.48	232.25
785.80	232.19
786.12	232.13
786.45	232.06
786.77	232.03
787.09	231.98
