SpectraSuite Data File
++++++++++++++++++++++++++++++++++++
Date: Fri Feb 01 17:25:02 EST 2013
User: group
Dark Spectrum Present: No
Reference Spectrum Present: No
Number of Sampled Component Spectra: 1
Spectrometers: USB2E7196
Integration Time (usec): 35000 (USB2E7196)
Spectra Averaged: 100 (USB2E7196)
Boxcar Smoothing: 10 (USB2E7196)
Correct for Electrical Dark: No (USB2E7196)
Strobe/Lamp Enabled: No (USB2E7196)
Correct for Detector Non-linearity: No (USB2E7196)
Correct for Stray Light: No (USB2E7196)
Number of Pixels in Processed Spectrum: 2048
>>>>>Begin Processed Spectral Data<<<<<
339.09	0.00
339.48	212.65
339.86	213.94
340.24	216.37
340.63	217.53
341.01	219.90
341.39	220.04
341.78	221.10
342.16	222.47
342.54	223.18
342.93	211.39
343.31	222.08
343.69	222.62
344.07	223.07
344.46	223.45
344.84	223.79
345.22	224.01
345.60	224.24
345.99	224.41
346.37	224.52
346.75	224.59
347.13	224.66
347.52	224.71
347.90	224.76
348.28	224.79
348.66	224.84
349.05	224.84
349.43	224.87
349.81	224.90
350.19	224.91
350.57	224.95
350.96	225.00
351.34	225.05
351.72	225.12
352.10	225.27
352.48	225.36
352.87	225.43
353.25	225.51
353.63	225.55
354.01	225.63
354.39	225.68
354.77	225.76
355.15	225.87
355.54	225.91
355.92	225.95
356.30	226.02
356.68	226.16
357.06	226.24
357.44	226.29
357.82	226.34
358.20	226.43
358.58	226.46
358.97	226.52
359.35	226.61
359.73	226.70
360.11	226.73
360.49	226.75
360.87	226.78
361.25	226.85
361.63	226.96
362.01	227.00
362.39	227.04
362.77	227.11
363.15	227.13
363.53	227.19
363.91	227.23
364.29	227.23
364.67	227.12
365.05	227.12
365.43	227.15
365.81	227.20
366.19	227.27
366.57	227.37
366.95	227.38
367.33	227.35
367.71	227.33
368.09	227.35
368.47	227.37
368.85	227.37
369.23	227.38
369.61	227.34
369.99	227.34
370.37	227.36
370.75	227.35
371.13	227.30
371.51	227.23
371.89	227.20
372.27	227.18
372.65	227.18
373.03	227.15
373.41	227.11
373.78	227.06
374.16	226.95
374.54	226.85
374.92	226.78
375.30	226.74
375.68	226.70
376.06	226.64
376.44	226.56
376.82	226.54
377.19	226.49
377.57	226.41
377.95	226.33
378.33	226.23
378.71	226.12
379.09	226.08
379.47	226.06
379.84	225.99
380.22	225.95
380.60	225.88
380.98	225.82
381.36	225.77
381.73	225.71
382.11	225.65
382.49	225.60
382.87	225.56
383.25	225.54
383.62	225.59
384.00	225.52
384.38	225.47
384.76	225.44
385.13	225.39
385.51	225.31
385.89	225.25
386.27	225.22
386.64	225.21
387.02	225.14
387.40	225.09
387.78	225.07
388.15	225.02
388.53	225.00
388.91	224.96
389.29	224.92
389.66	224.87
390.04	224.83
390.42	224.83
390.79	224.82
391.17	224.76
391.55	224.63
391.92	224.62
392.30	224.62
392.68	224.56
393.05	224.54
393.43	224.55
393.81	224.55
394.18	224.55
394.56	224.55
394.94	224.59
395.31	224.58
395.69	224.63
396.06	224.65
396.44	224.67
396.82	224.68
397.19	224.73
397.57	224.77
397.95	224.82
398.32	224.81
398.70	224.85
399.07	224.94
399.45	224.97
399.82	225.01
400.20	225.06
400.58	225.13
400.95	225.18
401.33	225.29
401.70	225.47
402.08	225.56
402.45	225.63
402.83	225.74
403.20	225.83
403.58	225.90
403.95	226.01
404.33	226.11
404.71	226.22
405.08	226.37
405.46	226.49
405.83	226.63
406.21	226.76
406.58	226.88
406.96	226.99
407.33	227.17
407.70	227.36
408.08	227.60
408.45	227.82
408.83	228.06
409.20	228.26
409.58	228.39
409.95	228.63
410.33	228.93
410.70	229.18
411.08	229.48
411.45	229.79
411.82	230.13
412.20	230.53
412.57	230.95
412.95	231.28
413.32	231.70
413.69	232.12
414.07	232.58
414.44	233.09
414.82	233.63
415.19	234.22
415.56	234.80
415.94	235.37
416.31	236.02
416.68	236.67
417.06	237.42
417.43	238.12
417.81	238.90
418.18	239.67
418.55	240.54
418.93	241.45
419.30	242.43
419.67	243.36
420.04	244.34
420.42	245.39
420.79	246.63
421.16	247.85
421.54	249.11
421.91	250.37
422.28	251.65
422.66	253.03
423.03	254.35
423.40	255.74
423.77	257.20
424.15	258.67
424.52	260.22
424.89	261.87
425.26	263.50
425.64	265.02
426.01	266.70
426.38	268.41
426.75	270.15
427.13	271.93
427.50	273.84
427.87	275.78
428.24	277.72
428.61	279.53
428.99	281.55
429.36	283.67
429.73	285.89
430.10	288.02
430.47	290.17
430.85	292.39
431.22	294.70
431.59	297.19
431.96	299.55
432.33	302.08
432.70	304.58
433.08	307.51
433.45	310.25
433.82	312.94
434.19	315.96
434.56	318.87
434.93	321.58
435.30	324.29
435.68	327.29
436.05	330.25
436.42	333.11
436.79	335.69
437.16	338.50
437.53	341.39
437.90	344.30
438.27	347.13
438.64	350.04
439.01	352.73
439.38	355.08
439.75	357.31
440.13	359.93
440.50	362.37
440.87	364.25
441.24	366.32
441.61	368.52
441.98	370.10
442.35	371.99
442.72	373.95
443.09	375.84
443.46	376.87
443.83	377.46
444.20	378.03
444.57	378.93
444.94	379.31
445.31	379.72
445.68	380.11
446.05	380.21
446.42	379.85
446.79	379.46
447.16	379.00
447.53	378.70
447.90	377.52
448.27	376.29
448.64	374.69
449.01	373.47
449.37	371.50
449.74	369.50
450.11	367.20
450.48	364.70
450.85	362.08
451.22	359.92
451.59	357.84
451.96	355.86
452.33	353.16
452.70	350.70
453.07	347.75
453.43	344.74
453.80	341.93
454.17	339.12
454.54	336.48
454.91	333.63
455.28	330.83
455.65	328.26
456.02	325.74
456.38	323.52
456.75	320.77
457.12	318.43
457.49	316.14
457.86	313.89
458.23	311.89
458.59	309.75
458.96	307.57
459.33	305.66
459.70	303.69
460.07	302.13
460.43	300.32
460.80	298.65
461.17	297.16
461.54	295.57
461.91	294.11
462.27	292.58
462.64	291.32
463.01	289.89
463.38	288.54
463.74	287.15
464.11	285.91
464.48	284.86
464.85	283.68
465.21	282.79
465.58	281.82
465.95	280.70
466.32	279.77
466.68	278.83
467.05	277.87
467.42	276.97
467.78	275.98
468.15	275.10
468.52	274.40
468.88	273.50
469.25	272.67
469.62	272.01
469.98	271.36
470.35	270.68
470.72	270.11
471.08	269.44
471.45	268.88
471.82	268.37
472.18	267.74
472.55	267.29
472.92	266.71
473.28	266.24
473.65	265.79
474.02	265.33
474.38	264.93
474.75	264.61
475.11	264.25
475.48	264.03
475.85	263.80
476.21	263.56
476.58	263.40
476.94	263.28
477.31	263.14
477.67	262.93
478.04	262.84
478.41	262.82
478.77	262.88
479.14	262.79
479.50	262.80
479.87	262.86
480.23	262.98
480.60	263.09
480.96	263.17
481.33	263.40
481.69	263.59
482.06	263.75
482.42	263.94
482.79	264.22
483.15	264.51
483.52	264.84
483.88	265.21
484.25	265.57
484.61	265.98
484.98	266.41
485.34	266.99
485.71	267.59
486.07	268.15
486.44	268.73
486.80	269.44
487.17	270.15
487.53	271.00
487.90	271.87
488.26	272.79
488.62	273.78
488.99	274.75
489.35	275.84
489.72	277.02
490.08	278.25
490.44	279.48
490.81	280.82
491.17	282.20
491.54	283.64
491.90	285.13
492.26	286.78
492.63	288.49
492.99	290.23
493.36	292.06
493.72	294.06
494.08	296.15
494.45	298.31
494.81	300.63
495.17	303.02
495.54	305.52
495.90	308.19
496.26	310.91
496.63	313.84
496.99	316.89
497.35	320.10
497.72	323.44
498.08	326.92
498.44	330.54
498.80	334.42
499.17	338.40
499.53	342.55
499.89	346.86
500.26	351.32
500.62	355.99
500.98	360.85
501.34	365.93
501.71	371.18
502.07	376.60
502.43	382.15
502.79	387.87
503.16	393.85
503.52	400.03
503.88	406.38
504.24	412.90
504.60	419.67
504.97	426.71
505.33	433.90
505.69	441.48
506.05	449.21
506.41	456.97
506.78	464.99
507.14	473.33
507.50	481.94
507.86	490.80
508.22	499.88
508.59	509.00
508.95	518.39
509.31	528.03
509.67	537.97
510.03	548.06
510.39	558.45
510.75	569.07
511.12	579.73
511.48	590.79
511.84	602.05
512.20	613.31
512.56	624.97
512.92	636.89
513.28	649.05
513.64	661.17
514.00	673.59
514.37	686.33
514.73	699.10
515.09	711.87
515.45	724.89
515.81	738.09
516.17	751.69
516.53	765.47
516.89	779.29
517.25	793.03
517.61	807.14
517.97	821.29
518.33	835.39
518.69	849.88
519.05	864.51
519.41	879.28
519.77	894.43
520.13	909.48
520.49	924.45
520.85	939.38
521.21	954.70
521.57	970.55
521.93	985.86
522.29	1001.76
522.65	1017.54
523.01	1033.27
523.37	1048.90
523.73	1064.60
524.09	1080.32
524.45	1096.17
524.81	1112.51
525.17	1128.87
525.53	1145.21
525.89	1161.58
526.25	1177.97
526.61	1193.93
526.97	1210.28
527.33	1226.41
527.68	1242.60
528.04	1258.71
528.40	1274.78
528.76	1291.42
529.12	1307.60
529.48	1324.11
529.84	1339.69
530.20	1355.93
530.56	1372.45
530.91	1389.50
531.27	1405.87
531.63	1422.00
531.99	1438.28
532.35	1453.87
532.71	1469.46
533.07	1485.46
533.42	1501.07
533.78	1516.74
534.14	1532.71
534.50	1547.70
534.86	1563.19
535.21	1578.13
535.57	1593.69
535.93	1609.01
536.29	1623.46
536.65	1638.16
537.00	1652.50
537.36	1667.56
537.72	1681.71
538.08	1695.99
538.44	1709.39
538.79	1723.07
539.15	1736.29
539.51	1749.76
539.87	1763.91
540.22	1777.31
540.58	1790.69
540.94	1803.75
541.29	1816.30
541.65	1828.70
542.01	1841.74
542.37	1853.92
542.72	1866.08
543.08	1877.87
543.44	1890.05
543.79	1901.29
544.15	1912.23
544.51	1923.80
544.87	1934.76
545.22	1945.76
545.58	1956.12
545.94	1966.04
546.29	1976.11
546.65	1986.24
547.01	1995.71
547.36	2004.43
547.72	2013.06
548.07	2021.45
548.43	2029.60
548.79	2037.70
549.14	2045.57
549.50	2052.97
549.86	2060.76
550.21	2068.41
550.57	2075.77
550.92	2082.64
551.28	2089.97
551.64	2097.21
551.99	2103.92
552.35	2110.29
552.70	2116.66
553.06	2122.84
553.41	2129.33
553.77	2135.46
554.13	2141.64
554.48	2147.94
554.84	2153.83
555.19	2159.35
555.55	2164.62
555.90	2169.64
556.26	2175.13
556.61	2179.99
556.97	2184.96
557.32	2189.49
557.68	2193.95
558.03	2198.50
558.39	2202.43
558.74	2207.29
559.10	2211.69
559.45	2215.67
559.81	2220.22
560.16	2224.23
560.52	2227.71
560.87	2231.61
561.23	2234.55
561.58	2237.77
561.94	2240.57
562.29	2243.12
562.64	2246.40
563.00	2249.12
563.35	2252.80
563.71	2256.17
564.06	2259.64
564.42	2262.68
564.77	2265.68
565.12	2268.46
565.48	2270.92
565.83	2273.29
566.19	2275.18
566.54	2276.32
566.89	2277.98
567.25	2279.20
567.60	2280.86
567.96	2282.98
568.31	2283.97
568.66	2285.65
569.02	2286.79
569.37	2287.59
569.72	2289.05
570.08	2289.45
570.43	2289.97
570.78	2289.98
571.14	2288.95
571.49	2288.07
571.84	2288.02
572.20	2287.19
572.55	2286.49
572.90	2285.01
573.26	2283.95
573.61	2282.29
573.96	2281.05
574.31	2278.44
574.67	2275.71
575.02	2272.36
575.37	2269.30
575.72	2266.21
576.08	2263.05
576.43	2259.92
576.78	2256.77
577.13	2253.66
577.49	2250.73
577.84	2247.68
578.19	2244.08
578.54	2240.85
578.90	2237.17
579.25	2232.03
579.60	2227.55
579.95	2222.78
580.30	2218.12
580.66	2213.28
581.01	2208.75
581.36	2203.93
581.71	2200.13
582.06	2196.00
582.42	2192.11
582.77	2187.31
583.12	2182.97
583.47	2178.70
583.82	2174.16
584.17	2169.12
584.53	2163.98
584.88	2158.80
585.23	2153.36
585.58	2148.16
585.93	2142.87
586.28	2138.17
586.63	2133.38
586.98	2128.48
587.34	2123.97
587.69	2119.26
588.04	2114.41
588.39	2109.04
588.74	2102.96
589.09	2096.93
589.44	2090.47
589.79	2084.46
590.14	2078.91
590.49	2072.60
590.84	2066.26
591.19	2060.39
591.54	2054.14
591.89	2047.08
592.25	2040.61
592.60	2033.59
592.95	2026.41
593.30	2019.31
593.65	2011.84
594.00	2004.92
594.35	1997.73
594.70	1989.72
595.05	1983.02
595.40	1975.80
595.75	1968.30
596.10	1962.33
596.45	1955.88
596.80	1949.91
597.15	1943.61
597.50	1936.86
597.85	1930.38
598.19	1923.97
598.54	1917.09
598.89	1910.52
599.24	1904.74
599.59	1898.17
599.94	1891.92
600.29	1885.70
600.64	1879.10
600.99	1871.99
601.34	1865.37
601.69	1858.51
602.04	1851.97
602.39	1844.55
602.74	1837.83
603.08	1831.34
603.43	1824.44
603.78	1817.12
604.13	1809.83
604.48	1802.55
604.83	1795.59
605.18	1788.88
605.53	1780.98
605.87	1772.99
606.22	1765.74
606.57	1757.74
606.92	1750.25
607.27	1743.33
607.62	1736.30
607.96	1729.13
608.31	1722.66
608.66	1715.00
609.01	1707.62
609.36	1700.10
609.70	1692.07
610.05	1684.02
610.40	1676.25
610.75	1668.05
611.10	1660.36
611.44	1651.90
611.79	1643.81
612.14	1635.21
612.49	1625.88
612.83	1617.39
613.18	1609.14
613.53	1601.03
613.88	1592.45
614.22	1584.08
614.57	1575.13
614.92	1567.04
615.27	1559.52
615.61	1551.04
615.96	1542.88
616.31	1534.96
616.65	1527.30
617.00	1519.65
617.35	1511.81
617.70	1503.55
618.04	1495.08
618.39	1486.64
618.74	1479.06
619.08	1470.66
619.43	1462.97
619.78	1455.99
620.12	1448.81
620.47	1441.26
620.82	1432.90
621.16	1425.32
621.51	1417.55
621.85	1409.94
622.20	1401.39
622.55	1392.83
622.89	1384.77
623.24	1377.04
623.59	1369.58
623.93	1362.09
624.28	1354.77
624.62	1347.29
624.97	1339.98
625.32	1332.94
625.66	1325.83
626.01	1318.48
626.35	1311.15
626.70	1303.23
627.04	1295.50
627.39	1287.57
627.73	1280.06
628.08	1273.13
628.43	1265.88
628.77	1258.60
629.12	1251.00
629.46	1243.74
629.81	1236.06
630.15	1228.75
630.50	1221.29
630.84	1213.13
631.19	1205.06
631.53	1197.36
631.88	1189.61
632.22	1181.90
632.57	1174.45
632.91	1166.88
633.26	1159.48
633.60	1151.89
633.95	1144.65
634.29	1137.36
634.64	1130.57
634.98	1123.09
635.32	1115.96
635.67	1109.24
636.01	1102.47
636.36	1095.69
636.70	1088.98
637.05	1082.40
637.39	1075.92
637.73	1069.37
638.08	1063.39
638.42	1057.31
638.77	1050.88
639.11	1044.39
639.45	1037.99
639.80	1031.41
640.14	1024.98
640.49	1018.39
640.83	1012.04
641.17	1005.81
641.52	999.50
641.86	992.99
642.20	987.17
642.55	980.54
642.89	974.03
643.23	967.39
643.58	961.55
643.92	955.45
644.26	949.51
644.61	943.40
644.95	937.35
645.29	930.70
645.64	923.97
645.98	917.60
646.32	911.54
646.66	905.47
647.01	899.58
647.35	893.91
647.69	887.93
648.04	882.31
648.38	876.52
648.72	870.51
649.06	864.50
649.41	858.52
649.75	852.66
650.09	846.65
650.43	840.91
650.78	834.75
651.12	828.69
651.46	822.80
651.80	817.15
652.14	811.75
652.49	806.41
652.83	801.22
653.17	795.61
653.51	789.96
653.85	784.40
654.20	778.80
654.54	772.73
654.88	767.01
655.22	761.10
655.56	755.29
655.90	749.73
656.25	744.48
656.59	739.11
656.93	734.03
657.27	728.93
657.61	723.42
657.95	718.24
658.29	713.23
658.64	707.99
658.98	702.52
659.32	696.98
659.66	691.75
660.00	686.41
660.34	681.44
660.68	676.49
661.02	671.51
661.36	666.78
661.70	662.28
662.05	657.91
662.39	653.57
662.73	649.11
663.07	644.76
663.41	640.21
663.75	635.73
664.09	631.12
664.43	626.65
664.77	622.54
665.11	618.27
665.45	614.03
665.79	609.98
666.13	605.80
666.47	601.64
666.81	597.43
667.15	593.21
667.49	589.22
667.83	585.31
668.17	581.34
668.51	577.25
668.85	573.16
669.19	569.21
669.53	565.44
669.87	561.59
670.21	557.87
670.55	554.24
670.89	550.76
671.23	547.25
671.57	543.78
671.91	540.28
672.25	536.69
672.58	533.19
672.92	529.73
673.26	526.59
673.60	523.47
673.94	520.38
674.28	517.51
674.62	514.57
674.96	511.47
675.30	508.57
675.64	505.64
675.97	502.86
676.31	500.06
676.65	497.05
676.99	494.36
677.33	491.42
677.67	488.55
678.01	485.51
678.34	482.55
678.68	479.60
679.02	476.76
679.36	473.99
679.70	471.23
680.04	468.47
680.37	465.54
680.71	462.71
681.05	460.02
681.39	457.24
681.73	454.51
682.06	451.94
682.40	449.36
682.74	446.75
683.08	444.13
683.42	441.49
683.75	439.01
684.09	436.34
684.43	433.93
684.77	431.49
685.10	429.10
685.44	426.76
685.78	424.45
686.12	422.15
686.45	419.88
686.79	417.57
687.13	415.31
687.46	413.14
687.80	410.98
688.14	408.73
688.48	406.67
688.81	404.47
689.15	402.29
689.49	400.07
689.82	397.98
690.16	395.88
690.50	393.92
690.83	391.95
691.17	389.97
691.51	388.01
691.84	386.14
692.18	384.20
692.52	382.20
692.85	380.27
693.19	378.36
693.52	376.48
693.86	374.62
694.20	372.82
694.53	371.02
694.87	369.16
695.21	367.34
695.54	365.43
695.88	363.64
696.21	361.91
696.55	360.24
696.88	358.54
697.22	356.86
697.56	355.14
697.89	353.41
698.23	351.78
698.56	350.10
698.90	348.48
699.23	346.82
699.57	345.28
699.90	343.66
700.24	342.06
700.58	340.55
700.91	339.07
701.25	337.59
701.58	336.18
701.92	334.76
702.25	333.35
702.59	332.02
702.92	330.68
703.26	329.34
703.59	328.01
703.93	326.82
704.26	325.54
704.60	324.23
704.93	322.95
705.26	321.68
705.60	320.48
705.93	319.27
706.27	318.20
706.60	317.11
706.94	316.02
707.27	314.86
707.61	313.72
707.94	312.61
708.27	311.47
708.61	310.37
708.94	309.33
709.28	308.37
709.61	307.38
709.94	306.39
710.28	305.37
710.61	304.39
710.95	303.25
711.28	302.32
711.61	301.38
711.95	300.47
712.28	299.50
712.61	298.50
712.95	297.52
713.28	296.57
713.61	295.64
713.95	294.76
714.28	293.95
714.61	293.08
714.95	292.24
715.28	291.41
715.61	290.50
715.95	289.60
716.28	288.71
716.61	287.83
716.95	286.97
717.28	286.20
717.61	285.46
717.94	284.71
718.28	283.87
718.61	283.07
718.94	282.34
719.27	281.70
719.61	281.06
719.94	280.43
720.27	279.76
720.60	279.08
720.94	278.41
721.27	277.76
721.60	277.20
721.93	276.61
722.27	276.05
722.60	275.48
722.93	274.93
723.26	274.38
723.59	273.86
723.93	273.31
724.26	272.74
724.59	272.11
724.92	271.56
725.25	271.03
725.59	270.54
725.92	270.05
726.25	269.47
726.58	268.92
726.91	268.40
727.24	267.92
727.57	267.46
727.91	266.94
728.24	266.47
728.57	265.99
728.90	265.52
729.23	264.99
729.56	264.58
729.89	264.11
730.22	263.65
730.55	263.16
730.89	262.72
731.22	262.28
731.55	261.82
731.88	261.40
732.21	260.99
732.54	260.57
732.87	260.10
733.20	259.72
733.53	259.39
733.86	258.98
734.19	258.56
734.52	258.18
734.85	257.87
735.18	257.43
735.51	257.06
735.84	256.69
736.17	256.37
736.50	255.93
736.83	255.68
737.16	255.34
737.49	255.01
737.82	254.66
738.15	254.34
738.48	254.00
738.81	253.67
739.14	253.35
739.47	252.99
739.80	252.67
740.13	252.36
740.46	252.00
740.79	251.71
741.12	251.40
741.45	251.05
741.78	250.72
742.11	250.45
742.44	250.09
742.77	249.78
743.10	249.46
743.43	249.16
743.75	248.75
744.08	248.59
744.41	248.26
744.74	248.02
745.07	247.73
745.40	247.48
745.73	247.27
746.06	246.99
746.39	246.76
746.71	246.52
747.04	246.24
747.37	246.01
747.70	245.73
748.03	245.47
748.36	245.24
748.68	245.00
749.01	244.73
749.34	244.50
749.67	244.28
750.00	244.07
750.33	243.93
750.65	243.72
750.98	243.33
751.31	243.11
751.64	242.84
751.97	242.64
752.29	242.42
752.62	242.14
752.95	241.91
753.28	241.71
753.60	241.51
753.93	241.34
754.26	241.13
754.59	240.93
754.91	240.71
755.24	240.51
755.57	240.29
755.90	240.13
756.22	239.92
756.55	239.69
756.88	239.46
757.20	239.19
757.53	238.98
757.86	238.82
758.19	238.67
758.51	238.51
758.84	238.33
759.17	238.18
759.49	238.05
759.82	237.92
760.15	237.72
760.47	237.55
760.80	237.36
761.13	237.20
761.45	237.02
761.78	236.83
762.11	236.68
762.43	236.54
762.76	236.35
763.08	236.24
763.41	236.10
763.74	236.00
764.06	235.84
764.39	235.71
764.71	235.57
765.04	235.44
765.37	235.32
765.69	235.13
766.02	234.97
766.34	234.85
766.67	234.67
767.00	234.59
767.32	234.53
767.65	234.44
767.97	234.31
768.30	234.18
768.62	234.10
768.95	233.96
769.27	233.85
769.60	233.78
769.92	233.65
770.25	233.52
770.57	233.42
770.90	233.35
771.22	233.27
771.55	233.18
771.87	233.08
772.20	232.95
772.52	232.97
772.85	233.01
773.17	232.87
773.50	232.83
773.82	232.71
774.15	232.57
774.47	232.48
774.80	232.42
775.12	232.35
775.45	232.27
775.77	232.21
776.09	232.13
776.42	232.05
776.74	232.00
777.07	231.97
777.39	231.90
777.72	231.84
778.04	231.80
778.36	231.72
778.69	231.67
779.01	231.68
779.33	231.51
779.66	231.35
779.98	231.28
780.31	231.22
780.63	231.22
780.95	231.17
781.28	231.08
781.60	230.99
781.92	230.93
782.25	230.90
782.57	230.84
782.89	230.79
783.22	230.73
783.54	230.65
783.86	230.59
784.19	230.49
784.51	230.44
784.83	230.35
785.16	230.29
785.48	230.25
785.80	230.18
786.12	230.14
786.45	230.09
786.77	230.10
787.09	230.02
