SpectraSuite Data File
++++++++++++++++++++++++++++++++++++
Date: Fri Feb 01 17:32:15 EST 2013
User: group
Dark Spectrum Present: No
Reference Spectrum Present: No
Number of Sampled Component Spectra: 1
Spectrometers: USB2E7196
Integration Time (usec): 35000 (USB2E7196)
Spectra Averaged: 100 (USB2E7196)
Boxcar Smoothing: 10 (USB2E7196)
Correct for Electrical Dark: No (USB2E7196)
Strobe/Lamp Enabled: No (USB2E7196)
Correct for Detector Non-linearity: No (USB2E7196)
Correct for Stray Light: No (USB2E7196)
Number of Pixels in Processed Spectrum: 2048
>>>>>Begin Processed Spectral Data<<<<<
339.09	0.00
339.48	212.53
339.86	214.41
340.24	215.73
340.63	217.18
341.01	219.62
341.39	219.98
341.78	220.62
342.16	222.54
342.54	223.32
342.93	211.37
343.31	222.05
343.69	222.63
344.07	223.13
344.46	223.57
344.84	223.97
345.22	224.21
345.60	224.46
345.99	224.68
346.37	224.82
346.75	224.93
347.13	224.98
347.52	225.03
347.90	225.12
348.28	225.12
348.66	225.15
349.05	225.18
349.43	225.21
349.81	225.25
350.19	225.29
350.57	225.32
350.96	225.41
351.34	225.52
351.72	225.57
352.10	225.61
352.48	225.67
352.87	225.73
353.25	225.79
353.63	225.85
354.01	225.91
354.39	225.93
354.77	226.00
355.15	226.13
355.54	226.17
355.92	226.18
356.30	226.27
356.68	226.44
357.06	226.49
357.44	226.55
357.82	226.63
358.20	226.69
358.58	226.75
358.97	226.80
359.35	226.87
359.73	226.97
360.11	227.04
360.49	227.07
360.87	227.09
361.25	227.18
361.63	227.26
362.01	227.32
362.39	227.37
362.77	227.38
363.15	227.41
363.53	227.44
363.91	227.49
364.29	227.47
364.67	227.36
365.05	227.37
365.43	227.37
365.81	227.39
366.19	227.43
366.57	227.46
366.95	227.45
367.33	227.37
367.71	227.34
368.09	227.33
368.47	227.31
368.85	227.30
369.23	227.28
369.61	227.19
369.99	227.16
370.37	227.15
370.75	227.16
371.13	227.07
371.51	227.05
371.89	227.00
372.27	226.99
372.65	226.95
373.03	226.91
373.41	226.87
373.78	226.81
374.16	226.72
374.54	226.66
374.92	226.61
375.30	226.59
375.68	226.51
376.06	226.44
376.44	226.38
376.82	226.34
377.19	226.28
377.57	226.21
377.95	226.11
378.33	226.02
378.71	225.93
379.09	225.92
379.47	225.86
379.84	225.80
380.22	225.72
380.60	225.65
380.98	225.57
381.36	225.50
381.73	225.43
382.11	225.38
382.49	225.31
382.87	225.25
383.25	225.19
383.62	225.28
384.00	225.22
384.38	225.18
384.76	225.15
385.13	225.11
385.51	225.08
385.89	225.07
386.27	225.05
386.64	225.02
387.02	224.93
387.40	224.87
387.78	224.84
388.15	224.81
388.53	224.77
388.91	224.75
389.29	224.75
389.66	224.77
390.04	224.72
390.42	224.71
390.79	224.70
391.17	224.70
391.55	224.58
391.92	224.58
392.30	224.59
392.68	224.54
393.05	224.54
393.43	224.51
393.81	224.51
394.18	224.48
394.56	224.48
394.94	224.54
395.31	224.56
395.69	224.59
396.06	224.63
396.44	224.67
396.82	224.67
397.19	224.71
397.57	224.70
397.95	224.77
398.32	224.79
398.70	224.83
399.07	224.89
399.45	224.93
399.82	224.97
400.20	225.02
400.58	225.08
400.95	225.12
401.33	225.23
401.70	225.35
402.08	225.44
402.45	225.53
402.83	225.60
403.20	225.67
403.58	225.76
403.95	225.87
404.33	225.99
404.71	226.12
405.08	226.31
405.46	226.44
405.83	226.56
406.21	226.68
406.58	226.82
406.96	226.95
407.33	227.13
407.70	227.31
408.08	227.56
408.45	227.77
408.83	228.01
409.20	228.20
409.58	228.35
409.95	228.63
410.33	228.89
410.70	229.16
411.08	229.51
411.45	229.83
411.82	230.16
412.20	230.53
412.57	230.95
412.95	231.23
413.32	231.66
413.69	232.10
414.07	232.58
414.44	233.06
414.82	233.54
415.19	234.12
415.56	234.68
415.94	235.23
416.31	235.89
416.68	236.53
417.06	237.32
417.43	238.06
417.81	238.83
418.18	239.64
418.55	240.51
418.93	241.39
419.30	242.29
419.67	243.25
420.04	244.27
420.42	245.33
420.79	246.59
421.16	247.76
421.54	249.00
421.91	250.29
422.28	251.60
422.66	253.00
423.03	254.33
423.40	255.70
423.77	257.18
424.15	258.67
424.52	260.23
424.89	261.90
425.26	263.51
425.64	265.07
426.01	266.70
426.38	268.48
426.75	270.23
427.13	272.04
427.50	273.94
427.87	275.90
428.24	277.83
428.61	279.63
428.99	281.71
429.36	283.92
429.73	286.06
430.10	288.16
430.47	290.31
430.85	292.55
431.22	294.98
431.59	297.49
431.96	299.87
432.33	302.46
432.70	304.97
433.08	307.91
433.45	310.68
433.82	313.44
434.19	316.42
434.56	319.37
434.93	322.18
435.30	324.94
435.68	327.94
436.05	330.89
436.42	333.84
436.79	336.45
437.16	339.23
437.53	342.22
437.90	345.20
438.27	348.11
438.64	351.09
439.01	353.78
439.38	356.11
439.75	358.35
440.13	360.98
440.50	363.42
440.87	365.36
441.24	367.36
441.61	369.62
441.98	371.14
442.35	373.01
442.72	374.96
443.09	376.80
443.46	377.89
443.83	378.49
444.20	379.01
444.57	379.88
444.94	380.23
445.31	380.57
445.68	380.95
446.05	381.01
446.42	380.59
446.79	380.15
447.16	379.66
447.53	379.39
447.90	378.16
448.27	376.97
448.64	375.32
449.01	374.14
449.37	372.08
449.74	370.13
450.11	367.82
450.48	365.23
450.85	362.61
451.22	360.33
451.59	358.22
451.96	356.20
452.33	353.49
452.70	351.02
453.07	348.08
453.43	345.01
453.80	342.13
454.17	339.32
454.54	336.67
454.91	333.85
455.28	331.01
455.65	328.41
456.02	325.82
456.38	323.61
456.75	320.80
457.12	318.47
457.49	316.19
457.86	313.90
458.23	311.97
458.59	309.87
458.96	307.70
459.33	305.76
459.70	303.79
460.07	302.18
460.43	300.37
460.80	298.70
461.17	297.20
461.54	295.63
461.91	294.16
462.27	292.64
462.64	291.34
463.01	289.92
463.38	288.54
463.74	287.13
464.11	285.86
464.48	284.84
464.85	283.68
465.21	282.73
465.58	281.75
465.95	280.57
466.32	279.57
466.68	278.60
467.05	277.66
467.42	276.79
467.78	275.87
468.15	274.95
468.52	274.22
468.88	273.35
469.25	272.53
469.62	271.87
469.98	271.14
470.35	270.52
470.72	269.90
471.08	269.24
471.45	268.66
471.82	268.10
472.18	267.49
472.55	267.04
472.92	266.51
473.28	266.05
473.65	265.61
474.02	265.19
474.38	264.83
474.75	264.51
475.11	264.14
475.48	263.83
475.85	263.60
476.21	263.36
476.58	263.16
476.94	263.02
477.31	262.83
477.67	262.72
478.04	262.60
478.41	262.56
478.77	262.60
479.14	262.57
479.50	262.58
479.87	262.63
480.23	262.67
480.60	262.76
480.96	262.87
481.33	263.07
481.69	263.30
482.06	263.48
482.42	263.71
482.79	263.94
483.15	264.28
483.52	264.64
483.88	265.02
484.25	265.39
484.61	265.84
484.98	266.29
485.34	266.86
485.71	267.42
486.07	268.01
486.44	268.58
486.80	269.29
487.17	270.04
487.53	270.85
487.90	271.77
488.26	272.74
488.62	273.69
488.99	274.66
489.35	275.71
489.72	276.85
490.08	277.99
490.44	279.23
490.81	280.56
491.17	281.94
491.54	283.42
491.90	284.95
492.26	286.57
492.63	288.28
492.99	290.01
493.36	291.89
493.72	293.93
494.08	295.99
494.45	298.19
494.81	300.56
495.17	303.01
495.54	305.50
495.90	308.10
496.26	310.86
496.63	313.73
496.99	316.78
497.35	320.01
497.72	323.42
498.08	326.92
498.44	330.52
498.80	334.37
499.17	338.34
499.53	342.52
499.89	346.83
500.26	351.30
500.62	355.94
500.98	360.81
501.34	365.80
501.71	371.10
502.07	376.47
502.43	381.97
502.79	387.66
503.16	393.63
503.52	399.87
503.88	406.17
504.24	412.78
504.60	419.56
504.97	426.57
505.33	433.77
505.69	441.33
506.05	448.98
506.41	456.74
506.78	464.72
507.14	472.96
507.50	481.46
507.86	490.34
508.22	499.36
508.59	508.43
508.95	517.81
509.31	527.41
509.67	537.31
510.03	547.43
510.39	557.81
510.75	568.37
511.12	579.05
511.48	590.15
511.84	601.34
512.20	612.60
512.56	624.25
512.92	636.16
513.28	648.25
513.64	660.47
514.00	672.93
514.37	685.60
514.73	698.34
515.09	711.07
515.45	723.97
515.81	737.27
516.17	750.87
516.53	764.71
516.89	778.49
517.25	792.31
517.61	806.38
517.97	820.36
518.33	834.45
518.69	848.76
519.05	863.24
519.41	877.92
519.77	892.94
520.13	907.93
520.49	922.84
520.85	937.74
521.21	952.91
521.57	968.61
521.93	983.86
522.29	999.67
522.65	1015.41
523.01	1031.08
523.37	1046.54
523.73	1062.06
524.09	1077.57
524.45	1093.32
524.81	1109.34
525.17	1125.52
525.53	1141.91
525.89	1158.14
526.25	1174.55
526.61	1190.50
526.97	1206.84
527.33	1222.90
527.68	1238.96
528.04	1255.04
528.40	1271.06
528.76	1287.64
529.12	1303.67
529.48	1320.14
529.84	1335.75
530.20	1352.00
530.56	1368.53
530.91	1385.47
531.27	1402.02
531.63	1418.13
531.99	1434.36
532.35	1449.98
532.71	1465.58
533.07	1481.55
533.42	1497.14
533.78	1512.77
534.14	1528.65
534.50	1543.66
534.86	1559.17
535.21	1574.07
535.57	1589.51
535.93	1604.71
536.29	1619.25
536.65	1634.04
537.00	1648.43
537.36	1663.55
537.72	1677.78
538.08	1691.99
538.44	1705.56
538.79	1719.22
539.15	1732.41
539.51	1745.81
539.87	1759.94
540.22	1773.31
540.58	1786.62
540.94	1799.69
541.29	1812.27
541.65	1824.75
542.01	1837.73
542.37	1849.86
542.72	1862.13
543.08	1873.94
543.44	1886.22
543.79	1897.40
544.15	1908.30
544.51	1919.93
544.87	1930.68
545.22	1941.51
545.58	1951.81
545.94	1961.45
546.29	1971.20
546.65	1981.36
547.01	1990.72
547.36	1999.52
547.72	2008.22
548.07	2016.52
548.43	2024.82
548.79	2032.91
549.14	2040.78
549.50	2048.26
549.86	2056.02
550.21	2063.52
550.57	2070.80
550.92	2077.58
551.28	2084.80
551.64	2092.11
551.99	2098.76
552.35	2105.28
552.70	2111.70
553.06	2117.96
553.41	2124.77
553.77	2131.07
554.13	2137.27
554.48	2143.65
554.84	2149.57
555.19	2155.15
555.55	2160.67
555.90	2165.46
556.26	2170.80
556.61	2175.73
556.97	2180.38
557.32	2185.05
557.68	2189.60
558.03	2194.15
558.39	2198.24
558.74	2203.28
559.10	2207.59
559.45	2211.60
559.81	2216.20
560.16	2220.27
560.52	2223.89
560.87	2227.60
561.23	2230.66
561.58	2233.93
561.94	2236.87
562.29	2239.46
562.64	2242.70
563.00	2245.37
563.35	2249.24
563.71	2252.71
564.06	2256.17
564.42	2259.57
564.77	2262.58
565.12	2265.44
565.48	2267.95
565.83	2270.41
566.19	2272.14
566.54	2273.30
566.89	2274.89
567.25	2275.96
567.60	2277.61
567.96	2279.75
568.31	2281.04
568.66	2282.72
569.02	2283.78
569.37	2284.53
569.72	2285.93
570.08	2286.44
570.43	2286.96
570.78	2286.99
571.14	2286.02
571.49	2285.24
571.84	2285.24
572.20	2284.50
572.55	2283.83
572.90	2282.49
573.26	2281.45
573.61	2279.98
573.96	2278.86
574.31	2276.37
574.67	2273.86
575.02	2270.80
575.37	2267.56
575.72	2264.17
576.08	2260.96
576.43	2258.00
576.78	2255.02
577.13	2252.22
577.49	2249.29
577.84	2246.22
578.19	2242.63
578.54	2239.34
578.90	2235.65
579.25	2230.43
579.60	2225.94
579.95	2221.26
580.30	2216.52
580.66	2211.72
581.01	2207.25
581.36	2202.64
581.71	2198.95
582.06	2194.82
582.42	2190.62
582.77	2185.98
583.12	2181.81
583.47	2177.59
583.82	2173.03
584.17	2167.89
584.53	2162.61
584.88	2157.27
585.23	2151.88
585.58	2146.78
585.93	2141.52
586.28	2136.91
586.63	2132.23
586.98	2127.41
587.34	2122.90
587.69	2118.36
588.04	2113.42
588.39	2108.03
588.74	2101.80
589.09	2095.79
589.44	2089.32
589.79	2083.35
590.14	2077.77
590.49	2071.36
590.84	2065.19
591.19	2059.36
591.54	2053.18
591.89	2046.13
592.25	2039.79
592.60	2032.73
592.95	2025.47
593.30	2018.46
593.65	2010.97
594.00	2004.04
594.35	1996.83
594.70	1988.87
595.05	1982.09
595.40	1974.87
595.75	1967.56
596.10	1961.54
596.45	1954.91
596.80	1948.71
597.15	1942.59
597.50	1935.94
597.85	1929.56
598.19	1923.10
598.54	1916.27
598.89	1909.72
599.24	1903.93
599.59	1897.46
599.94	1891.42
600.29	1885.23
600.64	1878.69
600.99	1871.49
601.34	1864.86
601.69	1857.96
602.04	1851.33
602.39	1843.95
602.74	1837.28
603.08	1830.71
603.43	1824.01
603.78	1816.85
604.13	1809.93
604.48	1802.75
604.83	1795.81
605.18	1789.14
605.53	1781.26
605.87	1773.34
606.22	1766.19
606.57	1758.26
606.92	1750.71
607.27	1743.67
607.62	1736.67
607.96	1729.51
608.31	1723.03
608.66	1715.41
609.01	1707.93
609.36	1700.34
609.70	1692.39
610.05	1684.43
610.40	1676.73
610.75	1668.52
611.10	1660.88
611.44	1652.28
611.79	1644.11
612.14	1635.44
612.49	1626.12
612.83	1617.68
613.18	1609.41
613.53	1601.20
613.88	1592.65
614.22	1584.37
614.57	1575.54
614.92	1567.58
615.27	1560.03
615.61	1551.63
615.96	1543.52
616.31	1535.64
616.65	1528.18
617.00	1520.52
617.35	1512.67
617.70	1504.24
618.04	1495.54
618.39	1487.06
618.74	1479.44
619.08	1471.17
619.43	1463.49
619.78	1456.44
620.12	1449.12
620.47	1441.49
620.82	1433.20
621.16	1425.61
621.51	1417.78
621.85	1410.02
622.20	1401.40
622.55	1392.92
622.89	1384.92
623.24	1377.03
623.59	1369.65
623.93	1362.06
624.28	1354.72
624.62	1347.07
624.97	1339.81
625.32	1332.92
625.66	1325.80
626.01	1318.58
626.35	1311.05
626.70	1303.12
627.04	1295.39
627.39	1287.48
627.73	1279.87
628.08	1272.94
628.43	1265.63
628.77	1258.37
629.12	1250.84
629.46	1243.55
629.81	1235.86
630.15	1228.51
630.50	1221.14
630.84	1212.88
631.19	1204.83
631.53	1197.24
631.88	1189.66
632.22	1181.97
632.57	1174.56
632.91	1167.04
633.26	1159.52
633.60	1151.98
633.95	1144.78
634.29	1137.57
634.64	1130.87
634.98	1123.46
635.32	1116.21
635.67	1109.49
636.01	1102.64
636.36	1095.79
636.70	1089.19
637.05	1082.60
637.39	1076.10
637.73	1069.54
638.08	1063.51
638.42	1057.40
638.77	1050.97
639.11	1044.39
639.45	1037.91
639.80	1031.22
640.14	1024.83
640.49	1018.28
640.83	1011.93
641.17	1005.68
641.52	999.35
641.86	992.78
642.20	986.95
642.55	980.54
642.89	974.01
643.23	967.43
643.58	961.59
643.92	955.34
644.26	949.34
644.61	943.12
644.95	937.09
645.29	930.58
645.64	923.82
645.98	917.34
646.32	911.22
646.66	905.16
647.01	899.41
647.35	893.62
647.69	887.59
648.04	881.94
648.38	876.21
648.72	870.30
649.06	864.34
649.41	858.32
649.75	852.40
650.09	846.48
650.43	840.76
650.78	834.59
651.12	828.55
651.46	822.75
651.80	817.12
652.14	811.62
652.49	806.12
652.83	800.96
653.17	795.29
653.51	789.74
653.85	784.23
654.20	778.50
654.54	772.47
654.88	766.75
655.22	760.88
655.56	755.02
655.90	749.47
656.25	744.09
656.59	738.81
656.93	733.69
657.27	728.52
657.61	723.03
657.95	717.88
658.29	712.90
658.64	707.62
658.98	702.20
659.32	696.73
659.66	691.57
660.00	686.29
660.34	681.28
660.68	676.24
661.02	671.26
661.36	666.50
661.70	661.92
662.05	657.63
662.39	653.30
662.73	648.85
663.07	644.41
663.41	639.99
663.75	635.50
664.09	630.86
664.43	626.44
664.77	622.35
665.11	618.10
665.45	613.91
665.79	609.83
666.13	605.76
666.47	601.63
666.81	597.49
667.15	593.34
667.49	589.46
667.83	585.63
668.17	581.64
668.51	577.61
668.85	573.58
669.19	569.69
669.53	565.86
669.87	561.99
670.21	558.24
670.55	554.54
670.89	551.02
671.23	547.60
671.57	544.02
671.91	540.44
672.25	536.92
672.58	533.37
672.92	529.81
673.26	526.64
673.60	523.48
673.94	520.37
674.28	517.39
674.62	514.43
674.96	511.26
675.30	508.37
675.64	505.41
675.97	502.57
676.31	499.65
676.65	496.65
676.99	493.91
677.33	491.05
677.67	488.23
678.01	485.22
678.34	482.27
678.68	479.35
679.02	476.50
679.36	473.64
679.70	470.87
680.04	468.18
680.37	465.28
680.71	462.47
681.05	459.77
681.39	457.03
681.73	454.24
682.06	451.72
682.40	449.13
682.74	446.58
683.08	444.03
683.42	441.39
683.75	438.92
684.09	436.30
684.43	433.82
684.77	431.31
685.10	428.92
685.44	426.56
685.78	424.30
686.12	422.04
686.45	419.70
686.79	417.40
687.13	415.14
687.46	412.94
687.80	410.72
688.14	408.45
688.48	406.38
688.81	404.15
689.15	402.00
689.49	399.80
689.82	397.68
690.16	395.55
690.50	393.58
690.83	391.64
691.17	389.67
691.51	387.73
691.84	385.85
692.18	383.93
692.52	381.97
692.85	379.96
693.19	378.04
693.52	376.23
693.86	374.40
694.20	372.62
694.53	370.79
694.87	368.92
695.21	367.14
695.54	365.29
695.88	363.54
696.21	361.80
696.55	360.13
696.88	358.43
697.22	356.73
697.56	355.14
697.89	353.42
698.23	351.79
698.56	350.17
698.90	348.62
699.23	346.98
699.57	345.38
699.90	343.85
700.24	342.25
700.58	340.74
700.91	339.21
701.25	337.73
701.58	336.34
701.92	334.96
702.25	333.58
702.59	332.19
702.92	330.85
703.26	329.49
703.59	328.17
703.93	326.94
704.26	325.74
704.60	324.36
704.93	323.07
705.26	321.81
705.60	320.56
705.93	319.38
706.27	318.23
706.60	317.14
706.94	316.02
707.27	314.89
707.61	313.78
707.94	312.70
708.27	311.56
708.61	310.48
708.94	309.47
709.28	308.47
709.61	307.50
709.94	306.52
710.28	305.52
710.61	304.50
710.95	303.37
711.28	302.43
711.61	301.46
711.95	300.52
712.28	299.58
712.61	298.57
712.95	297.57
713.28	296.72
713.61	295.82
713.95	294.92
714.28	294.07
714.61	293.18
714.95	292.34
715.28	291.47
715.61	290.57
715.95	289.68
716.28	288.77
716.61	287.92
716.95	287.09
717.28	286.30
717.61	285.52
717.94	284.82
718.28	283.95
718.61	283.23
718.94	282.51
719.27	281.81
719.61	281.12
719.94	280.47
720.27	279.72
720.60	279.02
720.94	278.34
721.27	277.73
721.60	277.12
721.93	276.49
722.27	275.95
722.60	275.37
722.93	274.83
723.26	274.31
723.59	273.71
723.93	273.16
724.26	272.59
724.59	272.03
724.92	271.46
725.25	271.01
725.59	270.48
725.92	269.98
726.25	269.47
726.58	269.02
726.91	268.48
727.24	267.99
727.57	267.51
727.91	267.01
728.24	266.54
728.57	266.03
728.90	265.56
729.23	265.06
729.56	264.65
729.89	264.17
730.22	263.65
730.55	263.22
730.89	262.73
731.22	262.26
731.55	261.85
731.88	261.42
732.21	260.96
732.54	260.51
732.87	260.07
733.20	259.66
733.53	259.25
733.86	258.90
734.19	258.53
734.52	258.14
734.85	257.83
735.18	257.38
735.51	257.05
735.84	256.68
736.17	256.32
736.50	255.90
736.83	255.63
737.16	255.31
737.49	254.92
737.82	254.60
738.15	254.27
738.48	253.94
738.81	253.61
739.14	253.28
739.47	252.98
739.80	252.69
740.13	252.35
740.46	252.02
740.79	251.66
741.12	251.36
741.45	251.02
741.78	250.65
742.11	250.41
742.44	250.08
742.77	249.80
743.10	249.49
743.43	249.18
743.75	248.79
744.08	248.61
744.41	248.35
744.74	248.08
745.07	247.78
745.40	247.50
745.73	247.29
746.06	247.03
746.39	246.74
746.71	246.46
747.04	246.22
747.37	245.95
747.70	245.72
748.03	245.43
748.36	245.22
748.68	244.98
749.01	244.71
749.34	244.48
749.67	244.23
750.00	243.99
750.33	243.81
750.65	243.62
750.98	243.29
751.31	243.09
751.64	242.89
751.97	242.73
752.29	242.46
752.62	242.18
752.95	241.93
753.28	241.70
753.60	241.50
753.93	241.32
754.26	241.13
754.59	240.89
754.91	240.68
755.24	240.48
755.57	240.31
755.90	240.11
756.22	239.94
756.55	239.72
756.88	239.53
757.20	239.31
757.53	239.09
757.86	238.92
758.19	238.73
758.51	238.55
758.84	238.35
759.17	238.21
759.49	238.04
759.82	237.93
760.15	237.80
760.47	237.65
760.80	237.41
761.13	237.30
761.45	237.14
761.78	237.01
762.11	236.85
762.43	236.65
762.76	236.51
763.08	236.38
763.41	236.28
763.74	236.16
764.06	236.00
764.39	235.86
764.71	235.71
765.04	235.57
765.37	235.41
765.69	235.27
766.02	235.13
766.34	235.04
766.67	234.90
767.00	234.77
767.32	234.72
767.65	234.70
767.97	234.57
768.30	234.45
768.62	234.35
768.95	234.25
769.27	234.18
769.60	234.07
769.92	233.95
770.25	233.80
770.57	233.66
770.90	233.58
771.22	233.47
771.55	233.38
771.87	233.30
772.20	233.22
772.52	233.25
772.85	233.27
773.17	233.14
773.50	233.02
773.82	232.95
774.15	232.77
774.47	232.62
774.80	232.52
775.12	232.45
775.45	232.32
775.77	232.23
776.09	232.13
776.42	232.04
776.74	231.96
777.07	231.88
777.39	231.82
777.72	231.71
778.04	231.65
778.36	231.56
778.69	231.47
779.01	231.39
779.33	231.20
779.66	231.04
779.98	230.98
780.31	230.91
780.63	230.87
780.95	230.83
781.28	230.75
781.60	230.67
781.92	230.61
782.25	230.55
782.57	230.51
782.89	230.43
783.22	230.38
783.54	230.29
783.86	230.22
784.19	230.16
784.51	230.12
784.83	230.07
785.16	230.03
785.48	229.99
785.80	229.94
786.12	229.89
786.45	229.81
786.77	229.81
787.09	229.78
