SpectraSuite Data File
++++++++++++++++++++++++++++++++++++
Date: Fri Feb 01 17:03:51 EST 2013
User: group
Dark Spectrum Present: No
Reference Spectrum Present: No
Number of Sampled Component Spectra: 1
Spectrometers: USB2E7196
Integration Time (usec): 35000 (USB2E7196)
Spectra Averaged: 100 (USB2E7196)
Boxcar Smoothing: 10 (USB2E7196)
Correct for Electrical Dark: No (USB2E7196)
Strobe/Lamp Enabled: No (USB2E7196)
Correct for Detector Non-linearity: No (USB2E7196)
Correct for Stray Light: No (USB2E7196)
Number of Pixels in Processed Spectrum: 2048
>>>>>Begin Processed Spectral Data<<<<<
339.09	0.00
339.48	213.79
339.86	215.35
340.24	216.17
340.63	217.67
341.01	220.43
341.39	220.47
341.78	221.75
342.16	223.06
342.54	223.69
342.93	211.99
343.31	222.69
343.69	223.20
344.07	223.64
344.46	224.06
344.84	224.45
345.22	224.66
345.60	224.89
345.99	225.08
346.37	225.20
346.75	225.30
347.13	225.36
347.52	225.40
347.90	225.44
348.28	225.44
348.66	225.49
349.05	225.48
349.43	225.51
349.81	225.55
350.19	225.56
350.57	225.59
350.96	225.63
351.34	225.72
351.72	225.78
352.10	225.89
352.48	225.98
352.87	226.01
353.25	226.10
353.63	226.16
354.01	226.22
354.39	226.29
354.77	226.33
355.15	226.45
355.54	226.52
355.92	226.56
356.30	226.64
356.68	226.77
357.06	226.81
357.44	226.85
357.82	226.94
358.20	227.00
358.58	227.08
358.97	227.19
359.35	227.25
359.73	227.34
360.11	227.34
360.49	227.37
360.87	227.45
361.25	227.49
361.63	227.56
362.01	227.64
362.39	227.66
362.77	227.71
363.15	227.72
363.53	227.73
363.91	227.75
364.29	227.78
364.67	227.72
365.05	227.74
365.43	227.78
365.81	227.79
366.19	227.90
366.57	227.94
366.95	227.91
367.33	227.89
367.71	227.87
368.09	227.90
368.47	227.89
368.85	227.84
369.23	227.89
369.61	227.85
369.99	227.83
370.37	227.82
370.75	227.86
371.13	227.82
371.51	227.77
371.89	227.75
372.27	227.71
372.65	227.67
373.03	227.69
373.41	227.62
373.78	227.57
374.16	227.44
374.54	227.37
374.92	227.31
375.30	227.26
375.68	227.20
376.06	227.19
376.44	227.14
376.82	227.13
377.19	227.03
377.57	226.97
377.95	226.85
378.33	226.80
378.71	226.67
379.09	226.62
379.47	226.60
379.84	226.50
380.22	226.44
380.60	226.35
380.98	226.22
381.36	226.19
381.73	226.11
382.11	226.09
382.49	226.00
382.87	225.97
383.25	225.91
383.62	225.97
384.00	225.87
384.38	225.82
384.76	225.76
385.13	225.73
385.51	225.63
385.89	225.63
386.27	225.59
386.64	225.58
387.02	225.51
387.40	225.44
387.78	225.41
388.15	225.38
388.53	225.36
388.91	225.35
389.29	225.31
389.66	225.30
390.04	225.28
390.42	225.28
390.79	225.24
391.17	225.25
391.55	225.14
391.92	225.11
392.30	225.09
392.68	225.07
393.05	225.08
393.43	225.16
393.81	225.12
394.18	225.09
394.56	225.07
394.94	225.11
395.31	225.10
395.69	225.14
396.06	225.17
396.44	225.15
396.82	225.16
397.19	225.24
397.57	225.24
397.95	225.26
398.32	225.25
398.70	225.26
399.07	225.31
399.45	225.34
399.82	225.40
400.20	225.43
400.58	225.48
400.95	225.49
401.33	225.53
401.70	225.66
402.08	225.75
402.45	225.84
402.83	225.94
403.20	226.01
403.58	226.10
403.95	226.20
404.33	226.35
404.71	226.44
405.08	226.60
405.46	226.73
405.83	226.88
406.21	227.04
406.58	227.23
406.96	227.35
407.33	227.52
407.70	227.74
408.08	227.99
408.45	228.19
408.83	228.38
409.20	228.60
409.58	228.80
409.95	229.07
410.33	229.29
410.70	229.54
411.08	229.86
411.45	230.16
411.82	230.44
412.20	230.76
412.57	231.22
412.95	231.53
413.32	231.95
413.69	232.34
414.07	232.77
414.44	233.21
414.82	233.68
415.19	234.22
415.56	234.77
415.94	235.30
416.31	235.94
416.68	236.58
417.06	237.27
417.43	237.93
417.81	238.67
418.18	239.49
418.55	240.30
418.93	241.18
419.30	242.05
419.67	242.99
420.04	243.96
420.42	244.91
420.79	246.07
421.16	247.19
421.54	248.40
421.91	249.60
422.28	250.88
422.66	252.19
423.03	253.45
423.40	254.76
423.77	256.19
424.15	257.60
424.52	259.09
424.89	260.68
425.26	262.22
425.64	263.65
426.01	265.22
426.38	266.88
426.75	268.57
427.13	270.30
427.50	272.13
427.87	274.00
428.24	275.84
428.61	277.55
428.99	279.45
429.36	281.54
429.73	283.59
430.10	285.59
430.47	287.63
430.85	289.77
431.22	292.02
431.59	294.38
431.96	296.61
432.33	299.10
432.70	301.48
433.08	304.31
433.45	306.95
433.82	309.53
434.19	312.36
434.56	315.13
434.93	317.77
435.30	320.33
435.68	323.17
436.05	326.01
436.42	328.77
436.79	331.28
437.16	333.95
437.53	336.77
437.90	339.52
438.27	342.30
438.64	345.08
439.01	347.65
439.38	349.83
439.75	351.99
440.13	354.44
440.50	356.74
440.87	358.56
441.24	360.48
441.61	362.64
441.98	364.15
442.35	365.95
442.72	367.75
443.09	369.57
443.46	370.59
443.83	371.15
444.20	371.66
444.57	372.51
444.94	372.80
445.31	373.16
445.68	373.54
446.05	373.62
446.42	373.26
446.79	372.88
447.16	372.49
447.53	372.19
447.90	371.05
448.27	369.90
448.64	368.33
449.01	367.22
449.37	365.26
449.74	363.41
450.11	361.18
450.48	358.79
450.85	356.29
451.22	354.16
451.59	352.16
451.96	350.27
452.33	347.71
452.70	345.39
453.07	342.55
453.43	339.69
453.80	336.93
454.17	334.28
454.54	331.71
454.91	328.99
455.28	326.34
455.65	323.86
456.02	321.47
456.38	319.35
456.75	316.72
457.12	314.49
457.49	312.28
457.86	310.14
458.23	308.29
458.59	306.27
458.96	304.21
459.33	302.39
459.70	300.53
460.07	299.00
460.43	297.28
460.80	295.67
461.17	294.24
461.54	292.76
461.91	291.36
462.27	289.92
462.64	288.67
463.01	287.29
463.38	286.04
463.74	284.64
464.11	283.48
464.48	282.49
464.85	281.40
465.21	280.56
465.58	279.66
465.95	278.58
466.32	277.67
466.68	276.78
467.05	275.85
467.42	274.96
467.78	274.07
468.15	273.22
468.52	272.59
468.88	271.74
469.25	270.99
469.62	270.40
469.98	269.77
470.35	269.17
470.72	268.62
471.08	267.96
471.45	267.46
471.82	266.97
472.18	266.34
472.55	265.91
472.92	265.39
473.28	264.91
473.65	264.47
474.02	264.06
474.38	263.73
474.75	263.49
475.11	263.17
475.48	262.95
475.85	262.71
476.21	262.50
476.58	262.36
476.94	262.23
477.31	262.07
477.67	261.91
478.04	261.84
478.41	261.79
478.77	261.84
479.14	261.77
479.50	261.78
479.87	261.87
480.23	261.97
480.60	262.04
480.96	262.13
481.33	262.37
481.69	262.56
482.06	262.74
482.42	262.94
482.79	263.18
483.15	263.51
483.52	263.94
483.88	264.30
484.25	264.68
484.61	265.08
484.98	265.52
485.34	266.11
485.71	266.68
486.07	267.30
486.44	267.86
486.80	268.58
487.17	269.31
487.53	270.12
487.90	270.97
488.26	271.89
488.62	272.92
488.99	273.91
489.35	274.99
489.72	276.09
490.08	277.27
490.44	278.51
490.81	279.84
491.17	281.20
491.54	282.69
491.90	284.23
492.26	285.90
492.63	287.63
492.99	289.38
493.36	291.25
493.72	293.29
494.08	295.39
494.45	297.63
494.81	299.98
495.17	302.40
495.54	304.96
495.90	307.62
496.26	310.35
496.63	313.27
496.99	316.35
497.35	319.60
497.72	322.96
498.08	326.43
498.44	330.04
498.80	333.94
499.17	337.95
499.53	342.09
499.89	346.43
500.26	350.92
500.62	355.55
500.98	360.48
501.34	365.48
501.71	370.78
502.07	376.13
502.43	381.71
502.79	387.53
503.16	393.50
503.52	399.73
503.88	406.07
504.24	412.68
504.60	419.48
504.97	426.57
505.33	433.81
505.69	441.47
506.05	449.18
506.41	456.96
506.78	465.01
507.14	473.29
507.50	481.86
507.86	490.76
508.22	499.90
508.59	509.04
508.95	518.58
509.31	528.27
509.67	538.34
510.03	548.47
510.39	558.83
510.75	569.51
511.12	580.34
511.48	591.53
511.84	602.78
512.20	614.09
512.56	625.79
512.92	637.85
513.28	650.01
513.64	662.31
514.00	674.82
514.37	687.61
514.73	700.54
515.09	713.33
515.45	726.43
515.81	739.74
516.17	753.49
516.53	767.37
516.89	781.32
517.25	795.16
517.61	809.33
517.97	823.53
518.33	837.70
518.69	852.16
519.05	866.85
519.41	881.80
519.77	897.02
520.13	912.23
520.49	927.21
520.85	942.30
521.21	957.67
521.57	973.59
521.93	988.99
522.29	1005.00
522.65	1021.04
523.01	1036.79
523.37	1052.51
523.73	1068.28
524.09	1084.00
524.45	1099.96
524.81	1116.22
525.17	1132.55
525.53	1149.05
525.89	1165.62
526.25	1182.11
526.61	1198.19
526.97	1214.55
527.33	1230.81
527.68	1246.98
528.04	1263.20
528.40	1279.44
528.76	1296.14
529.12	1312.38
529.48	1328.92
529.84	1344.53
530.20	1360.68
530.56	1377.33
530.91	1394.40
531.27	1410.78
531.63	1426.79
531.99	1442.95
532.35	1458.56
532.71	1474.20
533.07	1490.12
533.42	1505.64
533.78	1521.29
534.14	1537.28
534.50	1552.10
534.86	1567.53
535.21	1582.31
535.57	1597.86
535.93	1613.00
536.29	1627.49
536.65	1642.17
537.00	1656.58
537.36	1671.56
537.72	1685.70
538.08	1699.94
538.44	1713.37
538.79	1727.01
539.15	1740.29
539.51	1753.71
539.87	1767.80
540.22	1781.11
540.58	1794.44
540.94	1807.36
541.29	1819.84
541.65	1832.08
542.01	1845.09
542.37	1857.14
542.72	1869.35
543.08	1880.78
543.44	1892.90
543.79	1903.78
544.15	1914.43
544.51	1925.66
544.87	1936.43
545.22	1947.30
545.58	1957.24
545.94	1966.81
546.29	1976.47
546.65	1986.28
547.01	1995.59
547.36	2004.00
547.72	2012.49
548.07	2020.40
548.43	2028.32
548.79	2036.20
549.14	2043.66
549.50	2050.83
549.86	2058.33
550.21	2065.45
550.57	2072.58
550.92	2079.10
551.28	2086.15
551.64	2093.20
551.99	2099.68
552.35	2105.66
552.70	2111.74
553.06	2117.68
553.41	2124.04
553.77	2129.93
554.13	2136.01
554.48	2141.88
554.84	2147.60
555.19	2152.78
555.55	2157.98
555.90	2162.52
556.26	2167.58
556.61	2172.35
556.97	2176.75
557.32	2180.95
557.68	2185.11
558.03	2189.62
558.39	2193.33
558.74	2198.02
559.10	2201.94
559.45	2205.68
559.81	2210.20
560.16	2214.00
560.52	2217.26
560.87	2220.80
561.23	2223.55
561.58	2226.46
561.94	2229.15
562.29	2231.46
562.64	2234.31
563.00	2236.87
563.35	2240.65
563.71	2243.85
564.06	2247.04
564.42	2250.15
564.77	2252.82
565.12	2255.42
565.48	2257.32
565.83	2259.34
566.19	2260.84
566.54	2262.01
566.89	2263.40
567.25	2264.09
567.60	2265.49
567.96	2267.43
568.31	2268.35
568.66	2269.72
569.02	2270.47
569.37	2270.99
569.72	2272.16
570.08	2272.46
570.43	2272.71
570.78	2272.31
571.14	2270.98
571.49	2269.87
571.84	2269.68
572.20	2268.86
572.55	2267.92
572.90	2266.49
573.26	2265.42
573.61	2263.82
573.96	2262.26
574.31	2259.56
574.67	2256.87
575.02	2253.39
575.37	2250.22
575.72	2246.72
576.08	2243.49
576.43	2240.30
576.78	2236.93
577.13	2233.67
577.49	2230.70
577.84	2227.57
578.19	2224.00
578.54	2220.61
578.90	2216.77
579.25	2211.38
579.60	2206.59
579.95	2201.93
580.30	2197.19
580.66	2192.17
581.01	2187.45
581.36	2182.86
581.71	2178.79
582.06	2174.53
582.42	2170.40
582.77	2165.37
583.12	2160.87
583.47	2156.49
583.82	2151.97
584.17	2146.93
584.53	2141.81
584.88	2136.44
585.23	2130.86
585.58	2125.54
585.93	2120.27
586.28	2115.52
586.63	2110.75
586.98	2105.98
587.34	2101.44
587.69	2096.72
588.04	2091.78
588.39	2086.46
588.74	2080.03
589.09	2074.08
589.44	2067.59
589.79	2061.55
590.14	2056.04
590.49	2049.68
590.84	2043.38
591.19	2037.40
591.54	2031.14
591.89	2024.08
592.25	2017.66
592.60	2010.59
592.95	2003.28
593.30	1996.06
593.65	1988.57
594.00	1981.63
594.35	1974.44
594.70	1966.48
595.05	1959.53
595.40	1952.31
595.75	1944.86
596.10	1938.97
596.45	1932.43
596.80	1926.51
597.15	1920.28
597.50	1913.53
597.85	1907.27
598.19	1900.78
598.54	1893.90
598.89	1887.40
599.24	1881.62
599.59	1875.02
599.94	1868.87
600.29	1862.69
600.64	1856.25
600.99	1849.18
601.34	1842.60
601.69	1835.83
602.04	1829.18
602.39	1821.98
602.74	1815.29
603.08	1808.58
603.43	1801.87
603.78	1794.73
604.13	1787.53
604.48	1780.35
604.83	1773.40
605.18	1766.74
605.53	1758.94
605.87	1750.98
606.22	1743.75
606.57	1735.94
606.92	1728.66
607.27	1721.75
607.62	1715.06
607.96	1708.02
608.31	1701.60
608.66	1694.08
609.01	1686.59
609.36	1679.15
609.70	1671.23
610.05	1663.32
610.40	1655.86
610.75	1647.62
611.10	1639.95
611.44	1631.55
611.79	1623.52
612.14	1615.08
612.49	1605.87
612.83	1597.52
613.18	1589.56
613.53	1581.51
613.88	1572.99
614.22	1564.83
614.57	1556.11
614.92	1548.06
615.27	1540.64
615.61	1532.21
615.96	1524.11
616.31	1516.46
616.65	1509.03
617.00	1501.52
617.35	1493.96
617.70	1485.71
618.04	1477.38
618.39	1469.31
618.74	1461.77
619.08	1453.56
619.43	1445.94
619.78	1439.06
620.12	1432.02
620.47	1424.46
620.82	1416.41
621.16	1409.07
621.51	1401.37
621.85	1393.82
622.20	1385.33
622.55	1376.94
622.89	1369.16
623.24	1361.57
623.59	1354.28
623.93	1346.92
624.28	1339.71
624.62	1332.21
624.97	1325.02
625.32	1318.08
625.66	1310.97
626.01	1303.93
626.35	1296.60
626.70	1288.98
627.04	1281.31
627.39	1273.64
627.73	1266.34
628.08	1259.45
628.43	1252.26
628.77	1245.04
629.12	1237.59
629.46	1230.51
629.81	1223.00
630.15	1215.88
630.50	1208.61
630.84	1200.46
631.19	1192.49
631.53	1185.05
631.88	1177.45
632.22	1169.93
632.57	1162.74
632.91	1155.32
633.26	1147.86
633.60	1140.48
633.95	1133.30
634.29	1126.28
634.64	1119.56
634.98	1112.26
635.32	1105.18
635.67	1098.52
636.01	1091.92
636.36	1085.18
636.70	1078.59
637.05	1072.12
637.39	1065.56
637.73	1059.09
638.08	1053.20
638.42	1047.25
638.77	1040.82
639.11	1034.35
639.45	1028.02
639.80	1021.36
640.14	1014.96
640.49	1008.47
640.83	1002.13
641.17	996.00
641.52	989.69
641.86	983.18
642.20	977.22
642.55	970.84
642.89	964.39
643.23	957.84
643.58	952.14
643.92	946.01
644.26	940.00
644.61	934.00
644.95	928.01
645.29	921.58
645.64	914.86
645.98	908.55
646.32	902.61
646.66	896.57
647.01	890.80
647.35	885.13
647.69	879.25
648.04	873.70
648.38	867.95
648.72	862.06
649.06	856.13
649.41	850.32
649.75	844.43
650.09	838.55
650.43	832.86
650.78	826.73
651.12	820.87
651.46	815.19
651.80	809.57
652.14	804.15
652.49	798.81
652.83	793.70
653.17	788.07
653.51	782.59
653.85	777.14
654.20	771.49
654.54	765.54
654.88	759.87
655.22	754.06
655.56	748.35
655.90	742.86
656.25	737.62
656.59	732.34
656.93	727.33
657.27	722.18
657.61	716.75
657.95	711.67
658.29	706.60
658.64	701.35
658.98	696.06
659.32	690.64
659.66	685.42
660.00	680.12
660.34	675.25
660.68	670.23
661.02	665.29
661.36	660.69
661.70	656.25
662.05	651.96
662.39	647.67
662.73	643.28
663.07	638.96
663.41	634.54
663.75	630.11
664.09	625.56
664.43	621.22
664.77	617.14
665.11	612.94
665.45	608.79
665.79	604.74
666.13	600.67
666.47	596.60
666.81	592.44
667.15	588.36
667.49	584.44
667.83	580.62
668.17	576.72
668.51	572.69
668.85	568.64
669.19	564.79
669.53	560.99
669.87	557.21
670.21	553.51
670.55	549.93
670.89	546.46
671.23	543.07
671.57	539.55
671.91	536.01
672.25	532.48
672.58	528.95
672.92	525.47
673.26	522.24
673.60	519.11
673.94	516.06
674.28	513.16
674.62	510.17
674.96	507.10
675.30	504.17
675.64	501.28
675.97	498.51
676.31	495.70
676.65	492.83
676.99	490.08
677.33	487.23
677.67	484.40
678.01	481.38
678.34	478.40
678.68	475.51
679.02	472.71
679.36	469.91
679.70	467.22
680.04	464.56
680.37	461.73
680.71	458.92
681.05	456.25
681.39	453.51
681.73	450.92
682.06	448.39
682.40	445.82
682.74	443.22
683.08	440.63
683.42	438.01
683.75	435.46
684.09	432.87
684.43	430.32
684.77	427.82
685.10	425.52
685.44	423.21
685.78	420.96
686.12	418.69
686.45	416.44
686.79	414.09
687.13	411.88
687.46	409.76
687.80	407.61
688.14	405.40
688.48	403.37
688.81	401.14
689.15	398.96
689.49	396.86
689.82	394.80
690.16	392.80
690.50	390.88
690.83	388.95
691.17	387.00
691.51	385.15
691.84	383.30
692.18	381.34
692.52	379.38
692.85	377.41
693.19	375.53
693.52	373.67
693.86	371.91
694.20	370.12
694.53	368.31
694.87	366.45
695.21	364.66
695.54	362.81
695.88	361.05
696.21	359.35
696.55	357.68
696.88	356.00
697.22	354.29
697.56	352.62
697.89	350.98
698.23	349.37
698.56	347.77
698.90	346.25
699.23	344.62
699.57	343.10
699.90	341.58
700.24	340.04
700.58	338.52
700.91	337.06
701.25	335.60
701.58	334.25
701.92	332.93
702.25	331.62
702.59	330.28
702.92	329.00
703.26	327.72
703.59	326.46
703.93	325.28
704.26	324.12
704.60	322.85
704.93	321.63
705.26	320.40
705.60	319.19
705.93	317.99
706.27	316.97
706.60	315.89
706.94	314.82
707.27	313.69
707.61	312.67
707.94	311.63
708.27	310.56
708.61	309.45
708.94	308.41
709.28	307.37
709.61	306.39
709.94	305.42
710.28	304.40
710.61	303.40
710.95	302.30
711.28	301.34
711.61	300.34
711.95	299.38
712.28	298.43
712.61	297.50
712.95	296.59
713.28	295.68
713.61	294.77
713.95	293.90
714.28	293.08
714.61	292.20
714.95	291.33
715.28	290.52
715.61	289.63
715.95	288.80
716.28	287.95
716.61	287.10
716.95	286.25
717.28	285.50
717.61	284.75
717.94	284.03
718.28	283.23
718.61	282.53
718.94	281.86
719.27	281.19
719.61	280.54
719.94	279.85
720.27	279.13
720.60	278.49
720.94	277.83
721.27	277.23
721.60	276.65
721.93	276.07
722.27	275.44
722.60	274.92
722.93	274.31
723.26	273.79
723.59	273.24
723.93	272.71
724.26	272.16
724.59	271.59
724.92	271.05
725.25	270.57
725.59	270.05
725.92	269.59
726.25	269.05
726.58	268.54
726.91	268.03
727.24	267.59
727.57	267.09
727.91	266.57
728.24	266.10
728.57	265.59
728.90	265.15
729.23	264.73
729.56	264.31
729.89	263.87
730.22	263.35
730.55	262.91
730.89	262.45
731.22	262.00
731.55	261.59
731.88	261.18
732.21	260.72
732.54	260.28
732.87	259.84
733.20	259.48
733.53	259.09
733.86	258.76
734.19	258.32
734.52	257.98
734.85	257.68
735.18	257.28
735.51	256.92
735.84	256.53
736.17	256.16
736.50	255.76
736.83	255.53
737.16	255.21
737.49	254.86
737.82	254.57
738.15	254.23
738.48	253.88
738.81	253.54
739.14	253.24
739.47	252.94
739.80	252.63
740.13	252.29
740.46	251.96
740.79	251.64
741.12	251.39
741.45	251.03
741.78	250.70
742.11	250.40
742.44	250.11
742.77	249.81
743.10	249.51
743.43	249.21
743.75	248.80
744.08	248.65
744.41	248.38
744.74	248.09
745.07	247.80
745.40	247.57
745.73	247.33
746.06	247.04
746.39	246.81
746.71	246.53
747.04	246.25
747.37	246.00
747.70	245.71
748.03	245.44
748.36	245.25
748.68	245.00
749.01	244.74
749.34	244.52
749.67	244.31
750.00	244.08
750.33	243.91
750.65	243.67
750.98	243.34
751.31	243.13
751.64	242.89
751.97	242.76
752.29	242.54
752.62	242.28
752.95	242.09
753.28	241.85
753.60	241.65
753.93	241.48
754.26	241.28
754.59	241.08
754.91	240.86
755.24	240.64
755.57	240.43
755.90	240.23
756.22	240.04
756.55	239.84
756.88	239.64
757.20	239.44
757.53	239.28
757.86	239.11
758.19	238.94
758.51	238.79
758.84	238.55
759.17	238.39
759.49	238.27
759.82	238.11
760.15	237.95
760.47	237.77
760.80	237.60
761.13	237.45
761.45	237.30
761.78	237.16
762.11	237.03
762.43	236.89
762.76	236.75
763.08	236.62
763.41	236.46
763.74	236.33
764.06	236.18
764.39	236.06
764.71	235.94
765.04	235.77
765.37	235.62
765.69	235.50
766.02	235.34
766.34	235.17
766.67	235.02
767.00	234.94
767.32	234.88
767.65	234.84
767.97	234.71
768.30	234.59
768.62	234.46
768.95	234.32
769.27	234.19
769.60	234.11
769.92	233.98
770.25	233.87
770.57	233.75
770.90	233.63
771.22	233.48
771.55	233.37
771.87	233.27
772.20	233.16
772.52	233.14
772.85	233.18
773.17	233.06
773.50	232.98
773.82	232.88
774.15	232.74
774.47	232.56
774.80	232.47
775.12	232.41
775.45	232.36
775.77	232.30
776.09	232.24
776.42	232.14
776.74	232.10
777.07	232.00
777.39	231.91
777.72	231.81
778.04	231.78
778.36	231.70
778.69	231.66
779.01	231.65
779.33	231.52
779.66	231.32
779.98	231.26
780.31	231.26
780.63	231.23
780.95	231.21
781.28	231.17
781.60	231.12
781.92	231.03
782.25	230.97
782.57	230.89
782.89	230.81
783.22	230.75
783.54	230.64
783.86	230.61
784.19	230.57
784.51	230.57
784.83	230.48
785.16	230.43
785.48	230.36
785.80	230.30
786.12	230.25
786.45	230.22
786.77	230.19
787.09	230.07
