SpectraSuite Data File
++++++++++++++++++++++++++++++++++++
Date: Fri Feb 01 16:15:37 EST 2013
User: group
Dark Spectrum Present: No
Reference Spectrum Present: No
Number of Sampled Component Spectra: 1
Spectrometers: USB2E7196
Integration Time (usec): 35000 (USB2E7196)
Spectra Averaged: 100 (USB2E7196)
Boxcar Smoothing: 10 (USB2E7196)
Correct for Electrical Dark: No (USB2E7196)
Strobe/Lamp Enabled: No (USB2E7196)
Correct for Detector Non-linearity: No (USB2E7196)
Correct for Stray Light: No (USB2E7196)
Number of Pixels in Processed Spectrum: 2048
>>>>>Begin Processed Spectral Data<<<<<
339.09	0.00
339.48	214.11
339.86	215.94
340.24	217.02
340.63	218.44
341.01	221.50
341.39	221.26
341.78	223.06
342.16	223.78
342.54	224.14
342.93	212.65
343.31	223.40
343.69	223.95
344.07	224.37
344.46	224.80
344.84	225.17
345.22	225.43
345.60	225.68
345.99	225.83
346.37	225.94
346.75	226.05
347.13	226.10
347.52	226.15
347.90	226.21
348.28	226.19
348.66	226.24
349.05	226.24
349.43	226.30
349.81	226.31
350.19	226.35
350.57	226.43
350.96	226.48
351.34	226.55
351.72	226.62
352.10	226.75
352.48	226.81
352.87	226.87
353.25	226.89
353.63	226.92
354.01	226.97
354.39	227.05
354.77	227.13
355.15	227.26
355.54	227.31
355.92	227.35
356.30	227.45
356.68	227.58
357.06	227.64
357.44	227.68
357.82	227.75
358.20	227.82
358.58	227.87
358.97	227.93
359.35	228.04
359.73	228.12
360.11	228.18
360.49	228.24
360.87	228.29
361.25	228.36
361.63	228.44
362.01	228.48
362.39	228.51
362.77	228.55
363.15	228.60
363.53	228.62
363.91	228.66
364.29	228.67
364.67	228.58
365.05	228.63
365.43	228.70
365.81	228.73
366.19	228.79
366.57	228.86
366.95	228.85
367.33	228.80
367.71	228.83
368.09	228.85
368.47	228.83
368.85	228.83
369.23	228.84
369.61	228.78
369.99	228.80
370.37	228.78
370.75	228.81
371.13	228.71
371.51	228.67
371.89	228.65
372.27	228.64
372.65	228.62
373.03	228.57
373.41	228.47
373.78	228.41
374.16	228.33
374.54	228.23
374.92	228.18
375.30	228.10
375.68	228.00
376.06	227.91
376.44	227.84
376.82	227.76
377.19	227.68
377.57	227.65
377.95	227.56
378.33	227.51
378.71	227.35
379.09	227.32
379.47	227.25
379.84	227.14
380.22	227.08
380.60	227.00
380.98	226.90
381.36	226.85
381.73	226.78
382.11	226.70
382.49	226.65
382.87	226.55
383.25	226.51
383.62	226.56
384.00	226.51
384.38	226.47
384.76	226.44
385.13	226.43
385.51	226.34
385.89	226.29
386.27	226.22
386.64	226.18
387.02	226.13
387.40	226.07
387.78	226.03
388.15	225.99
388.53	225.94
388.91	225.92
389.29	225.88
389.66	225.88
390.04	225.85
390.42	225.84
390.79	225.86
391.17	225.84
391.55	225.74
391.92	225.70
392.30	225.69
392.68	225.68
393.05	225.66
393.43	225.68
393.81	225.70
394.18	225.70
394.56	225.73
394.94	225.76
395.31	225.79
395.69	225.87
396.06	225.89
396.44	225.92
396.82	225.96
397.19	226.05
397.57	226.08
397.95	226.16
398.32	226.18
398.70	226.22
399.07	226.28
399.45	226.31
399.82	226.35
400.20	226.40
400.58	226.48
400.95	226.51
401.33	226.60
401.70	226.75
402.08	226.82
402.45	226.90
402.83	227.02
403.20	227.10
403.58	227.18
403.95	227.28
404.33	227.41
404.71	227.53
405.08	227.71
405.46	227.82
405.83	227.95
406.21	228.10
406.58	228.26
406.96	228.41
407.33	228.57
407.70	228.77
408.08	229.02
408.45	229.21
408.83	229.45
409.20	229.70
409.58	229.85
409.95	230.09
410.33	230.39
410.70	230.64
411.08	230.94
411.45	231.24
411.82	231.61
412.20	231.97
412.57	232.38
412.95	232.66
413.32	233.04
413.69	233.42
414.07	233.85
414.44	234.33
414.82	234.82
415.19	235.41
415.56	235.96
415.94	236.52
416.31	237.20
416.68	237.82
417.06	238.51
417.43	239.20
417.81	240.00
418.18	240.75
418.55	241.58
418.93	242.46
419.30	243.33
419.67	244.20
420.04	245.17
420.42	246.15
420.79	247.34
421.16	248.50
421.54	249.74
421.91	250.91
422.28	252.16
422.66	253.49
423.03	254.78
423.40	256.09
423.77	257.52
424.15	258.91
424.52	260.41
424.89	261.99
425.26	263.54
425.64	264.99
426.01	266.58
426.38	268.25
426.75	269.91
427.13	271.64
427.50	273.47
427.87	275.34
428.24	277.22
428.61	278.96
428.99	280.89
429.36	282.95
429.73	285.03
430.10	287.03
430.47	289.07
430.85	291.18
431.22	293.45
431.59	295.80
431.96	298.04
432.33	300.51
432.70	302.93
433.08	305.75
433.45	308.33
433.82	310.96
434.19	313.85
434.56	316.71
434.93	319.35
435.30	321.98
435.68	324.84
436.05	327.63
436.42	330.42
436.79	332.97
437.16	335.62
437.53	338.38
437.90	341.17
438.27	343.90
438.64	346.65
439.01	349.23
439.38	351.45
439.75	353.62
440.13	356.12
440.50	358.38
440.87	360.21
441.24	362.15
441.61	364.26
441.98	365.70
442.35	367.44
442.72	369.31
443.09	371.10
443.46	372.10
443.83	372.71
444.20	373.19
444.57	373.97
444.94	374.33
445.31	374.70
445.68	375.05
446.05	375.12
446.42	374.81
446.79	374.39
447.16	373.93
447.53	373.60
447.90	372.45
448.27	371.34
448.64	369.74
449.01	368.64
449.37	366.69
449.74	364.80
450.11	362.58
450.48	360.11
450.85	357.57
451.22	355.43
451.59	353.44
451.96	351.52
452.33	348.91
452.70	346.52
453.07	343.73
453.43	340.86
453.80	338.12
454.17	335.42
454.54	332.85
454.91	330.17
455.28	327.49
455.65	324.98
456.02	322.53
456.38	320.35
456.75	317.70
457.12	315.46
457.49	313.25
457.86	311.12
458.23	309.24
458.59	307.18
458.96	305.10
459.33	303.20
459.70	301.34
460.07	299.89
460.43	298.20
460.80	296.56
461.17	295.14
461.54	293.64
461.91	292.22
462.27	290.79
462.64	289.55
463.01	288.22
463.38	286.93
463.74	285.58
464.11	284.44
464.48	283.38
464.85	282.28
465.21	281.40
465.58	280.44
465.95	279.38
466.32	278.46
466.68	277.54
467.05	276.68
467.42	275.83
467.78	274.92
468.15	274.05
468.52	273.42
468.88	272.55
469.25	271.82
469.62	271.24
469.98	270.55
470.35	269.93
470.72	269.32
471.08	268.68
471.45	268.15
471.82	267.65
472.18	267.06
472.55	266.62
472.92	266.08
473.28	265.66
473.65	265.24
474.02	264.84
474.38	264.50
474.75	264.15
475.11	263.79
475.48	263.49
475.85	263.28
476.21	263.03
476.58	262.86
476.94	262.70
477.31	262.48
477.67	262.35
478.04	262.24
478.41	262.21
478.77	262.24
479.14	262.18
479.50	262.17
479.87	262.26
480.23	262.36
480.60	262.47
480.96	262.56
481.33	262.77
481.69	262.99
482.06	263.22
482.42	263.45
482.79	263.72
483.15	264.06
483.52	264.39
483.88	264.78
484.25	265.20
484.61	265.63
484.98	266.14
485.34	266.71
485.71	267.30
486.07	267.90
486.44	268.47
486.80	269.18
487.17	269.94
487.53	270.75
487.90	271.61
488.26	272.55
488.62	273.53
488.99	274.47
489.35	275.49
489.72	276.61
490.08	277.80
490.44	279.06
490.81	280.36
491.17	281.75
491.54	283.22
491.90	284.74
492.26	286.40
492.63	288.14
492.99	289.91
493.36	291.82
493.72	293.87
494.08	295.96
494.45	298.19
494.81	300.54
495.17	302.98
495.54	305.51
495.90	308.16
496.26	310.99
496.63	313.99
496.99	317.09
497.35	320.32
497.72	323.72
498.08	327.21
498.44	330.94
498.80	334.87
499.17	338.90
499.53	343.07
499.89	347.40
500.26	351.89
500.62	356.61
500.98	361.56
501.34	366.64
501.71	371.98
502.07	377.45
502.43	383.07
502.79	388.89
503.16	394.98
503.52	401.27
503.88	407.65
504.24	414.28
504.60	421.25
504.97	428.36
505.33	435.73
505.69	443.44
506.05	451.18
506.41	459.12
506.78	467.25
507.14	475.73
507.50	484.46
507.86	493.51
508.22	502.69
508.59	511.87
508.95	521.46
509.31	531.31
509.67	541.42
510.03	551.70
510.39	562.31
510.75	573.10
511.12	584.00
511.48	595.39
511.84	606.82
512.20	618.32
512.56	630.27
512.92	642.40
513.28	654.74
513.64	667.20
514.00	679.82
514.37	692.78
514.73	705.83
515.09	718.80
515.45	732.07
515.81	745.61
516.17	759.66
516.53	773.72
516.89	787.82
517.25	801.94
517.61	816.39
517.97	830.85
518.33	845.35
518.69	860.13
519.05	875.00
519.41	890.18
519.77	905.70
520.13	921.18
520.49	936.49
520.85	951.82
521.21	967.58
521.57	983.86
521.93	999.60
522.29	1015.95
522.65	1032.24
523.01	1048.48
523.37	1064.51
523.73	1080.63
524.09	1096.77
524.45	1113.03
524.81	1129.62
525.17	1146.31
525.53	1163.05
525.89	1179.82
526.25	1196.74
526.61	1213.07
526.97	1229.73
527.33	1246.01
527.68	1262.43
528.04	1278.91
528.40	1295.46
528.76	1312.41
529.12	1328.98
529.48	1345.80
529.84	1361.70
530.20	1378.29
530.56	1395.17
530.91	1412.56
531.27	1429.24
531.63	1445.61
531.99	1462.24
532.35	1478.11
532.71	1493.96
533.07	1510.26
533.42	1526.11
533.78	1541.94
534.14	1558.14
534.50	1573.44
534.86	1589.32
535.21	1604.61
535.57	1620.46
535.93	1635.92
536.29	1650.71
536.65	1665.51
537.00	1680.24
537.36	1695.53
537.72	1710.00
538.08	1724.41
538.44	1738.10
538.79	1751.92
539.15	1765.44
539.51	1778.99
539.87	1793.30
540.22	1807.03
540.58	1820.59
540.94	1833.71
541.29	1846.44
541.65	1859.16
542.01	1872.33
542.37	1884.61
542.72	1896.96
543.08	1908.56
543.44	1920.87
543.79	1931.91
544.15	1942.91
544.51	1954.35
544.87	1965.24
545.22	1975.86
545.58	1985.94
545.94	1995.70
546.29	2005.61
546.65	2015.49
547.01	2024.68
547.36	2033.34
547.72	2041.63
548.07	2049.44
548.43	2057.68
548.79	2065.83
549.14	2073.20
549.50	2080.44
549.86	2088.13
550.21	2095.39
550.57	2102.74
550.92	2109.36
551.28	2116.54
551.64	2123.50
551.99	2130.05
552.35	2136.13
552.70	2142.41
553.06	2148.41
553.41	2154.53
553.77	2160.26
554.13	2166.30
554.48	2172.63
554.84	2178.13
555.19	2183.46
555.55	2188.62
555.90	2193.02
556.26	2197.86
556.61	2202.77
556.97	2207.16
557.32	2211.26
557.68	2215.23
558.03	2219.44
558.39	2223.17
558.74	2227.65
559.10	2231.66
559.45	2235.33
559.81	2239.69
560.16	2243.48
560.52	2246.76
560.87	2250.39
561.23	2253.11
561.58	2256.14
561.94	2258.51
562.29	2260.89
562.64	2263.65
563.00	2266.40
563.35	2269.97
563.71	2273.05
564.06	2276.03
564.42	2278.87
564.77	2281.45
565.12	2283.93
565.48	2285.88
565.83	2287.75
566.19	2289.18
566.54	2290.07
566.89	2291.19
567.25	2291.76
567.60	2292.97
567.96	2294.67
568.31	2295.48
568.66	2296.67
569.02	2297.09
569.37	2297.50
569.72	2298.18
570.08	2298.31
570.43	2298.40
570.78	2297.88
571.14	2296.34
571.49	2295.21
571.84	2294.92
572.20	2293.83
572.55	2292.75
572.90	2291.14
573.26	2289.79
573.61	2288.16
573.96	2286.55
574.31	2283.71
574.67	2280.81
575.02	2277.28
575.37	2273.86
575.72	2270.09
576.08	2266.66
576.43	2263.46
576.78	2259.78
577.13	2256.81
577.49	2253.71
577.84	2250.05
578.19	2246.36
578.54	2242.87
578.90	2238.58
579.25	2233.01
579.60	2228.04
579.95	2223.01
580.30	2218.16
580.66	2213.00
581.01	2208.00
581.36	2202.94
581.71	2198.64
582.06	2194.29
582.42	2189.89
582.77	2184.71
583.12	2180.22
583.47	2175.66
583.82	2170.85
584.17	2165.63
584.53	2160.15
584.88	2154.56
585.23	2149.08
585.58	2143.70
585.93	2138.26
586.28	2133.60
586.63	2128.54
586.98	2123.57
587.34	2118.85
587.69	2113.93
588.04	2108.70
588.39	2103.08
588.74	2096.70
589.09	2090.78
589.44	2083.92
589.79	2077.93
590.14	2072.37
590.49	2065.77
590.84	2059.43
591.19	2053.28
591.54	2046.92
591.89	2039.62
592.25	2032.88
592.60	2025.61
592.95	2018.02
593.30	2010.64
593.65	2003.01
594.00	1996.09
594.35	1988.81
594.70	1980.90
595.05	1973.71
595.40	1966.52
595.75	1959.07
596.10	1952.97
596.45	1946.20
596.80	1940.13
597.15	1933.47
597.50	1926.49
597.85	1920.13
598.19	1913.52
598.54	1906.39
598.89	1899.61
599.24	1893.78
599.59	1887.16
599.94	1880.90
600.29	1874.56
600.64	1867.93
600.99	1860.57
601.34	1853.79
601.69	1846.94
602.04	1840.10
602.39	1832.72
602.74	1825.91
603.08	1819.21
603.43	1812.40
603.78	1805.02
604.13	1797.79
604.48	1790.60
604.83	1783.55
605.18	1776.57
605.53	1768.54
605.87	1760.73
606.22	1753.67
606.57	1745.67
606.92	1738.34
607.27	1731.30
607.62	1724.36
607.96	1717.22
608.31	1710.66
608.66	1703.01
609.01	1695.42
609.36	1687.84
609.70	1679.67
610.05	1671.59
610.40	1664.02
610.75	1655.83
611.10	1648.31
611.44	1639.88
611.79	1631.85
612.14	1623.23
612.49	1614.10
612.83	1605.73
613.18	1597.52
613.53	1589.43
613.88	1580.93
614.22	1572.61
614.57	1563.93
614.92	1555.88
615.27	1548.28
615.61	1539.90
615.96	1531.85
616.31	1524.18
616.65	1516.83
617.00	1509.48
617.35	1501.75
617.70	1493.29
618.04	1484.66
618.39	1476.31
618.74	1468.73
619.08	1460.41
619.43	1452.92
619.78	1445.99
620.12	1438.85
620.47	1431.15
620.82	1422.94
621.16	1415.45
621.51	1407.82
621.85	1400.22
622.20	1391.79
622.55	1383.45
622.89	1375.64
623.24	1368.04
623.59	1360.63
623.93	1352.98
624.28	1345.77
624.62	1338.29
624.97	1331.12
625.32	1324.39
625.66	1317.40
626.01	1310.20
626.35	1302.79
626.70	1294.93
627.04	1287.23
627.39	1279.47
627.73	1272.35
628.08	1265.45
628.43	1258.25
628.77	1250.93
629.12	1243.30
629.46	1236.15
629.81	1228.71
630.15	1221.42
630.50	1213.98
630.84	1205.73
631.19	1197.79
631.53	1190.27
631.88	1182.69
632.22	1174.98
632.57	1167.67
632.91	1160.07
633.26	1152.63
633.60	1145.20
633.95	1138.24
634.29	1131.17
634.64	1124.52
634.98	1117.03
635.32	1109.88
635.67	1103.24
636.01	1096.59
636.36	1089.79
636.70	1083.16
637.05	1076.65
637.39	1070.11
637.73	1063.62
638.08	1057.74
638.42	1051.82
638.77	1045.30
639.11	1038.71
639.45	1032.43
639.80	1025.77
640.14	1019.41
640.49	1013.01
640.83	1006.70
641.17	1000.42
641.52	994.02
641.86	987.49
642.20	981.65
642.55	975.34
642.89	968.81
643.23	962.23
643.58	956.48
643.92	950.37
644.26	944.31
644.61	938.31
644.95	932.23
645.29	925.64
645.64	918.95
645.98	912.65
646.32	906.82
646.66	900.76
647.01	894.90
647.35	889.14
647.69	883.24
648.04	877.74
648.38	871.91
648.72	865.95
649.06	859.90
649.41	853.99
649.75	848.01
650.09	842.10
650.43	836.38
650.78	830.24
651.12	824.32
651.46	818.60
651.80	812.88
652.14	807.55
652.49	802.25
652.83	797.07
653.17	791.39
653.51	785.59
653.85	780.17
654.20	774.56
654.54	768.62
654.88	762.87
655.22	756.92
655.56	751.30
655.90	745.83
656.25	740.57
656.59	735.22
656.93	730.11
657.27	725.01
657.61	719.51
657.95	714.42
658.29	709.25
658.64	703.98
658.98	698.71
659.32	693.22
659.66	688.05
660.00	682.71
660.34	677.79
660.68	672.88
661.02	667.86
661.36	663.15
661.70	658.65
662.05	654.27
662.39	650.01
662.73	645.51
663.07	641.18
663.41	636.74
663.75	632.30
664.09	627.75
664.43	623.34
664.77	619.23
665.11	614.92
665.45	610.81
665.79	606.69
666.13	602.54
666.47	598.41
666.81	594.19
667.15	590.11
667.49	586.24
667.83	582.47
668.17	578.54
668.51	574.43
668.85	570.37
669.19	566.56
669.53	562.67
669.87	558.77
670.21	555.00
670.55	551.31
670.89	547.81
671.23	544.34
671.57	540.84
671.91	537.35
672.25	533.85
672.58	530.30
672.92	526.93
673.26	523.80
673.60	520.66
673.94	517.47
674.28	514.47
674.62	511.48
674.96	508.33
675.30	505.41
675.64	502.51
675.97	499.74
676.31	496.84
676.65	493.94
676.99	491.25
677.33	488.45
677.67	485.73
678.01	482.75
678.34	479.75
678.68	476.85
679.02	474.04
679.36	471.26
679.70	468.57
680.04	465.74
680.37	462.89
680.71	460.11
681.05	457.57
681.39	454.86
681.73	452.23
682.06	449.69
682.40	447.10
682.74	444.55
683.08	442.04
683.42	439.46
683.75	436.97
684.09	434.41
684.43	431.93
684.77	429.46
685.10	427.10
685.44	424.84
685.78	422.54
686.12	420.25
686.45	418.00
686.79	415.69
687.13	413.54
687.46	411.34
687.80	409.20
688.14	407.01
688.48	405.00
688.81	402.74
689.15	400.66
689.49	398.53
689.82	396.48
690.16	394.33
690.50	392.33
690.83	390.37
691.17	388.39
691.51	386.47
691.84	384.60
692.18	382.67
692.52	380.64
692.85	378.70
693.19	376.83
693.52	374.96
693.86	373.14
694.20	371.34
694.53	369.52
694.87	367.65
695.21	365.83
695.54	363.97
695.88	362.26
696.21	360.51
696.55	358.87
696.88	357.18
697.22	355.54
697.56	353.94
697.89	352.33
698.23	350.70
698.56	349.06
698.90	347.45
699.23	345.79
699.57	344.31
699.90	342.76
700.24	341.16
700.58	339.68
700.91	338.15
701.25	336.69
701.58	335.33
701.92	333.94
702.25	332.54
702.59	331.17
702.92	329.82
703.26	328.48
703.59	327.14
703.93	325.91
704.26	324.69
704.60	323.36
704.93	322.02
705.26	320.77
705.60	319.60
705.93	318.42
706.27	317.35
706.60	316.24
706.94	315.15
707.27	314.07
707.61	313.00
707.94	312.01
708.27	310.92
708.61	309.79
708.94	308.79
709.28	307.87
709.61	306.92
709.94	305.96
710.28	304.93
710.61	303.99
710.95	302.93
711.28	301.99
711.61	301.04
711.95	300.11
712.28	299.17
712.61	298.20
712.95	297.27
713.28	296.41
713.61	295.51
713.95	294.63
714.28	293.80
714.61	292.91
714.95	292.03
715.28	291.13
715.61	290.26
715.95	289.39
716.28	288.46
716.61	287.63
716.95	286.83
717.28	286.06
717.61	285.26
717.94	284.54
718.28	283.72
718.61	283.04
718.94	282.35
719.27	281.69
719.61	281.09
719.94	280.43
720.27	279.69
720.60	279.04
720.94	278.40
721.27	277.79
721.60	277.18
721.93	276.58
722.27	276.06
722.60	275.52
722.93	274.94
723.26	274.44
723.59	273.86
723.93	273.32
724.26	272.79
724.59	272.26
724.92	271.72
725.25	271.22
725.59	270.70
725.92	270.21
726.25	269.74
726.58	269.19
726.91	268.68
727.24	268.22
727.57	267.76
727.91	267.27
728.24	266.80
728.57	266.32
728.90	265.88
729.23	265.40
729.56	265.02
729.89	264.58
730.22	264.12
730.55	263.61
730.89	263.15
731.22	262.72
731.55	262.29
731.88	261.83
732.21	261.42
732.54	260.98
732.87	260.55
733.20	260.13
733.53	259.76
733.86	259.43
734.19	259.06
734.52	258.68
734.85	258.39
735.18	257.98
735.51	257.66
735.84	257.26
736.17	256.95
736.50	256.53
736.83	256.30
737.16	255.96
737.49	255.69
737.82	255.35
738.15	255.03
738.48	254.70
738.81	254.39
739.14	254.05
739.47	253.76
739.80	253.48
740.13	253.17
740.46	252.84
740.79	252.48
741.12	252.16
741.45	251.84
741.78	251.46
742.11	251.21
742.44	250.85
742.77	250.60
743.10	250.22
743.43	249.92
743.75	249.54
744.08	249.38
744.41	249.11
744.74	248.82
745.07	248.56
745.40	248.30
745.73	248.08
746.06	247.83
746.39	247.55
746.71	247.25
747.04	246.97
747.37	246.71
747.70	246.49
748.03	246.24
748.36	245.98
748.68	245.76
749.01	245.48
749.34	245.30
749.67	245.09
750.00	244.90
750.33	244.76
750.65	244.56
750.98	244.22
751.31	243.97
751.64	243.77
751.97	243.60
752.29	243.41
752.62	243.15
752.95	242.96
753.28	242.74
753.60	242.57
753.93	242.40
754.26	242.22
754.59	241.99
754.91	241.82
755.24	241.58
755.57	241.36
755.90	241.21
756.22	240.98
756.55	240.77
756.88	240.57
757.20	240.34
757.53	240.12
757.86	239.96
758.19	239.83
758.51	239.70
758.84	239.48
759.17	239.32
759.49	239.16
759.82	238.97
760.15	238.81
760.47	238.67
760.80	238.51
761.13	238.36
761.45	238.21
761.78	238.03
762.11	237.93
762.43	237.77
762.76	237.63
763.08	237.48
763.41	237.35
763.74	237.25
764.06	237.10
764.39	236.97
764.71	236.82
765.04	236.69
765.37	236.52
765.69	236.40
766.02	236.25
766.34	236.12
766.67	236.00
767.00	235.89
767.32	235.78
767.65	235.70
767.97	235.60
768.30	235.49
768.62	235.38
768.95	235.27
769.27	235.18
769.60	235.04
769.92	234.93
770.25	234.82
770.57	234.69
770.90	234.59
771.22	234.49
771.55	234.39
771.87	234.25
772.20	234.17
772.52	234.17
772.85	234.19
773.17	234.13
773.50	234.02
773.82	233.94
774.15	233.81
774.47	233.66
774.80	233.54
775.12	233.44
775.45	233.36
775.77	233.27
776.09	233.19
776.42	233.09
776.74	233.09
777.07	233.02
777.39	232.92
777.72	232.86
778.04	232.77
778.36	232.70
778.69	232.66
779.01	232.60
779.33	232.43
779.66	232.24
779.98	232.14
780.31	232.07
780.63	232.03
780.95	232.00
781.28	231.91
781.60	231.87
781.92	231.84
782.25	231.77
782.57	231.72
782.89	231.65
783.22	231.61
783.54	231.47
783.86	231.42
784.19	231.34
784.51	231.29
784.83	231.24
785.16	231.17
785.48	231.10
785.80	231.00
786.12	230.96
786.45	230.89
786.77	230.86
787.09	230.81
