SpectraSuite Data File
++++++++++++++++++++++++++++++++++++
Date: Fri Feb 01 17:50:22 EST 2013
User: group
Dark Spectrum Present: No
Reference Spectrum Present: No
Number of Sampled Component Spectra: 1
Spectrometers: USB2E7196
Integration Time (usec): 35000 (USB2E7196)
Spectra Averaged: 100 (USB2E7196)
Boxcar Smoothing: 10 (USB2E7196)
Correct for Electrical Dark: No (USB2E7196)
Strobe/Lamp Enabled: No (USB2E7196)
Correct for Detector Non-linearity: No (USB2E7196)
Correct for Stray Light: No (USB2E7196)
Number of Pixels in Processed Spectrum: 2048
>>>>>Begin Processed Spectral Data<<<<<
339.09	0.00
339.48	212.21
339.86	214.87
340.24	215.00
340.63	216.91
341.01	219.68
341.39	219.94
341.78	220.60
342.16	221.84
342.54	222.59
342.93	211.07
343.31	221.73
343.69	222.29
344.07	222.73
344.46	223.19
344.84	223.57
345.22	223.81
345.60	224.05
345.99	224.25
346.37	224.38
346.75	224.48
347.13	224.51
347.52	224.56
347.90	224.67
348.28	224.67
348.66	224.69
349.05	224.73
349.43	224.79
349.81	224.82
350.19	224.85
350.57	224.90
350.96	224.97
351.34	225.04
351.72	225.10
352.10	225.18
352.48	225.22
352.87	225.26
353.25	225.30
353.63	225.37
354.01	225.41
354.39	225.50
354.77	225.57
355.15	225.68
355.54	225.71
355.92	225.74
356.30	225.81
356.68	225.94
357.06	225.97
357.44	226.02
357.82	226.07
358.20	226.13
358.58	226.17
358.97	226.23
359.35	226.32
359.73	226.41
360.11	226.46
360.49	226.52
360.87	226.58
361.25	226.65
361.63	226.71
362.01	226.78
362.39	226.80
362.77	226.87
363.15	226.89
363.53	226.93
363.91	226.98
364.29	226.99
364.67	226.94
365.05	226.98
365.43	227.00
365.81	227.07
366.19	227.11
366.57	227.17
366.95	227.20
367.33	227.18
367.71	227.17
368.09	227.17
368.47	227.17
368.85	227.17
369.23	227.19
369.61	227.17
369.99	227.21
370.37	227.21
370.75	227.23
371.13	227.21
371.51	227.20
371.89	227.16
372.27	227.15
372.65	227.14
373.03	227.13
373.41	227.08
373.78	227.02
374.16	226.97
374.54	226.91
374.92	226.82
375.30	226.77
375.68	226.74
376.06	226.72
376.44	226.65
376.82	226.58
377.19	226.52
377.57	226.40
377.95	226.32
378.33	226.26
378.71	226.14
379.09	226.07
379.47	226.03
379.84	225.97
380.22	225.91
380.60	225.84
380.98	225.77
381.36	225.71
381.73	225.64
382.11	225.58
382.49	225.52
382.87	225.46
383.25	225.41
383.62	225.44
384.00	225.36
384.38	225.32
384.76	225.32
385.13	225.32
385.51	225.29
385.89	225.21
386.27	225.14
386.64	225.09
387.02	225.03
387.40	224.96
387.78	224.96
388.15	224.90
388.53	224.88
388.91	224.83
389.29	224.80
389.66	224.76
390.04	224.73
390.42	224.72
390.79	224.72
391.17	224.69
391.55	224.53
391.92	224.50
392.30	224.51
392.68	224.46
393.05	224.45
393.43	224.48
393.81	224.48
394.18	224.48
394.56	224.52
394.94	224.55
395.31	224.56
395.69	224.57
396.06	224.61
396.44	224.62
396.82	224.64
397.19	224.71
397.57	224.74
397.95	224.78
398.32	224.79
398.70	224.84
399.07	224.91
399.45	224.98
399.82	225.06
400.20	225.07
400.58	225.14
400.95	225.16
401.33	225.26
401.70	225.39
402.08	225.48
402.45	225.55
402.83	225.65
403.20	225.78
403.58	225.88
403.95	226.05
404.33	226.22
404.71	226.33
405.08	226.52
405.46	226.68
405.83	226.88
406.21	227.04
406.58	227.22
406.96	227.41
407.33	227.61
407.70	227.83
408.08	228.15
408.45	228.40
408.83	228.65
409.20	228.90
409.58	229.15
409.95	229.49
410.33	229.82
410.70	230.14
411.08	230.53
411.45	230.91
411.82	231.26
412.20	231.67
412.57	232.20
412.95	232.58
413.32	233.09
413.69	233.55
414.07	234.11
414.44	234.69
414.82	235.31
415.19	236.01
415.56	236.73
415.94	237.47
416.31	238.30
416.68	239.11
417.06	240.03
417.43	240.91
417.81	241.91
418.18	242.92
418.55	244.00
418.93	245.07
419.30	246.24
419.67	247.45
420.04	248.74
420.42	250.00
420.79	251.53
421.16	253.03
421.54	254.59
421.91	256.20
422.28	257.85
422.66	259.55
423.03	261.22
423.40	262.94
423.77	264.75
424.15	266.60
424.52	268.55
424.89	270.66
425.26	272.74
425.64	274.64
426.01	276.78
426.38	278.95
426.75	281.18
427.13	283.45
427.50	285.84
427.87	288.28
428.24	290.77
428.61	293.11
428.99	295.67
429.36	298.46
429.73	301.14
430.10	303.77
430.47	306.54
430.85	309.37
431.22	312.32
431.59	315.48
431.96	318.45
432.33	321.74
432.70	324.83
433.08	328.46
433.45	331.88
433.82	335.27
434.19	339.03
434.56	342.76
434.93	346.24
435.30	349.68
435.68	353.43
436.05	357.09
436.42	360.76
436.79	364.07
437.16	367.60
437.53	371.36
437.90	375.08
438.27	378.62
438.64	382.34
439.01	385.72
439.38	388.68
439.75	391.55
440.13	394.81
440.50	397.91
440.87	400.37
441.24	402.96
441.61	405.82
441.98	407.84
442.35	410.19
442.72	412.60
443.09	414.97
443.46	416.33
443.83	417.14
444.20	417.79
444.57	418.88
444.94	419.28
445.31	419.70
445.68	420.17
446.05	420.32
446.42	419.78
446.79	419.24
447.16	418.66
447.53	418.23
447.90	416.71
448.27	415.19
448.64	413.10
449.01	411.63
449.37	409.00
449.74	406.52
450.11	403.54
450.48	400.33
450.85	397.00
451.22	394.20
451.59	391.55
451.96	388.97
452.33	385.57
452.70	382.51
453.07	378.79
453.43	375.00
453.80	371.37
454.17	367.94
454.54	364.64
454.91	361.08
455.28	357.58
455.65	354.34
456.02	351.11
456.38	348.29
456.75	344.76
457.12	341.86
457.49	338.92
457.86	336.06
458.23	333.60
458.59	330.93
458.96	328.16
459.33	325.73
459.70	323.31
460.07	321.34
460.43	319.05
460.80	316.91
461.17	314.98
461.54	312.95
461.91	311.04
462.27	309.12
462.64	307.42
463.01	305.61
463.38	303.86
463.74	302.04
464.11	300.47
464.48	299.12
464.85	297.64
465.21	296.45
465.58	295.23
465.95	293.77
466.32	292.56
466.68	291.41
467.05	290.24
467.42	289.08
467.78	287.81
468.15	286.64
468.52	285.75
468.88	284.65
469.25	283.66
469.62	282.80
469.98	281.89
470.35	281.04
470.72	280.25
471.08	279.36
471.45	278.63
471.82	277.91
472.18	277.10
472.55	276.53
472.92	275.88
473.28	275.28
473.65	274.66
474.02	274.08
474.38	273.55
474.75	273.08
475.11	272.58
475.48	272.20
475.85	271.89
476.21	271.56
476.58	271.27
476.94	271.05
477.31	270.78
477.67	270.53
478.04	270.34
478.41	270.22
478.77	270.21
479.14	270.08
479.50	270.06
479.87	270.07
480.23	270.07
480.60	270.04
480.96	270.04
481.33	270.22
481.69	270.38
482.06	270.53
482.42	270.67
482.79	270.90
483.15	271.20
483.52	271.54
483.88	271.87
484.25	272.24
484.61	272.64
484.98	273.07
485.34	273.66
485.71	274.25
486.07	274.86
486.44	275.44
486.80	276.14
487.17	276.82
487.53	277.64
487.90	278.49
488.26	279.44
488.62	280.45
488.99	281.43
489.35	282.47
489.72	283.61
490.08	284.83
490.44	286.10
490.81	287.46
491.17	288.88
491.54	290.42
491.90	292.00
492.26	293.66
492.63	295.44
492.99	297.27
493.36	299.21
493.72	301.33
494.08	303.52
494.45	305.91
494.81	308.42
495.17	310.98
495.54	313.68
495.90	316.52
496.26	319.46
496.63	322.59
496.99	325.83
497.35	329.26
497.72	332.86
498.08	336.51
498.44	340.39
498.80	344.50
499.17	348.74
499.53	353.13
499.89	357.79
500.26	362.57
500.62	367.49
500.98	372.72
501.34	378.02
501.71	383.60
502.07	389.31
502.43	395.22
502.79	401.35
503.16	407.73
503.52	414.33
503.88	421.11
504.24	428.09
504.60	435.33
504.97	442.83
505.33	450.52
505.69	458.67
506.05	466.85
506.41	475.16
506.78	483.74
507.14	492.68
507.50	501.96
507.86	511.47
508.22	521.25
508.59	531.07
508.95	541.25
509.31	551.61
509.67	562.28
510.03	573.11
510.39	584.27
510.75	595.68
511.12	607.27
511.48	619.28
511.84	631.39
512.20	643.70
512.56	656.33
512.92	669.23
513.28	682.40
513.64	695.73
514.00	709.26
514.37	723.05
514.73	736.92
515.09	750.74
515.45	764.86
515.81	779.34
516.17	794.19
516.53	809.21
516.89	824.42
517.25	839.60
517.61	855.10
517.97	870.64
518.33	886.13
518.69	901.92
519.05	917.94
519.41	934.33
519.77	950.99
520.13	967.76
520.49	984.58
520.85	1001.18
521.21	1018.01
521.57	1035.44
521.93	1052.51
522.29	1070.19
522.65	1087.81
523.01	1105.32
523.37	1122.70
523.73	1140.24
524.09	1157.81
524.45	1175.52
524.81	1193.59
525.17	1211.78
525.53	1230.09
525.89	1248.47
526.25	1266.88
526.61	1284.74
526.97	1302.92
527.33	1320.90
527.68	1338.90
528.04	1356.75
528.40	1374.90
528.76	1393.64
529.12	1411.83
529.48	1430.50
529.84	1448.23
530.20	1466.48
530.56	1485.34
530.91	1504.55
531.27	1523.14
531.63	1541.26
531.99	1559.60
532.35	1577.30
532.71	1595.08
533.07	1613.19
533.42	1630.83
533.78	1648.79
534.14	1666.95
534.50	1684.12
534.86	1701.89
535.21	1719.03
535.57	1736.79
535.93	1754.23
536.29	1770.93
536.65	1787.95
537.00	1804.41
537.36	1821.68
537.72	1838.12
538.08	1854.43
538.44	1870.09
538.79	1885.83
539.15	1901.51
539.51	1917.12
539.87	1933.47
540.22	1949.17
540.58	1964.91
540.94	1980.24
541.29	1994.93
541.65	2009.62
542.01	2024.90
542.37	2039.29
542.72	2053.65
543.08	2067.44
543.44	2081.80
543.79	2095.05
544.15	2107.97
544.51	2121.54
544.87	2134.34
545.22	2147.13
545.58	2159.21
545.94	2170.84
546.29	2182.66
546.65	2194.35
547.01	2205.66
547.36	2216.29
547.72	2226.50
548.07	2236.10
548.43	2246.00
548.79	2255.84
549.14	2265.24
549.50	2274.12
549.86	2283.40
550.21	2292.46
550.57	2301.36
550.92	2309.64
551.28	2318.41
551.64	2327.28
551.99	2335.57
552.35	2343.45
552.70	2351.28
553.06	2359.01
553.41	2367.25
553.77	2374.82
554.13	2382.51
554.48	2390.30
554.84	2397.70
555.19	2404.52
555.55	2411.32
555.90	2417.49
556.26	2424.11
556.61	2430.16
556.97	2436.33
557.32	2442.03
557.68	2447.77
558.03	2453.64
558.39	2458.68
558.74	2464.70
559.10	2470.00
559.45	2474.97
559.81	2480.70
560.16	2486.04
560.52	2490.59
560.87	2495.12
561.23	2499.04
561.58	2503.32
561.94	2507.11
562.29	2510.22
562.64	2514.20
563.00	2517.93
563.35	2522.65
563.71	2526.80
564.06	2531.30
564.42	2535.30
564.77	2539.04
565.12	2542.53
565.48	2545.66
565.83	2548.79
566.19	2551.27
566.54	2553.06
566.89	2555.32
567.25	2556.98
567.60	2559.04
567.96	2561.89
568.31	2563.78
568.66	2565.80
569.02	2567.21
569.37	2568.21
569.72	2570.06
570.08	2571.06
570.43	2571.89
570.78	2572.12
571.14	2571.30
571.49	2570.53
571.84	2570.78
572.20	2570.26
572.55	2569.59
572.90	2568.20
573.26	2567.25
573.61	2565.89
573.96	2564.62
574.31	2561.91
574.67	2559.22
575.02	2555.69
575.37	2552.32
575.72	2548.52
576.08	2545.20
576.43	2541.83
576.78	2538.55
577.13	2535.38
577.49	2532.30
577.84	2528.98
578.19	2525.15
578.54	2521.50
578.90	2517.20
579.25	2511.39
579.60	2506.24
579.95	2501.07
580.30	2496.00
580.66	2490.46
581.01	2485.24
581.36	2480.03
581.71	2475.73
582.06	2471.05
582.42	2466.57
582.77	2461.11
583.12	2456.34
583.47	2451.56
583.82	2446.58
584.17	2440.85
584.53	2435.11
584.88	2429.16
585.23	2422.91
585.58	2416.99
585.93	2411.13
586.28	2405.89
586.63	2400.39
586.98	2394.74
587.34	2389.68
587.69	2384.30
588.04	2378.69
588.39	2372.62
588.74	2365.51
589.09	2358.75
589.44	2351.27
589.79	2344.48
590.14	2338.39
590.49	2331.08
590.84	2323.94
591.19	2317.30
591.54	2310.00
591.89	2301.90
592.25	2294.36
592.60	2286.34
592.95	2277.97
593.30	2269.75
593.65	2261.42
594.00	2253.58
594.35	2245.56
594.70	2236.46
595.05	2228.55
595.40	2220.33
595.75	2211.77
596.10	2204.87
596.45	2197.30
596.80	2190.35
597.15	2183.00
597.50	2175.10
597.85	2167.82
598.19	2160.45
598.54	2152.44
598.89	2144.96
599.24	2138.36
599.59	2130.95
599.94	2123.94
600.29	2116.79
600.64	2109.19
600.99	2100.73
601.34	2092.99
601.69	2084.91
602.04	2077.20
602.39	2068.80
602.74	2061.08
603.08	2053.55
603.43	2045.82
603.78	2037.43
604.13	2029.09
604.48	2020.84
604.83	2012.93
605.18	2005.01
605.53	1995.92
605.87	1986.71
606.22	1978.34
606.57	1969.01
606.92	1960.28
607.27	1952.08
607.62	1944.12
607.96	1935.96
608.31	1928.51
608.66	1919.79
609.01	1911.37
609.36	1902.65
609.70	1893.42
610.05	1884.18
610.40	1875.18
610.75	1865.64
611.10	1856.91
611.44	1847.11
611.79	1837.80
612.14	1827.70
612.49	1817.13
612.83	1807.31
613.18	1797.87
613.53	1788.55
613.88	1778.62
614.22	1769.20
614.57	1759.18
614.92	1749.90
615.27	1741.25
615.61	1731.58
615.96	1722.32
616.31	1713.40
616.65	1704.87
617.00	1696.19
617.35	1687.17
617.70	1677.67
618.04	1667.80
618.39	1658.13
618.74	1649.45
619.08	1640.02
619.43	1631.16
619.78	1623.08
620.12	1614.78
620.47	1606.11
620.82	1596.62
621.16	1587.99
621.51	1579.16
621.85	1570.29
622.20	1560.44
622.55	1550.62
622.89	1541.43
623.24	1532.46
623.59	1523.79
623.93	1515.16
624.28	1506.74
624.62	1498.08
624.97	1489.67
625.32	1481.81
625.66	1473.60
626.01	1465.37
626.35	1456.71
626.70	1447.75
627.04	1438.84
627.39	1429.85
627.73	1421.26
628.08	1413.32
628.43	1405.09
628.77	1396.60
629.12	1387.95
629.46	1379.59
629.81	1370.89
630.15	1362.52
630.50	1354.06
630.84	1344.69
631.19	1335.38
631.53	1326.49
631.88	1317.80
632.22	1309.10
632.57	1300.59
632.91	1291.99
633.26	1283.30
633.60	1274.69
633.95	1266.41
634.29	1258.29
634.64	1250.53
634.98	1242.05
635.32	1233.84
635.67	1226.04
636.01	1218.43
636.36	1210.55
636.70	1203.05
637.05	1195.61
637.39	1188.13
637.73	1180.67
638.08	1173.78
638.42	1166.85
638.77	1159.59
639.11	1152.03
639.45	1144.60
639.80	1137.06
640.14	1129.78
640.49	1122.39
640.83	1115.06
641.17	1107.94
641.52	1100.70
641.86	1093.40
642.20	1086.63
642.55	1079.27
642.89	1071.98
643.23	1064.27
643.58	1057.59
643.92	1050.50
644.26	1043.58
644.61	1036.58
644.95	1029.65
645.29	1022.21
645.64	1014.55
645.98	1007.26
646.32	1000.44
646.66	993.49
647.01	986.83
647.35	980.23
647.69	973.49
648.04	967.18
648.38	960.57
648.72	953.72
649.06	946.77
649.41	940.03
649.75	933.38
650.09	926.60
650.43	920.14
650.78	913.13
651.12	906.23
651.46	899.68
651.80	893.29
652.14	887.14
652.49	881.02
652.83	875.16
653.17	868.73
653.51	862.28
653.85	856.14
654.20	849.67
654.54	842.85
654.88	836.30
655.22	829.59
655.56	823.11
655.90	816.89
656.25	810.90
656.59	804.81
656.93	798.93
657.27	793.07
657.61	786.83
657.95	781.00
658.29	775.28
658.64	769.29
658.98	763.18
659.32	756.96
659.66	751.05
660.00	745.01
660.34	739.36
660.68	733.83
661.02	728.09
661.36	722.77
661.70	717.64
662.05	712.68
662.39	707.83
662.73	702.78
663.07	697.83
663.41	692.77
663.75	687.68
664.09	682.46
664.43	677.39
664.77	672.75
665.11	668.00
665.45	663.32
665.79	658.65
666.13	654.00
666.47	649.36
666.81	644.69
667.15	640.01
667.49	635.60
667.83	631.21
668.17	626.78
668.51	622.22
668.85	617.65
669.19	613.23
669.53	608.89
669.87	604.49
670.21	600.21
670.55	596.04
670.89	592.11
671.23	588.22
671.57	584.24
671.91	580.16
672.25	576.10
672.58	572.07
672.92	568.14
673.26	564.52
673.60	560.92
673.94	557.33
674.28	553.96
674.62	550.60
674.96	547.02
675.30	543.77
675.64	540.41
675.97	537.19
676.31	533.94
676.65	530.56
676.99	527.46
677.33	524.26
677.67	521.10
678.01	517.62
678.34	514.24
678.68	510.98
679.02	507.77
679.36	504.62
679.70	501.61
680.04	498.55
680.37	495.29
680.71	492.09
681.05	489.08
681.39	486.00
681.73	482.89
682.06	480.10
682.40	477.15
682.74	474.26
683.08	471.35
683.42	468.41
683.75	465.60
684.09	462.72
684.43	459.90
684.77	457.07
685.10	454.41
685.44	451.81
685.78	449.17
686.12	446.60
686.45	443.97
686.79	441.32
687.13	438.72
687.46	436.23
687.80	433.76
688.14	431.20
688.48	428.83
688.81	426.31
689.15	423.82
689.49	421.32
689.82	418.93
690.16	416.50
690.50	414.26
690.83	411.97
691.17	409.65
691.51	407.43
691.84	405.33
692.18	403.16
692.52	400.91
692.85	398.68
693.19	396.51
693.52	394.42
693.86	392.31
694.20	390.33
694.53	388.27
694.87	386.14
695.21	384.17
695.54	382.09
695.88	380.12
696.21	378.14
696.55	376.26
696.88	374.33
697.22	372.46
697.56	370.63
697.89	368.78
698.23	366.93
698.56	365.06
698.90	363.20
699.23	361.33
699.57	359.49
699.90	357.74
700.24	356.03
700.58	354.35
700.91	352.66
701.25	351.00
701.58	349.44
701.92	347.91
702.25	346.30
702.59	344.74
702.92	343.22
703.26	341.76
703.59	340.32
703.93	338.97
704.26	337.57
704.60	336.09
704.93	334.62
705.26	333.25
705.60	331.90
705.93	330.57
706.27	329.34
706.60	328.16
706.94	326.93
707.27	325.65
707.61	324.40
707.94	323.22
708.27	322.00
708.61	320.75
708.94	319.60
709.28	318.48
709.61	317.37
709.94	316.30
710.28	315.14
710.61	314.00
710.95	312.76
711.28	311.72
711.61	310.61
711.95	309.56
712.28	308.49
712.61	307.39
712.95	306.34
713.28	305.38
713.61	304.34
713.95	303.35
714.28	302.40
714.61	301.40
714.95	300.44
715.28	299.43
715.61	298.39
715.95	297.41
716.28	296.37
716.61	295.44
716.95	294.47
717.28	293.58
717.61	292.70
717.94	291.86
718.28	290.96
718.61	290.16
718.94	289.38
719.27	288.61
719.61	287.88
719.94	287.13
720.27	286.29
720.60	285.55
720.94	284.80
721.27	284.10
721.60	283.42
721.93	282.74
722.27	282.14
722.60	281.53
722.93	280.88
723.26	280.28
723.59	279.61
723.93	278.99
724.26	278.33
724.59	277.70
724.92	277.11
725.25	276.51
725.59	275.90
725.92	275.30
726.25	274.69
726.58	274.12
726.91	273.54
727.24	272.96
727.57	272.41
727.91	271.81
728.24	271.24
728.57	270.67
728.90	270.15
729.23	269.56
729.56	269.02
729.89	268.48
730.22	267.94
730.55	267.41
730.89	266.90
731.22	266.36
731.55	265.86
731.88	265.35
732.21	264.87
732.54	264.35
732.87	263.88
733.20	263.46
733.53	262.99
733.86	262.54
734.19	262.11
734.52	261.68
734.85	261.34
735.18	260.88
735.51	260.52
735.84	260.07
736.17	259.65
736.50	259.23
736.83	258.94
737.16	258.56
737.49	258.20
737.82	257.80
738.15	257.48
738.48	257.11
738.81	256.72
739.14	256.33
739.47	256.02
739.80	255.67
740.13	255.31
740.46	254.97
740.79	254.63
741.12	254.27
741.45	253.92
741.78	253.54
742.11	253.23
742.44	252.87
742.77	252.56
743.10	252.23
743.43	251.94
743.75	251.50
744.08	251.38
744.41	251.07
744.74	250.77
745.07	250.45
745.40	250.15
745.73	249.88
746.06	249.57
746.39	249.22
746.71	248.89
747.04	248.59
747.37	248.28
747.70	247.98
748.03	247.74
748.36	247.47
748.68	247.17
749.01	246.85
749.34	246.58
749.67	246.33
750.00	246.03
750.33	245.77
750.65	245.58
750.98	245.17
751.31	244.91
751.64	244.66
751.97	244.47
752.29	244.24
752.62	243.99
752.95	243.76
753.28	243.55
753.60	243.33
753.93	243.11
754.26	242.88
754.59	242.64
754.91	242.36
755.24	242.15
755.57	241.93
755.90	241.78
756.22	241.55
756.55	241.31
756.88	241.14
757.20	240.92
757.53	240.65
757.86	240.45
758.19	240.27
758.51	240.07
758.84	239.81
759.17	239.62
759.49	239.43
759.82	239.28
760.15	239.09
760.47	238.91
760.80	238.69
761.13	238.56
761.45	238.37
761.78	238.24
762.11	238.06
762.43	237.93
762.76	237.74
763.08	237.62
763.41	237.46
763.74	237.31
764.06	237.14
764.39	236.99
764.71	236.81
765.04	236.66
765.37	236.51
765.69	236.37
766.02	236.21
766.34	236.03
766.67	235.85
767.00	235.72
767.32	235.63
767.65	235.57
767.97	235.42
768.30	235.31
768.62	235.14
768.95	235.01
769.27	234.84
769.60	234.72
769.92	234.54
770.25	234.39
770.57	234.24
770.90	234.10
771.22	233.97
771.55	233.85
771.87	233.72
772.20	233.60
772.52	233.57
772.85	233.57
773.17	233.46
773.50	233.36
773.82	233.24
774.15	233.07
774.47	232.93
774.80	232.82
775.12	232.67
775.45	232.58
775.77	232.50
776.09	232.43
776.42	232.32
776.74	232.25
777.07	232.18
777.39	232.06
777.72	231.95
778.04	231.86
778.36	231.79
778.69	231.74
779.01	231.66
779.33	231.50
779.66	231.29
779.98	231.23
780.31	231.18
780.63	231.15
780.95	231.12
781.28	231.01
781.60	230.89
781.92	230.87
782.25	230.83
782.57	230.73
782.89	230.65
783.22	230.61
783.54	230.55
783.86	230.49
784.19	230.48
784.51	230.48
784.83	230.44
785.16	230.39
785.48	230.31
785.80	230.26
786.12	230.18
786.45	230.14
