SpectraSuite Data File
++++++++++++++++++++++++++++++++++++
Date: Fri Feb 01 17:34:17 EST 2013
User: group
Dark Spectrum Present: No
Reference Spectrum Present: No
Number of Sampled Component Spectra: 1
Spectrometers: USB2E7196
Integration Time (usec): 35000 (USB2E7196)
Spectra Averaged: 100 (USB2E7196)
Boxcar Smoothing: 10 (USB2E7196)
Correct for Electrical Dark: No (USB2E7196)
Strobe/Lamp Enabled: No (USB2E7196)
Correct for Detector Non-linearity: No (USB2E7196)
Correct for Stray Light: No (USB2E7196)
Number of Pixels in Processed Spectrum: 2048
>>>>>Begin Processed Spectral Data<<<<<
339.09	0.00
339.48	212.83
339.86	214.21
340.24	215.84
340.63	216.92
341.01	220.00
341.39	219.46
341.78	221.05
342.16	222.35
342.54	222.85
342.93	211.34
343.31	222.02
343.69	222.57
344.07	223.05
344.46	223.51
344.84	223.90
345.22	224.15
345.60	224.40
345.99	224.58
346.37	224.73
346.75	224.82
347.13	224.94
347.52	225.00
347.90	225.08
348.28	225.10
348.66	225.12
349.05	225.14
349.43	225.21
349.81	225.22
350.19	225.27
350.57	225.34
350.96	225.41
351.34	225.50
351.72	225.59
352.10	225.67
352.48	225.72
352.87	225.80
353.25	225.87
353.63	225.93
354.01	226.04
354.39	226.10
354.77	226.17
355.15	226.23
355.54	226.28
355.92	226.34
356.30	226.40
356.68	226.53
357.06	226.59
357.44	226.60
357.82	226.70
358.20	226.77
358.58	226.82
358.97	226.89
359.35	226.96
359.73	227.04
360.11	227.10
360.49	227.15
360.87	227.15
361.25	227.20
361.63	227.30
362.01	227.33
362.39	227.36
362.77	227.44
363.15	227.50
363.53	227.52
363.91	227.53
364.29	227.59
364.67	227.53
365.05	227.56
365.43	227.58
365.81	227.57
366.19	227.62
366.57	227.64
366.95	227.63
367.33	227.62
367.71	227.58
368.09	227.57
368.47	227.55
368.85	227.55
369.23	227.53
369.61	227.47
369.99	227.47
370.37	227.46
370.75	227.44
371.13	227.39
371.51	227.33
371.89	227.30
372.27	227.24
372.65	227.23
373.03	227.18
373.41	227.12
373.78	227.06
374.16	226.92
374.54	226.84
374.92	226.79
375.30	226.71
375.68	226.66
376.06	226.63
376.44	226.55
376.82	226.50
377.19	226.45
377.57	226.39
377.95	226.28
378.33	226.22
378.71	226.11
379.09	226.04
379.47	226.00
379.84	225.94
380.22	225.85
380.60	225.76
380.98	225.68
381.36	225.61
381.73	225.56
382.11	225.54
382.49	225.49
382.87	225.41
383.25	225.36
383.62	225.45
384.00	225.34
384.38	225.26
384.76	225.25
385.13	225.20
385.51	225.15
385.89	225.09
386.27	225.04
386.64	225.00
387.02	224.94
387.40	224.89
387.78	224.84
388.15	224.84
388.53	224.78
388.91	224.76
389.29	224.75
389.66	224.72
390.04	224.66
390.42	224.65
390.79	224.64
391.17	224.63
391.55	224.48
391.92	224.46
392.30	224.50
392.68	224.45
393.05	224.44
393.43	224.41
393.81	224.43
394.18	224.42
394.56	224.42
394.94	224.46
395.31	224.48
395.69	224.51
396.06	224.56
396.44	224.61
396.82	224.61
397.19	224.69
397.57	224.72
397.95	224.80
398.32	224.83
398.70	224.85
399.07	224.94
399.45	224.97
399.82	224.99
400.20	225.05
400.58	225.11
400.95	225.14
401.33	225.27
401.70	225.43
402.08	225.54
402.45	225.64
402.83	225.74
403.20	225.83
403.58	225.94
403.95	226.04
404.33	226.16
404.71	226.30
405.08	226.46
405.46	226.61
405.83	226.76
406.21	226.90
406.58	227.11
406.96	227.25
407.33	227.44
407.70	227.69
408.08	227.95
408.45	228.19
408.83	228.45
409.20	228.63
409.58	228.82
409.95	229.05
410.33	229.31
410.70	229.56
411.08	229.87
411.45	230.17
411.82	230.45
412.20	230.82
412.57	231.25
412.95	231.57
413.32	232.00
413.69	232.43
414.07	232.86
414.44	233.33
414.82	233.85
415.19	234.42
415.56	234.98
415.94	235.56
416.31	236.23
416.68	236.91
417.06	237.69
417.43	238.41
417.81	239.25
418.18	240.06
418.55	240.97
418.93	241.88
419.30	242.82
419.67	243.79
420.04	244.78
420.42	245.82
420.79	247.04
421.16	248.23
421.54	249.44
421.91	250.70
422.28	251.99
422.66	253.35
423.03	254.75
423.40	256.15
423.77	257.63
424.15	259.14
424.52	260.64
424.89	262.29
425.26	263.89
425.64	265.40
426.01	267.08
426.38	268.79
426.75	270.58
427.13	272.37
427.50	274.25
427.87	276.18
428.24	278.08
428.61	279.91
428.99	281.91
429.36	284.12
429.73	286.30
430.10	288.44
430.47	290.62
430.85	292.79
431.22	295.11
431.59	297.56
431.96	299.86
432.33	302.48
432.70	304.96
433.08	307.87
433.45	310.64
433.82	313.34
434.19	316.35
434.56	319.25
434.93	322.00
435.30	324.81
435.68	327.82
436.05	330.79
436.42	333.73
436.79	336.41
437.16	339.18
437.53	342.12
437.90	345.03
438.27	347.86
438.64	350.81
439.01	353.54
439.38	355.86
439.75	358.15
440.13	360.77
440.50	363.21
440.87	365.17
441.24	367.17
441.61	369.45
441.98	371.01
442.35	372.85
442.72	374.79
443.09	376.67
443.46	377.72
443.83	378.34
444.20	378.86
444.57	379.76
444.94	380.15
445.31	380.53
445.68	380.92
446.05	381.06
446.42	380.70
446.79	380.26
447.16	379.82
447.53	379.52
447.90	378.29
448.27	377.12
448.64	375.50
449.01	374.35
449.37	372.30
449.74	370.33
450.11	368.03
450.48	365.50
450.85	362.90
451.22	360.68
451.59	358.60
451.96	356.60
452.33	353.88
452.70	351.39
453.07	348.42
453.43	345.40
453.80	342.47
454.17	339.71
454.54	337.07
454.91	334.26
455.28	331.47
455.65	328.87
456.02	326.32
456.38	324.08
456.75	321.27
457.12	318.92
457.49	316.58
457.86	314.32
458.23	312.39
458.59	310.23
458.96	308.04
459.33	306.12
459.70	304.17
460.07	302.59
460.43	300.75
460.80	299.07
461.17	297.58
461.54	296.03
461.91	294.50
462.27	292.99
462.64	291.68
463.01	290.23
463.38	288.87
463.74	287.42
464.11	286.18
464.48	285.13
464.85	283.98
465.21	283.12
465.58	282.14
465.95	280.97
466.32	280.06
466.68	279.12
467.05	278.18
467.42	277.22
467.78	276.24
468.15	275.37
468.52	274.71
468.88	273.79
469.25	272.99
469.62	272.37
469.98	271.67
470.35	270.99
470.72	270.38
471.08	269.68
471.45	269.12
471.82	268.53
472.18	267.90
472.55	267.43
472.92	266.88
473.28	266.38
473.65	265.94
474.02	265.44
474.38	265.05
474.75	264.71
475.11	264.38
475.48	264.11
475.85	263.85
476.21	263.56
476.58	263.37
476.94	263.20
477.31	263.03
477.67	262.88
478.04	262.76
478.41	262.69
478.77	262.75
479.14	262.70
479.50	262.74
479.87	262.83
480.23	262.88
480.60	262.92
480.96	263.03
481.33	263.22
481.69	263.42
482.06	263.62
482.42	263.81
482.79	264.05
483.15	264.40
483.52	264.78
483.88	265.17
484.25	265.57
484.61	265.99
484.98	266.41
485.34	266.94
485.71	267.51
486.07	268.08
486.44	268.63
486.80	269.34
487.17	270.07
487.53	270.87
487.90	271.76
488.26	272.72
488.62	273.70
488.99	274.67
489.35	275.73
489.72	276.87
490.08	278.10
490.44	279.35
490.81	280.63
491.17	281.98
491.54	283.44
491.90	284.98
492.26	286.62
492.63	288.38
492.99	290.16
493.36	292.07
493.72	294.14
494.08	296.25
494.45	298.52
494.81	300.86
495.17	303.27
495.54	305.81
495.90	308.44
496.26	311.22
496.63	314.12
496.99	317.19
497.35	320.40
497.72	323.77
498.08	327.25
498.44	330.88
498.80	334.76
499.17	338.79
499.53	342.95
499.89	347.22
500.26	351.63
500.62	356.30
500.98	361.18
501.34	366.23
501.71	371.44
502.07	376.73
502.43	382.24
502.79	388.00
503.16	393.96
503.52	400.17
503.88	406.48
504.24	413.06
504.60	419.82
504.97	426.84
505.33	434.00
505.69	441.58
506.05	449.20
506.41	456.89
506.78	464.85
507.14	473.12
507.50	481.69
507.86	490.62
508.22	499.61
508.59	508.69
508.95	518.04
509.31	527.72
509.67	537.62
510.03	547.70
510.39	557.98
510.75	568.53
511.12	579.21
511.48	590.18
511.84	601.31
512.20	612.56
512.56	624.17
512.92	636.01
513.28	648.06
513.64	660.21
514.00	672.68
514.37	685.25
514.73	697.99
515.09	710.58
515.45	723.35
515.81	736.43
516.17	749.92
516.53	763.59
516.89	777.28
517.25	790.99
517.61	804.97
517.97	819.06
518.33	833.06
518.69	847.44
519.05	861.98
519.41	876.75
519.77	891.83
520.13	906.75
520.49	921.69
520.85	936.46
521.21	951.69
521.57	967.37
521.93	982.63
522.29	998.39
522.65	1014.22
523.01	1029.99
523.37	1045.61
523.73	1061.23
524.09	1076.78
524.45	1092.45
524.81	1108.61
525.17	1124.85
525.53	1141.10
525.89	1157.45
526.25	1173.68
526.61	1189.62
526.97	1205.75
527.33	1221.81
527.68	1237.99
528.04	1254.02
528.40	1270.14
528.76	1286.70
529.12	1302.73
529.48	1319.18
529.84	1334.75
530.20	1350.86
530.56	1367.29
530.91	1384.16
531.27	1400.57
531.63	1416.65
531.99	1432.85
532.35	1448.48
532.71	1463.98
533.07	1479.87
533.42	1495.36
533.78	1511.05
534.14	1526.87
534.50	1541.87
534.86	1557.07
535.21	1571.88
535.57	1587.30
535.93	1602.41
536.29	1616.79
536.65	1631.59
537.00	1645.93
537.36	1660.93
537.72	1675.15
538.08	1689.34
538.44	1702.97
538.79	1716.56
539.15	1729.87
539.51	1743.35
539.87	1757.34
540.22	1770.91
540.58	1784.42
540.94	1797.45
541.29	1809.99
541.65	1822.49
542.01	1835.51
542.37	1847.88
542.72	1860.12
543.08	1871.90
543.44	1884.21
543.79	1895.75
544.15	1906.55
544.51	1918.11
544.87	1929.08
545.22	1939.93
545.58	1950.21
545.94	1959.92
546.29	1969.87
546.65	1979.90
547.01	1989.35
547.36	1998.15
547.72	2006.68
548.07	2014.82
548.43	2023.28
548.79	2031.47
549.14	2039.14
549.50	2046.59
549.86	2054.33
550.21	2061.92
550.57	2069.31
550.92	2076.15
551.28	2083.30
551.64	2090.60
551.99	2097.44
552.35	2103.92
552.70	2110.31
553.06	2116.55
553.41	2123.13
553.77	2129.31
554.13	2135.55
554.48	2141.85
554.84	2147.74
555.19	2153.25
555.55	2158.58
555.90	2163.33
556.26	2168.61
556.61	2173.74
556.97	2178.69
557.32	2183.33
557.68	2187.72
558.03	2192.26
558.39	2196.24
558.74	2201.06
559.10	2205.40
559.45	2209.21
559.81	2213.66
560.16	2217.74
560.52	2221.47
560.87	2225.27
561.23	2228.24
561.58	2231.42
561.94	2234.40
562.29	2237.03
562.64	2240.29
563.00	2243.27
563.35	2247.08
563.71	2250.58
564.06	2254.06
564.42	2257.21
564.77	2260.14
565.12	2263.07
565.48	2265.51
565.83	2267.90
566.19	2269.66
566.54	2270.92
566.89	2272.80
567.25	2274.05
567.60	2275.80
567.96	2277.89
568.31	2279.09
568.66	2280.78
569.02	2281.84
569.37	2282.63
569.72	2284.00
570.08	2284.63
570.43	2285.12
570.78	2285.05
571.14	2283.94
571.49	2282.94
571.84	2282.84
572.20	2282.09
572.55	2281.31
572.90	2279.96
573.26	2279.04
573.61	2277.61
573.96	2276.44
574.31	2273.83
574.67	2271.23
575.02	2267.94
575.37	2264.85
575.72	2261.52
576.08	2258.40
576.43	2255.47
576.78	2252.28
577.13	2249.24
577.49	2246.30
577.84	2243.21
578.19	2239.73
578.54	2236.57
578.90	2232.96
579.25	2227.88
579.60	2223.49
579.95	2218.92
580.30	2214.28
580.66	2209.44
581.01	2204.87
581.36	2199.97
581.71	2196.23
582.06	2192.06
582.42	2188.09
582.77	2183.32
583.12	2179.24
583.47	2175.07
583.82	2170.54
584.17	2165.56
584.53	2160.40
584.88	2155.15
585.23	2149.80
585.58	2144.59
585.93	2139.27
586.28	2134.56
586.63	2129.93
586.98	2125.00
587.34	2120.53
587.69	2116.03
588.04	2111.10
588.39	2105.77
588.74	2099.64
589.09	2093.55
589.44	2087.04
589.79	2081.13
590.14	2075.63
590.49	2069.24
590.84	2062.96
591.19	2057.13
591.54	2050.91
591.89	2044.11
592.25	2037.59
592.60	2030.54
592.95	2023.39
593.30	2016.36
593.65	2009.03
594.00	2002.14
594.35	1995.05
594.70	1987.11
595.05	1980.22
595.40	1972.99
595.75	1965.69
596.10	1959.78
596.45	1953.30
596.80	1947.32
597.15	1941.00
597.50	1934.29
597.85	1927.99
598.19	1921.65
598.54	1915.02
598.89	1908.45
599.24	1902.60
599.59	1896.31
599.94	1890.21
600.29	1883.92
600.64	1877.38
600.99	1870.21
601.34	1863.48
601.69	1856.54
602.04	1849.81
602.39	1842.53
602.74	1836.02
603.08	1829.48
603.43	1822.88
603.78	1815.61
604.13	1808.45
604.48	1801.39
604.83	1794.52
605.18	1787.71
605.53	1779.71
605.87	1771.56
606.22	1764.49
606.57	1756.56
606.92	1748.96
607.27	1741.83
607.62	1735.05
607.96	1727.91
608.31	1721.44
608.66	1713.87
609.01	1706.45
609.36	1698.94
609.70	1690.85
610.05	1682.66
610.40	1674.90
610.75	1666.60
611.10	1658.93
611.44	1650.44
611.79	1642.23
612.14	1633.45
612.49	1624.14
612.83	1615.62
613.18	1607.40
613.53	1599.18
613.88	1590.50
614.22	1582.24
614.57	1573.43
614.92	1565.25
615.27	1557.79
615.61	1549.36
615.96	1541.19
616.31	1533.42
616.65	1525.91
617.00	1518.41
617.35	1510.48
617.70	1502.14
618.04	1493.53
618.39	1485.24
618.74	1477.65
619.08	1469.31
619.43	1461.63
619.78	1454.69
620.12	1447.63
620.47	1440.03
620.82	1431.73
621.16	1424.21
621.51	1416.45
621.85	1408.78
622.20	1400.24
622.55	1391.69
622.89	1383.76
623.24	1376.11
623.59	1368.63
623.93	1361.02
624.28	1353.62
624.62	1346.26
624.97	1338.97
625.32	1332.09
625.66	1324.91
626.01	1317.65
626.35	1310.23
626.70	1302.37
627.04	1294.55
627.39	1286.50
627.73	1278.94
628.08	1271.97
628.43	1264.69
628.77	1257.33
629.12	1249.78
629.46	1242.61
629.81	1235.02
630.15	1227.67
630.50	1220.11
630.84	1211.79
631.19	1203.78
631.53	1196.20
631.88	1188.48
632.22	1180.80
632.57	1173.41
632.91	1165.88
633.26	1158.38
633.60	1150.88
633.95	1143.63
634.29	1136.51
634.64	1129.85
634.98	1122.45
635.32	1115.28
635.67	1108.61
636.01	1101.83
636.36	1095.05
636.70	1088.34
637.05	1081.69
637.39	1075.16
637.73	1068.72
638.08	1062.83
638.42	1056.76
638.77	1050.23
639.11	1043.68
639.45	1037.24
639.80	1030.56
640.14	1024.15
640.49	1017.63
640.83	1011.20
641.17	1005.07
641.52	998.68
641.86	992.14
642.20	986.30
642.55	979.92
642.89	973.37
643.23	966.76
643.58	960.87
643.92	954.65
644.26	948.65
644.61	942.45
644.95	936.36
645.29	929.83
645.64	923.10
645.98	916.70
646.32	910.67
646.66	904.69
647.01	898.86
647.35	893.07
647.69	887.12
648.04	881.61
648.38	875.78
648.72	869.85
649.06	863.83
649.41	857.85
649.75	851.87
650.09	845.89
650.43	840.08
650.78	833.94
651.12	827.93
651.46	822.17
651.80	816.57
652.14	811.11
652.49	805.67
652.83	800.49
653.17	794.94
653.51	789.32
653.85	783.78
654.20	778.18
654.54	772.19
654.88	766.41
655.22	760.45
655.56	754.69
655.90	749.12
656.25	743.85
656.59	738.48
656.93	733.33
657.27	728.27
657.61	722.83
657.95	717.73
658.29	712.63
658.64	707.32
658.98	701.85
659.32	696.41
659.66	691.20
660.00	685.84
660.34	680.82
660.68	675.87
661.02	670.86
661.36	666.06
661.70	661.53
662.05	657.22
662.39	652.96
662.73	648.46
663.07	644.07
663.41	639.67
663.75	635.25
664.09	630.77
664.43	626.31
664.77	622.20
665.11	617.90
665.45	613.79
665.79	609.74
666.13	605.68
666.47	601.54
666.81	597.39
667.15	593.27
667.49	589.30
667.83	585.35
668.17	581.41
668.51	577.35
668.85	573.27
669.19	569.34
669.53	565.44
669.87	561.64
670.21	557.93
670.55	554.24
670.89	550.79
671.23	547.30
671.57	543.76
671.91	540.26
672.25	536.71
672.58	533.15
672.92	529.62
673.26	526.41
673.60	523.23
673.94	520.12
674.28	517.19
674.62	514.29
674.96	511.30
675.30	508.41
675.64	505.39
675.97	502.61
676.31	499.69
676.65	496.78
676.99	494.03
677.33	491.11
677.67	488.27
678.01	485.25
678.34	482.27
678.68	479.32
679.02	476.47
679.36	473.68
679.70	470.96
680.04	468.27
680.37	465.43
680.71	462.61
681.05	459.94
681.39	457.20
681.73	454.44
682.06	451.85
682.40	449.22
682.74	446.75
683.08	444.18
683.42	441.63
683.75	439.08
684.09	436.46
684.43	433.98
684.77	431.47
685.10	429.05
685.44	426.67
685.78	424.36
686.12	422.04
686.45	419.74
686.79	417.44
687.13	415.22
687.46	413.05
687.80	410.87
688.14	408.60
688.48	406.51
688.81	404.33
689.15	402.18
689.49	399.95
689.82	397.83
690.16	395.72
690.50	393.71
690.83	391.72
691.17	389.71
691.51	387.79
691.84	385.93
692.18	384.01
692.52	382.07
692.85	380.12
693.19	378.25
693.52	376.43
693.86	374.54
694.20	372.71
694.53	370.87
694.87	368.96
695.21	367.11
695.54	365.25
695.88	363.42
696.21	361.63
696.55	359.98
696.88	358.26
697.22	356.55
697.56	354.89
697.89	353.24
698.23	351.66
698.56	350.05
698.90	348.44
699.23	346.76
699.57	345.16
699.90	343.60
700.24	342.04
700.58	340.50
700.91	339.00
701.25	337.56
701.58	336.18
701.92	334.81
702.25	333.45
702.59	332.11
702.92	330.81
703.26	329.52
703.59	328.20
703.93	326.97
704.26	325.73
704.60	324.42
704.93	323.14
705.26	321.89
705.60	320.65
705.93	319.40
706.27	318.36
706.60	317.31
706.94	316.20
707.27	315.02
707.61	313.89
707.94	312.86
708.27	311.76
708.61	310.62
708.94	309.63
709.28	308.61
709.61	307.58
709.94	306.62
710.28	305.58
710.61	304.59
710.95	303.53
711.28	302.61
711.61	301.65
711.95	300.74
712.28	299.75
712.61	298.81
712.95	297.88
713.28	297.01
713.61	296.07
713.95	295.16
714.28	294.31
714.61	293.45
714.95	292.58
715.28	291.73
715.61	290.85
715.95	289.96
716.28	289.10
716.61	288.28
716.95	287.44
717.28	286.67
717.61	285.91
717.94	285.18
718.28	284.34
718.61	283.54
718.94	282.78
719.27	282.09
719.61	281.38
719.94	280.73
720.27	279.93
720.60	279.27
720.94	278.62
721.27	278.01
721.60	277.43
721.93	276.79
722.27	276.16
722.60	275.61
722.93	275.00
723.26	274.45
723.59	273.86
723.93	273.28
724.26	272.67
724.59	272.07
724.92	271.47
725.25	270.98
725.59	270.46
725.92	269.96
726.25	269.43
726.58	268.90
726.91	268.45
727.24	267.98
727.57	267.51
727.91	266.98
728.24	266.50
728.57	265.97
728.90	265.51
729.23	265.04
729.56	264.59
729.89	264.12
730.22	263.62
730.55	263.14
730.89	262.65
731.22	262.20
731.55	261.77
731.88	261.33
732.21	260.86
732.54	260.44
732.87	259.98
733.20	259.56
733.53	259.17
733.86	258.71
734.19	258.33
734.52	257.94
734.85	257.65
735.18	257.24
735.51	256.87
735.84	256.48
736.17	256.11
736.50	255.70
736.83	255.47
737.16	255.16
737.49	254.84
737.82	254.51
738.15	254.18
738.48	253.82
738.81	253.51
739.14	253.19
739.47	252.87
739.80	252.54
740.13	252.24
740.46	251.92
740.79	251.57
741.12	251.23
741.45	250.89
741.78	250.48
742.11	250.20
742.44	249.87
742.77	249.60
743.10	249.30
743.43	249.01
743.75	248.58
744.08	248.41
744.41	248.14
744.74	247.87
745.07	247.60
745.40	247.39
745.73	247.15
746.06	246.89
746.39	246.63
746.71	246.39
747.04	246.08
747.37	245.84
747.70	245.62
748.03	245.39
748.36	245.20
748.68	245.01
749.01	244.76
749.34	244.56
749.67	244.33
750.00	244.11
750.33	243.95
750.65	243.76
750.98	243.38
751.31	243.19
751.64	243.00
751.97	242.82
752.29	242.57
752.62	242.32
752.95	242.13
753.28	241.91
753.60	241.71
753.93	241.57
754.26	241.39
754.59	241.16
754.91	240.95
755.24	240.72
755.57	240.51
755.90	240.31
756.22	240.12
756.55	239.93
756.88	239.73
757.20	239.49
757.53	239.30
757.86	239.12
758.19	238.95
758.51	238.77
758.84	238.56
759.17	238.39
759.49	238.22
759.82	238.08
760.15	237.93
760.47	237.78
760.80	237.63
761.13	237.48
761.45	237.33
761.78	237.22
762.11	237.05
762.43	236.92
762.76	236.76
763.08	236.65
763.41	236.50
763.74	236.36
764.06	236.23
764.39	236.11
764.71	236.01
765.04	235.83
765.37	235.69
765.69	235.55
766.02	235.40
766.34	235.29
766.67	235.15
767.00	235.04
767.32	234.95
767.65	234.86
767.97	234.73
768.30	234.62
768.62	234.49
768.95	234.38
769.27	234.26
769.60	234.18
769.92	234.03
770.25	233.92
770.57	233.80
770.90	233.67
771.22	233.54
771.55	233.41
771.87	233.32
772.20	233.21
772.52	233.20
772.85	233.25
773.17	233.15
773.50	233.02
773.82	232.92
774.15	232.81
774.47	232.64
774.80	232.54
775.12	232.45
775.45	232.33
775.77	232.23
776.09	232.14
776.42	232.09
776.74	232.02
777.07	231.92
777.39	231.84
777.72	231.79
778.04	231.73
778.36	231.70
778.69	231.61
779.01	231.55
779.33	231.40
779.66	231.24
779.98	231.15
780.31	231.13
780.63	231.07
780.95	231.00
781.28	230.96
781.60	230.89
781.92	230.81
782.25	230.76
782.57	230.70
782.89	230.64
783.22	230.53
783.54	230.47
783.86	230.41
784.19	230.34
784.51	230.32
784.83	230.23
785.16	230.14
785.48	230.09
785.80	230.05
786.12	230.01
786.45	229.91
786.77	229.87
787.09	229.80
