SpectraSuite Data File
++++++++++++++++++++++++++++++++++++
Date: Fri Feb 01 15:08:07 EST 2013
User: group
Dark Spectrum Present: No
Reference Spectrum Present: No
Number of Sampled Component Spectra: 1
Spectrometers: USB2E7196
Integration Time (usec): 35000 (USB2E7196)
Spectra Averaged: 100 (USB2E7196)
Boxcar Smoothing: 10 (USB2E7196)
Correct for Electrical Dark: No (USB2E7196)
Strobe/Lamp Enabled: No (USB2E7196)
Correct for Detector Non-linearity: No (USB2E7196)
Correct for Stray Light: No (USB2E7196)
Number of Pixels in Processed Spectrum: 2048
>>>>>Begin Processed Spectral Data<<<<<
339.09	0.00
339.48	215.27
339.86	216.88
340.24	218.76
340.63	219.98
341.01	222.88
341.39	222.39
341.78	224.24
342.16	224.75
342.54	225.33
342.93	213.70
343.31	224.49
343.69	225.02
344.07	225.49
344.46	225.90
344.84	226.27
345.22	226.49
345.60	226.73
345.99	226.88
346.37	227.00
346.75	227.08
347.13	227.14
347.52	227.17
347.90	227.26
348.28	227.28
348.66	227.32
349.05	227.30
349.43	227.33
349.81	227.38
350.19	227.44
350.57	227.48
350.96	227.59
351.34	227.66
351.72	227.76
352.10	227.83
352.48	227.86
352.87	227.90
353.25	227.98
353.63	228.04
354.01	228.10
354.39	228.15
354.77	228.25
355.15	228.33
355.54	228.38
355.92	228.38
356.30	228.45
356.68	228.62
357.06	228.68
357.44	228.72
357.82	228.75
358.20	228.83
358.58	228.86
358.97	228.91
359.35	229.02
359.73	229.10
360.11	229.13
360.49	229.21
360.87	229.21
361.25	229.26
361.63	229.32
362.01	229.38
362.39	229.40
362.77	229.45
363.15	229.46
363.53	229.51
363.91	229.56
364.29	229.57
364.67	229.50
365.05	229.55
365.43	229.59
365.81	229.62
366.19	229.63
366.57	229.69
366.95	229.68
367.33	229.60
367.71	229.53
368.09	229.54
368.47	229.50
368.85	229.50
369.23	229.50
369.61	229.41
369.99	229.41
370.37	229.38
370.75	229.35
371.13	229.32
371.51	229.25
371.89	229.16
372.27	229.13
372.65	229.05
373.03	228.96
373.41	228.86
373.78	228.81
374.16	228.69
374.54	228.60
374.92	228.50
375.30	228.43
375.68	228.36
376.06	228.27
376.44	228.22
376.82	228.16
377.19	228.04
377.57	227.98
377.95	227.84
378.33	227.77
378.71	227.64
379.09	227.58
379.47	227.50
379.84	227.42
380.22	227.29
380.60	227.20
380.98	227.12
381.36	227.04
381.73	226.93
382.11	226.91
382.49	226.86
382.87	226.80
383.25	226.78
383.62	226.85
384.00	226.77
384.38	226.70
384.76	226.67
385.13	226.68
385.51	226.62
385.89	226.58
386.27	226.54
386.64	226.52
387.02	226.44
387.40	226.43
387.78	226.44
388.15	226.45
388.53	226.42
388.91	226.38
389.29	226.35
389.66	226.34
390.04	226.28
390.42	226.28
390.79	226.29
391.17	226.23
391.55	226.12
391.92	226.10
392.30	226.11
392.68	226.07
393.05	226.05
393.43	226.09
393.81	226.10
394.18	226.07
394.56	226.12
394.94	226.20
395.31	226.21
395.69	226.27
396.06	226.30
396.44	226.35
396.82	226.42
397.19	226.55
397.57	226.59
397.95	226.63
398.32	226.65
398.70	226.69
399.07	226.80
399.45	226.86
399.82	226.95
400.20	227.04
400.58	227.14
400.95	227.19
401.33	227.31
401.70	227.46
402.08	227.62
402.45	227.72
402.83	227.85
403.20	227.97
403.58	228.06
403.95	228.21
404.33	228.33
404.71	228.46
405.08	228.65
405.46	228.81
405.83	229.02
406.21	229.19
406.58	229.38
406.96	229.57
407.33	229.77
407.70	229.97
408.08	230.24
408.45	230.45
408.83	230.69
409.20	230.90
409.58	231.10
409.95	231.33
410.33	231.60
410.70	231.81
411.08	232.12
411.45	232.41
411.82	232.73
412.20	233.07
412.57	233.50
412.95	233.77
413.32	234.21
413.69	234.63
414.07	235.04
414.44	235.51
414.82	236.01
415.19	236.56
415.56	237.14
415.94	237.69
416.31	238.34
416.68	238.96
417.06	239.65
417.43	240.34
417.81	241.11
418.18	241.89
418.55	242.74
418.93	243.64
419.30	244.55
419.67	245.44
420.04	246.43
420.42	247.41
420.79	248.61
421.16	249.69
421.54	250.89
421.91	252.12
422.28	253.37
422.66	254.70
423.03	256.03
423.40	257.32
423.77	258.71
424.15	260.13
424.52	261.63
424.89	263.24
425.26	264.81
425.64	266.27
426.01	267.84
426.38	269.51
426.75	271.16
427.13	272.90
427.50	274.78
427.87	276.65
428.24	278.53
428.61	280.28
428.99	282.27
429.36	284.37
429.73	286.44
430.10	288.46
430.47	290.51
430.85	292.61
431.22	294.95
431.59	297.33
431.96	299.58
432.33	302.08
432.70	304.48
433.08	307.27
433.45	309.91
433.82	312.55
434.19	315.51
434.56	318.31
434.93	320.96
435.30	323.56
435.68	326.48
436.05	329.26
436.42	332.04
436.79	334.59
437.16	337.28
437.53	340.14
437.90	342.96
438.27	345.73
438.64	348.56
439.01	351.11
439.38	353.37
439.75	355.55
440.13	358.07
440.50	360.35
440.87	362.22
441.24	364.20
441.61	366.36
441.98	367.78
442.35	369.59
442.72	371.48
443.09	373.29
443.46	374.28
443.83	374.95
444.20	375.47
444.57	376.25
444.94	376.52
445.31	376.87
445.68	377.24
446.05	377.29
446.42	376.92
446.79	376.51
447.16	376.10
447.53	375.82
447.90	374.66
448.27	373.56
448.64	371.95
449.01	370.83
449.37	368.84
449.74	366.98
450.11	364.75
450.48	362.28
450.85	359.75
451.22	357.58
451.59	355.51
451.96	353.57
452.33	350.98
452.70	348.66
453.07	345.82
453.43	342.90
453.80	340.12
454.17	337.45
454.54	334.89
454.91	332.16
455.28	329.46
455.65	326.99
456.02	324.53
456.38	322.38
456.75	319.66
457.12	317.42
457.49	315.20
457.86	313.02
458.23	311.11
458.59	309.06
458.96	306.95
459.33	305.13
459.70	303.26
460.07	301.75
460.43	300.01
460.80	298.36
461.17	296.93
461.54	295.43
461.91	293.97
462.27	292.53
462.64	291.27
463.01	289.89
463.38	288.55
463.74	287.16
464.11	285.99
464.48	285.00
464.85	283.89
465.21	282.95
465.58	282.01
465.95	280.90
466.32	279.97
466.68	279.08
467.05	278.14
467.42	277.21
467.78	276.30
468.15	275.43
468.52	274.76
468.88	273.89
469.25	273.11
469.62	272.49
469.98	271.79
470.35	271.14
470.72	270.52
471.08	269.88
471.45	269.33
471.82	268.78
472.18	268.13
472.55	267.66
472.92	267.19
473.28	266.70
473.65	266.22
474.02	265.77
474.38	265.39
474.75	265.04
475.11	264.71
475.48	264.41
475.85	264.10
476.21	263.86
476.58	263.64
476.94	263.46
477.31	263.28
477.67	263.10
478.04	262.94
478.41	262.87
478.77	262.89
479.14	262.83
479.50	262.83
479.87	262.91
480.23	262.97
480.60	262.99
480.96	263.10
481.33	263.29
481.69	263.45
482.06	263.65
482.42	263.86
482.79	264.14
483.15	264.49
483.52	264.90
483.88	265.23
484.25	265.63
484.61	266.05
484.98	266.49
485.34	267.06
485.71	267.66
486.07	268.30
486.44	268.86
486.80	269.55
487.17	270.29
487.53	271.08
487.90	271.95
488.26	272.90
488.62	273.87
488.99	274.87
489.35	275.95
489.72	277.08
490.08	278.33
490.44	279.51
490.81	280.76
491.17	282.10
491.54	283.62
491.90	285.14
492.26	286.75
492.63	288.50
492.99	290.27
493.36	292.14
493.72	294.17
494.08	296.27
494.45	298.53
494.81	300.87
495.17	303.30
495.54	305.86
495.90	308.49
496.26	311.27
496.63	314.25
496.99	317.32
497.35	320.56
497.72	323.96
498.08	327.51
498.44	331.23
498.80	335.12
499.17	339.10
499.53	343.24
499.89	347.66
500.26	352.10
500.62	356.79
500.98	361.77
501.34	366.81
501.71	372.10
502.07	377.53
502.43	383.16
502.79	388.94
503.16	394.97
503.52	401.30
503.88	407.74
504.24	414.31
504.60	421.23
504.97	428.32
505.33	435.68
505.69	443.36
506.05	451.08
506.41	459.03
506.78	467.18
507.14	475.66
507.50	484.38
507.86	493.43
508.22	502.58
508.59	511.81
508.95	521.35
509.31	531.17
509.67	541.26
510.03	551.49
510.39	562.07
510.75	572.91
511.12	583.77
511.48	595.06
511.84	606.56
512.20	618.07
512.56	630.05
512.92	642.23
513.28	654.60
513.64	667.13
514.00	679.81
514.37	692.76
514.73	705.78
515.09	718.79
515.45	732.10
515.81	745.69
516.17	759.61
516.53	773.79
516.89	787.91
517.25	802.12
517.61	816.55
517.97	830.95
518.33	845.35
518.69	860.16
519.05	875.10
519.41	890.28
519.77	905.89
520.13	921.40
520.49	936.76
520.85	952.20
521.21	967.96
521.57	984.22
521.93	1000.06
522.29	1016.51
522.65	1032.81
523.01	1049.12
523.37	1065.26
523.73	1081.50
524.09	1097.70
524.45	1114.07
524.81	1130.66
525.17	1147.70
525.53	1164.76
525.89	1181.74
526.25	1198.53
526.61	1214.98
526.97	1231.73
527.33	1248.20
527.68	1264.78
528.04	1281.30
528.40	1298.00
528.76	1315.05
529.12	1331.72
529.48	1348.57
529.84	1364.67
530.20	1381.38
530.56	1398.39
530.91	1415.70
531.27	1432.57
531.63	1449.06
531.99	1465.83
532.35	1482.01
532.71	1497.83
533.07	1514.16
533.42	1530.03
533.78	1546.23
534.14	1562.57
534.50	1577.99
534.86	1594.05
535.21	1609.33
535.57	1625.34
535.93	1640.94
536.29	1655.93
536.65	1671.09
537.00	1686.11
537.36	1701.56
537.72	1716.24
538.08	1730.83
538.44	1744.77
538.79	1758.76
539.15	1772.52
539.51	1786.28
539.87	1800.59
540.22	1814.53
540.58	1828.39
540.94	1842.07
541.29	1855.13
541.65	1868.02
542.01	1881.51
542.37	1893.79
542.72	1906.33
543.08	1918.19
543.44	1930.68
543.79	1941.93
544.15	1953.02
544.51	1964.62
544.87	1975.70
545.22	1986.57
545.58	1996.78
545.94	2006.60
546.29	2016.48
546.65	2026.30
547.01	2035.64
547.36	2044.48
547.72	2052.83
548.07	2060.79
548.43	2068.82
548.79	2076.89
549.14	2084.36
549.50	2091.74
549.86	2099.53
550.21	2107.02
550.57	2114.27
550.92	2120.75
551.28	2127.82
551.64	2134.99
551.99	2141.47
552.35	2147.45
552.70	2153.58
553.06	2159.49
553.41	2165.84
553.77	2171.86
554.13	2178.16
554.48	2184.17
554.84	2189.57
555.19	2195.00
555.55	2200.00
555.90	2204.52
556.26	2209.28
556.61	2214.10
556.97	2218.08
557.32	2222.20
557.68	2226.07
558.03	2230.27
558.39	2234.11
558.74	2238.80
559.10	2242.47
559.45	2246.04
559.81	2250.49
560.16	2254.14
560.52	2257.37
560.87	2260.85
561.23	2263.51
561.58	2266.32
561.94	2268.92
562.29	2271.27
562.64	2273.75
563.00	2276.30
563.35	2279.74
563.71	2282.85
564.06	2286.00
564.42	2288.92
564.77	2291.28
565.12	2293.55
565.48	2295.41
565.83	2297.05
566.19	2298.17
566.54	2299.15
566.89	2300.32
567.25	2300.69
567.60	2302.05
567.96	2303.72
568.31	2304.56
568.66	2305.49
569.02	2305.83
569.37	2306.00
569.72	2306.77
570.08	2306.84
570.43	2306.77
570.78	2305.97
571.14	2304.38
571.49	2302.93
571.84	2302.50
572.20	2301.24
572.55	2300.08
572.90	2298.42
573.26	2296.75
573.61	2295.07
573.96	2293.15
574.31	2289.92
574.67	2286.80
575.02	2283.09
575.37	2279.54
575.72	2275.43
576.08	2272.06
576.43	2268.68
576.78	2264.86
577.13	2261.51
577.49	2258.36
577.84	2254.76
578.19	2250.96
578.54	2247.07
578.90	2242.59
579.25	2236.93
579.60	2231.81
579.95	2226.63
580.30	2221.42
580.66	2216.34
581.01	2211.15
581.36	2205.93
581.71	2201.66
582.06	2197.11
582.42	2192.46
582.77	2187.07
583.12	2182.40
583.47	2177.50
583.82	2172.38
584.17	2167.03
584.53	2161.47
584.88	2155.67
585.23	2149.82
585.58	2144.26
585.93	2138.94
586.28	2134.21
586.63	2129.02
586.98	2123.92
587.34	2119.18
587.69	2114.25
588.04	2108.86
588.39	2103.11
588.74	2096.68
589.09	2090.42
589.44	2083.54
589.79	2077.56
590.14	2071.85
590.49	2065.22
590.84	2058.83
591.19	2052.72
591.54	2046.15
591.89	2038.58
592.25	2031.59
592.60	2024.19
592.95	2016.56
593.30	2008.99
593.65	2001.21
594.00	1994.07
594.35	1986.74
594.70	1978.59
595.05	1971.28
595.40	1964.03
595.75	1956.46
596.10	1950.03
596.45	1943.30
596.80	1937.01
597.15	1930.14
597.50	1922.87
597.85	1916.41
598.19	1909.50
598.54	1902.38
598.89	1895.64
599.24	1889.76
599.59	1882.99
599.94	1876.84
600.29	1870.49
600.64	1863.91
600.99	1856.40
601.34	1849.44
601.69	1842.53
602.04	1835.56
602.39	1828.08
602.74	1821.09
603.08	1814.35
603.43	1807.64
603.78	1800.29
604.13	1793.04
604.48	1785.75
604.83	1778.93
605.18	1771.82
605.53	1763.78
605.87	1755.54
606.22	1748.34
606.57	1740.38
606.92	1733.20
607.27	1725.83
607.62	1718.87
607.96	1711.53
608.31	1704.86
608.66	1697.35
609.01	1689.67
609.36	1682.03
609.70	1674.06
610.05	1665.86
610.40	1658.05
610.75	1649.74
611.10	1642.05
611.44	1633.72
611.79	1625.71
612.14	1617.04
612.49	1607.99
612.83	1599.81
613.18	1591.93
613.53	1583.87
613.88	1575.37
614.22	1567.13
614.57	1558.68
614.92	1550.61
615.27	1542.98
615.61	1534.68
615.96	1526.69
616.31	1519.19
616.65	1511.95
617.00	1504.42
617.35	1496.85
617.70	1488.48
618.04	1479.95
618.39	1471.67
618.74	1464.05
619.08	1455.80
619.43	1448.30
619.78	1441.31
620.12	1434.02
620.47	1426.43
620.82	1418.42
621.16	1411.09
621.51	1403.53
621.85	1396.00
622.20	1387.53
622.55	1379.24
622.89	1371.44
623.24	1363.84
623.59	1356.49
623.93	1348.98
624.28	1341.81
624.62	1334.26
624.97	1327.18
625.32	1320.58
625.66	1313.62
626.01	1306.44
626.35	1298.99
626.70	1291.14
627.04	1283.44
627.39	1275.77
627.73	1268.46
628.08	1261.38
628.43	1254.00
628.77	1246.47
629.12	1238.87
629.46	1231.73
629.81	1224.43
630.15	1217.25
630.50	1209.78
630.84	1201.63
631.19	1193.76
631.53	1186.31
631.88	1178.88
632.22	1171.33
632.57	1163.95
632.91	1156.42
633.26	1149.03
633.60	1141.73
633.95	1134.77
634.29	1127.87
634.64	1121.27
634.98	1113.84
635.32	1106.70
635.67	1100.21
636.01	1093.70
636.36	1086.86
636.70	1080.31
637.05	1073.73
637.39	1067.31
637.73	1060.91
638.08	1055.04
638.42	1049.07
638.77	1042.58
639.11	1035.93
639.45	1029.61
639.80	1022.97
640.14	1016.59
640.49	1010.01
640.83	1003.71
641.17	997.52
641.52	991.09
641.86	984.67
642.20	978.84
642.55	972.70
642.89	966.25
643.23	959.74
643.58	954.00
643.92	947.83
644.26	941.66
644.61	935.65
644.95	929.61
645.29	922.91
645.64	916.24
645.98	909.93
646.32	904.24
646.66	898.18
647.01	892.38
647.35	886.71
647.69	881.05
648.04	875.64
648.38	869.87
648.72	863.86
649.06	857.81
649.41	851.97
649.75	845.92
650.09	839.92
650.43	834.23
650.78	828.10
651.12	822.14
651.46	816.45
651.80	810.68
652.14	805.24
652.49	799.94
652.83	794.71
653.17	789.06
653.51	783.20
653.85	777.93
654.20	772.25
654.54	766.27
654.88	760.52
655.22	754.58
655.56	748.93
655.90	743.56
656.25	738.28
656.59	732.98
656.93	727.93
657.27	722.81
657.61	717.31
657.95	712.26
658.29	707.19
658.64	702.00
658.98	696.79
659.32	691.35
659.66	686.14
660.00	680.85
660.34	675.90
660.68	671.07
661.02	665.96
661.36	661.32
661.70	656.86
662.05	652.49
662.39	648.16
662.73	643.74
663.07	639.41
663.41	635.02
663.75	630.52
664.09	625.99
664.43	621.62
664.77	617.49
665.11	613.26
665.45	609.19
665.79	605.16
666.13	601.01
666.47	596.96
666.81	592.83
667.15	588.75
667.49	584.92
667.83	581.14
668.17	577.23
668.51	573.23
668.85	569.22
669.19	565.41
669.53	561.57
669.87	557.65
670.21	553.95
670.55	550.32
670.89	546.94
671.23	543.57
671.57	540.06
671.91	536.53
672.25	533.08
672.58	529.62
672.92	526.25
673.26	523.11
673.60	520.02
673.94	516.96
674.28	514.09
674.62	511.09
674.96	507.97
675.30	505.08
675.64	502.14
675.97	499.40
676.31	496.45
676.65	493.57
676.99	490.92
677.33	488.09
677.67	485.23
678.01	482.19
678.34	479.19
678.68	476.37
679.02	473.60
679.36	470.82
679.70	468.16
680.04	465.36
680.37	462.49
680.71	459.72
681.05	457.08
681.39	454.34
681.73	451.73
682.06	449.21
682.40	446.69
682.74	444.19
683.08	441.70
683.42	439.19
683.75	436.68
684.09	434.10
684.43	431.62
684.77	429.20
685.10	426.88
685.44	424.59
685.78	422.32
686.12	420.11
686.45	417.85
686.79	415.48
687.13	413.33
687.46	411.19
687.80	409.04
688.14	406.87
688.48	404.82
688.81	402.62
689.15	400.54
689.49	398.34
689.82	396.26
690.16	394.14
690.50	392.17
690.83	390.23
691.17	388.26
691.51	386.38
691.84	384.54
692.18	382.61
692.52	380.63
692.85	378.71
693.19	376.76
693.52	374.94
693.86	373.14
694.20	371.37
694.53	369.59
694.87	367.76
695.21	365.96
695.54	364.11
695.88	362.35
696.21	360.62
696.55	358.99
696.88	357.27
697.22	355.63
697.56	354.08
697.89	352.45
698.23	350.89
698.56	349.27
698.90	347.70
699.23	346.03
699.57	344.48
699.90	342.93
700.24	341.42
700.58	339.88
700.91	338.42
701.25	336.98
701.58	335.57
701.92	334.21
702.25	332.85
702.59	331.53
702.92	330.25
703.26	328.97
703.59	327.69
703.93	326.55
704.26	325.34
704.60	324.03
704.93	322.78
705.26	321.54
705.60	320.39
705.93	319.20
706.27	318.20
706.60	317.18
706.94	316.10
707.27	314.99
707.61	313.95
707.94	312.91
708.27	311.84
708.61	310.77
708.94	309.77
709.28	308.82
709.61	307.85
709.94	306.88
710.28	305.85
710.61	304.86
710.95	303.83
711.28	302.90
711.61	301.93
711.95	301.02
712.28	300.02
712.61	299.07
712.95	298.20
713.28	297.31
713.61	296.41
713.95	295.52
714.28	294.68
714.61	293.83
714.95	292.99
715.28	292.15
715.61	291.34
715.95	290.50
716.28	289.62
716.61	288.87
716.95	288.11
717.28	287.39
717.61	286.65
717.94	285.91
718.28	285.14
718.61	284.40
718.94	283.74
719.27	283.13
719.61	282.49
719.94	281.81
720.27	281.10
720.60	280.39
720.94	279.78
721.27	279.21
721.60	278.61
721.93	278.02
722.27	277.51
722.60	276.93
722.93	276.36
723.26	275.82
723.59	275.22
723.93	274.61
724.26	274.05
724.59	273.50
724.92	272.97
725.25	272.46
725.59	271.99
725.92	271.47
726.25	270.97
726.58	270.48
726.91	270.00
727.24	269.56
727.57	269.11
727.91	268.60
728.24	268.13
728.57	267.63
728.90	267.23
729.23	266.69
729.56	266.25
729.89	265.81
730.22	265.33
730.55	264.86
730.89	264.45
731.22	263.99
731.55	263.60
731.88	263.15
732.21	262.71
732.54	262.23
732.87	261.82
733.20	261.37
733.53	260.97
733.86	260.60
734.19	260.17
734.52	259.79
734.85	259.45
735.18	259.04
735.51	258.73
735.84	258.30
736.17	257.94
736.50	257.56
736.83	257.30
737.16	256.98
737.49	256.64
737.82	256.28
738.15	255.92
738.48	255.58
738.81	255.24
739.14	254.95
739.47	254.66
739.80	254.34
740.13	254.05
740.46	253.72
740.79	253.38
741.12	253.07
741.45	252.78
741.78	252.44
742.11	252.14
742.44	251.76
742.77	251.49
743.10	251.22
743.43	250.89
743.75	250.47
744.08	250.32
744.41	250.04
744.74	249.78
745.07	249.49
745.40	249.23
745.73	248.99
746.06	248.66
746.39	248.40
746.71	248.13
747.04	247.88
747.37	247.64
747.70	247.36
748.03	247.16
748.36	246.95
748.68	246.75
749.01	246.51
749.34	246.35
749.67	246.12
750.00	245.87
750.33	245.76
750.65	245.56
750.98	245.20
751.31	245.00
751.64	244.81
751.97	244.68
752.29	244.45
752.62	244.21
752.95	244.01
753.28	243.82
753.60	243.62
753.93	243.42
754.26	243.22
754.59	243.01
754.91	242.77
755.24	242.58
755.57	242.35
755.90	242.17
756.22	241.97
756.55	241.76
756.88	241.57
757.20	241.33
757.53	241.15
757.86	241.01
758.19	240.85
758.51	240.68
758.84	240.46
759.17	240.31
759.49	240.20
759.82	240.11
760.15	239.96
760.47	239.80
760.80	239.63
761.13	239.51
761.45	239.39
761.78	239.27
762.11	239.08
762.43	238.94
762.76	238.81
763.08	238.69
763.41	238.58
763.74	238.48
764.06	238.33
764.39	238.19
764.71	238.05
765.04	237.93
765.37	237.78
765.69	237.67
766.02	237.52
766.34	237.39
766.67	237.21
767.00	237.06
767.32	236.99
767.65	236.91
767.97	236.76
768.30	236.63
768.62	236.48
768.95	236.38
769.27	236.28
769.60	236.19
769.92	236.05
770.25	235.92
770.57	235.82
770.90	235.72
771.22	235.60
771.55	235.51
771.87	235.39
772.20	235.27
772.52	235.25
772.85	235.26
773.17	235.16
773.50	235.07
773.82	234.97
774.15	234.81
774.47	234.68
774.80	234.57
775.12	234.47
775.45	234.40
775.77	234.33
776.09	234.25
776.42	234.13
776.74	234.03
777.07	233.91
777.39	233.80
777.72	233.69
778.04	233.66
778.36	233.55
778.69	233.47
779.01	233.42
779.33	233.24
779.66	233.07
779.98	233.00
780.31	232.93
780.63	232.87
780.95	232.83
781.28	232.74
781.60	232.67
781.92	232.62
782.25	232.55
782.57	232.48
782.89	232.40
783.22	232.33
783.54	232.27
783.86	232.23
784.19	232.18
784.51	232.16
784.83	232.06
785.16	232.00
785.48	231.93
785.80	231.87
786.12	231.85
786.45	231.79
786.77	231.72
787.09	231.67
