SpectraSuite Data File
++++++++++++++++++++++++++++++++++++
Date: Fri Feb 01 15:30:25 EST 2013
User: group
Dark Spectrum Present: No
Reference Spectrum Present: No
Number of Sampled Component Spectra: 1
Spectrometers: USB2E7196
Integration Time (usec): 35000 (USB2E7196)
Spectra Averaged: 100 (USB2E7196)
Boxcar Smoothing: 10 (USB2E7196)
Correct for Electrical Dark: No (USB2E7196)
Strobe/Lamp Enabled: No (USB2E7196)
Correct for Detector Non-linearity: No (USB2E7196)
Correct for Stray Light: No (USB2E7196)
Number of Pixels in Processed Spectrum: 2048
>>>>>Begin Processed Spectral Data<<<<<
339.09	0.00
339.48	215.20
339.86	216.68
340.24	218.32
340.63	219.49
341.01	222.44
341.39	222.32
341.78	223.13
342.16	224.60
342.54	224.90
342.93	213.51
343.31	224.30
343.69	224.82
344.07	225.29
344.46	225.72
344.84	226.10
345.22	226.35
345.60	226.60
345.99	226.79
346.37	226.93
346.75	227.04
347.13	227.12
347.52	227.17
347.90	227.25
348.28	227.31
348.66	227.29
349.05	227.28
349.43	227.32
349.81	227.34
350.19	227.38
350.57	227.46
350.96	227.56
351.34	227.63
351.72	227.73
352.10	227.82
352.48	227.86
352.87	227.92
353.25	227.97
353.63	228.02
354.01	228.11
354.39	228.20
354.77	228.28
355.15	228.40
355.54	228.48
355.92	228.50
356.30	228.55
356.68	228.73
357.06	228.80
357.44	228.84
357.82	228.91
358.20	228.96
358.58	229.03
358.97	229.05
359.35	229.10
359.73	229.16
360.11	229.21
360.49	229.25
360.87	229.29
361.25	229.35
361.63	229.43
362.01	229.44
362.39	229.43
362.77	229.48
363.15	229.47
363.53	229.46
363.91	229.50
364.29	229.51
364.67	229.43
365.05	229.41
365.43	229.43
365.81	229.45
366.19	229.52
366.57	229.51
366.95	229.51
367.33	229.50
367.71	229.49
368.09	229.51
368.47	229.50
368.85	229.48
369.23	229.45
369.61	229.39
369.99	229.35
370.37	229.35
370.75	229.31
371.13	229.28
371.51	229.25
371.89	229.22
372.27	229.18
372.65	229.12
373.03	229.09
373.41	229.02
373.78	228.95
374.16	228.84
374.54	228.82
374.92	228.74
375.30	228.68
375.68	228.58
376.06	228.48
376.44	228.40
376.82	228.35
377.19	228.29
377.57	228.23
377.95	228.16
378.33	228.06
378.71	227.94
379.09	227.88
379.47	227.80
379.84	227.72
380.22	227.63
380.60	227.55
380.98	227.48
381.36	227.41
381.73	227.34
382.11	227.26
382.49	227.18
382.87	227.16
383.25	227.11
383.62	227.18
384.00	227.10
384.38	227.06
384.76	227.00
385.13	226.94
385.51	226.85
385.89	226.79
386.27	226.77
386.64	226.72
387.02	226.67
387.40	226.66
387.78	226.61
388.15	226.58
388.53	226.53
388.91	226.49
389.29	226.46
389.66	226.42
390.04	226.39
390.42	226.38
390.79	226.35
391.17	226.29
391.55	226.18
391.92	226.22
392.30	226.22
392.68	226.19
393.05	226.22
393.43	226.26
393.81	226.30
394.18	226.28
394.56	226.35
394.94	226.39
395.31	226.35
395.69	226.42
396.06	226.49
396.44	226.53
396.82	226.55
397.19	226.64
397.57	226.69
397.95	226.73
398.32	226.71
398.70	226.78
399.07	226.85
399.45	226.92
399.82	226.95
400.20	227.00
400.58	227.08
400.95	227.15
401.33	227.25
401.70	227.40
402.08	227.52
402.45	227.61
402.83	227.72
403.20	227.87
403.58	227.96
403.95	228.08
404.33	228.23
404.71	228.37
405.08	228.57
405.46	228.74
405.83	228.90
406.21	229.04
406.58	229.19
406.96	229.36
407.33	229.55
407.70	229.76
408.08	230.04
408.45	230.25
408.83	230.45
409.20	230.63
409.58	230.79
409.95	231.04
410.33	231.32
410.70	231.56
411.08	231.84
411.45	232.15
411.82	232.45
412.20	232.77
412.57	233.23
412.95	233.52
413.32	233.93
413.69	234.34
414.07	234.80
414.44	235.28
414.82	235.78
415.19	236.31
415.56	236.84
415.94	237.36
416.31	238.00
416.68	238.65
417.06	239.39
417.43	240.07
417.81	240.83
418.18	241.59
418.55	242.43
418.93	243.28
419.30	244.21
419.67	245.11
420.04	246.08
420.42	247.05
420.79	248.22
421.16	249.35
421.54	250.54
421.91	251.78
422.28	253.06
422.66	254.37
423.03	255.72
423.40	257.08
423.77	258.48
424.15	259.92
424.52	261.39
424.89	263.02
425.26	264.56
425.64	266.01
426.01	267.63
426.38	269.29
426.75	271.03
427.13	272.70
427.50	274.56
427.87	276.49
428.24	278.35
428.61	280.12
428.99	282.08
429.36	284.20
429.73	286.25
430.10	288.25
430.47	290.34
430.85	292.41
431.22	294.69
431.59	297.08
431.96	299.33
432.33	301.82
432.70	304.18
433.08	307.03
433.45	309.70
433.82	312.29
434.19	315.17
434.56	317.97
434.93	320.68
435.30	323.29
435.68	326.13
436.05	328.96
436.42	331.80
436.79	334.31
437.16	336.99
437.53	339.86
437.90	342.70
438.27	345.46
438.64	348.31
439.01	350.85
439.38	353.13
439.75	355.31
440.13	357.83
440.50	360.20
440.87	362.04
441.24	363.93
441.61	366.08
441.98	367.64
442.35	369.42
442.72	371.28
443.09	373.12
443.46	374.11
443.83	374.68
444.20	375.15
444.57	375.97
444.94	376.28
445.31	376.61
445.68	376.91
446.05	376.94
446.42	376.58
446.79	376.17
447.16	375.69
447.53	375.36
447.90	374.18
448.27	373.00
448.64	371.42
449.01	370.30
449.37	368.34
449.74	366.42
450.11	364.20
450.48	361.66
450.85	359.06
451.22	356.89
451.59	354.89
451.96	352.94
452.33	350.38
452.70	347.98
453.07	345.12
453.43	342.23
453.80	339.47
454.17	336.76
454.54	334.16
454.91	331.42
455.28	328.73
455.65	326.22
456.02	323.76
456.38	321.60
456.75	318.92
457.12	316.66
457.49	314.40
457.86	312.17
458.23	310.32
458.59	308.30
458.96	306.25
459.33	304.39
459.70	302.49
460.07	300.95
460.43	299.26
460.80	297.64
461.17	296.18
461.54	294.68
461.91	293.28
462.27	291.87
462.64	290.61
463.01	289.26
463.38	287.98
463.74	286.61
464.11	285.41
464.48	284.39
464.85	283.31
465.21	282.44
465.58	281.55
465.95	280.46
466.32	279.56
466.68	278.65
467.05	277.73
467.42	276.89
467.78	275.95
468.15	275.04
468.52	274.38
468.88	273.55
469.25	272.77
469.62	272.11
469.98	271.46
470.35	270.87
470.72	270.30
471.08	269.60
471.45	269.06
471.82	268.57
472.18	267.95
472.55	267.45
472.92	266.94
473.28	266.49
473.65	266.04
474.02	265.60
474.38	265.24
474.75	264.95
475.11	264.57
475.48	264.36
475.85	264.13
476.21	263.90
476.58	263.73
476.94	263.61
477.31	263.46
477.67	263.31
478.04	263.18
478.41	263.13
478.77	263.17
479.14	263.11
479.50	263.09
479.87	263.22
480.23	263.35
480.60	263.42
480.96	263.51
481.33	263.71
481.69	263.90
482.06	264.07
482.42	264.27
482.79	264.56
483.15	264.84
483.52	265.24
483.88	265.60
484.25	265.96
484.61	266.34
484.98	266.78
485.34	267.36
485.71	267.97
486.07	268.58
486.44	269.16
486.80	269.90
487.17	270.61
487.53	271.45
487.90	272.30
488.26	273.24
488.62	274.21
488.99	275.18
489.35	276.21
489.72	277.35
490.08	278.56
490.44	279.81
490.81	281.12
491.17	282.48
491.54	283.91
491.90	285.47
492.26	287.11
492.63	288.84
492.99	290.60
493.36	292.46
493.72	294.45
494.08	296.57
494.45	298.77
494.81	301.14
495.17	303.52
495.54	306.02
495.90	308.67
496.26	311.46
496.63	314.42
496.99	317.57
497.35	320.86
497.72	324.27
498.08	327.75
498.44	331.43
498.80	335.30
499.17	339.38
499.53	343.50
499.89	347.86
500.26	352.35
500.62	356.98
500.98	361.91
501.34	367.02
501.71	372.36
502.07	377.80
502.43	383.40
502.79	389.22
503.16	395.28
503.52	401.55
503.88	407.95
504.24	414.59
504.60	421.46
504.97	428.54
505.33	435.89
505.69	443.59
506.05	451.40
506.41	459.27
506.78	467.44
507.14	475.99
507.50	484.69
507.86	493.71
508.22	502.94
508.59	512.21
508.95	521.80
509.31	531.60
509.67	541.72
510.03	552.04
510.39	562.60
510.75	573.44
511.12	584.40
511.48	595.71
511.84	607.11
512.20	618.60
512.56	630.60
512.92	642.78
513.28	655.10
513.64	667.54
514.00	680.31
514.37	693.18
514.73	706.25
515.09	719.32
515.45	732.68
515.81	746.29
516.17	760.33
516.53	774.46
516.89	788.71
517.25	802.86
517.61	817.28
517.97	831.75
518.33	846.23
518.69	861.06
519.05	876.17
519.41	891.49
519.77	907.13
520.13	922.65
520.49	937.94
520.85	953.41
521.21	969.15
521.57	985.52
521.93	1001.45
522.29	1017.97
522.65	1034.21
523.01	1050.53
523.37	1066.62
523.73	1082.81
524.09	1098.97
524.45	1115.28
524.81	1132.00
525.17	1148.91
525.53	1165.93
525.89	1182.78
526.25	1199.55
526.61	1215.91
526.97	1232.65
527.33	1249.12
527.68	1265.76
528.04	1282.38
528.40	1299.06
528.76	1316.16
529.12	1332.64
529.48	1349.59
529.84	1365.56
530.20	1382.42
530.56	1399.47
530.91	1416.97
531.27	1433.73
531.63	1450.23
531.99	1466.92
532.35	1483.07
532.71	1498.99
533.07	1515.16
533.42	1531.12
533.78	1547.44
534.14	1563.85
534.50	1579.22
534.86	1595.18
535.21	1610.36
535.57	1626.43
535.93	1642.03
536.29	1656.91
536.65	1672.14
537.00	1686.90
537.36	1702.33
537.72	1716.95
538.08	1731.40
538.44	1745.24
538.79	1759.27
539.15	1772.97
539.51	1786.70
539.87	1801.03
540.22	1814.81
540.58	1828.79
540.94	1842.35
541.29	1855.13
541.65	1867.75
542.01	1881.07
542.37	1893.51
542.72	1906.06
543.08	1917.80
543.44	1930.18
543.79	1941.47
544.15	1952.57
544.51	1964.15
544.87	1975.16
545.22	1985.81
545.58	1996.03
545.94	2005.81
546.29	2015.71
546.65	2025.55
547.01	2034.83
547.36	2043.65
547.72	2052.04
548.07	2059.99
548.43	2068.14
548.79	2076.21
549.14	2083.78
549.50	2091.11
549.86	2098.95
550.21	2106.14
550.57	2113.35
550.92	2119.88
551.28	2126.97
551.64	2134.03
551.99	2140.61
552.35	2146.69
552.70	2152.77
553.06	2158.81
553.41	2165.22
553.77	2171.20
554.13	2177.38
554.48	2183.53
554.84	2188.86
555.19	2194.31
555.55	2199.38
555.90	2203.70
556.26	2208.66
556.61	2213.46
556.97	2217.74
557.32	2221.71
557.68	2226.01
558.03	2230.31
558.39	2234.07
558.74	2238.70
559.10	2242.55
559.45	2246.23
559.81	2250.82
560.16	2254.76
560.52	2257.94
560.87	2261.44
561.23	2264.06
561.58	2266.94
561.94	2269.43
562.29	2271.77
562.64	2274.53
563.00	2277.12
563.35	2280.75
563.71	2283.89
564.06	2287.06
564.42	2289.91
564.77	2292.46
565.12	2294.69
565.48	2296.60
565.83	2298.37
566.19	2299.61
566.54	2300.61
566.89	2301.74
567.25	2302.03
567.60	2303.44
567.96	2305.07
568.31	2305.72
568.66	2306.82
569.02	2307.57
569.37	2307.89
569.72	2308.68
570.08	2308.69
570.43	2308.66
570.78	2307.92
571.14	2306.30
571.49	2304.96
571.84	2304.59
572.20	2303.21
572.55	2302.09
572.90	2300.47
573.26	2299.13
573.61	2297.40
573.96	2295.45
574.31	2292.31
574.67	2289.23
575.02	2285.39
575.37	2281.92
575.72	2278.03
576.08	2274.74
576.43	2271.22
576.78	2267.51
577.13	2264.42
577.49	2261.34
577.84	2257.80
578.19	2254.10
578.54	2250.36
578.90	2246.03
579.25	2240.38
579.60	2235.41
579.95	2230.31
580.30	2225.04
580.66	2219.65
581.01	2214.60
581.36	2209.58
581.71	2205.38
582.06	2200.91
582.42	2196.40
582.77	2191.13
583.12	2186.55
583.47	2181.66
583.82	2176.57
584.17	2171.36
584.53	2165.77
584.88	2159.85
585.23	2154.01
585.58	2148.47
585.93	2142.85
586.28	2138.04
586.63	2132.91
586.98	2127.86
587.34	2123.22
587.69	2118.50
588.04	2113.37
588.39	2107.63
588.74	2101.19
589.09	2095.00
589.44	2088.09
589.79	2082.01
590.14	2076.33
590.49	2069.57
590.84	2063.06
591.19	2057.05
591.54	2050.40
591.89	2042.91
592.25	2036.14
592.60	2028.86
592.95	2021.23
593.30	2013.96
593.65	2006.42
594.00	1999.33
594.35	1992.04
594.70	1983.79
595.05	1976.30
595.40	1968.75
595.75	1961.08
596.10	1954.72
596.45	1947.84
596.80	1941.69
597.15	1934.94
597.50	1927.82
597.85	1921.58
598.19	1914.92
598.54	1907.67
598.89	1901.06
599.24	1895.18
599.59	1888.37
599.94	1882.08
600.29	1875.66
600.64	1868.93
600.99	1861.32
601.34	1854.34
601.69	1847.30
602.04	1840.32
602.39	1833.13
602.74	1826.43
603.08	1819.87
603.43	1813.18
603.78	1805.96
604.13	1798.66
604.48	1791.38
604.83	1784.56
605.18	1777.36
605.53	1769.26
605.87	1761.23
606.22	1753.91
606.57	1745.78
606.92	1738.52
607.27	1731.28
607.62	1724.38
607.96	1717.14
608.31	1710.47
608.66	1702.91
609.01	1695.30
609.36	1687.78
609.70	1679.65
610.05	1671.55
610.40	1663.76
610.75	1655.36
611.10	1647.60
611.44	1639.28
611.79	1631.27
612.14	1622.54
612.49	1613.45
612.83	1605.15
613.18	1597.12
613.53	1589.02
613.88	1580.56
614.22	1572.33
614.57	1563.65
614.92	1555.59
615.27	1547.96
615.61	1539.68
615.96	1531.62
616.31	1523.97
616.65	1516.60
617.00	1509.10
617.35	1501.50
617.70	1493.13
618.04	1484.62
618.39	1476.50
618.74	1468.71
619.08	1460.43
619.43	1452.84
619.78	1445.95
620.12	1438.85
620.47	1431.25
620.82	1423.05
621.16	1415.69
621.51	1408.01
621.85	1400.48
622.20	1391.95
622.55	1383.60
622.89	1375.69
623.24	1368.16
623.59	1360.76
623.93	1353.19
624.28	1345.90
624.62	1338.30
624.97	1331.15
625.32	1324.37
625.66	1317.20
626.01	1310.01
626.35	1302.54
626.70	1294.84
627.04	1287.03
627.39	1279.15
627.73	1271.73
628.08	1264.84
628.43	1257.51
628.77	1250.17
629.12	1242.59
629.46	1235.32
629.81	1227.89
630.15	1220.63
630.50	1213.19
630.84	1204.99
631.19	1197.12
631.53	1189.68
631.88	1182.12
632.22	1174.51
632.57	1167.19
632.91	1159.75
633.26	1152.37
633.60	1145.02
633.95	1137.76
634.29	1130.72
634.64	1124.00
634.98	1116.63
635.32	1109.52
635.67	1102.95
636.01	1096.22
636.36	1089.47
636.70	1083.03
637.05	1076.50
637.39	1070.09
637.73	1063.64
638.08	1057.76
638.42	1051.86
638.77	1045.33
639.11	1038.65
639.45	1032.32
639.80	1025.65
640.14	1019.10
640.49	1012.60
640.83	1006.29
641.17	1000.09
641.52	993.86
641.86	987.49
642.20	981.72
642.55	975.37
642.89	968.76
643.23	962.42
643.58	956.61
643.92	950.36
644.26	944.23
644.61	938.14
644.95	932.06
645.29	925.46
645.64	918.66
645.98	912.35
646.32	906.62
646.66	900.56
647.01	894.75
647.35	889.03
647.69	883.26
648.04	877.73
648.38	872.00
648.72	865.95
649.06	859.82
649.41	853.90
649.75	847.86
650.09	842.02
650.43	836.14
650.78	830.03
651.12	824.10
651.46	818.39
651.80	812.69
652.14	807.32
652.49	801.94
652.83	796.75
653.17	791.04
653.51	785.26
653.85	779.82
654.20	774.22
654.54	768.24
654.88	762.49
655.22	756.58
655.56	750.92
655.90	745.40
656.25	740.18
656.59	734.80
656.93	729.76
657.27	724.59
657.61	719.10
657.95	714.03
658.29	708.99
658.64	703.79
658.98	698.51
659.32	693.02
659.66	687.85
660.00	682.48
660.34	677.57
660.68	672.66
661.02	667.67
661.36	662.96
661.70	658.53
662.05	654.19
662.39	649.91
662.73	645.46
663.07	641.11
663.41	636.71
663.75	632.18
664.09	627.61
664.43	623.19
664.77	619.06
665.11	614.75
665.45	610.68
665.79	606.60
666.13	602.44
666.47	598.34
666.81	594.16
667.15	590.08
667.49	586.24
667.83	582.48
668.17	578.58
668.51	574.47
668.85	570.45
669.19	566.61
669.53	562.70
669.87	558.73
670.21	555.02
670.55	551.40
670.89	548.00
671.23	544.59
671.57	541.07
671.91	537.61
672.25	534.16
672.58	530.61
672.92	527.21
673.26	524.06
673.60	520.90
673.94	517.79
674.28	514.89
674.62	511.93
674.96	508.80
675.30	505.85
675.64	502.95
675.97	500.16
676.31	497.26
676.65	494.40
676.99	491.76
677.33	488.91
677.67	486.04
678.01	483.00
678.34	479.97
678.68	477.15
679.02	474.30
679.36	471.50
679.70	468.77
680.04	466.03
680.37	463.17
680.71	460.37
681.05	457.75
681.39	455.09
681.73	452.42
682.06	449.91
682.40	447.35
682.74	444.85
683.08	442.30
683.42	439.73
683.75	437.20
684.09	434.65
684.43	432.18
684.77	429.77
685.10	427.42
685.44	425.12
685.78	422.86
686.12	420.60
686.45	418.35
686.79	415.99
687.13	413.76
687.46	411.57
687.80	409.47
688.14	407.32
688.48	405.20
688.81	402.94
689.15	400.76
689.49	398.60
689.82	396.53
690.16	394.41
690.50	392.43
690.83	390.50
691.17	388.47
691.51	386.56
691.84	384.67
692.18	382.68
692.52	380.73
692.85	378.76
693.19	376.91
693.52	375.12
693.86	373.34
694.20	371.64
694.53	369.87
694.87	368.02
695.21	366.22
695.54	364.42
695.88	362.71
696.21	360.95
696.55	359.26
696.88	357.57
697.22	355.95
697.56	354.38
697.89	352.75
698.23	351.18
698.56	349.58
698.90	347.98
699.23	346.40
699.57	344.87
699.90	343.34
700.24	341.78
700.58	340.21
700.91	338.71
701.25	337.24
701.58	335.90
701.92	334.55
702.25	333.14
702.59	331.78
702.92	330.46
703.26	329.24
703.59	328.02
703.93	326.81
704.26	325.58
704.60	324.30
704.93	323.06
705.26	321.80
705.60	320.65
705.93	319.53
706.27	318.49
706.60	317.48
706.94	316.37
707.27	315.26
707.61	314.22
707.94	313.22
708.27	312.14
708.61	311.02
708.94	310.05
709.28	309.09
709.61	308.14
709.94	307.19
710.28	306.16
710.61	305.20
710.95	304.16
711.28	303.24
711.61	302.24
711.95	301.31
712.28	300.38
712.61	299.39
712.95	298.45
713.28	297.58
713.61	296.66
713.95	295.78
714.28	294.96
714.61	294.09
714.95	293.23
715.28	292.34
715.61	291.51
715.95	290.64
716.28	289.77
716.61	288.97
716.95	288.17
717.28	287.40
717.61	286.64
717.94	285.90
718.28	285.12
718.61	284.42
718.94	283.71
719.27	283.04
719.61	282.39
719.94	281.72
720.27	281.01
720.60	280.31
720.94	279.69
721.27	279.06
721.60	278.48
721.93	277.90
722.27	277.37
722.60	276.78
722.93	276.18
723.26	275.62
723.59	275.01
723.93	274.43
724.26	273.92
724.59	273.33
724.92	272.81
725.25	272.32
725.59	271.78
725.92	271.29
726.25	270.75
726.58	270.26
726.91	269.75
727.24	269.29
727.57	268.78
727.91	268.29
728.24	267.80
728.57	267.28
728.90	266.80
729.23	266.30
729.56	265.88
729.89	265.45
730.22	264.95
730.55	264.48
730.89	264.05
731.22	263.59
731.55	263.15
731.88	262.73
732.21	262.26
732.54	261.82
732.87	261.37
733.20	260.98
733.53	260.60
733.86	260.20
734.19	259.78
734.52	259.45
734.85	259.14
735.18	258.73
735.51	258.42
735.84	258.05
736.17	257.69
736.50	257.30
736.83	257.04
737.16	256.72
737.49	256.38
737.82	256.02
738.15	255.66
738.48	255.32
738.81	254.97
739.14	254.64
739.47	254.34
739.80	254.03
740.13	253.75
740.46	253.40
740.79	253.09
741.12	252.78
741.45	252.44
741.78	252.09
742.11	251.84
742.44	251.50
742.77	251.23
743.10	250.92
743.43	250.62
743.75	250.24
744.08	250.11
744.41	249.84
744.74	249.59
745.07	249.32
745.40	249.07
745.73	248.85
746.06	248.60
746.39	248.33
746.71	248.07
747.04	247.80
747.37	247.55
747.70	247.31
748.03	247.11
748.36	246.92
748.68	246.69
749.01	246.43
749.34	246.24
749.67	246.00
750.00	245.79
750.33	245.63
750.65	245.42
750.98	245.10
751.31	244.89
751.64	244.69
751.97	244.53
752.29	244.29
752.62	244.05
752.95	243.84
753.28	243.63
753.60	243.42
753.93	243.23
754.26	243.03
754.59	242.83
754.91	242.60
755.24	242.38
755.57	242.20
755.90	242.00
756.22	241.81
756.55	241.62
756.88	241.45
757.20	241.22
757.53	241.02
757.86	240.84
758.19	240.65
758.51	240.47
758.84	240.27
759.17	240.12
759.49	240.00
759.82	239.88
760.15	239.72
760.47	239.59
760.80	239.42
761.13	239.30
761.45	239.14
761.78	238.97
762.11	238.85
762.43	238.69
762.76	238.58
763.08	238.44
763.41	238.28
763.74	238.14
764.06	237.99
764.39	237.87
764.71	237.72
765.04	237.60
765.37	237.47
765.69	237.35
766.02	237.21
766.34	237.05
766.67	236.92
767.00	236.83
767.32	236.76
767.65	236.71
767.97	236.59
768.30	236.47
768.62	236.35
768.95	236.21
769.27	236.08
769.60	235.96
769.92	235.84
770.25	235.71
770.57	235.59
770.90	235.52
771.22	235.42
771.55	235.34
771.87	235.22
772.20	235.11
772.52	235.08
772.85	235.12
773.17	234.99
773.50	234.83
773.82	234.73
774.15	234.57
774.47	234.42
774.80	234.29
775.12	234.21
775.45	234.15
775.77	234.09
776.09	234.03
776.42	233.95
776.74	233.91
777.07	233.83
777.39	233.75
777.72	233.65
778.04	233.57
778.36	233.49
778.69	233.48
779.01	233.41
779.33	233.28
779.66	233.07
779.98	233.01
780.31	233.01
780.63	232.98
780.95	232.93
781.28	232.86
781.60	232.82
781.92	232.75
782.25	232.71
782.57	232.68
782.89	232.62
783.22	232.56
783.54	232.44
783.86	232.42
784.19	232.39
784.51	232.36
784.83	232.29
785.16	232.22
785.48	232.16
785.80	232.11
786.12	232.07
786.45	232.03
786.77	232.01
787.09	231.96
