SpectraSuite Data File
++++++++++++++++++++++++++++++++++++
Date: Fri Feb 01 15:06:18 EST 2013
User: group
Dark Spectrum Present: No
Reference Spectrum Present: No
Number of Sampled Component Spectra: 1
Spectrometers: USB2E7196
Integration Time (usec): 35000 (USB2E7196)
Spectra Averaged: 100 (USB2E7196)
Boxcar Smoothing: 10 (USB2E7196)
Correct for Electrical Dark: No (USB2E7196)
Strobe/Lamp Enabled: No (USB2E7196)
Correct for Detector Non-linearity: No (USB2E7196)
Correct for Stray Light: No (USB2E7196)
Number of Pixels in Processed Spectrum: 2048
>>>>>Begin Processed Spectral Data<<<<<
339.09	0.00
339.48	215.17
339.86	216.39
340.24	218.45
340.63	219.49
341.01	222.19
341.39	222.72
341.78	224.05
342.16	224.79
342.54	225.54
342.93	213.71
343.31	224.52
343.69	225.05
344.07	225.54
344.46	225.99
344.84	226.38
345.22	226.63
345.60	226.84
345.99	227.01
346.37	227.14
346.75	227.27
347.13	227.34
347.52	227.40
347.90	227.47
348.28	227.49
348.66	227.51
349.05	227.53
349.43	227.53
349.81	227.56
350.19	227.59
350.57	227.66
350.96	227.74
351.34	227.81
351.72	227.88
352.10	227.99
352.48	228.01
352.87	228.02
353.25	228.08
353.63	228.15
354.01	228.21
354.39	228.29
354.77	228.31
355.15	228.40
355.54	228.42
355.92	228.45
356.30	228.53
356.68	228.68
357.06	228.74
357.44	228.79
357.82	228.85
358.20	228.92
358.58	228.95
358.97	228.98
359.35	229.05
359.73	229.14
360.11	229.17
360.49	229.19
360.87	229.25
361.25	229.30
361.63	229.33
362.01	229.36
362.39	229.36
362.77	229.41
363.15	229.41
363.53	229.44
363.91	229.45
364.29	229.45
364.67	229.35
365.05	229.34
365.43	229.37
365.81	229.37
366.19	229.40
366.57	229.41
366.95	229.38
367.33	229.31
367.71	229.26
368.09	229.24
368.47	229.25
368.85	229.24
369.23	229.23
369.61	229.21
369.99	229.21
370.37	229.17
370.75	229.18
371.13	229.11
371.51	229.06
371.89	229.01
372.27	228.96
372.65	228.91
373.03	228.88
373.41	228.81
373.78	228.76
374.16	228.66
374.54	228.57
374.92	228.55
375.30	228.49
375.68	228.45
376.06	228.37
376.44	228.29
376.82	228.21
377.19	228.12
377.57	228.03
377.95	227.90
378.33	227.83
378.71	227.70
379.09	227.67
379.47	227.62
379.84	227.57
380.22	227.49
380.60	227.42
380.98	227.38
381.36	227.28
381.73	227.17
382.11	227.10
382.49	227.05
382.87	226.93
383.25	226.85
383.62	226.88
384.00	226.77
384.38	226.72
384.76	226.68
385.13	226.65
385.51	226.60
385.89	226.55
386.27	226.51
386.64	226.46
387.02	226.37
387.40	226.29
387.78	226.24
388.15	226.19
388.53	226.18
388.91	226.11
389.29	226.09
389.66	226.09
390.04	226.10
390.42	226.09
390.79	226.10
391.17	226.12
391.55	226.04
391.92	226.05
392.30	226.06
392.68	226.04
393.05	226.05
393.43	226.08
393.81	226.12
394.18	226.08
394.56	226.13
394.94	226.21
395.31	226.23
395.69	226.28
396.06	226.34
396.44	226.38
396.82	226.45
397.19	226.54
397.57	226.58
397.95	226.63
398.32	226.67
398.70	226.77
399.07	226.87
399.45	226.91
399.82	227.02
400.20	227.08
400.58	227.16
400.95	227.24
401.33	227.36
401.70	227.54
402.08	227.67
402.45	227.79
402.83	227.93
403.20	228.07
403.58	228.21
403.95	228.35
404.33	228.51
404.71	228.65
405.08	228.86
405.46	229.04
405.83	229.22
406.21	229.41
406.58	229.59
406.96	229.76
407.33	229.97
407.70	230.24
408.08	230.52
408.45	230.79
408.83	231.02
409.20	231.25
409.58	231.40
409.95	231.69
410.33	231.97
410.70	232.21
411.08	232.52
411.45	232.79
411.82	233.11
412.20	233.47
412.57	233.90
412.95	234.20
413.32	234.59
413.69	234.98
414.07	235.39
414.44	235.85
414.82	236.33
415.19	236.91
415.56	237.40
415.94	237.96
416.31	238.56
416.68	239.20
417.06	239.90
417.43	240.62
417.81	241.39
418.18	242.17
418.55	243.02
418.93	243.89
419.30	244.80
419.67	245.73
420.04	246.64
420.42	247.62
420.79	248.79
421.16	249.93
421.54	251.09
421.91	252.31
422.28	253.56
422.66	254.86
423.03	256.12
423.40	257.43
423.77	258.85
424.15	260.28
424.52	261.78
424.89	263.34
425.26	264.89
425.64	266.29
426.01	267.87
426.38	269.54
426.75	271.23
427.13	272.95
427.50	274.72
427.87	276.61
428.24	278.43
428.61	280.15
428.99	282.07
429.36	284.19
429.73	286.28
430.10	288.30
430.47	290.36
430.85	292.47
431.22	294.72
431.59	297.06
431.96	299.29
432.33	301.81
432.70	304.24
433.08	307.04
433.45	309.69
433.82	312.29
434.19	315.11
434.56	317.88
434.93	320.51
435.30	323.19
435.68	326.10
436.05	328.94
436.42	331.73
436.79	334.26
437.16	336.99
437.53	339.81
437.90	342.66
438.27	345.40
438.64	348.26
439.01	350.87
439.38	353.13
439.75	355.28
440.13	357.73
440.50	360.03
440.87	361.87
441.24	363.85
441.61	366.05
441.98	367.56
442.35	369.38
442.72	371.26
443.09	373.09
443.46	374.08
443.83	374.67
444.20	375.21
444.57	376.08
444.94	376.36
445.31	376.72
445.68	377.04
446.05	377.14
446.42	376.72
446.79	376.30
447.16	375.85
447.53	375.56
447.90	374.40
448.27	373.25
448.64	371.69
449.01	370.54
449.37	368.55
449.74	366.68
450.11	364.46
450.48	362.00
450.85	359.46
451.22	357.34
451.59	355.36
451.96	353.43
452.33	350.84
452.70	348.48
453.07	345.61
453.43	342.77
453.80	339.97
454.17	337.36
454.54	334.80
454.91	332.09
455.28	329.38
455.65	326.92
456.02	324.48
456.38	322.30
456.75	319.65
457.12	317.40
457.49	315.14
457.86	312.95
458.23	311.11
458.59	309.03
458.96	306.91
459.33	305.05
459.70	303.18
460.07	301.65
460.43	299.91
460.80	298.30
461.17	296.81
461.54	295.37
461.91	293.90
462.27	292.48
462.64	291.19
463.01	289.86
463.38	288.57
463.74	287.19
464.11	286.00
464.48	284.96
464.85	283.82
465.21	282.97
465.58	282.00
465.95	280.85
466.32	279.94
466.68	279.00
467.05	278.09
467.42	277.15
467.78	276.18
468.15	275.29
468.52	274.59
468.88	273.69
469.25	272.87
469.62	272.21
469.98	271.48
470.35	270.83
470.72	270.21
471.08	269.46
471.45	268.89
471.82	268.37
472.18	267.74
472.55	267.29
472.92	266.73
473.28	266.31
473.65	265.83
474.02	265.36
474.38	265.00
474.75	264.69
475.11	264.35
475.48	264.08
475.85	263.83
476.21	263.61
476.58	263.41
476.94	263.23
477.31	263.04
477.67	262.90
478.04	262.82
478.41	262.75
478.77	262.81
479.14	262.75
479.50	262.75
479.87	262.78
480.23	262.84
480.60	262.90
480.96	262.99
481.33	263.21
481.69	263.42
482.06	263.60
482.42	263.75
482.79	264.01
483.15	264.34
483.52	264.73
483.88	265.08
484.25	265.48
484.61	265.91
484.98	266.37
485.34	266.93
485.71	267.49
486.07	268.11
486.44	268.68
486.80	269.36
487.17	270.06
487.53	270.90
487.90	271.81
488.26	272.79
488.62	273.73
488.99	274.71
489.35	275.77
489.72	276.94
490.08	278.13
490.44	279.37
490.81	280.69
491.17	282.04
491.54	283.54
491.90	285.05
492.26	286.75
492.63	288.50
492.99	290.28
493.36	292.16
493.72	294.18
494.08	296.28
494.45	298.55
494.81	300.93
495.17	303.37
495.54	305.89
495.90	308.53
496.26	311.37
496.63	314.33
496.99	317.43
497.35	320.66
497.72	324.02
498.08	327.52
498.44	331.17
498.80	335.14
499.17	339.13
499.53	343.27
499.89	347.60
500.26	352.01
500.62	356.65
500.98	361.60
501.34	366.72
501.71	372.02
502.07	377.48
502.43	383.05
502.79	388.80
503.16	394.87
503.52	401.19
503.88	407.55
504.24	414.18
504.60	421.01
504.97	428.12
505.33	435.48
505.69	443.15
506.05	450.96
506.41	458.76
506.78	466.92
507.14	475.36
507.50	484.06
507.86	493.08
508.22	502.36
508.59	511.53
508.95	521.09
509.31	530.89
509.67	540.97
510.03	551.23
510.39	561.81
510.75	572.64
511.12	583.54
511.48	594.90
511.84	606.31
512.20	617.86
512.56	629.77
512.92	642.00
513.28	654.27
513.64	666.70
514.00	679.39
514.37	692.38
514.73	705.45
515.09	718.49
515.45	731.80
515.81	745.32
516.17	759.32
516.53	773.40
516.89	787.55
517.25	801.68
517.61	816.20
517.97	830.69
518.33	845.06
518.69	859.80
519.05	874.81
519.41	890.05
519.77	905.65
520.13	921.13
520.49	936.50
520.85	952.11
521.21	967.82
521.57	984.07
521.93	999.90
522.29	1016.27
522.65	1032.51
523.01	1048.88
523.37	1065.01
523.73	1081.32
524.09	1097.52
524.45	1113.92
524.81	1130.66
525.17	1147.56
525.53	1164.51
525.89	1181.40
526.25	1198.35
526.61	1214.74
526.97	1231.54
527.33	1248.04
527.68	1264.84
528.04	1281.42
528.40	1298.02
528.76	1315.43
529.12	1332.09
529.48	1349.10
529.84	1365.23
530.20	1382.00
530.56	1399.01
530.91	1416.48
531.27	1433.21
531.63	1449.74
531.99	1466.52
532.35	1482.48
532.71	1498.40
533.07	1514.72
533.42	1530.87
533.78	1546.90
534.14	1563.20
534.50	1578.67
534.86	1594.68
535.21	1609.81
535.57	1625.88
535.93	1641.50
536.29	1656.13
536.65	1671.40
537.00	1686.16
537.36	1701.67
537.72	1716.36
538.08	1730.82
538.44	1744.76
538.79	1758.76
539.15	1772.64
539.51	1786.35
539.87	1800.85
540.22	1814.62
540.58	1828.44
540.94	1841.88
541.29	1854.99
541.65	1867.79
542.01	1881.05
542.37	1893.31
542.72	1905.79
543.08	1917.58
543.44	1930.07
543.79	1941.51
544.15	1952.47
544.51	1964.03
544.87	1975.03
545.22	1985.76
545.58	1996.14
545.94	2005.92
546.29	2015.95
546.65	2025.63
547.01	2034.83
547.36	2043.72
547.72	2052.22
548.07	2060.15
548.43	2068.35
548.79	2076.42
549.14	2084.02
549.50	2091.49
549.86	2099.42
550.21	2106.80
550.57	2114.10
550.92	2120.59
551.28	2127.67
551.64	2134.73
551.99	2141.32
552.35	2147.46
552.70	2153.59
553.06	2159.55
553.41	2165.84
553.77	2171.74
554.13	2177.96
554.48	2184.13
554.84	2189.27
555.19	2194.65
555.55	2199.77
555.90	2204.18
556.26	2208.88
556.61	2213.56
556.97	2217.49
557.32	2221.45
557.68	2225.56
558.03	2229.74
558.39	2233.55
558.74	2237.91
559.10	2241.62
559.45	2245.19
559.81	2249.53
560.16	2253.38
560.52	2256.47
560.87	2259.90
561.23	2262.44
561.58	2265.29
561.94	2267.90
562.29	2270.53
562.64	2273.20
563.00	2275.88
563.35	2279.24
563.71	2282.47
564.06	2285.67
564.42	2288.62
564.77	2291.00
565.12	2293.08
565.48	2294.88
565.83	2296.48
566.19	2297.81
566.54	2298.85
566.89	2299.96
567.25	2300.32
567.60	2301.58
567.96	2303.06
568.31	2303.74
568.66	2304.70
569.02	2305.08
569.37	2305.23
569.72	2305.75
570.08	2305.57
570.43	2305.26
570.78	2304.54
571.14	2302.78
571.49	2301.21
571.84	2300.77
572.20	2299.53
572.55	2298.53
572.90	2296.91
573.26	2295.51
573.61	2293.79
573.96	2291.82
574.31	2288.62
574.67	2285.47
575.02	2281.57
575.37	2278.21
575.72	2274.22
576.08	2270.86
576.43	2267.47
576.78	2263.68
577.13	2260.50
577.49	2257.40
577.84	2253.89
578.19	2250.18
578.54	2246.38
578.90	2241.97
579.25	2236.27
579.60	2231.12
579.95	2225.90
580.30	2220.73
580.66	2215.28
581.01	2209.98
581.36	2204.86
581.71	2200.50
582.06	2196.01
582.42	2191.53
582.77	2186.13
583.12	2181.44
583.47	2176.46
583.82	2171.35
584.17	2165.91
584.53	2160.25
584.88	2154.52
585.23	2148.50
585.58	2142.90
585.93	2137.45
586.28	2132.63
586.63	2127.42
586.98	2122.41
587.34	2117.71
587.69	2112.64
588.04	2107.32
588.39	2101.67
588.74	2095.11
589.09	2088.88
589.44	2081.93
589.79	2075.86
590.14	2070.19
590.49	2063.62
590.84	2057.22
591.19	2051.13
591.54	2044.62
591.89	2037.02
592.25	2030.04
592.60	2022.79
592.95	2015.07
593.30	2007.64
593.65	1999.97
594.00	1992.83
594.35	1985.39
594.70	1977.26
595.05	1969.85
595.40	1962.49
595.75	1954.83
596.10	1948.66
596.45	1941.82
596.80	1935.66
597.15	1928.78
597.50	1921.61
597.85	1915.09
598.19	1908.33
598.54	1901.14
598.89	1894.43
599.24	1888.61
599.59	1881.81
599.94	1875.63
600.29	1869.24
600.64	1862.54
600.99	1855.03
601.34	1848.19
601.69	1841.14
602.04	1834.02
602.39	1826.85
602.74	1820.09
603.08	1813.43
603.43	1806.65
603.78	1799.39
604.13	1792.04
604.48	1784.78
604.83	1777.83
605.18	1770.70
605.53	1762.80
605.87	1754.76
606.22	1747.43
606.57	1739.54
606.92	1732.23
607.27	1724.88
607.62	1717.90
607.96	1710.48
608.31	1703.75
608.66	1696.07
609.01	1688.65
609.36	1681.24
609.70	1673.05
610.05	1664.87
610.40	1657.04
610.75	1648.62
611.10	1640.95
611.44	1632.74
611.79	1624.85
612.14	1616.17
612.49	1607.22
612.83	1598.87
613.18	1590.79
613.53	1582.85
613.88	1574.22
614.22	1566.01
614.57	1557.59
614.92	1549.58
615.27	1542.01
615.61	1533.83
615.96	1525.89
616.31	1518.23
616.65	1510.91
617.00	1503.42
617.35	1495.90
617.70	1487.57
618.04	1479.13
618.39	1471.05
618.74	1463.47
619.08	1455.15
619.43	1447.60
619.78	1440.77
620.12	1433.57
620.47	1426.03
620.82	1417.95
621.16	1410.59
621.51	1402.96
621.85	1395.36
622.20	1386.90
622.55	1378.68
622.89	1370.81
623.24	1363.42
623.59	1356.06
623.93	1348.46
624.28	1341.21
624.62	1333.61
624.97	1326.60
625.32	1319.91
625.66	1312.78
626.01	1305.39
626.35	1297.87
626.70	1290.22
627.04	1282.33
627.39	1274.65
627.73	1267.18
628.08	1260.17
628.43	1252.85
628.77	1245.47
629.12	1237.92
629.46	1230.70
629.81	1223.34
630.15	1216.20
630.50	1208.67
630.84	1200.48
631.19	1192.71
631.53	1185.34
631.88	1177.84
632.22	1170.17
632.57	1162.86
632.91	1155.37
633.26	1148.08
633.60	1140.87
633.95	1133.83
634.29	1126.81
634.64	1120.15
634.98	1112.89
635.32	1105.82
635.67	1099.32
636.01	1092.88
636.36	1086.13
636.70	1079.74
637.05	1073.16
637.39	1066.70
637.73	1060.20
638.08	1054.46
638.42	1048.40
638.77	1041.94
639.11	1035.36
639.45	1029.10
639.80	1022.54
640.14	1016.17
640.49	1009.69
640.83	1003.47
641.17	997.22
641.52	990.98
641.86	984.59
642.20	978.78
642.55	972.58
642.89	966.08
643.23	959.51
643.58	953.74
643.92	947.48
644.26	941.38
644.61	935.41
644.95	929.38
645.29	922.72
645.64	916.02
645.98	909.72
646.32	903.94
646.66	897.94
647.01	892.12
647.35	886.41
647.69	880.64
648.04	875.09
648.38	869.30
648.72	863.33
649.06	857.25
649.41	851.42
649.75	845.24
650.09	839.34
650.43	833.55
650.78	827.31
651.12	821.44
651.46	815.83
651.80	810.02
652.14	804.68
652.49	799.28
652.83	794.11
653.17	788.40
653.51	782.68
653.85	777.24
654.20	771.56
654.54	765.61
654.88	759.84
655.22	753.97
655.56	748.25
655.90	742.83
656.25	737.58
656.59	732.23
656.93	727.24
657.27	722.11
657.61	716.73
657.95	711.72
658.29	706.69
658.64	701.50
658.98	696.24
659.32	690.79
659.66	685.62
660.00	680.37
660.34	675.47
660.68	670.64
661.02	665.65
661.36	661.00
661.70	656.51
662.05	652.17
662.39	647.93
662.73	643.55
663.07	639.13
663.41	634.70
663.75	630.20
664.09	625.66
664.43	621.37
664.77	617.19
665.11	613.03
665.45	608.93
665.79	604.84
666.13	600.76
666.47	596.68
666.81	592.54
667.15	588.46
667.49	584.58
667.83	580.77
668.17	576.83
668.51	572.77
668.85	568.75
669.19	564.88
669.53	561.02
669.87	557.13
670.21	553.41
670.55	549.80
670.89	546.43
671.23	542.99
671.57	539.46
671.91	535.97
672.25	532.45
672.58	528.93
672.92	525.53
673.26	522.44
673.60	519.37
673.94	516.30
674.28	513.42
674.62	510.44
674.96	507.32
675.30	504.39
675.64	501.52
675.97	498.79
676.31	495.97
676.65	493.03
676.99	490.36
677.33	487.58
677.67	484.81
678.01	481.78
678.34	478.84
678.68	475.97
679.02	473.17
679.36	470.42
679.70	467.68
680.04	464.97
680.37	462.07
680.71	459.25
681.05	456.62
681.39	453.88
681.73	451.26
682.06	448.72
682.40	446.23
682.74	443.72
683.08	441.20
683.42	438.59
683.75	436.10
684.09	433.57
684.43	431.10
684.77	428.60
685.10	426.31
685.44	424.01
685.78	421.77
686.12	419.52
686.45	417.25
686.79	415.00
687.13	412.81
687.46	410.63
687.80	408.49
688.14	406.33
688.48	404.29
688.81	402.05
689.15	399.93
689.49	397.86
689.82	395.78
690.16	393.70
690.50	391.81
690.83	389.90
691.17	387.94
691.51	386.04
691.84	384.20
692.18	382.23
692.52	380.29
692.85	378.35
693.19	376.53
693.52	374.76
693.86	372.96
694.20	371.19
694.53	369.43
694.87	367.62
695.21	365.83
695.54	364.03
695.88	362.32
696.21	360.66
696.55	358.96
696.88	357.28
697.22	355.61
697.56	353.97
697.89	352.31
698.23	350.72
698.56	349.14
698.90	347.61
699.23	346.01
699.57	344.47
699.90	342.93
700.24	341.36
700.58	339.79
700.91	338.30
701.25	336.88
701.58	335.54
701.92	334.20
702.25	332.81
702.59	331.45
702.92	330.12
703.26	328.80
703.59	327.52
703.93	326.34
704.26	325.14
704.60	323.86
704.93	322.56
705.26	321.33
705.60	320.21
705.93	319.08
706.27	318.03
706.60	316.98
706.94	315.94
707.27	314.84
707.61	313.81
707.94	312.77
708.27	311.71
708.61	310.66
708.94	309.69
709.28	308.76
709.61	307.82
709.94	306.91
710.28	305.87
710.61	304.90
710.95	303.84
711.28	302.94
711.61	302.04
711.95	301.15
712.28	300.21
712.61	299.17
712.95	298.19
713.28	297.37
713.61	296.49
713.95	295.58
714.28	294.77
714.61	293.91
714.95	293.10
715.28	292.20
715.61	291.34
715.95	290.49
716.28	289.60
716.61	288.77
716.95	287.93
717.28	287.25
717.61	286.50
717.94	285.76
718.28	284.97
718.61	284.20
718.94	283.52
719.27	282.86
719.61	282.25
719.94	281.60
720.27	280.85
720.60	280.20
720.94	279.56
721.27	278.94
721.60	278.37
721.93	277.78
722.27	277.27
722.60	276.69
722.93	276.09
723.26	275.57
723.59	275.01
723.93	274.47
724.26	273.90
724.59	273.34
724.92	272.81
725.25	272.32
725.59	271.83
725.92	271.32
726.25	270.81
726.58	270.32
726.91	269.83
727.24	269.36
727.57	268.85
727.91	268.33
728.24	267.85
728.57	267.36
728.90	266.84
729.23	266.31
729.56	265.87
729.89	265.43
730.22	264.92
730.55	264.48
730.89	264.03
731.22	263.57
731.55	263.15
731.88	262.72
732.21	262.25
732.54	261.80
732.87	261.39
733.20	260.98
733.53	260.58
733.86	260.17
734.19	259.76
734.52	259.39
734.85	259.12
735.18	258.72
735.51	258.36
735.84	258.04
736.17	257.69
736.50	257.28
736.83	257.04
737.16	256.73
737.49	256.36
737.82	256.00
738.15	255.66
738.48	255.29
738.81	255.01
739.14	254.69
739.47	254.39
739.80	254.06
740.13	253.78
740.46	253.43
740.79	253.11
741.12	252.81
741.45	252.51
741.78	252.12
742.11	251.84
742.44	251.51
742.77	251.23
743.10	250.92
743.43	250.64
743.75	250.26
744.08	250.11
744.41	249.85
744.74	249.60
745.07	249.32
745.40	249.10
745.73	248.84
746.06	248.59
746.39	248.35
746.71	248.12
747.04	247.82
747.37	247.59
747.70	247.39
748.03	247.18
748.36	246.98
748.68	246.76
749.01	246.51
749.34	246.30
749.67	246.05
750.00	245.87
750.33	245.71
750.65	245.47
750.98	245.11
751.31	244.92
751.64	244.72
751.97	244.58
752.29	244.36
752.62	244.12
752.95	243.91
753.28	243.69
753.60	243.45
753.93	243.32
754.26	243.17
754.59	242.95
754.91	242.72
755.24	242.48
755.57	242.31
755.90	242.11
756.22	241.94
756.55	241.75
756.88	241.54
757.20	241.34
757.53	241.18
757.86	241.03
758.19	240.86
758.51	240.68
758.84	240.47
759.17	240.29
759.49	240.13
759.82	240.03
760.15	239.86
760.47	239.74
760.80	239.56
761.13	239.38
761.45	239.23
761.78	239.11
762.11	238.94
762.43	238.82
762.76	238.72
763.08	238.55
763.41	238.44
763.74	238.31
764.06	238.16
764.39	238.02
764.71	237.89
765.04	237.76
765.37	237.64
765.69	237.51
766.02	237.41
766.34	237.30
766.67	237.12
767.00	237.02
767.32	236.95
767.65	236.85
767.97	236.74
768.30	236.60
768.62	236.47
768.95	236.38
769.27	236.25
769.60	236.13
769.92	236.00
770.25	235.90
770.57	235.79
770.90	235.69
771.22	235.58
771.55	235.48
771.87	235.38
772.20	235.25
772.52	235.23
772.85	235.22
773.17	235.12
773.50	235.01
773.82	234.89
774.15	234.76
774.47	234.63
774.80	234.52
775.12	234.45
775.45	234.36
775.77	234.30
776.09	234.21
776.42	234.12
776.74	234.09
777.07	233.98
777.39	233.87
777.72	233.80
778.04	233.75
778.36	233.63
778.69	233.55
779.01	233.51
779.33	233.36
779.66	233.18
779.98	233.12
780.31	233.07
780.63	233.05
780.95	232.98
781.28	232.89
781.60	232.82
781.92	232.75
782.25	232.67
782.57	232.61
782.89	232.55
783.22	232.48
783.54	232.38
783.86	232.30
784.19	232.26
784.51	232.19
784.83	232.10
785.16	232.06
785.48	232.01
785.80	231.97
786.12	231.93
786.45	231.87
786.77	231.84
787.09	231.81
