SpectraSuite Data File
++++++++++++++++++++++++++++++++++++
Date: Fri Feb 01 17:01:57 EST 2013
User: group
Dark Spectrum Present: No
Reference Spectrum Present: No
Number of Sampled Component Spectra: 1
Spectrometers: USB2E7196
Integration Time (usec): 35000 (USB2E7196)
Spectra Averaged: 100 (USB2E7196)
Boxcar Smoothing: 10 (USB2E7196)
Correct for Electrical Dark: No (USB2E7196)
Strobe/Lamp Enabled: No (USB2E7196)
Correct for Detector Non-linearity: No (USB2E7196)
Correct for Stray Light: No (USB2E7196)
Number of Pixels in Processed Spectrum: 2048
>>>>>Begin Processed Spectral Data<<<<<
339.09	0.00
339.48	213.39
339.86	214.78
340.24	216.08
340.63	217.04
341.01	220.16
341.39	220.65
341.78	221.32
342.16	222.83
342.54	223.25
342.93	211.73
343.31	222.43
343.69	222.95
344.07	223.43
344.46	223.88
344.84	224.28
345.22	224.51
345.60	224.76
345.99	224.98
346.37	225.14
346.75	225.26
347.13	225.33
347.52	225.36
347.90	225.46
348.28	225.52
348.66	225.54
349.05	225.54
349.43	225.59
349.81	225.62
350.19	225.67
350.57	225.69
350.96	225.76
351.34	225.83
351.72	225.93
352.10	226.00
352.48	226.05
352.87	226.10
353.25	226.20
353.63	226.23
354.01	226.27
354.39	226.33
354.77	226.40
355.15	226.48
355.54	226.53
355.92	226.53
356.30	226.58
356.68	226.77
357.06	226.84
357.44	226.87
357.82	226.94
358.20	227.00
358.58	227.09
358.97	227.15
359.35	227.23
359.73	227.26
360.11	227.34
360.49	227.38
360.87	227.44
361.25	227.51
361.63	227.58
362.01	227.64
362.39	227.65
362.77	227.70
363.15	227.74
363.53	227.78
363.91	227.83
364.29	227.85
364.67	227.76
365.05	227.78
365.43	227.84
365.81	227.86
366.19	227.90
366.57	227.93
366.95	227.96
367.33	227.95
367.71	227.98
368.09	227.94
368.47	227.95
368.85	227.93
369.23	227.89
369.61	227.84
369.99	227.82
370.37	227.80
370.75	227.79
371.13	227.74
371.51	227.69
371.89	227.64
372.27	227.61
372.65	227.55
373.03	227.50
373.41	227.45
373.78	227.37
374.16	227.26
374.54	227.20
374.92	227.11
375.30	227.03
375.68	226.92
376.06	226.90
376.44	226.82
376.82	226.77
377.19	226.69
377.57	226.64
377.95	226.56
378.33	226.50
378.71	226.38
379.09	226.34
379.47	226.31
379.84	226.24
380.22	226.19
380.60	226.11
380.98	226.05
381.36	225.97
381.73	225.90
382.11	225.86
382.49	225.76
382.87	225.70
383.25	225.68
383.62	225.76
384.00	225.65
384.38	225.62
384.76	225.58
385.13	225.57
385.51	225.53
385.89	225.45
386.27	225.41
386.64	225.40
387.02	225.35
387.40	225.28
387.78	225.27
388.15	225.22
388.53	225.20
388.91	225.15
389.29	225.11
389.66	225.11
390.04	225.08
390.42	225.05
390.79	225.03
391.17	225.00
391.55	224.87
391.92	224.90
392.30	224.88
392.68	224.84
393.05	224.82
393.43	224.80
393.81	224.82
394.18	224.80
394.56	224.79
394.94	224.81
395.31	224.80
395.69	224.81
396.06	224.85
396.44	224.88
396.82	224.90
397.19	224.98
397.57	225.02
397.95	225.06
398.32	225.07
398.70	225.14
399.07	225.19
399.45	225.27
399.82	225.30
400.20	225.35
400.58	225.41
400.95	225.45
401.33	225.55
401.70	225.71
402.08	225.78
402.45	225.85
402.83	225.96
403.20	226.05
403.58	226.12
403.95	226.19
404.33	226.30
404.71	226.43
405.08	226.60
405.46	226.70
405.83	226.81
406.21	227.00
406.58	227.12
406.96	227.28
407.33	227.45
407.70	227.62
408.08	227.87
408.45	228.08
408.83	228.28
409.20	228.50
409.58	228.64
409.95	228.95
410.33	229.21
410.70	229.42
411.08	229.72
411.45	230.06
411.82	230.39
412.20	230.74
412.57	231.14
412.95	231.40
413.32	231.82
413.69	232.21
414.07	232.63
414.44	233.09
414.82	233.55
415.19	234.09
415.56	234.67
415.94	235.22
416.31	235.84
416.68	236.49
417.06	237.19
417.43	237.87
417.81	238.61
418.18	239.39
418.55	240.25
418.93	241.15
419.30	242.03
419.67	242.96
420.04	243.94
420.42	244.93
420.79	246.13
421.16	247.28
421.54	248.54
421.91	249.75
422.28	251.03
422.66	252.37
423.03	253.67
423.40	254.99
423.77	256.38
424.15	257.84
424.52	259.32
424.89	260.92
425.26	262.49
425.64	263.91
426.01	265.49
426.38	267.17
426.75	268.86
427.13	270.57
427.50	272.41
427.87	274.27
428.24	276.11
428.61	277.86
428.99	279.79
429.36	281.84
429.73	283.88
430.10	285.88
430.47	287.95
430.85	290.04
431.22	292.26
431.59	294.64
431.96	296.87
432.33	299.35
432.70	301.73
433.08	304.50
433.45	307.15
433.82	309.76
434.19	312.57
434.56	315.31
434.93	317.97
435.30	320.54
435.68	323.41
436.05	326.21
436.42	328.95
436.79	331.45
437.16	334.11
437.53	336.90
437.90	339.69
438.27	342.38
438.64	345.15
439.01	347.72
439.38	349.93
439.75	352.03
440.13	354.48
440.50	356.78
440.87	358.61
441.24	360.55
441.61	362.68
441.98	364.16
442.35	365.97
442.72	367.81
443.09	369.58
443.46	370.58
443.83	371.21
444.20	371.74
444.57	372.54
444.94	372.84
445.31	373.19
445.68	373.56
446.05	373.66
446.42	373.31
446.79	372.91
447.16	372.45
447.53	372.11
447.90	371.00
448.27	369.84
448.64	368.29
449.01	367.14
449.37	365.17
449.74	363.30
450.11	361.08
450.48	358.61
450.85	356.12
451.22	353.97
451.59	351.94
451.96	349.99
452.33	347.45
452.70	345.12
453.07	342.33
453.43	339.42
453.80	336.67
454.17	334.05
454.54	331.49
454.91	328.84
455.28	326.25
455.65	323.73
456.02	321.32
456.38	319.19
456.75	316.56
457.12	314.34
457.49	312.16
457.86	310.00
458.23	308.15
458.59	306.11
458.96	304.08
459.33	302.23
459.70	300.39
460.07	298.85
460.43	297.14
460.80	295.51
461.17	294.10
461.54	292.63
461.91	291.16
462.27	289.78
462.64	288.50
463.01	287.15
463.38	285.89
463.74	284.56
464.11	283.40
464.48	282.43
464.85	281.35
465.21	280.49
465.58	279.59
465.95	278.52
466.32	277.62
466.68	276.73
467.05	275.88
467.42	274.99
467.78	274.10
468.15	273.23
468.52	272.59
468.88	271.75
469.25	270.96
469.62	270.40
469.98	269.73
470.35	269.16
470.72	268.56
471.08	267.93
471.45	267.39
471.82	266.87
472.18	266.28
472.55	265.84
472.92	265.33
473.28	264.86
473.65	264.42
474.02	264.01
474.38	263.65
474.75	263.32
475.11	263.00
475.48	262.78
475.85	262.57
476.21	262.40
476.58	262.20
476.94	262.08
477.31	261.93
477.67	261.78
478.04	261.65
478.41	261.66
478.77	261.69
479.14	261.62
479.50	261.64
479.87	261.71
480.23	261.81
480.60	261.90
480.96	262.02
481.33	262.28
481.69	262.52
482.06	262.70
482.42	262.90
482.79	263.14
483.15	263.48
483.52	263.85
483.88	264.17
484.25	264.61
484.61	265.05
484.98	265.51
485.34	266.13
485.71	266.74
486.07	267.31
486.44	267.84
486.80	268.56
487.17	269.31
487.53	270.08
487.90	270.96
488.26	271.86
488.62	272.89
488.99	273.81
489.35	274.85
489.72	276.01
490.08	277.25
490.44	278.52
490.81	279.83
491.17	281.20
491.54	282.67
491.90	284.17
492.26	285.84
492.63	287.55
492.99	289.25
493.36	291.13
493.72	293.15
494.08	295.26
494.45	297.49
494.81	299.79
495.17	302.20
495.54	304.73
495.90	307.41
496.26	310.15
496.63	313.18
496.99	316.25
497.35	319.45
497.72	322.83
498.08	326.30
498.44	329.94
498.80	333.85
499.17	337.89
499.53	342.05
499.89	346.38
500.26	350.86
500.62	355.52
500.98	360.42
501.34	365.43
501.71	370.79
502.07	376.21
502.43	381.79
502.79	387.52
503.16	393.54
503.52	399.73
503.88	406.06
504.24	412.57
504.60	419.43
504.97	426.53
505.33	433.75
505.69	441.40
506.05	449.15
506.41	456.93
506.78	464.99
507.14	473.33
507.50	482.02
507.86	490.98
508.22	500.08
508.59	509.20
508.95	518.67
509.31	528.33
509.67	538.28
510.03	548.50
510.39	559.02
510.75	569.68
511.12	580.46
511.48	591.64
511.84	602.95
512.20	614.24
512.56	625.99
512.92	637.99
513.28	650.13
513.64	662.46
514.00	675.01
514.37	687.78
514.73	700.65
515.09	713.32
515.45	726.39
515.81	739.80
516.17	753.52
516.53	767.47
516.89	781.51
517.25	795.52
517.61	809.79
517.97	824.09
518.33	838.27
518.69	852.88
519.05	867.64
519.41	882.53
519.77	897.80
520.13	912.95
520.49	928.12
520.85	943.29
521.21	958.64
521.57	974.55
521.93	990.05
522.29	1006.14
522.65	1022.22
523.01	1038.16
523.37	1053.85
523.73	1069.78
524.09	1085.56
524.45	1101.49
524.81	1117.80
525.17	1134.11
525.53	1150.48
525.89	1166.98
526.25	1183.45
526.61	1199.44
526.97	1215.92
527.33	1232.14
527.68	1248.46
528.04	1264.59
528.40	1280.80
528.76	1297.57
529.12	1313.89
529.48	1330.43
529.84	1346.07
530.20	1362.35
530.56	1378.93
530.91	1396.04
531.27	1412.41
531.63	1428.52
531.99	1444.71
532.35	1460.33
532.71	1475.95
533.07	1491.91
533.42	1507.48
533.78	1523.21
534.14	1539.30
534.50	1554.24
534.86	1569.77
535.21	1584.58
535.57	1600.11
535.93	1615.26
536.29	1629.75
536.65	1644.41
537.00	1658.79
537.36	1673.78
537.72	1688.00
538.08	1702.24
538.44	1715.68
538.79	1729.31
539.15	1742.60
539.51	1756.13
539.87	1770.19
540.22	1783.71
540.58	1797.15
540.94	1810.14
541.29	1822.67
541.65	1834.96
542.01	1847.90
542.37	1859.86
542.72	1872.03
543.08	1883.69
543.44	1895.89
543.79	1906.76
544.15	1917.45
544.51	1928.85
544.87	1939.60
545.22	1950.21
545.58	1960.20
545.94	1969.97
546.29	1979.59
546.65	1989.44
547.01	1998.46
547.36	2007.00
547.72	2015.27
548.07	2023.05
548.43	2031.19
548.79	2039.12
549.14	2046.50
549.50	2053.60
549.86	2061.15
550.21	2068.41
550.57	2075.53
550.92	2082.00
551.28	2089.11
551.64	2096.06
551.99	2102.45
552.35	2108.60
552.70	2114.72
553.06	2120.70
553.41	2126.98
553.77	2133.03
554.13	2138.94
554.48	2145.19
554.84	2150.76
555.19	2156.01
555.55	2161.21
555.90	2165.80
556.26	2170.68
556.61	2175.50
556.97	2179.97
557.32	2184.24
557.68	2188.35
558.03	2192.52
558.39	2196.25
558.74	2200.94
559.10	2204.93
559.45	2208.59
559.81	2212.74
560.16	2216.54
560.52	2219.82
560.87	2223.18
561.23	2225.86
561.58	2228.89
561.94	2231.41
562.29	2233.69
562.64	2236.54
563.00	2239.02
563.35	2242.47
563.71	2245.69
564.06	2248.91
564.42	2252.02
564.77	2254.51
565.12	2257.08
565.48	2259.12
565.83	2261.28
566.19	2262.74
566.54	2263.84
566.89	2265.22
567.25	2266.14
567.60	2267.54
567.96	2269.37
568.31	2270.24
568.66	2271.54
569.02	2272.23
569.37	2272.76
569.72	2273.95
570.08	2274.27
570.43	2274.73
570.78	2274.32
571.14	2272.97
571.49	2271.69
571.84	2271.42
572.20	2270.57
572.55	2269.61
572.90	2268.34
573.26	2267.15
573.61	2265.53
573.96	2264.12
574.31	2261.44
574.67	2258.69
575.02	2255.45
575.37	2252.23
575.72	2248.83
576.08	2245.57
576.43	2242.58
576.78	2239.17
577.13	2236.04
577.49	2233.07
577.84	2229.73
578.19	2226.34
578.54	2223.03
578.90	2219.24
579.25	2213.94
579.60	2209.28
579.95	2204.55
580.30	2199.69
580.66	2194.71
581.01	2189.94
581.36	2185.16
581.71	2181.20
582.06	2176.95
582.42	2172.64
582.77	2167.68
583.12	2163.35
583.47	2159.05
583.82	2154.29
584.17	2149.21
584.53	2143.92
584.88	2138.54
585.23	2133.07
585.58	2127.60
585.93	2122.41
586.28	2117.82
586.63	2113.01
586.98	2108.19
587.34	2103.58
587.69	2098.87
588.04	2093.77
588.39	2088.42
588.74	2082.11
589.09	2076.08
589.44	2069.41
589.79	2063.48
590.14	2058.02
590.49	2051.55
590.84	2045.24
591.19	2039.45
591.54	2033.17
591.89	2026.06
592.25	2019.46
592.60	2012.36
592.95	2005.10
593.30	1997.81
593.65	1990.35
594.00	1983.45
594.35	1976.24
594.70	1968.47
595.05	1961.62
595.40	1954.48
595.75	1947.02
596.10	1941.00
596.45	1934.51
596.80	1928.64
597.15	1922.27
597.50	1915.26
597.85	1908.88
598.19	1902.43
598.54	1895.43
598.89	1888.92
599.24	1883.17
599.59	1876.69
599.94	1870.61
600.29	1864.47
600.64	1858.03
600.99	1850.86
601.34	1844.15
601.69	1837.39
602.04	1830.62
602.39	1823.23
602.74	1816.59
603.08	1810.02
603.43	1803.36
603.78	1796.13
604.13	1789.01
604.48	1781.82
604.83	1775.21
605.18	1768.41
605.53	1760.65
605.87	1752.76
606.22	1745.58
606.57	1737.69
606.92	1730.38
607.27	1723.50
607.62	1716.67
607.96	1709.53
608.31	1703.03
608.66	1695.47
609.01	1687.92
609.36	1680.42
609.70	1672.48
610.05	1664.41
610.40	1656.75
610.75	1648.59
611.10	1641.02
611.44	1632.71
611.79	1624.88
612.14	1616.13
612.49	1607.03
612.83	1598.70
613.18	1590.62
613.53	1582.64
613.88	1574.14
614.22	1565.95
614.57	1557.28
614.92	1549.27
615.27	1541.74
615.61	1533.39
615.96	1525.43
616.31	1517.99
616.65	1510.69
617.00	1503.30
617.35	1495.73
617.70	1487.52
618.04	1479.04
618.39	1470.89
618.74	1463.30
619.08	1454.98
619.43	1447.43
619.78	1440.64
620.12	1433.49
620.47	1426.05
620.82	1417.91
621.16	1410.49
621.51	1402.87
621.85	1395.23
622.20	1386.76
622.55	1378.39
622.89	1370.50
623.24	1362.85
623.59	1355.42
623.93	1347.92
624.28	1340.60
624.62	1333.13
624.97	1326.04
625.32	1319.25
625.66	1312.19
626.01	1305.14
626.35	1297.74
626.70	1290.10
627.04	1282.39
627.39	1274.54
627.73	1267.06
628.08	1260.17
628.43	1253.02
628.77	1245.69
629.12	1238.19
629.46	1231.15
629.81	1223.78
630.15	1216.69
630.50	1209.36
630.84	1201.16
631.19	1193.27
631.53	1185.85
631.88	1178.39
632.22	1170.71
632.57	1163.44
632.91	1155.91
633.26	1148.47
633.60	1141.02
633.95	1133.83
634.29	1126.73
634.64	1120.13
634.98	1112.85
635.32	1105.73
635.67	1099.12
636.01	1092.56
636.36	1085.85
636.70	1079.28
637.05	1072.74
637.39	1066.26
637.73	1059.79
638.08	1053.93
638.42	1047.92
638.77	1041.54
639.11	1034.85
639.45	1028.50
639.80	1021.86
640.14	1015.53
640.49	1009.01
640.83	1002.75
641.17	996.55
641.52	990.27
641.86	983.76
642.20	977.93
642.55	971.65
642.89	965.20
643.23	958.66
643.58	952.80
643.92	946.70
644.26	940.72
644.61	934.71
644.95	928.73
645.29	922.28
645.64	915.62
645.98	909.28
646.32	903.53
646.66	897.62
647.01	891.95
647.35	886.23
647.69	880.31
648.04	874.87
648.38	869.25
648.72	863.36
649.06	857.39
649.41	851.50
649.75	845.56
650.09	839.68
650.43	833.93
650.78	827.82
651.12	821.77
651.46	816.05
651.80	810.35
652.14	804.95
652.49	799.57
652.83	794.49
653.17	788.84
653.51	783.15
653.85	777.68
654.20	771.97
654.54	766.04
654.88	760.41
655.22	754.52
655.56	748.82
655.90	743.38
656.25	738.15
656.59	732.84
656.93	727.72
657.27	722.56
657.61	717.07
657.95	712.09
658.29	707.00
658.64	701.75
658.98	696.51
659.32	691.09
659.66	685.86
660.00	680.47
660.34	675.53
660.68	670.58
661.02	665.60
661.36	660.94
661.70	656.49
662.05	652.22
662.39	647.89
662.73	643.42
663.07	639.02
663.41	634.61
663.75	630.12
664.09	625.60
664.43	621.24
664.77	617.23
665.11	612.98
665.45	608.92
665.79	604.90
666.13	600.76
666.47	596.63
666.81	592.44
667.15	588.31
667.49	584.44
667.83	580.71
668.17	576.82
668.51	572.72
668.85	568.62
669.19	564.75
669.53	560.97
669.87	557.12
670.21	553.47
670.55	549.83
670.89	546.37
671.23	542.99
671.57	539.46
671.91	535.98
672.25	532.41
672.58	528.92
672.92	525.46
673.26	522.27
673.60	519.15
673.94	516.07
674.28	513.19
674.62	510.21
674.96	507.13
675.30	504.22
675.64	501.34
675.97	498.60
676.31	495.71
676.65	492.73
676.99	490.07
677.33	487.18
677.67	484.40
678.01	481.45
678.34	478.46
678.68	475.63
679.02	472.78
679.36	470.04
679.70	467.33
680.04	464.61
680.37	461.76
680.71	458.98
681.05	456.48
681.39	453.75
681.73	451.09
682.06	448.53
682.40	446.00
682.74	443.50
683.08	440.96
683.42	438.38
683.75	435.93
684.09	433.28
684.43	430.86
684.77	428.41
685.10	426.02
685.44	423.71
685.78	421.36
686.12	419.10
686.45	416.83
686.79	414.49
687.13	412.30
687.46	410.13
687.80	407.98
688.14	405.70
688.48	403.60
688.81	401.42
689.15	399.30
689.49	397.11
689.82	395.05
690.16	392.92
690.50	390.96
690.83	389.02
691.17	387.10
691.51	385.16
691.84	383.32
692.18	381.42
692.52	379.47
692.85	377.59
693.19	375.71
693.52	373.90
693.86	372.17
694.20	370.37
694.53	368.63
694.87	366.79
695.21	365.01
695.54	363.24
695.88	361.48
696.21	359.76
696.55	358.10
696.88	356.34
697.22	354.71
697.56	353.08
697.89	351.43
698.23	349.86
698.56	348.25
698.90	346.63
699.23	345.01
699.57	343.42
699.90	341.85
700.24	340.30
700.58	338.72
700.91	337.20
701.25	335.77
701.58	334.34
701.92	332.96
702.25	331.56
702.59	330.15
702.92	328.82
703.26	327.49
703.59	326.19
703.93	324.98
704.26	323.75
704.60	322.49
704.93	321.22
705.26	319.94
705.60	318.71
705.93	317.55
706.27	316.48
706.60	315.46
706.94	314.41
707.27	313.31
707.61	312.29
707.94	311.24
708.27	310.13
708.61	309.06
708.94	308.07
709.28	307.11
709.61	306.23
709.94	305.27
710.28	304.27
710.61	303.27
710.95	302.23
711.28	301.30
711.61	300.35
711.95	299.42
712.28	298.47
712.61	297.52
712.95	296.56
713.28	295.69
713.61	294.79
713.95	293.91
714.28	293.06
714.61	292.20
714.95	291.33
715.28	290.50
715.61	289.62
715.95	288.73
716.28	287.86
716.61	286.97
716.95	286.17
717.28	285.42
717.61	284.68
717.94	283.96
718.28	283.15
718.61	282.39
718.94	281.70
719.27	281.06
719.61	280.43
719.94	279.78
720.27	279.09
720.60	278.41
720.94	277.78
721.27	277.19
721.60	276.59
721.93	276.02
722.27	275.46
722.60	274.90
722.93	274.36
723.26	273.86
723.59	273.31
723.93	272.75
724.26	272.20
724.59	271.65
724.92	271.12
725.25	270.65
725.59	270.15
725.92	269.66
726.25	269.13
726.58	268.64
726.91	268.15
727.24	267.66
727.57	267.20
727.91	266.68
728.24	266.20
728.57	265.72
728.90	265.28
729.23	264.82
729.56	264.40
729.89	263.94
730.22	263.46
730.55	262.97
730.89	262.53
731.22	262.10
731.55	261.68
731.88	261.25
732.21	260.81
732.54	260.40
732.87	259.99
733.20	259.56
733.53	259.15
733.86	258.80
734.19	258.41
734.52	258.05
734.85	257.76
735.18	257.32
735.51	256.97
735.84	256.61
736.17	256.26
736.50	255.86
736.83	255.63
737.16	255.30
737.49	255.00
737.82	254.69
738.15	254.34
738.48	254.00
738.81	253.66
739.14	253.34
739.47	253.00
739.80	252.67
740.13	252.38
740.46	252.04
740.79	251.70
741.12	251.42
741.45	251.08
741.78	250.75
742.11	250.52
742.44	250.18
742.77	249.89
743.10	249.57
743.43	249.29
743.75	248.88
744.08	248.69
744.41	248.40
744.74	248.10
745.07	247.81
745.40	247.57
745.73	247.31
746.06	247.01
746.39	246.76
746.71	246.48
747.04	246.19
747.37	245.96
747.70	245.71
748.03	245.42
748.36	245.22
748.68	244.94
749.01	244.65
749.34	244.42
749.67	244.17
750.00	243.94
750.33	243.75
750.65	243.53
750.98	243.18
751.31	242.97
751.64	242.76
751.97	242.59
752.29	242.33
752.62	242.09
752.95	241.89
753.28	241.64
753.60	241.45
753.93	241.27
754.26	241.05
754.59	240.80
754.91	240.59
755.24	240.35
755.57	240.14
755.90	239.98
756.22	239.80
756.55	239.60
756.88	239.42
757.20	239.19
757.53	238.99
757.86	238.85
758.19	238.71
758.51	238.55
758.84	238.34
759.17	238.22
759.49	238.06
759.82	237.92
760.15	237.79
760.47	237.64
760.80	237.52
761.13	237.40
761.45	237.26
761.78	237.12
762.11	237.00
762.43	236.91
762.76	236.74
763.08	236.59
763.41	236.46
763.74	236.32
764.06	236.21
764.39	236.10
764.71	235.93
765.04	235.76
765.37	235.63
765.69	235.51
766.02	235.37
766.34	235.27
766.67	235.14
767.00	235.06
767.32	235.00
767.65	234.91
767.97	234.78
768.30	234.70
768.62	234.61
768.95	234.53
769.27	234.36
769.60	234.31
769.92	234.23
770.25	234.11
770.57	233.99
770.90	233.87
771.22	233.78
771.55	233.72
771.87	233.64
772.20	233.55
772.52	233.55
772.85	233.58
773.17	233.49
773.50	233.38
773.82	233.29
774.15	233.14
774.47	233.01
774.80	232.92
775.12	232.84
775.45	232.72
775.77	232.64
776.09	232.62
776.42	232.51
776.74	232.46
777.07	232.36
777.39	232.31
777.72	232.24
778.04	232.17
778.36	232.11
778.69	232.03
779.01	232.00
779.33	231.85
779.66	231.67
779.98	231.63
780.31	231.58
780.63	231.56
780.95	231.54
781.28	231.47
781.60	231.42
781.92	231.35
782.25	231.35
782.57	231.27
782.89	231.17
783.22	231.12
783.54	231.04
783.86	230.99
784.19	230.96
784.51	230.93
784.83	230.87
785.16	230.80
785.48	230.75
785.80	230.67
786.12	230.64
786.45	230.56
786.77	230.51
787.09	230.46
