SpectraSuite Data File
++++++++++++++++++++++++++++++++++++
Date: Fri Feb 01 14:53:27 EST 2013
User: group
Dark Spectrum Present: No
Reference Spectrum Present: No
Number of Sampled Component Spectra: 1
Spectrometers: USB2E7196
Integration Time (usec): 35000 (USB2E7196)
Spectra Averaged: 100 (USB2E7196)
Boxcar Smoothing: 10 (USB2E7196)
Correct for Electrical Dark: No (USB2E7196)
Strobe/Lamp Enabled: No (USB2E7196)
Correct for Detector Non-linearity: No (USB2E7196)
Correct for Stray Light: No (USB2E7196)
Number of Pixels in Processed Spectrum: 2048
>>>>>Begin Processed Spectral Data<<<<<
339.09	0.00
339.48	215.40
339.86	216.61
340.24	218.34
340.63	219.52
341.01	221.78
341.39	221.74
341.78	223.54
342.16	224.68
342.54	225.27
342.93	213.63
343.31	224.45
343.69	224.98
344.07	225.46
344.46	225.91
344.84	226.30
345.22	226.58
345.60	226.87
345.99	227.06
346.37	227.19
346.75	227.29
347.13	227.39
347.52	227.42
347.90	227.50
348.28	227.54
348.66	227.57
349.05	227.53
349.43	227.60
349.81	227.68
350.19	227.69
350.57	227.70
350.96	227.82
351.34	227.88
351.72	227.97
352.10	228.08
352.48	228.14
352.87	228.19
353.25	228.23
353.63	228.29
354.01	228.38
354.39	228.49
354.77	228.59
355.15	228.69
355.54	228.77
355.92	228.85
356.30	228.88
356.68	229.04
357.06	229.12
357.44	229.20
357.82	229.24
358.20	229.32
358.58	229.44
358.97	229.45
359.35	229.55
359.73	229.65
360.11	229.70
360.49	229.76
360.87	229.80
361.25	229.88
361.63	229.92
362.01	229.95
362.39	229.94
362.77	229.95
363.15	229.98
363.53	230.01
363.91	230.06
364.29	230.10
364.67	229.98
365.05	230.02
365.43	230.00
365.81	229.99
366.19	230.04
366.57	230.04
366.95	230.07
367.33	229.98
367.71	229.93
368.09	229.92
368.47	229.87
368.85	229.84
369.23	229.81
369.61	229.79
369.99	229.78
370.37	229.78
370.75	229.78
371.13	229.71
371.51	229.63
371.89	229.52
372.27	229.46
372.65	229.42
373.03	229.32
373.41	229.24
373.78	229.17
374.16	229.03
374.54	228.93
374.92	228.81
375.30	228.74
375.68	228.65
376.06	228.57
376.44	228.49
376.82	228.44
377.19	228.35
377.57	228.23
377.95	228.13
378.33	228.05
378.71	227.89
379.09	227.84
379.47	227.80
379.84	227.75
380.22	227.67
380.60	227.58
380.98	227.52
381.36	227.43
381.73	227.35
382.11	227.31
382.49	227.23
382.87	227.17
383.25	227.10
383.62	227.15
384.00	227.07
384.38	227.03
384.76	226.98
385.13	226.95
385.51	226.89
385.89	226.80
386.27	226.73
386.64	226.74
387.02	226.66
387.40	226.56
387.78	226.52
388.15	226.48
388.53	226.43
388.91	226.38
389.29	226.35
389.66	226.35
390.04	226.31
390.42	226.35
390.79	226.33
391.17	226.35
391.55	226.24
391.92	226.23
392.30	226.27
392.68	226.22
393.05	226.20
393.43	226.24
393.81	226.27
394.18	226.30
394.56	226.32
394.94	226.40
395.31	226.47
395.69	226.55
396.06	226.62
396.44	226.68
396.82	226.72
397.19	226.84
397.57	226.93
397.95	227.05
398.32	227.07
398.70	227.14
399.07	227.26
399.45	227.31
399.82	227.38
400.20	227.43
400.58	227.55
400.95	227.64
401.33	227.72
401.70	227.90
402.08	228.01
402.45	228.13
402.83	228.24
403.20	228.36
403.58	228.46
403.95	228.56
404.33	228.74
404.71	228.89
405.08	229.07
405.46	229.19
405.83	229.30
406.21	229.47
406.58	229.66
406.96	229.80
407.33	230.01
407.70	230.26
408.08	230.57
408.45	230.81
408.83	231.06
409.20	231.29
409.58	231.48
409.95	231.77
410.33	232.01
410.70	232.28
411.08	232.58
411.45	232.90
411.82	233.22
412.20	233.57
412.57	233.98
412.95	234.28
413.32	234.68
413.69	235.10
414.07	235.56
414.44	236.03
414.82	236.55
415.19	237.11
415.56	237.63
415.94	238.14
416.31	238.78
416.68	239.40
417.06	240.11
417.43	240.80
417.81	241.56
418.18	242.34
418.55	243.18
418.93	244.05
419.30	244.97
419.67	245.90
420.04	246.84
420.42	247.88
420.79	249.07
421.16	250.22
421.54	251.42
421.91	252.61
422.28	253.88
422.66	255.15
423.03	256.43
423.40	257.75
423.77	259.14
424.15	260.54
424.52	262.00
424.89	263.63
425.26	265.19
425.64	266.64
426.01	268.24
426.38	269.87
426.75	271.55
427.13	273.22
427.50	274.99
427.87	276.88
428.24	278.72
428.61	280.43
428.99	282.37
429.36	284.47
429.73	286.53
430.10	288.51
430.47	290.56
430.85	292.71
431.22	295.01
431.59	297.39
431.96	299.67
432.33	302.17
432.70	304.51
433.08	307.32
433.45	309.98
433.82	312.56
434.19	315.43
434.56	318.20
434.93	320.86
435.30	323.50
435.68	326.40
436.05	329.22
436.42	332.03
436.79	334.55
437.16	337.20
437.53	340.01
437.90	342.88
438.27	345.64
438.64	348.42
439.01	350.92
439.38	353.15
439.75	355.35
440.13	357.83
440.50	360.24
440.87	362.09
441.24	364.01
441.61	366.20
441.98	367.70
442.35	369.52
442.72	371.39
443.09	373.18
443.46	374.12
443.83	374.73
444.20	375.22
444.57	376.08
444.94	376.43
445.31	376.75
445.68	377.07
446.05	377.13
446.42	376.79
446.79	376.42
447.16	376.02
447.53	375.63
447.90	374.47
448.27	373.23
448.64	371.65
449.01	370.50
449.37	368.51
449.74	366.65
450.11	364.42
450.48	361.95
450.85	359.44
451.22	357.35
451.59	355.33
451.96	353.39
452.33	350.74
452.70	348.37
453.07	345.55
453.43	342.63
453.80	339.89
454.17	337.20
454.54	334.63
454.91	331.87
455.28	329.21
455.65	326.71
456.02	324.30
456.38	322.14
456.75	319.47
457.12	317.23
457.49	314.98
457.86	312.80
458.23	310.96
458.59	308.94
458.96	306.83
459.33	304.95
459.70	303.09
460.07	301.58
460.43	299.83
460.80	298.25
461.17	296.82
461.54	295.26
461.91	293.85
462.27	292.40
462.64	291.18
463.01	289.82
463.38	288.50
463.74	287.11
464.11	285.92
464.48	284.94
464.85	283.82
465.21	282.95
465.58	281.99
465.95	280.87
466.32	279.93
466.68	279.04
467.05	278.10
467.42	277.23
467.78	276.33
468.15	275.45
468.52	274.78
468.88	273.93
469.25	273.18
469.62	272.55
469.98	271.85
470.35	271.17
470.72	270.56
471.08	269.93
471.45	269.39
471.82	268.85
472.18	268.19
472.55	267.74
472.92	267.20
473.28	266.77
473.65	266.32
474.02	265.89
474.38	265.50
474.75	265.18
475.11	264.79
475.48	264.48
475.85	264.24
476.21	263.97
476.58	263.77
476.94	263.62
477.31	263.43
477.67	263.29
478.04	263.17
478.41	263.11
478.77	263.12
479.14	263.02
479.50	263.01
479.87	263.09
480.23	263.10
480.60	263.17
480.96	263.19
481.33	263.38
481.69	263.56
482.06	263.74
482.42	263.93
482.79	264.19
483.15	264.52
483.52	264.88
483.88	265.22
484.25	265.58
484.61	266.00
484.98	266.45
485.34	267.02
485.71	267.60
486.07	268.18
486.44	268.72
486.80	269.43
487.17	270.12
487.53	270.90
487.90	271.77
488.26	272.67
488.62	273.70
488.99	274.66
489.35	275.69
489.72	276.87
490.08	278.08
490.44	279.32
490.81	280.63
491.17	281.99
491.54	283.47
491.90	285.00
492.26	286.62
492.63	288.32
492.99	290.06
493.36	291.97
493.72	294.00
494.08	296.11
494.45	298.34
494.81	300.73
495.17	303.13
495.54	305.68
495.90	308.33
496.26	311.09
496.63	314.02
496.99	317.10
497.35	320.26
497.72	323.59
498.08	327.08
498.44	330.75
498.80	334.66
499.17	338.66
499.53	342.74
499.89	347.07
500.26	351.56
500.62	356.20
500.98	361.10
501.34	366.18
501.71	371.52
502.07	376.94
502.43	382.46
502.79	388.28
503.16	394.31
503.52	400.56
503.88	406.91
504.24	413.49
504.60	420.35
504.97	427.47
505.33	434.75
505.69	442.39
506.05	450.07
506.41	457.90
506.78	466.08
507.14	474.49
507.50	483.19
507.86	492.17
508.22	501.29
508.59	510.45
508.95	519.93
509.31	529.62
509.67	539.67
510.03	549.96
510.39	560.44
510.75	571.21
511.12	582.14
511.48	593.45
511.84	604.88
512.20	616.45
512.56	628.35
512.92	640.53
513.28	652.87
513.64	665.32
514.00	678.09
514.37	690.94
514.73	704.05
515.09	717.12
515.45	730.40
515.81	743.97
516.17	757.89
516.53	772.05
516.89	786.23
517.25	800.50
517.61	814.86
517.97	829.38
518.33	843.84
518.69	858.69
519.05	873.65
519.41	888.84
519.77	904.28
520.13	919.78
520.49	935.28
520.85	950.74
521.21	966.57
521.57	982.78
521.93	998.71
522.29	1015.10
522.65	1031.34
523.01	1047.60
523.37	1063.78
523.73	1080.02
524.09	1096.28
524.45	1112.71
524.81	1129.31
525.17	1146.35
525.53	1163.33
525.89	1180.20
526.25	1196.95
526.61	1213.46
526.97	1230.25
527.33	1246.84
527.68	1263.48
528.04	1279.92
528.40	1296.57
528.76	1313.72
529.12	1330.38
529.48	1347.23
529.84	1363.42
530.20	1380.22
530.56	1397.25
530.91	1414.65
531.27	1431.55
531.63	1447.99
531.99	1464.69
532.35	1480.73
532.71	1496.65
533.07	1513.05
533.42	1529.08
533.78	1545.23
534.14	1561.56
534.50	1576.94
534.86	1592.98
535.21	1608.23
535.57	1624.36
535.93	1639.89
536.29	1654.59
536.65	1669.89
537.00	1684.80
537.36	1700.14
537.72	1714.72
538.08	1729.21
538.44	1743.04
538.79	1757.01
539.15	1770.84
539.51	1784.73
539.87	1799.14
540.22	1812.77
540.58	1826.51
540.94	1839.90
541.29	1852.88
541.65	1865.66
542.01	1878.97
542.37	1891.27
542.72	1903.75
543.08	1915.55
543.44	1928.02
543.79	1939.47
544.15	1950.28
544.51	1961.86
544.87	1972.80
545.22	1983.62
545.58	1993.85
545.94	2003.82
546.29	2013.80
546.65	2023.64
547.01	2032.72
547.36	2041.59
547.72	2050.15
548.07	2058.00
548.43	2066.18
548.79	2074.21
549.14	2081.84
549.50	2089.22
549.86	2096.92
550.21	2104.19
550.57	2111.28
550.92	2117.82
551.28	2124.91
551.64	2131.97
551.99	2138.50
552.35	2144.73
552.70	2150.83
553.06	2156.85
553.41	2163.01
553.77	2168.92
554.13	2174.78
554.48	2180.80
554.84	2186.05
555.19	2191.37
555.55	2196.43
555.90	2200.85
556.26	2205.66
556.61	2210.23
556.97	2214.37
557.32	2218.42
557.68	2222.59
558.03	2226.80
558.39	2230.39
558.74	2234.82
559.10	2238.69
559.45	2242.11
559.81	2246.30
560.16	2249.94
560.52	2252.93
560.87	2256.39
561.23	2258.91
561.58	2261.91
561.94	2264.43
562.29	2266.79
562.64	2269.28
563.00	2271.87
563.35	2275.18
563.71	2278.24
564.06	2281.25
564.42	2284.10
564.77	2286.43
565.12	2288.52
565.48	2290.28
565.83	2292.16
566.19	2293.25
566.54	2294.03
566.89	2295.17
567.25	2295.42
567.60	2296.64
567.96	2298.22
568.31	2298.69
568.66	2299.58
569.02	2299.91
569.37	2300.00
569.72	2300.53
570.08	2300.49
570.43	2300.19
570.78	2299.43
571.14	2297.70
571.49	2296.26
571.84	2295.70
572.20	2294.26
572.55	2292.98
572.90	2291.15
573.26	2289.40
573.61	2287.53
573.96	2285.48
574.31	2282.25
574.67	2279.15
575.02	2275.43
575.37	2271.88
575.72	2267.90
576.08	2264.39
576.43	2260.97
576.78	2257.08
577.13	2253.64
577.49	2250.22
577.84	2246.60
578.19	2242.72
578.54	2238.77
578.90	2234.24
579.25	2228.48
579.60	2223.54
579.95	2218.35
580.30	2213.13
580.66	2207.75
581.01	2202.64
581.36	2197.51
581.71	2193.08
582.06	2188.51
582.42	2183.78
582.77	2178.34
583.12	2173.73
583.47	2168.81
583.82	2163.59
584.17	2158.19
584.53	2152.64
584.88	2147.01
585.23	2140.90
585.58	2135.22
585.93	2129.69
586.28	2124.92
586.63	2119.81
586.98	2114.57
587.34	2109.77
587.69	2104.85
588.04	2099.51
588.39	2093.77
588.74	2087.12
589.09	2080.83
589.44	2073.83
589.79	2067.47
590.14	2061.67
590.49	2054.82
590.84	2048.21
591.19	2041.95
591.54	2035.40
591.89	2027.90
592.25	2020.86
592.60	2013.77
592.95	2006.09
593.30	1998.66
593.65	1990.70
594.00	1983.34
594.35	1975.93
594.70	1967.71
595.05	1960.44
595.40	1953.14
595.75	1945.37
596.10	1939.15
596.45	1932.26
596.80	1926.10
597.15	1919.53
597.50	1912.50
597.85	1906.06
598.19	1899.63
598.54	1892.49
598.89	1885.89
599.24	1879.96
599.59	1873.25
599.94	1866.88
600.29	1860.49
600.64	1853.79
600.99	1846.47
601.34	1839.72
601.69	1832.66
602.04	1825.67
602.39	1818.33
602.74	1811.54
603.08	1804.84
603.43	1798.12
603.78	1790.95
604.13	1783.76
604.48	1776.49
604.83	1769.60
605.18	1762.68
605.53	1754.44
605.87	1746.41
606.22	1739.14
606.57	1731.19
606.92	1723.88
607.27	1716.78
607.62	1709.93
607.96	1702.69
608.31	1696.07
608.66	1688.27
609.01	1680.75
609.36	1673.30
609.70	1665.30
610.05	1657.34
610.40	1649.78
610.75	1641.33
611.10	1633.62
611.44	1625.25
611.79	1617.34
612.14	1608.77
612.49	1599.69
612.83	1591.46
613.18	1583.46
613.53	1575.44
613.88	1567.00
614.22	1558.84
614.57	1550.28
614.92	1542.34
615.27	1534.86
615.61	1526.58
615.96	1518.79
616.31	1511.24
616.65	1503.95
617.00	1496.45
617.35	1488.62
617.70	1480.31
618.04	1472.03
618.39	1463.94
618.74	1456.46
619.08	1448.20
619.43	1440.67
619.78	1433.75
620.12	1426.69
620.47	1419.23
620.82	1411.07
621.16	1403.74
621.51	1396.18
621.85	1388.67
622.20	1380.30
622.55	1372.12
622.89	1364.37
623.24	1356.85
623.59	1349.52
623.93	1342.15
624.28	1334.98
624.62	1327.58
624.97	1320.54
625.32	1313.87
625.66	1306.91
626.01	1299.69
626.35	1292.33
626.70	1284.66
627.04	1277.14
627.39	1269.34
627.73	1261.97
628.08	1255.18
628.43	1247.93
628.77	1240.60
629.12	1233.12
629.46	1225.90
629.81	1218.44
630.15	1211.29
630.50	1203.99
630.84	1195.88
631.19	1187.91
631.53	1180.47
631.88	1172.97
632.22	1165.46
632.57	1158.26
632.91	1150.82
633.26	1143.48
633.60	1136.21
633.95	1129.17
634.29	1122.14
634.64	1115.54
634.98	1108.34
635.32	1101.27
635.67	1094.80
636.01	1088.32
636.36	1081.56
636.70	1075.12
637.05	1068.71
637.39	1062.28
637.73	1055.87
638.08	1050.22
638.42	1044.37
638.77	1038.00
639.11	1031.64
639.45	1025.25
639.80	1018.48
640.14	1012.24
640.49	1005.84
640.83	999.64
641.17	993.48
641.52	987.18
641.86	980.81
642.20	975.00
642.55	968.75
642.89	962.36
643.23	955.93
643.58	950.27
643.92	944.16
644.26	938.09
644.61	932.18
644.95	926.22
645.29	919.64
645.64	912.89
645.98	906.66
646.32	900.76
646.66	894.83
647.01	889.11
647.35	883.34
647.69	877.54
648.04	872.04
648.38	866.28
648.72	860.39
649.06	854.45
649.41	848.63
649.75	842.61
650.09	836.65
650.43	830.84
650.78	824.64
651.12	818.80
651.46	813.11
651.80	807.40
652.14	801.99
652.49	796.64
652.83	791.52
653.17	785.82
653.51	780.14
653.85	774.77
654.20	769.22
654.54	763.24
654.88	757.46
655.22	751.60
655.56	746.02
655.90	740.62
656.25	735.33
656.59	729.95
656.93	725.01
657.27	719.91
657.61	714.48
657.95	709.49
658.29	704.40
658.64	699.20
658.98	693.99
659.32	688.58
659.66	683.36
660.00	678.10
660.34	673.20
660.68	668.37
661.02	663.32
661.36	658.71
661.70	654.26
662.05	649.95
662.39	645.68
662.73	641.22
663.07	636.91
663.41	632.51
663.75	628.11
664.09	623.53
664.43	619.20
664.77	615.14
665.11	610.91
665.45	606.87
665.79	602.85
666.13	598.73
666.47	594.67
666.81	590.57
667.15	586.53
667.49	582.71
667.83	578.94
668.17	575.12
668.51	571.09
668.85	567.15
669.19	563.35
669.53	559.52
669.87	555.68
670.21	552.02
670.55	548.44
670.89	544.99
671.23	541.60
671.57	538.11
671.91	534.66
672.25	531.28
672.58	527.79
672.92	524.42
673.26	521.31
673.60	518.22
673.94	515.13
674.28	512.29
674.62	509.35
674.96	506.31
675.30	503.47
675.64	500.56
675.97	497.85
676.31	495.07
676.65	492.18
676.99	489.50
677.33	486.62
677.67	483.87
678.01	480.91
678.34	477.97
678.68	475.15
679.02	472.33
679.36	469.56
679.70	466.81
680.04	464.11
680.37	461.26
680.71	458.49
681.05	455.96
681.39	453.26
681.73	450.65
682.06	448.15
682.40	445.56
682.74	443.07
683.08	440.50
683.42	437.94
683.75	435.52
684.09	433.02
684.43	430.62
684.77	428.17
685.10	425.92
685.44	423.75
685.78	421.52
686.12	419.29
686.45	417.05
686.79	414.85
687.13	412.70
687.46	410.55
687.80	408.40
688.14	406.19
688.48	404.19
688.81	401.96
689.15	399.82
689.49	397.71
689.82	395.68
690.16	393.64
690.50	391.67
690.83	389.66
691.17	387.70
691.51	385.80
691.84	384.01
692.18	382.05
692.52	380.06
692.85	378.18
693.19	376.36
693.52	374.51
693.86	372.70
694.20	370.90
694.53	369.10
694.87	367.29
695.21	365.52
695.54	363.70
695.88	362.02
696.21	360.31
696.55	358.65
696.88	356.97
697.22	355.31
697.56	353.72
697.89	352.12
698.23	350.54
698.56	348.93
698.90	347.34
699.23	345.66
699.57	344.10
699.90	342.52
700.24	340.94
700.58	339.44
700.91	337.94
701.25	336.54
701.58	335.20
701.92	333.87
702.25	332.52
702.59	331.14
702.92	329.83
703.26	328.52
703.59	327.27
703.93	326.11
704.26	324.89
704.60	323.63
704.93	322.39
705.26	321.16
705.60	319.99
705.93	318.85
706.27	317.91
706.60	316.87
706.94	315.81
707.27	314.73
707.61	313.71
707.94	312.75
708.27	311.63
708.61	310.55
708.94	309.55
709.28	308.55
709.61	307.63
709.94	306.68
710.28	305.69
710.61	304.74
710.95	303.64
711.28	302.77
711.61	301.84
711.95	300.98
712.28	300.02
712.61	299.06
712.95	298.15
713.28	297.26
713.61	296.38
713.95	295.52
714.28	294.70
714.61	293.82
714.95	292.98
715.28	292.15
715.61	291.30
715.95	290.49
716.28	289.68
716.61	288.84
716.95	287.99
717.28	287.24
717.61	286.48
717.94	285.78
718.28	284.95
718.61	284.24
718.94	283.50
719.27	282.87
719.61	282.24
719.94	281.53
720.27	280.83
720.60	280.15
720.94	279.51
721.27	278.95
721.60	278.41
721.93	277.78
722.27	277.23
722.60	276.72
722.93	276.12
723.26	275.58
723.59	275.04
723.93	274.52
724.26	273.97
724.59	273.41
724.92	272.89
725.25	272.43
725.59	271.89
725.92	271.39
726.25	270.86
726.58	270.36
726.91	269.91
727.24	269.41
727.57	268.95
727.91	268.43
728.24	267.95
728.57	267.45
728.90	267.02
729.23	266.55
729.56	266.11
729.89	265.63
730.22	265.10
730.55	264.63
730.89	264.19
731.22	263.76
731.55	263.33
731.88	262.90
732.21	262.45
732.54	262.00
732.87	261.57
733.20	261.15
733.53	260.75
733.86	260.37
734.19	259.99
734.52	259.63
734.85	259.33
735.18	258.90
735.51	258.52
735.84	258.11
736.17	257.69
736.50	257.27
736.83	257.03
737.16	256.75
737.49	256.42
737.82	256.08
738.15	255.76
738.48	255.39
738.81	255.06
739.14	254.75
739.47	254.44
739.80	254.11
740.13	253.86
740.46	253.53
740.79	253.19
741.12	252.87
741.45	252.56
741.78	252.18
742.11	251.90
742.44	251.58
742.77	251.32
743.10	251.04
743.43	250.76
743.75	250.37
744.08	250.18
744.41	249.88
744.74	249.60
745.07	249.28
745.40	249.06
745.73	248.81
746.06	248.53
746.39	248.30
746.71	248.04
747.04	247.75
747.37	247.48
747.70	247.22
748.03	246.98
748.36	246.78
748.68	246.54
749.01	246.27
749.34	246.06
749.67	245.84
750.00	245.66
750.33	245.49
750.65	245.29
750.98	244.97
751.31	244.81
751.64	244.61
751.97	244.46
752.29	244.26
752.62	244.02
752.95	243.83
753.28	243.64
753.60	243.43
753.93	243.29
754.26	243.12
754.59	242.94
754.91	242.76
755.24	242.55
755.57	242.39
755.90	242.25
756.22	242.08
756.55	241.91
756.88	241.73
757.20	241.51
757.53	241.34
757.86	241.15
758.19	240.99
758.51	240.84
758.84	240.61
759.17	240.47
759.49	240.32
759.82	240.21
760.15	240.01
760.47	239.87
760.80	239.69
761.13	239.57
761.45	239.43
761.78	239.28
762.11	239.11
762.43	238.97
762.76	238.82
763.08	238.66
763.41	238.53
763.74	238.41
764.06	238.26
764.39	238.13
764.71	238.02
765.04	237.86
765.37	237.71
765.69	237.62
766.02	237.46
766.34	237.33
766.67	237.18
767.00	237.13
767.32	237.08
767.65	237.05
767.97	236.92
768.30	236.77
768.62	236.72
768.95	236.61
769.27	236.52
769.60	236.45
769.92	236.35
770.25	236.21
770.57	236.08
770.90	236.03
771.22	235.92
771.55	235.84
771.87	235.77
772.20	235.69
772.52	235.66
772.85	235.69
773.17	235.56
773.50	235.48
773.82	235.33
774.15	235.19
774.47	235.01
774.80	234.90
775.12	234.81
775.45	234.68
775.77	234.60
776.09	234.52
776.42	234.40
776.74	234.34
777.07	234.25
777.39	234.14
777.72	234.04
778.04	233.96
778.36	233.85
778.69	233.74
779.01	233.68
779.33	233.53
779.66	233.33
779.98	233.27
780.31	233.16
780.63	233.16
780.95	233.08
781.28	233.03
781.60	232.96
781.92	232.90
782.25	232.81
782.57	232.71
782.89	232.62
783.22	232.56
783.54	232.45
783.86	232.40
784.19	232.35
784.51	232.32
784.83	232.25
785.16	232.20
785.48	232.21
785.80	232.16
786.12	232.11
786.45	232.07
786.77	232.04
787.09	232.03
