SpectraSuite Data File
++++++++++++++++++++++++++++++++++++
Date: Fri Feb 01 17:08:33 EST 2013
User: group
Dark Spectrum Present: No
Reference Spectrum Present: No
Number of Sampled Component Spectra: 1
Spectrometers: USB2E7196
Integration Time (usec): 35000 (USB2E7196)
Spectra Averaged: 100 (USB2E7196)
Boxcar Smoothing: 10 (USB2E7196)
Correct for Electrical Dark: No (USB2E7196)
Strobe/Lamp Enabled: No (USB2E7196)
Correct for Detector Non-linearity: No (USB2E7196)
Correct for Stray Light: No (USB2E7196)
Number of Pixels in Processed Spectrum: 2048
>>>>>Begin Processed Spectral Data<<<<<
339.09	0.00
339.48	213.29
339.86	214.57
340.24	215.99
340.63	217.01
341.01	219.94
341.39	220.11
341.78	221.64
342.16	222.62
342.54	223.11
342.93	211.67
343.31	222.38
343.69	222.93
344.07	223.44
344.46	223.87
344.84	224.29
345.22	224.56
345.60	224.82
345.99	224.99
346.37	225.16
346.75	225.26
347.13	225.35
347.52	225.38
347.90	225.44
348.28	225.52
348.66	225.59
349.05	225.57
349.43	225.64
349.81	225.71
350.19	225.78
350.57	225.85
350.96	225.92
351.34	226.01
351.72	226.11
352.10	226.19
352.48	226.28
352.87	226.36
353.25	226.40
353.63	226.45
354.01	226.55
354.39	226.62
354.77	226.74
355.15	226.81
355.54	226.88
355.92	226.97
356.30	227.06
356.68	227.17
357.06	227.28
357.44	227.35
357.82	227.40
358.20	227.49
358.58	227.56
358.97	227.62
359.35	227.71
359.73	227.76
360.11	227.81
360.49	227.88
360.87	227.93
361.25	228.02
361.63	228.11
362.01	228.20
362.39	228.23
362.77	228.26
363.15	228.29
363.53	228.33
363.91	228.31
364.29	228.30
364.67	228.28
365.05	228.27
365.43	228.28
365.81	228.27
366.19	228.28
366.57	228.30
366.95	228.29
367.33	228.27
367.71	228.23
368.09	228.22
368.47	228.19
368.85	228.16
369.23	228.14
369.61	228.07
369.99	228.04
370.37	228.00
370.75	228.02
371.13	227.94
371.51	227.86
371.89	227.83
372.27	227.80
372.65	227.71
373.03	227.63
373.41	227.58
373.78	227.51
374.16	227.41
374.54	227.32
374.92	227.25
375.30	227.15
375.68	227.11
376.06	227.04
376.44	226.93
376.82	226.84
377.19	226.77
377.57	226.74
377.95	226.60
378.33	226.52
378.71	226.38
379.09	226.37
379.47	226.31
379.84	226.26
380.22	226.16
380.60	226.06
380.98	225.98
381.36	225.91
381.73	225.83
382.11	225.80
382.49	225.71
382.87	225.63
383.25	225.56
383.62	225.60
384.00	225.54
384.38	225.50
384.76	225.46
385.13	225.45
385.51	225.39
385.89	225.35
386.27	225.31
386.64	225.29
387.02	225.20
387.40	225.14
387.78	225.08
388.15	225.04
388.53	225.00
388.91	224.97
389.29	224.92
389.66	224.89
390.04	224.82
390.42	224.83
390.79	224.82
391.17	224.83
391.55	224.70
391.92	224.67
392.30	224.67
392.68	224.63
393.05	224.59
393.43	224.59
393.81	224.59
394.18	224.58
394.56	224.59
394.94	224.64
395.31	224.65
395.69	224.69
396.06	224.77
396.44	224.83
396.82	224.86
397.19	224.94
397.57	224.98
397.95	225.04
398.32	225.07
398.70	225.11
399.07	225.18
399.45	225.22
399.82	225.30
400.20	225.38
400.58	225.43
400.95	225.48
401.33	225.59
401.70	225.74
402.08	225.83
402.45	225.89
402.83	226.00
403.20	226.11
403.58	226.22
403.95	226.32
404.33	226.46
404.71	226.62
405.08	226.84
405.46	226.99
405.83	227.14
406.21	227.27
406.58	227.48
406.96	227.64
407.33	227.84
407.70	228.02
408.08	228.25
408.45	228.51
408.83	228.77
409.20	228.96
409.58	229.12
409.95	229.40
410.33	229.68
410.70	229.91
411.08	230.21
411.45	230.52
411.82	230.84
412.20	231.18
412.57	231.61
412.95	231.88
413.32	232.33
413.69	232.74
414.07	233.21
414.44	233.67
414.82	234.16
415.19	234.69
415.56	235.24
415.94	235.78
416.31	236.42
416.68	237.02
417.06	237.75
417.43	238.47
417.81	239.20
418.18	239.99
418.55	240.85
418.93	241.72
419.30	242.60
419.67	243.48
420.04	244.41
420.42	245.35
420.79	246.51
421.16	247.60
421.54	248.77
421.91	249.97
422.28	251.19
422.66	252.49
423.03	253.78
423.40	255.08
423.77	256.49
424.15	257.86
424.52	259.31
424.89	260.86
425.26	262.38
425.64	263.82
426.01	265.43
426.38	267.05
426.75	268.73
427.13	270.47
427.50	272.28
427.87	274.15
428.24	275.98
428.61	277.71
428.99	279.62
429.36	281.70
429.73	283.73
430.10	285.73
430.47	287.77
430.85	289.86
431.22	292.09
431.59	294.45
431.96	296.68
432.33	299.15
432.70	301.55
433.08	304.30
433.45	306.92
433.82	309.46
434.19	312.34
434.56	315.07
434.93	317.66
435.30	320.24
435.68	323.14
436.05	325.99
436.42	328.76
436.79	331.24
437.16	333.91
437.53	336.70
437.90	339.49
438.27	342.17
438.64	344.98
439.01	347.54
439.38	349.78
439.75	351.93
440.13	354.42
440.50	356.75
440.87	358.60
441.24	360.55
441.61	362.69
441.98	364.16
442.35	365.97
442.72	367.85
443.09	369.67
443.46	370.65
443.83	371.24
444.20	371.77
444.57	372.62
444.94	372.90
445.31	373.26
445.68	373.64
446.05	373.73
446.42	373.38
446.79	372.99
447.16	372.54
447.53	372.26
447.90	371.12
448.27	369.96
448.64	368.41
449.01	367.31
449.37	365.37
449.74	363.48
450.11	361.28
450.48	358.80
450.85	356.27
451.22	354.14
451.59	352.13
451.96	350.19
452.33	347.64
452.70	345.36
453.07	342.62
453.43	339.76
453.80	337.03
454.17	334.40
454.54	331.92
454.91	329.21
455.28	326.53
455.65	324.07
456.02	321.70
456.38	319.60
456.75	316.95
457.12	314.75
457.49	312.57
457.86	310.38
458.23	308.60
458.59	306.62
458.96	304.57
459.33	302.72
459.70	300.91
460.07	299.40
460.43	297.69
460.80	296.04
461.17	294.60
461.54	293.17
461.91	291.72
462.27	290.27
462.64	289.02
463.01	287.75
463.38	286.45
463.74	285.06
464.11	283.86
464.48	282.86
464.85	281.75
465.21	280.92
465.58	280.03
465.95	278.90
466.32	278.00
466.68	277.11
467.05	276.25
467.42	275.33
467.78	274.45
468.15	273.61
468.52	272.93
468.88	272.09
469.25	271.32
469.62	270.74
469.98	270.08
470.35	269.47
470.72	268.87
471.08	268.24
471.45	267.72
471.82	267.17
472.18	266.58
472.55	266.15
472.92	265.60
473.28	265.16
473.65	264.76
474.02	264.32
474.38	263.98
474.75	263.66
475.11	263.37
475.48	263.13
475.85	262.89
476.21	262.66
476.58	262.49
476.94	262.33
477.31	262.16
477.67	262.01
478.04	261.90
478.41	261.83
478.77	261.88
479.14	261.80
479.50	261.80
479.87	261.82
480.23	261.88
480.60	261.93
480.96	261.98
481.33	262.16
481.69	262.32
482.06	262.48
482.42	262.67
482.79	262.87
483.15	263.10
483.52	263.46
483.88	263.80
484.25	264.15
484.61	264.58
484.98	265.03
485.34	265.58
485.71	266.19
486.07	266.80
486.44	267.35
486.80	268.03
487.17	268.78
487.53	269.60
487.90	270.46
488.26	271.42
488.62	272.41
488.99	273.36
489.35	274.40
489.72	275.54
490.08	276.70
490.44	277.93
490.81	279.33
491.17	280.65
491.54	282.16
491.90	283.72
492.26	285.34
492.63	287.08
492.99	288.89
493.36	290.75
493.72	292.78
494.08	294.86
494.45	297.12
494.81	299.51
495.17	301.98
495.54	304.59
495.90	307.28
496.26	310.12
496.63	313.14
496.99	316.27
497.35	319.52
497.72	322.94
498.08	326.52
498.44	330.16
498.80	334.13
499.17	338.15
499.53	342.31
499.89	346.68
500.26	351.14
500.62	355.77
500.98	360.72
501.34	365.73
501.71	371.08
502.07	376.47
502.43	382.04
502.79	387.79
503.16	393.79
503.52	400.01
503.88	406.33
504.24	412.87
504.60	419.66
504.97	426.75
505.33	434.05
505.69	441.66
506.05	449.41
506.41	457.20
506.78	465.28
507.14	473.61
507.50	482.24
507.86	491.18
508.22	500.32
508.59	509.47
508.95	519.00
509.31	528.70
509.67	538.74
510.03	548.86
510.39	559.25
510.75	569.89
511.12	580.70
511.48	591.87
511.84	603.20
512.20	614.61
512.56	626.39
512.92	638.35
513.28	650.58
513.64	662.76
514.00	675.26
514.37	688.01
514.73	700.88
515.09	713.67
515.45	726.72
515.81	740.05
516.17	753.67
516.53	767.53
516.89	781.42
517.25	795.32
517.61	809.49
517.97	823.71
518.33	837.97
518.69	852.44
519.05	867.16
519.41	881.99
519.77	897.20
520.13	912.26
520.49	927.37
520.85	942.37
521.21	957.85
521.57	973.66
521.93	988.96
522.29	1004.96
522.65	1020.92
523.01	1036.81
523.37	1052.53
523.73	1068.36
524.09	1084.08
524.45	1099.93
524.81	1116.25
525.17	1132.61
525.53	1148.99
525.89	1165.35
526.25	1181.83
526.61	1197.70
526.97	1214.06
527.33	1230.11
527.68	1246.38
528.04	1262.39
528.40	1278.63
528.76	1295.28
529.12	1311.46
529.48	1327.99
529.84	1343.60
530.20	1359.76
530.56	1376.25
530.91	1393.14
531.27	1409.46
531.63	1425.45
531.99	1441.58
532.35	1457.03
532.71	1472.65
533.07	1488.64
533.42	1504.31
533.78	1519.87
534.14	1535.84
534.50	1550.84
534.86	1566.27
535.21	1581.05
535.57	1596.51
535.93	1611.42
536.29	1625.75
536.65	1640.44
537.00	1654.78
537.36	1669.71
537.72	1683.92
538.08	1697.98
538.44	1711.43
538.79	1725.02
539.15	1738.25
539.51	1751.75
539.87	1765.67
540.22	1778.93
540.58	1792.14
540.94	1804.87
541.29	1817.39
541.65	1829.69
542.01	1842.40
542.37	1854.44
542.72	1866.54
543.08	1878.17
543.44	1890.38
543.79	1901.40
544.15	1912.14
544.51	1923.60
544.87	1934.34
545.22	1944.96
545.58	1954.92
545.94	1964.59
546.29	1974.27
546.65	1984.11
547.01	1993.35
547.36	2002.00
547.72	2010.44
548.07	2018.34
548.43	2026.57
548.79	2034.57
549.14	2042.03
549.50	2049.37
549.86	2056.97
550.21	2064.30
550.57	2071.37
550.92	2077.98
551.28	2084.97
551.64	2092.04
551.99	2098.53
552.35	2104.81
552.70	2110.84
553.06	2116.98
553.41	2123.30
553.77	2129.33
554.13	2135.24
554.48	2141.20
554.84	2146.84
555.19	2152.05
555.55	2157.25
555.90	2161.66
556.26	2166.76
556.61	2171.52
556.97	2175.98
557.32	2180.21
557.68	2184.37
558.03	2188.68
558.39	2192.22
558.74	2196.92
559.10	2200.79
559.45	2204.34
559.81	2208.50
560.16	2212.32
560.52	2215.61
560.87	2218.90
561.23	2221.51
561.58	2224.55
561.94	2227.14
562.29	2229.47
562.64	2232.32
563.00	2234.96
563.35	2238.53
563.71	2241.42
564.06	2244.75
564.42	2247.70
564.77	2250.37
565.12	2252.87
565.48	2254.98
565.83	2257.24
566.19	2258.67
566.54	2259.72
566.89	2261.11
567.25	2261.93
567.60	2263.29
567.96	2265.18
568.31	2266.17
568.66	2267.58
569.02	2268.44
569.37	2268.76
569.72	2269.84
570.08	2270.30
570.43	2270.52
570.78	2270.22
571.14	2268.91
571.49	2267.63
571.84	2267.44
572.20	2266.46
572.55	2265.46
572.90	2263.92
573.26	2262.70
573.61	2261.20
573.96	2259.82
574.31	2257.08
574.67	2254.38
575.02	2251.14
575.37	2247.77
575.72	2244.43
576.08	2241.25
576.43	2237.90
576.78	2234.75
577.13	2231.69
577.49	2228.56
577.84	2225.33
578.19	2221.77
578.54	2218.46
578.90	2214.71
579.25	2209.42
579.60	2204.80
579.95	2200.07
580.30	2195.28
580.66	2190.20
581.01	2185.36
581.36	2180.53
581.71	2176.69
582.06	2172.45
582.42	2168.37
582.77	2163.52
583.12	2159.18
583.47	2154.75
583.82	2150.14
584.17	2145.19
584.53	2140.00
584.88	2134.67
585.23	2129.23
585.58	2123.94
585.93	2118.69
586.28	2114.00
586.63	2109.29
586.98	2104.39
587.34	2099.91
587.69	2095.31
588.04	2090.44
588.39	2085.15
588.74	2078.93
589.09	2072.94
589.44	2066.35
589.79	2060.41
590.14	2055.01
590.49	2048.52
590.84	2042.10
591.19	2036.32
591.54	2029.97
591.89	2022.86
592.25	2016.43
592.60	2009.34
592.95	2002.15
593.30	1995.00
593.65	1987.62
594.00	1980.59
594.35	1973.59
594.70	1965.69
595.05	1958.85
595.40	1951.71
595.75	1944.38
596.10	1938.40
596.45	1931.98
596.80	1926.06
597.15	1919.69
597.50	1912.81
597.85	1906.49
598.19	1900.17
598.54	1893.43
598.89	1886.93
599.24	1881.05
599.59	1874.49
599.94	1868.53
600.29	1862.37
600.64	1855.99
600.99	1848.68
601.34	1842.09
601.69	1835.09
602.04	1828.54
602.39	1821.32
602.74	1814.71
603.08	1808.21
603.43	1801.67
603.78	1794.36
604.13	1787.23
604.48	1779.97
604.83	1773.12
605.18	1766.51
605.53	1758.77
605.87	1750.78
606.22	1743.67
606.57	1735.92
606.92	1728.64
607.27	1721.47
607.62	1714.56
607.96	1707.44
608.31	1701.15
608.66	1693.60
609.01	1686.29
609.36	1678.70
609.70	1670.76
610.05	1662.61
610.40	1654.87
610.75	1646.47
611.10	1638.92
611.44	1630.49
611.79	1622.53
612.14	1614.12
612.49	1604.97
612.83	1596.67
613.18	1588.60
613.53	1580.54
613.88	1572.07
614.22	1563.85
614.57	1555.31
614.92	1547.45
615.27	1540.00
615.61	1531.70
615.96	1523.68
616.31	1516.06
616.65	1508.76
617.00	1501.22
617.35	1493.69
617.70	1485.46
618.04	1477.17
618.39	1468.90
618.74	1461.47
619.08	1453.27
619.43	1445.62
619.78	1438.75
620.12	1431.61
620.47	1424.17
620.82	1416.00
621.16	1408.58
621.51	1400.94
621.85	1393.39
622.20	1384.88
622.55	1376.52
622.89	1368.66
623.24	1361.09
623.59	1353.71
623.93	1346.30
624.28	1339.21
624.62	1331.78
624.97	1324.67
625.32	1317.89
625.66	1310.97
626.01	1303.72
626.35	1296.45
626.70	1288.68
627.04	1280.90
627.39	1273.07
627.73	1265.61
628.08	1258.83
628.43	1251.82
628.77	1244.60
629.12	1237.13
629.46	1230.03
629.81	1222.54
630.15	1215.40
630.50	1208.09
630.84	1199.99
631.19	1191.95
631.53	1184.34
631.88	1176.81
632.22	1169.27
632.57	1162.01
632.91	1154.46
633.26	1147.15
633.60	1139.78
633.95	1132.66
634.29	1125.71
634.64	1119.11
634.98	1111.93
635.32	1104.88
635.67	1098.10
636.01	1091.47
636.36	1084.77
636.70	1078.25
637.05	1071.70
637.39	1065.18
637.73	1058.75
638.08	1052.85
638.42	1046.92
638.77	1040.54
639.11	1034.08
639.45	1027.74
639.80	1021.06
640.14	1014.82
640.49	1008.47
640.83	1002.15
641.17	996.09
641.52	989.86
641.86	983.40
642.20	977.53
642.55	971.14
642.89	964.77
643.23	958.17
643.58	952.42
643.92	946.26
644.26	940.41
644.61	934.36
644.95	928.37
645.29	921.87
645.64	915.16
645.98	908.87
646.32	902.98
646.66	896.87
647.01	891.17
647.35	885.46
647.69	879.54
648.04	873.98
648.38	868.21
648.72	862.23
649.06	856.33
649.41	850.53
649.75	844.59
650.09	838.68
650.43	833.01
650.78	826.84
651.12	820.92
651.46	815.14
651.80	809.51
652.14	804.13
652.49	798.79
652.83	793.68
653.17	788.10
653.51	782.37
653.85	777.00
654.20	771.44
654.54	765.42
654.88	759.68
655.22	753.89
655.56	748.22
655.90	742.75
656.25	737.53
656.59	732.14
656.93	727.11
657.27	721.99
657.61	716.58
657.95	711.53
658.29	706.44
658.64	701.19
658.98	695.87
659.32	690.42
659.66	685.24
660.00	680.00
660.34	675.00
660.68	670.10
661.02	665.20
661.36	660.46
661.70	655.99
662.05	651.70
662.39	647.36
662.73	642.91
663.07	638.56
663.41	634.11
663.75	629.62
664.09	625.08
664.43	620.68
664.77	616.62
665.11	612.39
665.45	608.30
665.79	604.29
666.13	600.20
666.47	596.13
666.81	592.04
667.15	587.84
667.49	583.94
667.83	580.18
668.17	576.26
668.51	572.23
668.85	568.21
669.19	564.40
669.53	560.62
669.87	556.78
670.21	553.08
670.55	549.46
670.89	546.13
671.23	542.74
671.57	539.27
671.91	535.75
672.25	532.17
672.58	528.68
672.92	525.23
673.26	522.11
673.60	518.95
673.94	515.85
674.28	513.00
674.62	510.14
674.96	507.04
675.30	504.13
675.64	501.22
675.97	498.47
676.31	495.57
676.65	492.64
676.99	489.97
677.33	487.14
677.67	484.34
678.01	481.22
678.34	478.28
678.68	475.39
679.02	472.59
679.36	469.88
679.70	467.16
680.04	464.50
680.37	461.62
680.71	458.90
681.05	456.26
681.39	453.57
681.73	450.93
682.06	448.39
682.40	445.91
682.74	443.35
683.08	440.78
683.42	438.24
683.75	435.78
684.09	433.23
684.43	430.78
684.77	428.35
685.10	426.02
685.44	423.72
685.78	421.43
686.12	419.17
686.45	416.90
686.79	414.61
687.13	412.36
687.46	410.21
687.80	407.99
688.14	405.81
688.48	403.73
688.81	401.52
689.15	399.41
689.49	397.24
689.82	395.22
690.16	393.11
690.50	391.12
690.83	389.18
691.17	387.14
691.51	385.24
691.84	383.39
692.18	381.54
692.52	379.56
692.85	377.65
693.19	375.81
693.52	373.97
693.86	372.13
694.20	370.33
694.53	368.56
694.87	366.75
695.21	364.98
695.54	363.14
695.88	361.39
696.21	359.66
696.55	357.96
696.88	356.23
697.22	354.61
697.56	352.98
697.89	351.30
698.23	349.71
698.56	348.11
698.90	346.50
699.23	344.83
699.57	343.31
699.90	341.77
700.24	340.22
700.58	338.65
700.91	337.22
701.25	335.79
701.58	334.43
701.92	333.07
702.25	331.69
702.59	330.31
702.92	328.99
703.26	327.64
703.59	326.35
703.93	325.18
704.26	323.92
704.60	322.61
704.93	321.37
705.26	320.11
705.60	318.90
705.93	317.69
706.27	316.65
706.60	315.56
706.94	314.46
707.27	313.30
707.61	312.25
707.94	311.19
708.27	310.11
708.61	308.97
708.94	307.96
709.28	306.98
709.61	306.05
709.94	305.10
710.28	304.12
710.61	303.13
710.95	302.03
711.28	301.09
711.61	300.19
711.95	299.26
712.28	298.34
712.61	297.36
712.95	296.47
713.28	295.61
713.61	294.71
713.95	293.82
714.28	292.97
714.61	292.14
714.95	291.31
715.28	290.45
715.61	289.57
715.95	288.72
716.28	287.83
716.61	286.96
716.95	286.11
717.28	285.31
717.61	284.57
717.94	283.88
718.28	283.10
718.61	282.37
718.94	281.67
719.27	281.06
719.61	280.44
719.94	279.79
720.27	279.05
720.60	278.42
720.94	277.79
721.27	277.22
721.60	276.66
721.93	276.07
722.27	275.55
722.60	275.05
722.93	274.47
723.26	273.94
723.59	273.40
723.93	272.87
724.26	272.35
724.59	271.78
724.92	271.27
725.25	270.78
725.59	270.27
725.92	269.79
726.25	269.26
726.58	268.76
726.91	268.29
727.24	267.80
727.57	267.32
727.91	266.82
728.24	266.35
728.57	265.86
728.90	265.43
729.23	264.90
729.56	264.45
729.89	263.99
730.22	263.52
730.55	263.05
730.89	262.61
731.22	262.16
731.55	261.73
731.88	261.29
732.21	260.85
732.54	260.42
732.87	259.97
733.20	259.54
733.53	259.14
733.86	258.74
734.19	258.34
734.52	257.94
734.85	257.67
735.18	257.22
735.51	256.83
735.84	256.40
736.17	256.08
736.50	255.66
736.83	255.44
737.16	255.12
737.49	254.79
737.82	254.45
738.15	254.09
738.48	253.79
738.81	253.43
739.14	253.09
739.47	252.78
739.80	252.47
740.13	252.17
740.46	251.85
740.79	251.53
741.12	251.24
741.45	250.96
741.78	250.54
742.11	250.31
742.44	249.97
742.77	249.69
743.10	249.33
743.43	249.05
743.75	248.64
744.08	248.46
744.41	248.15
744.74	247.85
745.07	247.59
745.40	247.28
745.73	247.04
746.06	246.74
746.39	246.48
746.71	246.19
747.04	245.91
747.37	245.64
747.70	245.37
748.03	245.13
748.36	244.90
748.68	244.66
749.01	244.38
749.34	244.15
749.67	243.90
750.00	243.75
750.33	243.56
750.65	243.35
750.98	243.03
751.31	242.87
751.64	242.67
751.97	242.51
752.29	242.32
752.62	242.06
752.95	241.86
753.28	241.64
753.60	241.45
753.93	241.26
754.26	241.06
754.59	240.85
754.91	240.60
755.24	240.41
755.57	240.24
755.90	240.09
756.22	239.90
756.55	239.69
756.88	239.46
757.20	239.23
757.53	239.04
757.86	238.88
758.19	238.71
758.51	238.54
758.84	238.34
759.17	238.18
759.49	238.04
759.82	237.94
760.15	237.79
760.47	237.67
760.80	237.52
761.13	237.38
761.45	237.24
761.78	237.11
762.11	236.98
762.43	236.84
762.76	236.70
763.08	236.63
763.41	236.56
763.74	236.45
764.06	236.36
764.39	236.22
764.71	236.10
765.04	235.93
765.37	235.80
765.69	235.69
766.02	235.57
766.34	235.45
766.67	235.33
767.00	235.23
767.32	235.16
767.65	235.09
767.97	235.01
768.30	234.92
768.62	234.82
768.95	234.68
769.27	234.57
769.60	234.46
769.92	234.34
770.25	234.19
770.57	234.09
770.90	233.96
771.22	233.89
771.55	233.80
771.87	233.72
772.20	233.66
772.52	233.65
772.85	233.67
773.17	233.60
773.50	233.49
773.82	233.38
774.15	233.27
774.47	233.11
774.80	233.00
775.12	232.89
775.45	232.79
775.77	232.71
776.09	232.65
776.42	232.54
776.74	232.49
777.07	232.40
777.39	232.31
777.72	232.22
778.04	232.16
778.36	232.02
778.69	231.98
779.01	231.91
779.33	231.76
779.66	231.59
779.98	231.46
780.31	231.38
780.63	231.38
780.95	231.28
781.28	231.24
781.60	231.17
781.92	231.10
782.25	231.08
782.57	231.05
782.89	230.94
783.22	230.88
783.54	230.76
783.86	230.72
784.19	230.67
784.51	230.65
784.83	230.56
785.16	230.55
785.48	230.47
785.80	230.37
786.12	230.30
786.45	230.23
786.77	230.23
787.09	230.19
