SpectraSuite Data File
++++++++++++++++++++++++++++++++++++
Date: Fri Feb 01 15:05:20 EST 2013
User: group
Dark Spectrum Present: No
Reference Spectrum Present: No
Number of Sampled Component Spectra: 1
Spectrometers: USB2E7196
Integration Time (usec): 35000 (USB2E7196)
Spectra Averaged: 100 (USB2E7196)
Boxcar Smoothing: 10 (USB2E7196)
Correct for Electrical Dark: No (USB2E7196)
Strobe/Lamp Enabled: No (USB2E7196)
Correct for Detector Non-linearity: No (USB2E7196)
Correct for Stray Light: No (USB2E7196)
Number of Pixels in Processed Spectrum: 2048
>>>>>Begin Processed Spectral Data<<<<<
339.09	0.00
339.48	215.34
339.86	216.55
340.24	217.91
340.63	219.59
341.01	222.55
341.39	222.06
341.78	223.37
342.16	224.46
342.54	225.89
342.93	213.56
343.31	224.34
343.69	224.90
344.07	225.40
344.46	225.85
344.84	226.20
345.22	226.43
345.60	226.70
345.99	226.89
346.37	227.04
346.75	227.11
347.13	227.20
347.52	227.27
347.90	227.32
348.28	227.37
348.66	227.41
349.05	227.41
349.43	227.45
349.81	227.45
350.19	227.52
350.57	227.59
350.96	227.67
351.34	227.79
351.72	227.83
352.10	227.91
352.48	227.96
352.87	228.04
353.25	228.08
353.63	228.14
354.01	228.21
354.39	228.28
354.77	228.34
355.15	228.42
355.54	228.47
355.92	228.52
356.30	228.55
356.68	228.69
357.06	228.75
357.44	228.81
357.82	228.88
358.20	228.92
358.58	228.96
358.97	228.99
359.35	229.05
359.73	229.12
360.11	229.18
360.49	229.18
360.87	229.22
361.25	229.29
361.63	229.31
362.01	229.34
362.39	229.34
362.77	229.35
363.15	229.38
363.53	229.41
363.91	229.43
364.29	229.48
364.67	229.34
365.05	229.32
365.43	229.31
365.81	229.35
366.19	229.38
366.57	229.42
366.95	229.38
367.33	229.32
367.71	229.31
368.09	229.30
368.47	229.30
368.85	229.27
369.23	229.24
369.61	229.20
369.99	229.22
370.37	229.18
370.75	229.19
371.13	229.11
371.51	229.04
371.89	228.96
372.27	228.94
372.65	228.92
373.03	228.92
373.41	228.88
373.78	228.77
374.16	228.65
374.54	228.56
374.92	228.51
375.30	228.45
375.68	228.37
376.06	228.27
376.44	228.22
376.82	228.18
377.19	228.09
377.57	228.02
377.95	227.90
378.33	227.86
378.71	227.73
379.09	227.71
379.47	227.65
379.84	227.58
380.22	227.47
380.60	227.37
380.98	227.27
381.36	227.21
381.73	227.18
382.11	227.14
382.49	227.09
382.87	227.02
383.25	226.94
383.62	226.98
384.00	226.93
384.38	226.84
384.76	226.82
385.13	226.81
385.51	226.76
385.89	226.71
386.27	226.66
386.64	226.62
387.02	226.56
387.40	226.54
387.78	226.51
388.15	226.49
388.53	226.46
388.91	226.41
389.29	226.35
389.66	226.34
390.04	226.32
390.42	226.31
390.79	226.31
391.17	226.31
391.55	226.23
391.92	226.24
392.30	226.25
392.68	226.18
393.05	226.18
393.43	226.18
393.81	226.19
394.18	226.20
394.56	226.25
394.94	226.33
395.31	226.35
395.69	226.41
396.06	226.47
396.44	226.52
396.82	226.60
397.19	226.72
397.57	226.75
397.95	226.83
398.32	226.86
398.70	226.95
399.07	227.02
399.45	227.08
399.82	227.14
400.20	227.23
400.58	227.32
400.95	227.39
401.33	227.51
401.70	227.69
402.08	227.80
402.45	227.88
402.83	227.97
403.20	228.12
403.58	228.24
403.95	228.37
404.33	228.50
404.71	228.63
405.08	228.84
405.46	228.99
405.83	229.15
406.21	229.29
406.58	229.48
406.96	229.65
407.33	229.82
407.70	230.04
408.08	230.35
408.45	230.58
408.83	230.82
409.20	231.04
409.58	231.24
409.95	231.49
410.33	231.76
410.70	232.04
411.08	232.30
411.45	232.59
411.82	232.89
412.20	233.24
412.57	233.65
412.95	233.93
413.32	234.36
413.69	234.75
414.07	235.21
414.44	235.67
414.82	236.15
415.19	236.73
415.56	237.26
415.94	237.78
416.31	238.42
416.68	239.08
417.06	239.81
417.43	240.47
417.81	241.25
418.18	242.03
418.55	242.84
418.93	243.73
419.30	244.64
419.67	245.56
420.04	246.54
420.42	247.52
420.79	248.70
421.16	249.83
421.54	251.02
421.91	252.20
422.28	253.47
422.66	254.82
423.03	256.14
423.40	257.44
423.77	258.87
424.15	260.31
424.52	261.76
424.89	263.34
425.26	264.89
425.64	266.35
426.01	267.96
426.38	269.62
426.75	271.29
427.13	273.01
427.50	274.82
427.87	276.74
428.24	278.62
428.61	280.34
428.99	282.31
429.36	284.45
429.73	286.55
430.10	288.53
430.47	290.60
430.85	292.72
431.22	294.97
431.59	297.35
431.96	299.59
432.33	302.11
432.70	304.52
433.08	307.35
433.45	310.03
433.82	312.63
434.19	315.53
434.56	318.36
434.93	321.05
435.30	323.68
435.68	326.57
436.05	329.42
436.42	332.25
436.79	334.75
437.16	337.45
437.53	340.26
437.90	343.08
438.27	345.84
438.64	348.61
439.01	351.26
439.38	353.47
439.75	355.63
440.13	358.12
440.50	360.45
440.87	362.35
441.24	364.28
441.61	366.44
441.98	367.93
442.35	369.68
442.72	371.51
443.09	373.35
443.46	374.32
443.83	374.90
444.20	375.39
444.57	376.25
444.94	376.51
445.31	376.82
445.68	377.16
446.05	377.20
446.42	376.86
446.79	376.43
447.16	375.99
447.53	375.65
447.90	374.46
448.27	373.27
448.64	371.64
449.01	370.47
449.37	368.45
449.74	366.50
450.11	364.30
450.48	361.85
450.85	359.31
451.22	357.14
451.59	355.09
451.96	353.15
452.33	350.54
452.70	348.17
453.07	345.39
453.43	342.51
453.80	339.73
454.17	337.05
454.54	334.49
454.91	331.77
455.28	329.10
455.65	326.61
456.02	324.19
456.38	322.00
456.75	319.31
457.12	317.10
457.49	314.93
457.86	312.75
458.23	310.85
458.59	308.77
458.96	306.65
459.33	304.81
459.70	302.90
460.07	301.35
460.43	299.58
460.80	297.93
461.17	296.48
461.54	295.01
461.91	293.57
462.27	292.09
462.64	290.82
463.01	289.50
463.38	288.20
463.74	286.77
464.11	285.60
464.48	284.56
464.85	283.42
465.21	282.50
465.58	281.57
465.95	280.50
466.32	279.62
466.68	278.74
467.05	277.87
467.42	276.97
467.78	276.03
468.15	275.15
468.52	274.47
468.88	273.60
469.25	272.79
469.62	272.18
469.98	271.48
470.35	270.83
470.72	270.22
471.08	269.54
471.45	269.05
471.82	268.52
472.18	267.95
472.55	267.51
472.92	267.02
473.28	266.55
473.65	266.10
474.02	265.64
474.38	265.27
474.75	264.91
475.11	264.58
475.48	264.36
475.85	264.16
476.21	263.94
476.58	263.78
476.94	263.62
477.31	263.42
477.67	263.27
478.04	263.13
478.41	263.08
478.77	263.13
479.14	263.06
479.50	263.02
479.87	263.12
480.23	263.19
480.60	263.23
480.96	263.30
481.33	263.48
481.69	263.69
482.06	263.87
482.42	264.06
482.79	264.31
483.15	264.62
483.52	264.99
483.88	265.34
484.25	265.69
484.61	266.11
484.98	266.57
485.34	267.13
485.71	267.76
486.07	268.33
486.44	268.86
486.80	269.60
487.17	270.35
487.53	271.13
487.90	271.98
488.26	272.92
488.62	273.89
488.99	274.85
489.35	275.84
489.72	276.97
490.08	278.15
490.44	279.39
490.81	280.71
491.17	282.06
491.54	283.51
491.90	285.04
492.26	286.67
492.63	288.40
492.99	290.15
493.36	292.04
493.72	294.07
494.08	296.19
494.45	298.36
494.81	300.70
495.17	303.11
495.54	305.65
495.90	308.29
496.26	311.07
496.63	314.01
496.99	317.11
497.35	320.33
497.72	323.73
498.08	327.25
498.44	330.90
498.80	334.76
499.17	338.79
499.53	342.95
499.89	347.30
500.26	351.81
500.62	356.49
500.98	361.43
501.34	366.54
501.71	371.81
502.07	377.23
502.43	382.74
502.79	388.51
503.16	394.56
503.52	400.83
503.88	407.24
504.24	413.92
504.60	420.80
504.97	427.89
505.33	435.20
505.69	442.80
506.05	450.52
506.41	458.40
506.78	466.50
507.14	474.90
507.50	483.61
507.86	492.55
508.22	501.74
508.59	510.88
508.95	520.41
509.31	530.23
509.67	540.33
510.03	550.66
510.39	561.28
510.75	572.08
511.12	583.05
511.48	594.32
511.84	605.75
512.20	617.26
512.56	629.25
512.92	641.46
513.28	653.83
513.64	666.27
514.00	679.00
514.37	691.94
514.73	704.98
515.09	718.11
515.45	731.43
515.81	745.00
516.17	758.96
516.53	773.09
516.89	787.25
517.25	801.42
517.61	815.92
517.97	830.34
518.33	844.74
518.69	859.50
519.05	874.60
519.41	889.73
519.77	905.30
520.13	920.80
520.49	936.14
520.85	951.63
521.21	967.45
521.57	983.75
521.93	999.57
522.29	1016.12
522.65	1032.34
523.01	1048.63
523.37	1064.75
523.73	1080.99
524.09	1097.09
524.45	1113.52
524.81	1130.27
525.17	1147.13
525.53	1164.19
525.89	1181.15
526.25	1198.08
526.61	1214.50
526.97	1231.31
527.33	1247.81
527.68	1264.43
528.04	1281.08
528.40	1297.86
528.76	1315.02
529.12	1331.67
529.48	1348.73
529.84	1364.77
530.20	1381.49
530.56	1398.63
530.91	1416.10
531.27	1432.98
531.63	1449.58
531.99	1466.24
532.35	1482.21
532.71	1498.27
533.07	1514.53
533.42	1530.56
533.78	1546.61
534.14	1562.98
534.50	1578.41
534.86	1594.51
535.21	1609.76
535.57	1625.80
535.93	1641.45
536.29	1656.36
536.65	1671.43
537.00	1686.36
537.36	1701.81
537.72	1716.47
538.08	1730.86
538.44	1744.65
538.79	1758.66
539.15	1772.56
539.51	1786.36
539.87	1800.79
540.22	1814.54
540.58	1828.52
540.94	1841.98
541.29	1854.99
541.65	1867.63
542.01	1881.14
542.37	1893.36
542.72	1905.94
543.08	1917.59
543.44	1929.98
543.79	1941.11
544.15	1952.26
544.51	1963.67
544.87	1974.66
545.22	1985.42
545.58	1995.73
545.94	2005.62
546.29	2015.51
546.65	2025.26
547.01	2034.52
547.36	2043.40
547.72	2051.83
548.07	2059.62
548.43	2067.76
548.79	2075.75
549.14	2083.44
549.50	2090.62
549.86	2098.46
550.21	2105.79
550.57	2113.09
550.92	2119.68
551.28	2126.85
551.64	2133.82
551.99	2140.48
552.35	2146.60
552.70	2152.76
553.06	2158.80
553.41	2165.12
553.77	2171.08
554.13	2177.13
554.48	2183.18
554.84	2188.53
555.19	2193.78
555.55	2198.86
555.90	2203.39
556.26	2208.28
556.61	2212.95
556.97	2217.15
557.32	2221.15
557.68	2225.21
558.03	2229.52
558.39	2233.15
558.74	2237.80
559.10	2241.51
559.45	2245.09
559.81	2249.39
560.16	2253.13
560.52	2256.16
560.87	2259.58
561.23	2262.30
561.58	2265.19
561.94	2267.74
562.29	2269.99
562.64	2272.65
563.00	2275.28
563.35	2278.61
563.71	2281.63
564.06	2284.83
564.42	2287.73
564.77	2290.17
565.12	2292.34
565.48	2294.06
565.83	2295.83
566.19	2296.90
566.54	2297.99
566.89	2299.12
567.25	2299.42
567.60	2300.64
567.96	2302.39
568.31	2303.17
568.66	2303.97
569.02	2304.46
569.37	2304.66
569.72	2305.38
570.08	2305.26
570.43	2305.04
570.78	2304.29
571.14	2302.70
571.49	2301.15
571.84	2300.62
572.20	2299.32
572.55	2298.20
572.90	2296.57
573.26	2295.12
573.61	2293.32
573.96	2291.40
574.31	2288.17
574.67	2285.19
575.02	2281.48
575.37	2277.91
575.72	2273.84
576.08	2270.70
576.43	2267.29
576.78	2263.52
577.13	2260.37
577.49	2257.31
577.84	2253.85
578.19	2250.03
578.54	2246.29
578.90	2241.92
579.25	2236.28
579.60	2231.21
579.95	2226.05
580.30	2220.93
580.66	2215.55
581.01	2210.47
581.36	2205.39
581.71	2201.10
582.06	2196.51
582.42	2191.95
582.77	2186.54
583.12	2181.85
583.47	2176.76
583.82	2171.58
584.17	2166.24
584.53	2160.66
584.88	2154.95
585.23	2148.93
585.58	2143.31
585.93	2137.72
586.28	2132.79
586.63	2127.43
586.98	2122.25
587.34	2117.44
587.69	2112.34
588.04	2107.00
588.39	2101.20
588.74	2094.60
589.09	2088.41
589.44	2081.44
589.79	2075.33
590.14	2069.60
590.49	2062.98
590.84	2056.49
591.19	2050.37
591.54	2043.76
591.89	2036.14
592.25	2029.10
592.60	2021.90
592.95	2014.14
593.30	2006.65
593.65	1999.03
594.00	1992.02
594.35	1984.67
594.70	1976.44
595.05	1969.06
595.40	1961.62
595.75	1954.05
596.10	1947.57
596.45	1940.61
596.80	1934.44
597.15	1927.74
597.50	1920.46
597.85	1914.04
598.19	1907.29
598.54	1900.18
598.89	1893.52
599.24	1887.64
599.59	1881.07
599.94	1874.87
600.29	1868.61
600.64	1862.18
600.99	1854.71
601.34	1847.83
601.69	1840.86
602.04	1833.87
602.39	1826.56
602.74	1819.62
603.08	1812.91
603.43	1806.39
603.78	1799.26
604.13	1792.01
604.48	1784.62
604.83	1777.86
605.18	1770.75
605.53	1762.82
605.87	1754.81
606.22	1747.52
606.57	1739.62
606.92	1732.32
607.27	1725.04
607.62	1718.01
607.96	1710.57
608.31	1703.94
608.66	1696.37
609.01	1688.78
609.36	1681.34
609.70	1673.39
610.05	1665.34
610.40	1657.66
610.75	1649.21
611.10	1641.50
611.44	1633.17
611.79	1625.29
612.14	1616.62
612.49	1607.66
612.83	1599.35
613.18	1591.22
613.53	1583.21
613.88	1574.68
614.22	1566.37
614.57	1557.82
614.92	1549.88
615.27	1542.26
615.61	1533.94
615.96	1525.94
616.31	1518.35
616.65	1511.04
617.00	1503.45
617.35	1495.89
617.70	1487.53
618.04	1479.09
618.39	1470.85
618.74	1463.28
619.08	1454.96
619.43	1447.44
619.78	1440.44
620.12	1433.18
620.47	1425.64
620.82	1417.48
621.16	1410.10
621.51	1402.43
621.85	1394.89
622.20	1386.41
622.55	1378.13
622.89	1370.26
623.24	1362.70
623.59	1355.37
623.93	1347.90
624.28	1340.74
624.62	1333.09
624.97	1325.92
625.32	1319.19
625.66	1312.17
626.01	1304.91
626.35	1297.39
626.70	1289.68
627.04	1281.88
627.39	1274.13
627.73	1266.80
628.08	1259.89
628.43	1252.55
628.77	1245.23
629.12	1237.58
629.46	1230.46
629.81	1223.17
630.15	1216.05
630.50	1208.65
630.84	1200.51
631.19	1192.64
631.53	1185.19
631.88	1177.72
632.22	1170.15
632.57	1162.85
632.91	1155.35
633.26	1148.04
633.60	1140.81
633.95	1133.75
634.29	1126.84
634.64	1120.23
634.98	1112.90
635.32	1105.79
635.67	1099.26
636.01	1092.65
636.36	1085.92
636.70	1079.47
637.05	1072.90
637.39	1066.50
637.73	1060.08
638.08	1054.21
638.42	1048.16
638.77	1041.81
639.11	1035.40
639.45	1029.06
639.80	1022.43
640.14	1015.98
640.49	1009.37
640.83	1003.06
641.17	996.89
641.52	990.58
641.86	984.18
642.20	978.35
642.55	972.06
642.89	965.62
643.23	959.11
643.58	953.28
643.92	947.09
644.26	941.02
644.61	934.98
644.95	928.85
645.29	922.28
645.64	915.56
645.98	909.20
646.32	903.37
646.66	897.46
647.01	891.67
647.35	885.99
647.69	880.31
648.04	874.80
648.38	868.98
648.72	862.93
649.06	856.90
649.41	850.98
649.75	845.05
650.09	839.08
650.43	833.25
650.78	827.19
651.12	821.20
651.46	815.49
651.80	809.69
652.14	804.36
652.49	799.01
652.83	793.92
653.17	788.19
653.51	782.41
653.85	777.05
654.20	771.41
654.54	765.47
654.88	759.71
655.22	753.89
655.56	748.31
655.90	742.92
656.25	737.71
656.59	732.37
656.93	727.30
657.27	722.13
657.61	716.78
657.95	711.69
658.29	706.67
658.64	701.50
658.98	696.33
659.32	690.90
659.66	685.74
660.00	680.46
660.34	675.61
660.68	670.77
661.02	665.70
661.36	661.11
661.70	656.68
662.05	652.37
662.39	648.06
662.73	643.57
663.07	639.22
663.41	634.75
663.75	630.31
664.09	625.76
664.43	621.41
664.77	617.33
665.11	613.14
665.45	609.09
665.79	605.01
666.13	600.84
666.47	596.81
666.81	592.69
667.15	588.58
667.49	584.69
667.83	580.93
668.17	577.03
668.51	572.97
668.85	568.95
669.19	565.12
669.53	561.25
669.87	557.40
670.21	553.72
670.55	550.14
670.89	546.75
671.23	543.30
671.57	539.80
671.91	536.28
672.25	532.80
672.58	529.31
672.92	525.95
673.26	522.81
673.60	519.68
673.94	516.58
674.28	513.65
674.62	510.75
674.96	507.62
675.30	504.68
675.64	501.78
675.97	499.04
676.31	496.24
676.65	493.34
676.99	490.63
677.33	487.79
677.67	484.97
678.01	481.92
678.34	478.95
678.68	476.10
679.02	473.27
679.36	470.53
679.70	467.78
680.04	464.97
680.37	462.06
680.71	459.23
681.05	456.65
681.39	453.97
681.73	451.34
682.06	448.88
682.40	446.36
682.74	443.81
683.08	441.27
683.42	438.61
683.75	436.17
684.09	433.63
684.43	431.18
684.77	428.75
685.10	426.49
685.44	424.26
685.78	422.01
686.12	419.83
686.45	417.55
686.79	415.26
687.13	413.11
687.46	411.02
687.80	408.92
688.14	406.72
688.48	404.66
688.81	402.43
689.15	400.27
689.49	398.18
689.82	396.13
690.16	394.09
690.50	392.18
690.83	390.21
691.17	388.27
691.51	386.39
691.84	384.57
692.18	382.57
692.52	380.59
692.85	378.68
693.19	376.82
693.52	375.04
693.86	373.26
694.20	371.49
694.53	369.70
694.87	367.90
695.21	366.12
695.54	364.33
695.88	362.56
696.21	360.85
696.55	359.17
696.88	357.47
697.22	355.82
697.56	354.17
697.89	352.51
698.23	350.88
698.56	349.31
698.90	347.69
699.23	346.07
699.57	344.56
699.90	343.02
700.24	341.42
700.58	339.86
700.91	338.36
701.25	336.89
701.58	335.53
701.92	334.15
702.25	332.76
702.59	331.38
702.92	330.08
703.26	328.74
703.59	327.48
703.93	326.30
704.26	325.08
704.60	323.79
704.93	322.56
705.26	321.34
705.60	320.17
705.93	319.03
706.27	318.03
706.60	317.02
706.94	315.96
707.27	314.90
707.61	313.82
707.94	312.77
708.27	311.71
708.61	310.65
708.94	309.66
709.28	308.69
709.61	307.77
709.94	306.84
710.28	305.86
710.61	304.89
710.95	303.82
711.28	302.92
711.61	302.01
711.95	301.10
712.28	300.17
712.61	299.14
712.95	298.21
713.28	297.31
713.61	296.34
713.95	295.44
714.28	294.57
714.61	293.74
714.95	292.91
715.28	292.05
715.61	291.16
715.95	290.27
716.28	289.40
716.61	288.52
716.95	287.68
717.28	286.91
717.61	286.14
717.94	285.41
718.28	284.58
718.61	283.85
718.94	283.14
719.27	282.46
719.61	281.83
719.94	281.14
720.27	280.43
720.60	279.78
720.94	279.14
721.27	278.52
721.60	277.89
721.93	277.31
722.27	276.78
722.60	276.22
722.93	275.65
723.26	275.15
723.59	274.61
723.93	274.09
724.26	273.55
724.59	272.99
724.92	272.48
725.25	271.98
725.59	271.44
725.92	270.93
726.25	270.42
726.58	269.92
726.91	269.45
727.24	268.98
727.57	268.54
727.91	268.05
728.24	267.60
728.57	267.13
728.90	266.69
729.23	266.18
729.56	265.78
729.89	265.35
730.22	264.85
730.55	264.39
730.89	263.94
731.22	263.49
731.55	263.09
731.88	262.65
732.21	262.22
732.54	261.82
732.87	261.41
733.20	261.03
733.53	260.65
733.86	260.29
734.19	259.89
734.52	259.49
734.85	259.20
735.18	258.82
735.51	258.47
735.84	258.07
736.17	257.72
736.50	257.29
736.83	257.04
737.16	256.69
737.49	256.37
737.82	256.02
738.15	255.68
738.48	255.33
738.81	254.99
739.14	254.71
739.47	254.40
739.80	254.07
740.13	253.79
740.46	253.47
740.79	253.13
741.12	252.83
741.45	252.51
741.78	252.15
742.11	251.86
742.44	251.55
742.77	251.26
743.10	250.97
743.43	250.69
743.75	250.32
744.08	250.20
744.41	249.92
744.74	249.66
745.07	249.37
745.40	249.13
745.73	248.92
746.06	248.58
746.39	248.30
746.71	248.06
747.04	247.80
747.37	247.54
747.70	247.28
748.03	247.02
748.36	246.78
748.68	246.58
749.01	246.32
749.34	246.08
749.67	245.82
750.00	245.61
750.33	245.44
750.65	245.24
750.98	244.86
751.31	244.66
751.64	244.43
751.97	244.28
752.29	244.05
752.62	243.77
752.95	243.57
753.28	243.37
753.60	243.17
753.93	243.01
754.26	242.81
754.59	242.59
754.91	242.37
755.24	242.18
755.57	241.97
755.90	241.81
756.22	241.59
756.55	241.40
756.88	241.18
757.20	240.94
757.53	240.74
757.86	240.55
758.19	240.36
758.51	240.21
758.84	239.99
759.17	239.83
759.49	239.70
759.82	239.58
760.15	239.43
760.47	239.27
760.80	239.06
761.13	238.94
761.45	238.82
761.78	238.71
762.11	238.59
762.43	238.45
762.76	238.28
763.08	238.18
763.41	238.09
763.74	237.99
764.06	237.87
764.39	237.75
764.71	237.63
765.04	237.50
765.37	237.37
765.69	237.25
766.02	237.12
766.34	236.98
766.67	236.84
767.00	236.74
767.32	236.68
767.65	236.60
767.97	236.49
768.30	236.37
768.62	236.23
768.95	236.12
769.27	235.97
769.60	235.90
769.92	235.79
770.25	235.67
770.57	235.58
770.90	235.45
771.22	235.38
771.55	235.30
771.87	235.20
772.20	235.10
772.52	235.11
772.85	235.13
773.17	235.04
773.50	234.94
773.82	234.83
774.15	234.71
774.47	234.59
774.80	234.45
775.12	234.38
775.45	234.30
775.77	234.23
776.09	234.19
776.42	234.12
776.74	234.07
777.07	233.99
777.39	233.92
777.72	233.88
778.04	233.82
778.36	233.77
778.69	233.74
779.01	233.71
779.33	233.54
779.66	233.38
779.98	233.33
780.31	233.30
780.63	233.29
780.95	233.20
781.28	233.13
781.60	233.11
781.92	233.04
782.25	233.00
782.57	232.92
782.89	232.85
783.22	232.77
783.54	232.73
783.86	232.66
784.19	232.57
784.51	232.52
784.83	232.47
785.16	232.42
785.48	232.34
785.80	232.25
786.12	232.21
786.45	232.16
786.77	232.09
787.09	232.04
