SpectraSuite Data File
++++++++++++++++++++++++++++++++++++
Date: Fri Feb 01 17:43:36 EST 2013
User: group
Dark Spectrum Present: No
Reference Spectrum Present: No
Number of Sampled Component Spectra: 1
Spectrometers: USB2E7196
Integration Time (usec): 35000 (USB2E7196)
Spectra Averaged: 100 (USB2E7196)
Boxcar Smoothing: 10 (USB2E7196)
Correct for Electrical Dark: No (USB2E7196)
Strobe/Lamp Enabled: No (USB2E7196)
Correct for Detector Non-linearity: No (USB2E7196)
Correct for Stray Light: No (USB2E7196)
Number of Pixels in Processed Spectrum: 2048
>>>>>Begin Processed Spectral Data<<<<<
339.09	0.00
339.48	212.94
339.86	214.16
340.24	215.51
340.63	216.59
341.01	220.10
341.39	219.47
341.78	220.78
342.16	221.72
342.54	222.25
342.93	211.12
343.31	221.81
343.69	222.35
344.07	222.81
344.46	223.24
344.84	223.61
345.22	223.83
345.60	224.09
345.99	224.26
346.37	224.40
346.75	224.51
347.13	224.54
347.52	224.60
347.90	224.64
348.28	224.65
348.66	224.69
349.05	224.64
349.43	224.68
349.81	224.69
350.19	224.72
350.57	224.75
350.96	224.81
351.34	224.88
351.72	224.91
352.10	225.00
352.48	225.04
352.87	225.10
353.25	225.17
353.63	225.22
354.01	225.26
354.39	225.31
354.77	225.38
355.15	225.48
355.54	225.56
355.92	225.60
356.30	225.66
356.68	225.80
357.06	225.90
357.44	225.97
357.82	226.06
358.20	226.15
358.58	226.24
358.97	226.28
359.35	226.35
359.73	226.46
360.11	226.51
360.49	226.59
360.87	226.66
361.25	226.71
361.63	226.77
362.01	226.86
362.39	226.92
362.77	226.95
363.15	226.99
363.53	227.01
363.91	227.03
364.29	227.05
364.67	226.98
365.05	227.02
365.43	227.05
365.81	227.11
366.19	227.14
366.57	227.20
366.95	227.24
367.33	227.24
367.71	227.27
368.09	227.28
368.47	227.28
368.85	227.29
369.23	227.29
369.61	227.27
369.99	227.30
370.37	227.32
370.75	227.38
371.13	227.35
371.51	227.33
371.89	227.31
372.27	227.30
372.65	227.25
373.03	227.19
373.41	227.14
373.78	227.08
374.16	226.98
374.54	226.88
374.92	226.81
375.30	226.76
375.68	226.67
376.06	226.65
376.44	226.60
376.82	226.54
377.19	226.47
377.57	226.42
377.95	226.34
378.33	226.25
378.71	226.12
379.09	226.08
379.47	226.00
379.84	225.96
380.22	225.90
380.60	225.85
380.98	225.79
381.36	225.72
381.73	225.63
382.11	225.59
382.49	225.56
382.87	225.49
383.25	225.44
383.62	225.51
384.00	225.44
384.38	225.36
384.76	225.31
385.13	225.32
385.51	225.26
385.89	225.17
386.27	225.13
386.64	225.11
387.02	225.04
387.40	225.03
387.78	224.97
388.15	224.92
388.53	224.83
388.91	224.79
389.29	224.78
389.66	224.76
390.04	224.71
390.42	224.69
390.79	224.70
391.17	224.64
391.55	224.51
391.92	224.49
392.30	224.49
392.68	224.48
393.05	224.45
393.43	224.42
393.81	224.43
394.18	224.43
394.56	224.43
394.94	224.45
395.31	224.37
395.69	224.42
396.06	224.45
396.44	224.52
396.82	224.53
397.19	224.59
397.57	224.61
397.95	224.65
398.32	224.65
398.70	224.64
399.07	224.74
399.45	224.77
399.82	224.80
400.20	224.84
400.58	224.86
400.95	224.85
401.33	224.94
401.70	225.07
402.08	225.13
402.45	225.23
402.83	225.32
403.20	225.48
403.58	225.56
403.95	225.71
404.33	225.84
404.71	225.99
405.08	226.18
405.46	226.32
405.83	226.48
406.21	226.64
406.58	226.84
406.96	226.99
407.33	227.21
407.70	227.46
408.08	227.77
408.45	228.03
408.83	228.36
409.20	228.64
409.58	228.87
409.95	229.18
410.33	229.46
410.70	229.80
411.08	230.15
411.45	230.52
411.82	230.88
412.20	231.32
412.57	231.79
412.95	232.15
413.32	232.63
413.69	233.11
414.07	233.64
414.44	234.23
414.82	234.80
415.19	235.44
415.56	236.07
415.94	236.73
416.31	237.48
416.68	238.20
417.06	239.06
417.43	239.86
417.81	240.77
418.18	241.72
418.55	242.72
418.93	243.74
419.30	244.83
419.67	245.94
420.04	247.12
420.42	248.31
420.79	249.76
421.16	251.17
421.54	252.64
421.91	254.10
422.28	255.63
422.66	257.25
423.03	258.81
423.40	260.45
423.77	262.17
424.15	263.96
424.52	265.75
424.89	267.73
425.26	269.65
425.64	271.43
426.01	273.38
426.38	275.40
426.75	277.46
427.13	279.54
427.50	281.76
427.87	284.02
428.24	286.29
428.61	288.40
428.99	290.77
429.36	293.32
429.73	295.85
430.10	298.28
430.47	300.78
430.85	303.37
431.22	306.10
431.59	308.96
431.96	311.69
432.33	314.70
432.70	317.56
433.08	320.98
433.45	324.20
433.82	327.34
434.19	330.84
434.56	334.26
434.93	337.47
435.30	340.66
435.68	344.17
436.05	347.62
436.42	351.02
436.79	354.05
437.16	357.29
437.53	360.74
437.90	364.15
438.27	367.45
438.64	370.89
439.01	374.05
439.38	376.81
439.75	379.41
440.13	382.46
440.50	385.26
440.87	387.49
441.24	389.83
441.61	392.53
441.98	394.37
442.35	396.58
442.72	398.90
443.09	401.13
443.46	402.32
443.83	403.04
444.20	403.63
444.57	404.65
444.94	405.06
445.31	405.51
445.68	405.95
446.05	406.11
446.42	405.70
446.79	405.18
447.16	404.64
447.53	404.30
447.90	402.92
448.27	401.58
448.64	399.66
449.01	398.28
449.37	395.82
449.74	393.54
450.11	390.79
450.48	387.79
450.85	384.69
451.22	382.14
451.59	379.72
451.96	377.43
452.33	374.35
452.70	371.46
453.07	368.03
453.43	364.55
453.80	361.19
454.17	357.94
454.54	354.86
454.91	351.55
455.28	348.26
455.65	345.22
456.02	342.19
456.38	339.53
456.75	336.31
457.12	333.59
457.49	330.84
457.86	328.24
458.23	325.98
458.59	323.50
458.96	320.91
459.33	318.64
459.70	316.32
460.07	314.42
460.43	312.33
460.80	310.35
461.17	308.54
461.54	306.65
461.91	304.87
462.27	303.08
462.64	301.53
463.01	299.91
463.38	298.34
463.74	296.68
464.11	295.32
464.48	294.09
464.85	292.73
465.21	291.64
465.58	290.45
465.95	289.08
466.32	287.93
466.68	286.87
467.05	285.74
467.42	284.67
467.78	283.54
468.15	282.48
468.52	281.65
468.88	280.60
469.25	279.68
469.62	278.92
469.98	278.09
470.35	277.35
470.72	276.58
471.08	275.77
471.45	275.07
471.82	274.40
472.18	273.64
472.55	273.10
472.92	272.46
473.28	271.91
473.65	271.34
474.02	270.81
474.38	270.29
474.75	269.89
475.11	269.43
475.48	269.08
475.85	268.77
476.21	268.43
476.58	268.19
476.94	268.03
477.31	267.78
477.67	267.57
478.04	267.34
478.41	267.24
478.77	267.24
479.14	267.15
479.50	267.07
479.87	267.10
480.23	267.17
480.60	267.23
480.96	267.26
481.33	267.47
481.69	267.62
482.06	267.83
482.42	267.99
482.79	268.20
483.15	268.44
483.52	268.80
483.88	269.12
484.25	269.48
484.61	269.86
484.98	270.30
485.34	270.85
485.71	271.47
486.07	272.05
486.44	272.58
486.80	273.29
487.17	274.04
487.53	274.85
487.90	275.68
488.26	276.60
488.62	277.62
488.99	278.60
489.35	279.67
489.72	280.80
490.08	282.02
490.44	283.29
490.81	284.68
491.17	286.06
491.54	287.59
491.90	289.13
492.26	290.85
492.63	292.62
492.99	294.44
493.36	296.34
493.72	298.42
494.08	300.61
494.45	302.93
494.81	305.35
495.17	307.86
495.54	310.48
495.90	313.24
496.26	316.13
496.63	319.19
496.99	322.39
497.35	325.68
497.72	329.20
498.08	332.81
498.44	336.62
498.80	340.63
499.17	344.79
499.53	349.09
499.89	353.57
500.26	358.18
500.62	362.97
500.98	368.13
501.34	373.40
501.71	378.86
502.07	384.43
502.43	390.25
502.79	396.26
503.16	402.55
503.52	409.04
503.88	415.62
504.24	422.42
504.60	429.50
504.97	436.93
505.33	444.51
505.69	452.49
506.05	460.45
506.41	468.62
506.78	477.01
507.14	485.78
507.50	494.82
507.86	504.14
508.22	513.65
508.59	523.11
508.95	532.94
509.31	543.00
509.67	553.40
510.03	563.97
510.39	574.84
510.75	585.91
511.12	597.15
511.48	608.77
511.84	620.58
512.20	632.49
512.56	644.71
512.92	657.25
513.28	669.94
513.64	682.84
514.00	695.96
514.37	709.31
514.73	722.79
515.09	736.18
515.45	749.96
515.81	763.99
516.17	778.41
516.53	792.97
516.89	807.80
517.25	822.50
517.61	837.49
517.97	852.47
518.33	867.50
518.69	882.90
519.05	898.43
519.41	914.11
519.77	930.16
520.13	946.32
520.49	962.38
520.85	978.41
521.21	994.75
521.57	1011.53
521.93	1027.99
522.29	1045.04
522.65	1061.93
523.01	1078.74
523.37	1095.43
523.73	1112.34
524.09	1129.33
524.45	1146.29
524.81	1163.73
525.17	1181.20
525.53	1198.87
525.89	1216.62
526.25	1234.27
526.61	1251.55
526.97	1269.14
527.33	1286.59
527.68	1303.95
528.04	1321.12
528.40	1338.51
528.76	1356.47
529.12	1374.06
529.48	1391.90
529.84	1408.73
530.20	1426.32
530.56	1444.19
530.91	1462.59
531.27	1480.34
531.63	1497.62
531.99	1515.20
532.35	1532.23
532.71	1549.23
533.07	1566.52
533.42	1583.48
533.78	1600.53
534.14	1617.80
534.50	1634.27
534.86	1651.15
535.21	1667.54
535.57	1684.68
535.93	1701.29
536.29	1717.11
536.65	1733.30
537.00	1749.09
537.36	1765.73
537.72	1781.44
538.08	1797.24
538.44	1812.28
538.79	1827.38
539.15	1842.12
539.51	1857.02
539.87	1872.49
540.22	1887.29
540.58	1902.34
540.94	1916.69
541.29	1930.64
541.65	1944.54
542.01	1958.94
542.37	1972.63
542.72	1986.15
543.08	1999.33
543.44	2013.14
543.79	2025.76
544.15	2037.92
544.51	2050.85
544.87	2063.01
545.22	2075.19
545.58	2086.58
545.94	2097.57
546.29	2108.79
546.65	2120.10
547.01	2130.75
547.36	2140.78
547.72	2150.75
548.07	2159.90
548.43	2169.36
548.79	2178.49
549.14	2187.47
549.50	2196.00
549.86	2204.82
550.21	2213.37
550.57	2221.66
550.92	2229.47
551.28	2237.78
551.64	2246.17
551.99	2253.82
552.35	2261.17
552.70	2268.34
553.06	2275.54
553.41	2283.10
553.77	2290.11
554.13	2297.40
554.48	2304.54
554.84	2311.40
555.19	2317.67
555.55	2324.05
555.90	2329.61
556.26	2336.06
556.61	2341.78
556.97	2347.41
557.32	2352.68
557.68	2358.10
558.03	2363.39
558.39	2368.10
558.74	2373.83
559.10	2378.69
559.45	2383.29
559.81	2388.61
560.16	2393.60
560.52	2397.94
560.87	2402.34
561.23	2405.95
561.58	2409.50
561.94	2413.14
562.29	2416.11
562.64	2419.91
563.00	2423.32
563.35	2427.84
563.71	2431.62
564.06	2435.60
564.42	2439.43
564.77	2442.82
565.12	2445.99
565.48	2448.82
565.83	2451.54
566.19	2453.64
566.54	2455.32
566.89	2457.46
567.25	2458.89
567.60	2460.85
567.96	2463.42
568.31	2465.02
568.66	2467.04
569.02	2468.53
569.37	2469.54
569.72	2471.13
570.08	2471.85
570.43	2472.36
570.78	2472.38
571.14	2471.56
571.49	2470.72
571.84	2470.77
572.20	2470.16
572.55	2469.50
572.90	2468.21
573.26	2467.44
573.61	2466.01
573.96	2464.89
574.31	2462.25
574.67	2459.62
575.02	2456.28
575.37	2452.88
575.72	2449.39
576.08	2446.09
576.43	2442.93
576.78	2439.60
577.13	2436.53
577.49	2433.48
577.84	2430.24
578.19	2426.71
578.54	2423.29
578.90	2419.42
579.25	2413.86
579.60	2409.04
579.95	2404.09
580.30	2399.23
580.66	2393.86
581.01	2388.87
581.36	2383.66
581.71	2379.50
582.06	2375.04
582.42	2370.68
582.77	2365.58
583.12	2360.78
583.47	2356.34
583.82	2351.50
584.17	2345.91
584.53	2340.32
584.88	2334.68
585.23	2328.89
585.58	2323.06
585.93	2317.28
586.28	2312.17
586.63	2307.15
586.98	2301.85
587.34	2296.81
587.69	2291.73
588.04	2286.47
588.39	2280.67
588.74	2274.01
589.09	2267.60
589.44	2260.47
589.79	2253.79
590.14	2247.66
590.49	2240.72
590.84	2233.63
591.19	2227.16
591.54	2220.36
591.89	2212.76
592.25	2205.68
592.60	2198.12
592.95	2190.31
593.30	2182.50
593.65	2174.33
594.00	2166.58
594.35	2158.76
594.70	2150.07
595.05	2142.52
595.40	2134.55
595.75	2126.64
596.10	2120.00
596.45	2112.84
596.80	2106.19
597.15	2099.34
597.50	2091.97
597.85	2085.06
598.19	2078.09
598.54	2070.70
598.89	2063.70
599.24	2057.26
599.59	2050.22
599.94	2043.27
600.29	2036.23
600.64	2029.03
600.99	2021.20
601.34	2013.91
601.69	2006.18
602.04	1998.95
602.39	1990.92
602.74	1983.46
603.08	1976.09
603.43	1968.76
603.78	1960.78
604.13	1952.95
604.48	1945.21
604.83	1937.71
605.18	1930.37
605.53	1921.81
605.87	1913.08
606.22	1905.02
606.57	1896.23
606.92	1887.83
607.27	1880.22
607.62	1872.86
607.96	1865.16
608.31	1858.09
608.66	1849.89
609.01	1841.95
609.36	1833.60
609.70	1824.83
610.05	1816.05
610.40	1807.71
610.75	1798.57
611.10	1790.07
611.44	1780.78
611.79	1771.80
612.14	1762.25
612.49	1752.11
612.83	1742.70
613.18	1733.57
613.53	1724.66
613.88	1715.39
614.22	1706.27
614.57	1696.62
614.92	1687.67
615.27	1679.36
615.61	1670.07
615.96	1661.09
616.31	1652.49
616.65	1644.41
617.00	1636.06
617.35	1627.63
617.70	1618.43
618.04	1609.05
618.39	1599.84
618.74	1591.55
619.08	1582.39
619.43	1573.90
619.78	1566.09
620.12	1558.26
620.47	1549.88
620.82	1540.75
621.16	1532.48
621.51	1524.06
621.85	1515.52
622.20	1506.01
622.55	1496.71
622.89	1488.00
623.24	1479.39
623.59	1471.17
623.93	1462.81
624.28	1454.71
624.62	1446.34
624.97	1438.26
625.32	1430.77
625.66	1423.05
626.01	1414.98
626.35	1406.96
626.70	1398.48
627.04	1390.04
627.39	1381.26
627.73	1373.05
628.08	1365.41
628.43	1357.44
628.77	1349.40
629.12	1341.04
629.46	1333.15
629.81	1324.71
630.15	1316.65
630.50	1308.57
630.84	1299.53
631.19	1290.67
631.53	1282.32
631.88	1274.01
632.22	1265.59
632.57	1257.42
632.91	1249.03
633.26	1240.90
633.60	1232.49
633.95	1224.46
634.29	1216.53
634.64	1209.15
634.98	1201.05
635.32	1193.22
635.67	1185.82
636.01	1178.38
636.36	1171.05
636.70	1163.89
637.05	1156.73
637.39	1149.52
637.73	1142.40
638.08	1135.88
638.42	1129.29
638.77	1122.26
639.11	1115.02
639.45	1107.97
639.80	1100.74
640.14	1093.83
640.49	1086.63
640.83	1079.75
641.17	1073.10
641.52	1066.26
641.86	1059.20
642.20	1052.83
642.55	1045.79
642.89	1038.70
643.23	1031.52
643.58	1025.09
643.92	1018.24
644.26	1011.70
644.61	1005.04
644.95	998.42
645.29	991.36
645.64	984.03
645.98	977.04
646.32	970.43
646.66	963.87
647.01	957.48
647.35	951.19
647.69	944.79
648.04	938.71
648.38	932.28
648.72	925.77
649.06	919.25
649.41	912.74
649.75	906.37
650.09	899.78
650.43	893.47
650.78	886.67
651.12	880.13
651.46	873.73
651.80	867.48
652.14	861.47
652.49	855.50
652.83	849.84
653.17	843.69
653.51	837.60
653.85	831.62
654.20	825.41
654.54	818.83
654.88	812.42
655.22	805.94
655.56	799.66
655.90	793.64
656.25	787.84
656.59	781.95
656.93	776.32
657.27	770.73
657.61	764.74
657.95	759.26
658.29	753.73
658.64	747.95
658.98	742.12
659.32	736.18
659.66	730.50
660.00	724.75
660.34	719.27
660.68	713.82
661.02	708.34
661.36	703.18
661.70	698.24
662.05	693.56
662.39	688.89
662.73	684.03
663.07	679.22
663.41	674.35
663.75	669.44
664.09	664.38
664.43	659.62
664.77	655.20
665.11	650.53
665.45	646.02
665.79	641.62
666.13	637.16
666.47	632.76
666.81	628.28
667.15	623.67
667.49	619.42
667.83	615.18
668.17	610.87
668.51	606.40
668.85	602.04
669.19	597.74
669.53	593.56
669.87	589.41
670.21	585.32
670.55	581.35
670.89	577.58
671.23	573.87
671.57	569.95
671.91	566.10
672.25	562.22
672.58	558.39
672.92	554.70
673.26	551.27
673.60	547.73
673.94	544.32
674.28	541.20
674.62	537.99
674.96	534.70
675.30	531.54
675.64	528.46
675.97	525.39
676.31	522.36
676.65	519.20
676.99	516.19
677.33	513.10
677.67	509.99
678.01	506.72
678.34	503.43
678.68	500.33
679.02	497.25
679.36	494.25
679.70	491.26
680.04	488.28
680.37	485.18
680.71	482.17
681.05	479.25
681.39	476.28
681.73	473.34
682.06	470.57
682.40	467.84
682.74	465.04
683.08	462.22
683.42	459.35
683.75	456.59
684.09	453.78
684.43	451.04
684.77	448.35
685.10	445.80
685.44	443.27
685.78	440.78
686.12	438.27
686.45	435.75
686.79	433.29
687.13	430.84
687.46	428.42
687.80	426.01
688.14	423.55
688.48	421.30
688.81	418.91
689.15	416.52
689.49	414.09
689.82	411.79
690.16	409.52
690.50	407.31
690.83	405.16
691.17	402.95
691.51	400.85
691.84	398.79
692.18	396.69
692.52	394.60
692.85	392.44
693.19	390.40
693.52	388.29
693.86	386.23
694.20	384.24
694.53	382.27
694.87	380.29
695.21	378.35
695.54	376.32
695.88	374.41
696.21	372.55
696.55	370.70
696.88	368.79
697.22	366.92
697.56	365.12
697.89	363.32
698.23	361.60
698.56	359.85
698.90	358.11
699.23	356.32
699.57	354.59
699.90	352.90
700.24	351.16
700.58	349.56
700.91	347.96
701.25	346.36
701.58	344.84
701.92	343.31
702.25	341.79
702.59	340.26
702.92	338.81
703.26	337.35
703.59	335.98
703.93	334.71
704.26	333.45
704.60	332.09
704.93	330.68
705.26	329.32
705.60	328.02
705.93	326.75
706.27	325.57
706.60	324.42
706.94	323.22
707.27	322.03
707.61	320.88
707.94	319.75
708.27	318.54
708.61	317.36
708.94	316.23
709.28	315.13
709.61	314.09
709.94	313.02
710.28	311.92
710.61	310.83
710.95	309.64
711.28	308.57
711.61	307.52
711.95	306.49
712.28	305.47
712.61	304.39
712.95	303.36
713.28	302.41
713.61	301.38
713.95	300.43
714.28	299.50
714.61	298.55
714.95	297.61
715.28	296.69
715.61	295.73
715.95	294.82
716.28	293.88
716.61	293.00
716.95	292.04
717.28	291.21
717.61	290.36
717.94	289.58
718.28	288.70
718.61	287.87
718.94	287.13
719.27	286.39
719.61	285.70
719.94	284.98
720.27	284.19
720.60	283.48
720.94	282.79
721.27	282.10
721.60	281.46
721.93	280.79
722.27	280.17
722.60	279.54
722.93	278.89
723.26	278.30
723.59	277.66
723.93	277.08
724.26	276.46
724.59	275.83
724.92	275.21
725.25	274.66
725.59	274.07
725.92	273.46
726.25	272.84
726.58	272.28
726.91	271.73
727.24	271.20
727.57	270.67
727.91	270.09
728.24	269.56
728.57	268.99
728.90	268.47
729.23	267.91
729.56	267.44
729.89	266.91
730.22	266.39
730.55	265.81
730.89	265.29
731.22	264.80
731.55	264.33
731.88	263.84
732.21	263.36
732.54	262.92
732.87	262.49
733.20	262.07
733.53	261.60
733.86	261.16
734.19	260.73
734.52	260.31
734.85	259.96
735.18	259.53
735.51	259.14
735.84	258.72
736.17	258.34
736.50	257.90
736.83	257.66
737.16	257.28
737.49	256.99
737.82	256.60
738.15	256.24
738.48	255.84
738.81	255.50
739.14	255.12
739.47	254.75
739.80	254.42
740.13	254.13
740.46	253.80
740.79	253.46
741.12	253.09
741.45	252.77
741.78	252.39
742.11	252.09
742.44	251.74
742.77	251.44
743.10	251.10
743.43	250.77
743.75	250.34
744.08	250.17
744.41	249.85
744.74	249.60
745.07	249.31
745.40	249.07
745.73	248.81
746.06	248.49
746.39	248.24
746.71	247.90
747.04	247.55
747.37	247.27
747.70	246.99
748.03	246.71
748.36	246.45
748.68	246.16
749.01	245.87
749.34	245.64
749.67	245.40
750.00	245.17
750.33	244.99
750.65	244.76
750.98	244.41
751.31	244.16
751.64	243.93
751.97	243.74
752.29	243.49
752.62	243.20
752.95	242.99
753.28	242.73
753.60	242.52
753.93	242.34
754.26	242.14
754.59	241.91
754.91	241.73
755.24	241.50
755.57	241.31
755.90	241.12
756.22	240.89
756.55	240.67
756.88	240.45
757.20	240.22
757.53	240.01
757.86	239.81
758.19	239.67
758.51	239.47
758.84	239.22
759.17	239.04
759.49	238.90
759.82	238.78
760.15	238.60
760.47	238.45
760.80	238.27
761.13	238.09
761.45	237.93
761.78	237.77
762.11	237.63
762.43	237.47
762.76	237.34
763.08	237.21
763.41	237.08
763.74	236.95
764.06	236.73
764.39	236.55
764.71	236.37
765.04	236.16
765.37	236.00
765.69	235.88
766.02	235.71
766.34	235.59
766.67	235.41
767.00	235.29
767.32	235.23
767.65	235.13
767.97	235.02
768.30	234.90
768.62	234.77
768.95	234.61
769.27	234.47
769.60	234.34
769.92	234.23
770.25	234.06
770.57	233.92
770.90	233.84
771.22	233.78
771.55	233.65
771.87	233.56
772.20	233.42
772.52	233.41
772.85	233.41
773.17	233.28
773.50	233.17
773.82	233.06
774.15	232.88
774.47	232.74
774.80	232.60
775.12	232.50
775.45	232.34
775.77	232.25
776.09	232.17
776.42	232.10
776.74	231.98
777.07	231.90
777.39	231.82
777.72	231.71
778.04	231.60
778.36	231.53
778.69	231.49
779.01	231.44
779.33	231.26
779.66	231.11
779.98	231.01
780.31	230.96
780.63	230.90
780.95	230.85
781.28	230.78
781.60	230.72
781.92	230.67
782.25	230.63
782.57	230.55
782.89	230.49
783.22	230.39
783.54	230.35
783.86	230.30
784.19	230.21
784.51	230.19
784.83	230.14
785.16	230.09
785.48	229.99
785.80	229.95
786.12	229.91
786.45	229.86
786.77	229.84
