SpectraSuite Data File
++++++++++++++++++++++++++++++++++++
Date: Fri Feb 01 16:38:51 EST 2013
User: group
Dark Spectrum Present: No
Reference Spectrum Present: No
Number of Sampled Component Spectra: 1
Spectrometers: USB2E7196
Integration Time (usec): 35000 (USB2E7196)
Spectra Averaged: 100 (USB2E7196)
Boxcar Smoothing: 10 (USB2E7196)
Correct for Electrical Dark: No (USB2E7196)
Strobe/Lamp Enabled: No (USB2E7196)
Correct for Detector Non-linearity: No (USB2E7196)
Correct for Stray Light: No (USB2E7196)
Number of Pixels in Processed Spectrum: 2048
>>>>>Begin Processed Spectral Data<<<<<
339.09	0.00
339.48	213.99
339.86	215.69
340.24	216.41
340.63	217.52
341.01	220.69
341.39	221.00
341.78	221.35
342.16	223.19
342.54	224.06
342.93	212.18
343.31	222.90
343.69	223.41
344.07	223.83
344.46	224.26
344.84	224.65
345.22	224.88
345.60	225.13
345.99	225.35
346.37	225.51
346.75	225.59
347.13	225.64
347.52	225.67
347.90	225.73
348.28	225.76
348.66	225.81
349.05	225.78
349.43	225.83
349.81	225.86
350.19	225.91
350.57	225.97
350.96	226.04
351.34	226.10
351.72	226.19
352.10	226.33
352.48	226.42
352.87	226.49
353.25	226.55
353.63	226.58
354.01	226.65
354.39	226.68
354.77	226.76
355.15	226.87
355.54	226.91
355.92	226.92
356.30	227.03
356.68	227.14
357.06	227.20
357.44	227.24
357.82	227.30
358.20	227.39
358.58	227.46
358.97	227.53
359.35	227.64
359.73	227.72
360.11	227.77
360.49	227.84
360.87	227.85
361.25	227.91
361.63	228.00
362.01	228.01
362.39	228.06
362.77	228.10
363.15	228.15
363.53	228.20
363.91	228.25
364.29	228.25
364.67	228.17
365.05	228.23
365.43	228.28
365.81	228.29
366.19	228.34
366.57	228.39
366.95	228.36
367.33	228.31
367.71	228.31
368.09	228.29
368.47	228.24
368.85	228.28
369.23	228.28
369.61	228.24
369.99	228.24
370.37	228.21
370.75	228.20
371.13	228.15
371.51	228.11
371.89	228.05
372.27	228.03
372.65	228.02
373.03	227.93
373.41	227.86
373.78	227.81
374.16	227.70
374.54	227.59
374.92	227.54
375.30	227.49
375.68	227.40
376.06	227.36
376.44	227.30
376.82	227.22
377.19	227.14
377.57	227.05
377.95	226.95
378.33	226.87
378.71	226.76
379.09	226.70
379.47	226.64
379.84	226.58
380.22	226.50
380.60	226.41
380.98	226.34
381.36	226.25
381.73	226.18
382.11	226.11
382.49	226.05
382.87	225.95
383.25	225.90
383.62	225.95
384.00	225.85
384.38	225.80
384.76	225.73
385.13	225.71
385.51	225.70
385.89	225.67
386.27	225.64
386.64	225.62
387.02	225.57
387.40	225.53
387.78	225.48
388.15	225.45
388.53	225.40
388.91	225.37
389.29	225.35
389.66	225.36
390.04	225.35
390.42	225.35
390.79	225.38
391.17	225.33
391.55	225.21
391.92	225.22
392.30	225.25
392.68	225.24
393.05	225.22
393.43	225.17
393.81	225.15
394.18	225.18
394.56	225.19
394.94	225.23
395.31	225.24
395.69	225.30
396.06	225.34
396.44	225.41
396.82	225.44
397.19	225.53
397.57	225.52
397.95	225.54
398.32	225.56
398.70	225.64
399.07	225.76
399.45	225.80
399.82	225.85
400.20	225.87
400.58	225.97
400.95	225.99
401.33	226.10
401.70	226.24
402.08	226.28
402.45	226.34
402.83	226.45
403.20	226.53
403.58	226.61
403.95	226.72
404.33	226.83
404.71	226.95
405.08	227.10
405.46	227.25
405.83	227.41
406.21	227.56
406.58	227.70
406.96	227.83
407.33	228.01
407.70	228.17
408.08	228.43
408.45	228.62
408.83	228.87
409.20	229.10
409.58	229.30
409.95	229.60
410.33	229.89
410.70	230.12
411.08	230.45
411.45	230.77
411.82	231.04
412.20	231.38
412.57	231.82
412.95	232.12
413.32	232.51
413.69	232.90
414.07	233.35
414.44	233.82
414.82	234.28
415.19	234.82
415.56	235.38
415.94	235.92
416.31	236.59
416.68	237.22
417.06	237.92
417.43	238.60
417.81	239.33
418.18	240.10
418.55	240.92
418.93	241.79
419.30	242.68
419.67	243.65
420.04	244.61
420.42	245.59
420.79	246.79
421.16	247.93
421.54	249.15
421.91	250.34
422.28	251.58
422.66	252.90
423.03	254.22
423.40	255.58
423.77	257.02
424.15	258.41
424.52	259.83
424.89	261.46
425.26	263.03
425.64	264.50
426.01	266.14
426.38	267.80
426.75	269.43
427.13	271.15
427.50	272.92
427.87	274.75
428.24	276.58
428.61	278.31
428.99	280.24
429.36	282.27
429.73	284.30
430.10	286.30
430.47	288.36
430.85	290.46
431.22	292.66
431.59	294.98
431.96	297.21
432.33	299.73
432.70	302.09
433.08	304.88
433.45	307.43
433.82	309.95
434.19	312.83
434.56	315.67
434.93	318.31
435.30	320.93
435.68	323.80
436.05	326.58
436.42	329.32
436.79	331.85
437.16	334.56
437.53	337.38
437.90	340.16
438.27	342.87
438.64	345.68
439.01	348.19
439.38	350.41
439.75	352.54
440.13	354.96
440.50	357.25
440.87	359.05
441.24	361.02
441.61	363.19
441.98	364.66
442.35	366.40
442.72	368.21
443.09	369.98
443.46	370.96
443.83	371.56
444.20	372.04
444.57	372.88
444.94	373.16
445.31	373.52
445.68	373.87
446.05	374.00
446.42	373.59
446.79	373.26
447.16	372.78
447.53	372.47
447.90	371.40
448.27	370.30
448.64	368.73
449.01	367.58
449.37	365.65
449.74	363.77
450.11	361.56
450.48	359.14
450.85	356.64
451.22	354.56
451.59	352.56
451.96	350.67
452.33	348.01
452.70	345.69
453.07	342.86
453.43	339.99
453.80	337.22
454.17	334.59
454.54	332.05
454.91	329.39
455.28	326.70
455.65	324.22
456.02	321.75
456.38	319.65
456.75	317.04
457.12	314.80
457.49	312.65
457.86	310.48
458.23	308.64
458.59	306.62
458.96	304.56
459.33	302.72
459.70	300.86
460.07	299.45
460.43	297.75
460.80	296.10
461.17	294.73
461.54	293.24
461.91	291.84
462.27	290.45
462.64	289.22
463.01	287.95
463.38	286.69
463.74	285.34
464.11	284.15
464.48	283.13
464.85	282.00
465.21	281.07
465.58	280.18
465.95	279.08
466.32	278.20
466.68	277.32
467.05	276.44
467.42	275.55
467.78	274.58
468.15	273.72
468.52	273.10
468.88	272.24
469.25	271.49
469.62	270.86
469.98	270.17
470.35	269.55
470.72	268.92
471.08	268.23
471.45	267.74
471.82	267.22
472.18	266.61
472.55	266.21
472.92	265.70
473.28	265.22
473.65	264.79
474.02	264.34
474.38	263.96
474.75	263.63
475.11	263.28
475.48	262.99
475.85	262.75
476.21	262.54
476.58	262.32
476.94	262.18
477.31	262.01
477.67	261.85
478.04	261.74
478.41	261.67
478.77	261.73
479.14	261.63
479.50	261.64
479.87	261.76
480.23	261.80
480.60	261.89
480.96	261.98
481.33	262.15
481.69	262.34
482.06	262.55
482.42	262.76
482.79	263.01
483.15	263.34
483.52	263.69
483.88	264.02
484.25	264.39
484.61	264.80
484.98	265.24
485.34	265.79
485.71	266.36
486.07	266.97
486.44	267.54
486.80	268.26
487.17	268.96
487.53	269.76
487.90	270.61
488.26	271.56
488.62	272.58
488.99	273.60
489.35	274.65
489.72	275.79
490.08	277.02
490.44	278.25
490.81	279.59
491.17	280.98
491.54	282.50
491.90	284.07
492.26	285.71
492.63	287.45
492.99	289.30
493.36	291.23
493.72	293.29
494.08	295.39
494.45	297.66
494.81	300.11
495.17	302.55
495.54	305.20
495.90	307.89
496.26	310.67
496.63	313.69
496.99	316.87
497.35	320.12
497.72	323.51
498.08	327.09
498.44	330.76
498.80	334.71
499.17	338.82
499.53	343.02
499.89	347.46
500.26	351.96
500.62	356.63
500.98	361.56
501.34	366.66
501.71	372.00
502.07	377.47
502.43	383.10
502.79	388.90
503.16	394.92
503.52	401.20
503.88	407.67
504.24	414.25
504.60	421.03
504.97	428.19
505.33	435.54
505.69	443.25
506.05	451.10
506.41	459.01
506.78	467.12
507.14	475.57
507.50	484.25
507.86	493.26
508.22	502.43
508.59	511.68
508.95	521.22
509.31	531.07
509.67	541.14
510.03	551.36
510.39	561.86
510.75	572.68
511.12	583.58
511.48	594.86
511.84	606.24
512.20	617.74
512.56	629.65
512.92	641.76
513.28	654.01
513.64	666.34
514.00	678.94
514.37	691.85
514.73	704.85
515.09	717.78
515.45	731.01
515.81	744.59
516.17	758.45
516.53	772.55
516.89	786.62
517.25	800.71
517.61	815.02
517.97	829.50
518.33	843.82
518.69	858.50
519.05	873.36
519.41	888.48
519.77	903.96
520.13	919.35
520.49	934.71
520.85	949.96
521.21	965.61
521.57	981.78
521.93	997.47
522.29	1013.63
522.65	1029.93
523.01	1045.99
523.37	1061.95
523.73	1078.03
524.09	1094.05
524.45	1110.22
524.81	1126.74
525.17	1143.43
525.53	1160.16
525.89	1176.88
526.25	1193.67
526.61	1209.94
526.97	1226.58
527.33	1242.99
527.68	1259.45
528.04	1275.86
528.40	1292.26
528.76	1309.30
529.12	1325.85
529.48	1342.53
529.84	1358.50
530.20	1374.94
530.56	1391.85
530.91	1409.00
531.27	1425.70
531.63	1441.87
531.99	1458.29
532.35	1474.21
532.71	1489.96
533.07	1506.20
533.42	1522.01
533.78	1537.97
534.14	1554.09
534.50	1569.23
534.86	1584.84
535.21	1599.95
535.57	1615.73
535.93	1631.26
536.29	1645.80
536.65	1660.50
537.00	1675.07
537.36	1690.42
537.72	1704.84
538.08	1719.19
538.44	1732.84
538.79	1746.39
539.15	1760.00
539.51	1773.71
539.87	1788.04
540.22	1801.60
540.58	1815.02
540.94	1828.05
541.29	1840.66
541.65	1853.16
542.01	1866.22
542.37	1878.45
542.72	1890.65
543.08	1902.16
543.44	1914.52
543.79	1925.74
544.15	1936.67
544.51	1948.11
544.87	1958.76
545.22	1969.41
545.58	1979.56
545.94	1989.32
546.29	1999.23
546.65	2009.03
547.01	2018.17
547.36	2026.60
547.72	2035.10
548.07	2043.07
548.43	2051.27
548.79	2059.01
549.14	2066.61
549.50	2073.87
549.86	2081.52
550.21	2088.74
550.57	2095.90
550.92	2102.29
551.28	2109.34
551.64	2116.44
551.99	2123.13
552.35	2129.23
552.70	2135.32
553.06	2141.31
553.41	2147.56
553.77	2153.54
554.13	2159.63
554.48	2165.64
554.84	2171.34
555.19	2176.50
555.55	2181.54
555.90	2186.10
556.26	2191.26
556.61	2195.87
556.97	2200.24
557.32	2204.33
557.68	2208.40
558.03	2212.65
558.39	2216.38
558.74	2220.77
559.10	2224.71
559.45	2228.30
559.81	2232.61
560.16	2236.48
560.52	2239.70
560.87	2243.11
561.23	2245.85
561.58	2248.54
561.94	2251.10
562.29	2253.15
562.64	2255.98
563.00	2258.59
563.35	2262.04
563.71	2265.17
564.06	2268.33
564.42	2271.40
564.77	2274.05
565.12	2276.65
565.48	2278.68
565.83	2280.62
566.19	2282.18
566.54	2282.95
566.89	2284.27
567.25	2285.07
567.60	2286.34
567.96	2288.06
568.31	2288.85
568.66	2289.84
569.02	2290.81
569.37	2291.24
569.72	2292.38
570.08	2292.66
570.43	2292.75
570.78	2292.26
571.14	2290.76
571.49	2289.38
571.84	2288.82
572.20	2287.75
572.55	2286.57
572.90	2284.92
573.26	2283.59
573.61	2281.79
573.96	2280.16
574.31	2277.09
574.67	2273.94
575.02	2270.32
575.37	2266.94
575.72	2263.39
576.08	2260.15
576.43	2256.48
576.78	2252.90
577.13	2249.59
577.49	2246.17
577.84	2242.77
578.19	2238.95
578.54	2235.45
578.90	2231.49
579.25	2226.23
579.60	2221.48
579.95	2216.74
580.30	2211.83
580.66	2206.67
581.01	2201.74
581.36	2196.86
581.71	2192.93
582.06	2188.86
582.42	2184.61
582.77	2179.50
583.12	2175.10
583.47	2170.63
583.82	2166.03
584.17	2161.00
584.53	2155.66
584.88	2150.35
585.23	2144.85
585.58	2139.44
585.93	2133.98
586.28	2129.09
586.63	2124.11
586.98	2119.02
587.34	2114.16
587.69	2109.30
588.04	2104.27
588.39	2098.85
588.74	2092.45
589.09	2086.27
589.44	2079.47
589.79	2073.26
590.14	2067.56
590.49	2060.95
590.84	2054.45
591.19	2048.35
591.54	2041.72
591.89	2034.63
592.25	2028.03
592.60	2020.65
592.95	2013.38
593.30	2006.08
593.65	1998.61
594.00	1991.49
594.35	1984.14
594.70	1976.05
595.05	1969.07
595.40	1961.80
595.75	1954.23
596.10	1948.26
596.45	1941.62
596.80	1935.49
597.15	1929.11
597.50	1922.39
597.85	1915.83
598.19	1909.38
598.54	1902.54
598.89	1896.06
599.24	1889.99
599.59	1883.38
599.94	1877.20
600.29	1870.85
600.64	1864.22
600.99	1856.96
601.34	1850.34
601.69	1843.53
602.04	1836.92
602.39	1829.57
602.74	1822.75
603.08	1816.15
603.43	1809.30
603.78	1802.00
604.13	1794.87
604.48	1787.68
604.83	1780.76
605.18	1774.18
605.53	1766.35
605.87	1758.38
606.22	1751.05
606.57	1743.11
606.92	1735.61
607.27	1728.63
607.62	1721.81
607.96	1714.85
608.31	1708.43
608.66	1700.90
609.01	1693.41
609.36	1685.93
609.70	1677.93
610.05	1669.98
610.40	1662.37
610.75	1654.15
611.10	1646.49
611.44	1637.98
611.79	1629.93
612.14	1621.26
612.49	1611.89
612.83	1603.28
613.18	1594.96
613.53	1586.93
613.88	1578.49
614.22	1570.31
614.57	1561.64
614.92	1553.54
615.27	1546.03
615.61	1537.66
615.96	1529.51
616.31	1521.81
616.65	1514.41
617.00	1506.88
617.35	1499.16
617.70	1490.85
618.04	1482.44
618.39	1474.20
618.74	1466.84
619.08	1458.67
619.43	1451.02
619.78	1444.22
620.12	1437.22
620.47	1429.86
620.82	1421.73
621.16	1414.29
621.51	1406.61
621.85	1398.99
622.20	1390.52
622.55	1382.09
622.89	1374.23
623.24	1366.52
623.59	1359.17
623.93	1351.64
624.28	1344.48
624.62	1337.13
624.97	1330.04
625.32	1323.23
625.66	1316.18
626.01	1308.93
626.35	1301.56
626.70	1293.83
627.04	1286.15
627.39	1278.39
627.73	1270.92
628.08	1264.06
628.43	1256.98
628.77	1249.78
629.12	1242.27
629.46	1235.22
629.81	1227.69
630.15	1220.37
630.50	1213.08
630.84	1204.92
631.19	1196.88
631.53	1189.29
631.88	1181.67
632.22	1174.01
632.57	1166.69
632.91	1159.18
633.26	1151.77
633.60	1144.29
633.95	1137.10
634.29	1129.93
634.64	1123.20
634.98	1116.04
635.32	1109.01
635.67	1102.22
636.01	1095.53
636.36	1088.76
636.70	1082.12
637.05	1075.69
637.39	1069.38
637.73	1062.90
638.08	1056.94
638.42	1051.04
638.77	1044.64
639.11	1038.16
639.45	1031.73
639.80	1025.08
640.14	1018.70
640.49	1012.18
640.83	1005.88
641.17	999.78
641.52	993.64
641.86	987.17
642.20	981.22
642.55	974.81
642.89	968.42
643.23	961.81
643.58	956.07
643.92	949.98
644.26	943.96
644.61	937.80
644.95	931.79
645.29	925.25
645.64	918.51
645.98	912.16
646.32	906.14
646.66	900.15
647.01	894.34
647.35	888.72
647.69	882.79
648.04	877.27
648.38	871.55
648.72	865.60
649.06	859.56
649.41	853.62
649.75	847.71
650.09	841.84
650.43	836.10
650.78	829.92
651.12	823.93
651.46	818.09
651.80	812.44
652.14	807.07
652.49	801.80
652.83	796.67
653.17	791.14
653.51	785.53
653.85	780.09
654.20	774.44
654.54	768.38
654.88	762.61
655.22	756.67
655.56	750.94
655.90	745.29
656.25	740.02
656.59	734.68
656.93	729.57
657.27	724.34
657.61	718.89
657.95	713.78
658.29	708.67
658.64	703.42
658.98	698.07
659.32	692.58
659.66	687.29
660.00	682.05
660.34	677.04
660.68	672.07
661.02	667.01
661.36	662.29
661.70	657.81
662.05	653.52
662.39	649.28
662.73	644.77
663.07	640.39
663.41	636.01
663.75	631.51
664.09	626.92
664.43	622.54
664.77	618.54
665.11	614.33
665.45	610.21
665.79	606.15
666.13	602.08
666.47	597.94
666.81	593.85
667.15	589.66
667.49	585.78
667.83	581.90
668.17	578.01
668.51	574.04
668.85	570.01
669.19	566.09
669.53	562.28
669.87	558.51
670.21	554.85
670.55	551.23
670.89	547.80
671.23	544.34
671.57	540.83
671.91	537.22
672.25	533.74
672.58	530.24
672.92	526.83
673.26	523.59
673.60	520.52
673.94	517.42
674.28	514.56
674.62	511.60
674.96	508.57
675.30	505.72
675.64	502.81
675.97	500.06
676.31	497.25
676.65	494.31
676.99	491.57
677.33	488.65
677.67	485.82
678.01	482.85
678.34	479.92
678.68	477.03
679.02	474.27
679.36	471.48
679.70	468.72
680.04	465.97
680.37	463.15
680.71	460.35
681.05	457.76
681.39	455.00
681.73	452.31
682.06	449.79
682.40	447.22
682.74	444.59
683.08	441.95
683.42	439.36
683.75	436.83
684.09	434.23
684.43	431.79
684.77	429.35
685.10	426.95
685.44	424.59
685.78	422.31
686.12	419.97
686.45	417.65
686.79	415.40
687.13	413.19
687.46	411.00
687.80	408.81
688.14	406.48
688.48	404.45
688.81	402.24
689.15	400.08
689.49	397.90
689.82	395.83
690.16	393.72
690.50	391.72
690.83	389.81
691.17	387.83
691.51	385.92
691.84	384.03
692.18	382.11
692.52	380.19
692.85	378.20
693.19	376.40
693.52	374.59
693.86	372.74
694.20	370.93
694.53	369.18
694.87	367.32
695.21	365.56
695.54	363.73
695.88	361.93
696.21	360.19
696.55	358.50
696.88	356.86
697.22	355.22
697.56	353.62
697.89	351.90
698.23	350.26
698.56	348.66
698.90	347.07
699.23	345.44
699.57	343.87
699.90	342.35
700.24	340.75
700.58	339.19
700.91	337.75
701.25	336.33
701.58	334.91
701.92	333.51
702.25	332.14
702.59	330.75
702.92	329.46
703.26	328.16
703.59	326.86
703.93	325.63
704.26	324.42
704.60	323.10
704.93	321.81
705.26	320.58
705.60	319.38
705.93	318.21
706.27	317.16
706.60	316.07
706.94	315.00
707.27	313.88
707.61	312.81
707.94	311.72
708.27	310.62
708.61	309.52
708.94	308.54
709.28	307.55
709.61	306.58
709.94	305.64
710.28	304.64
710.61	303.67
710.95	302.60
711.28	301.64
711.61	300.68
711.95	299.82
712.28	298.88
712.61	297.96
712.95	297.03
713.28	296.12
713.61	295.23
713.95	294.31
714.28	293.48
714.61	292.62
714.95	291.77
715.28	290.94
715.61	290.09
715.95	289.24
716.28	288.36
716.61	287.53
716.95	286.65
717.28	285.88
717.61	285.14
717.94	284.42
718.28	283.64
718.61	282.96
718.94	282.23
719.27	281.62
719.61	280.96
719.94	280.29
720.27	279.61
720.60	278.92
720.94	278.33
721.27	277.75
721.60	277.20
721.93	276.61
722.27	276.04
722.60	275.46
722.93	274.90
723.26	274.39
723.59	273.85
723.93	273.32
724.26	272.75
724.59	272.15
724.92	271.57
725.25	271.08
725.59	270.53
725.92	270.06
726.25	269.52
726.58	269.01
726.91	268.51
727.24	268.03
727.57	267.58
727.91	267.00
728.24	266.50
728.57	265.99
728.90	265.54
729.23	265.04
729.56	264.61
729.89	264.15
730.22	263.65
730.55	263.18
730.89	262.72
731.22	262.28
731.55	261.82
731.88	261.46
732.21	260.99
732.54	260.57
732.87	260.11
733.20	259.72
733.53	259.30
733.86	258.92
734.19	258.52
734.52	258.17
734.85	257.93
735.18	257.55
735.51	257.16
735.84	256.80
736.17	256.45
736.50	256.06
736.83	255.84
737.16	255.52
737.49	255.19
737.82	254.86
738.15	254.57
738.48	254.25
738.81	253.88
739.14	253.55
739.47	253.25
739.80	252.96
740.13	252.64
740.46	252.34
740.79	252.02
741.12	251.69
741.45	251.37
741.78	250.98
742.11	250.69
742.44	250.40
742.77	250.12
743.10	249.80
743.43	249.55
743.75	249.16
744.08	249.02
744.41	248.74
744.74	248.50
745.07	248.17
745.40	247.95
745.73	247.74
746.06	247.48
746.39	247.23
746.71	246.92
747.04	246.69
747.37	246.43
747.70	246.22
748.03	245.97
748.36	245.73
748.68	245.53
749.01	245.29
749.34	245.07
749.67	244.82
750.00	244.63
750.33	244.45
750.65	244.22
750.98	243.82
751.31	243.61
751.64	243.38
751.97	243.24
752.29	242.98
752.62	242.74
752.95	242.56
753.28	242.32
753.60	242.15
753.93	241.95
754.26	241.78
754.59	241.52
754.91	241.30
755.24	241.12
755.57	240.89
755.90	240.72
756.22	240.52
756.55	240.32
756.88	240.11
757.20	239.84
757.53	239.65
757.86	239.50
758.19	239.36
758.51	239.19
758.84	238.95
759.17	238.80
759.49	238.63
759.82	238.51
760.15	238.37
760.47	238.21
760.80	238.04
761.13	237.87
761.45	237.76
761.78	237.63
762.11	237.47
762.43	237.34
762.76	237.15
763.08	237.02
763.41	236.90
763.74	236.76
764.06	236.66
764.39	236.54
764.71	236.39
765.04	236.21
765.37	236.04
765.69	235.93
766.02	235.79
766.34	235.67
766.67	235.50
767.00	235.38
767.32	235.32
767.65	235.25
767.97	235.12
768.30	234.98
768.62	234.85
768.95	234.72
769.27	234.57
769.60	234.48
769.92	234.36
770.25	234.23
770.57	234.09
770.90	233.97
771.22	233.81
771.55	233.70
771.87	233.63
772.20	233.57
772.52	233.56
772.85	233.59
773.17	233.48
773.50	233.35
773.82	233.26
774.15	233.10
774.47	232.92
774.80	232.84
775.12	232.75
775.45	232.68
775.77	232.63
776.09	232.60
776.42	232.53
776.74	232.48
777.07	232.39
777.39	232.35
777.72	232.28
778.04	232.29
778.36	232.22
778.69	232.13
779.01	232.06
779.33	231.89
779.66	231.71
779.98	231.66
780.31	231.64
780.63	231.62
780.95	231.57
781.28	231.53
781.60	231.50
781.92	231.44
782.25	231.36
782.57	231.26
782.89	231.19
783.22	231.12
783.54	231.03
783.86	231.01
784.19	230.95
784.51	230.90
784.83	230.78
785.16	230.72
785.48	230.68
785.80	230.64
786.12	230.62
786.45	230.59
786.77	230.52
787.09	230.45
