SpectraSuite Data File
++++++++++++++++++++++++++++++++++++
Date: Fri Feb 01 14:55:27 EST 2013
User: group
Dark Spectrum Present: No
Reference Spectrum Present: No
Number of Sampled Component Spectra: 1
Spectrometers: USB2E7196
Integration Time (usec): 35000 (USB2E7196)
Spectra Averaged: 100 (USB2E7196)
Boxcar Smoothing: 10 (USB2E7196)
Correct for Electrical Dark: No (USB2E7196)
Strobe/Lamp Enabled: No (USB2E7196)
Correct for Detector Non-linearity: No (USB2E7196)
Correct for Stray Light: No (USB2E7196)
Number of Pixels in Processed Spectrum: 2048
>>>>>Begin Processed Spectral Data<<<<<
339.09	0.00
339.48	215.19
339.86	216.95
340.24	218.02
340.63	220.19
341.01	222.41
341.39	222.45
341.78	223.20
342.16	224.73
342.54	225.66
342.93	213.70
343.31	224.51
343.69	225.05
344.07	225.49
344.46	225.96
344.84	226.30
345.22	226.55
345.60	226.78
345.99	227.01
346.37	227.12
346.75	227.22
347.13	227.35
347.52	227.42
347.90	227.50
348.28	227.53
348.66	227.57
349.05	227.60
349.43	227.62
349.81	227.63
350.19	227.69
350.57	227.76
350.96	227.85
351.34	227.90
351.72	227.97
352.10	228.07
352.48	228.09
352.87	228.15
353.25	228.19
353.63	228.27
354.01	228.31
354.39	228.39
354.77	228.44
355.15	228.52
355.54	228.54
355.92	228.54
356.30	228.65
356.68	228.75
357.06	228.78
357.44	228.82
357.82	228.89
358.20	228.94
358.58	228.93
358.97	228.98
359.35	229.07
359.73	229.14
360.11	229.17
360.49	229.25
360.87	229.29
361.25	229.35
361.63	229.41
362.01	229.46
362.39	229.49
362.77	229.52
363.15	229.53
363.53	229.59
363.91	229.63
364.29	229.61
364.67	229.59
365.05	229.64
365.43	229.65
365.81	229.69
366.19	229.73
366.57	229.78
366.95	229.75
367.33	229.71
367.71	229.71
368.09	229.71
368.47	229.67
368.85	229.62
369.23	229.59
369.61	229.52
369.99	229.48
370.37	229.43
370.75	229.43
371.13	229.37
371.51	229.27
371.89	229.21
372.27	229.18
372.65	229.12
373.03	229.03
373.41	228.95
373.78	228.87
374.16	228.72
374.54	228.65
374.92	228.59
375.30	228.52
375.68	228.41
376.06	228.34
376.44	228.24
376.82	228.18
377.19	228.10
377.57	228.03
377.95	227.92
378.33	227.86
378.71	227.71
379.09	227.62
379.47	227.56
379.84	227.50
380.22	227.38
380.60	227.26
380.98	227.17
381.36	227.08
381.73	226.97
382.11	226.93
382.49	226.86
382.87	226.82
383.25	226.75
383.62	226.79
384.00	226.72
384.38	226.68
384.76	226.64
385.13	226.61
385.51	226.54
385.89	226.49
386.27	226.44
386.64	226.41
387.02	226.38
387.40	226.38
387.78	226.31
388.15	226.29
388.53	226.26
388.91	226.22
389.29	226.19
389.66	226.20
390.04	226.16
390.42	226.15
390.79	226.10
391.17	226.09
391.55	225.98
391.92	226.00
392.30	226.03
392.68	226.05
393.05	226.06
393.43	226.08
393.81	226.12
394.18	226.12
394.56	226.18
394.94	226.21
395.31	226.21
395.69	226.30
396.06	226.39
396.44	226.45
396.82	226.51
397.19	226.63
397.57	226.69
397.95	226.80
398.32	226.80
398.70	226.92
399.07	227.05
399.45	227.13
399.82	227.21
400.20	227.27
400.58	227.32
400.95	227.40
401.33	227.51
401.70	227.68
402.08	227.79
402.45	227.90
402.83	228.03
403.20	228.17
403.58	228.27
403.95	228.38
404.33	228.51
404.71	228.66
405.08	228.82
405.46	228.96
405.83	229.10
406.21	229.28
406.58	229.42
406.96	229.56
407.33	229.76
407.70	229.95
408.08	230.22
408.45	230.48
408.83	230.74
409.20	231.00
409.58	231.20
409.95	231.46
410.33	231.73
410.70	231.97
411.08	232.27
411.45	232.56
411.82	232.90
412.20	233.29
412.57	233.73
412.95	234.04
413.32	234.45
413.69	234.85
414.07	235.30
414.44	235.77
414.82	236.25
415.19	236.78
415.56	237.31
415.94	237.87
416.31	238.53
416.68	239.16
417.06	239.86
417.43	240.48
417.81	241.26
418.18	242.02
418.55	242.87
418.93	243.75
419.30	244.66
419.67	245.57
420.04	246.52
420.42	247.48
420.79	248.65
421.16	249.79
421.54	251.01
421.91	252.21
422.28	253.47
422.66	254.79
423.03	256.09
423.40	257.46
423.77	258.88
424.15	260.21
424.52	261.70
424.89	263.28
425.26	264.89
425.64	266.31
426.01	267.88
426.38	269.53
426.75	271.23
427.13	272.92
427.50	274.72
427.87	276.56
428.24	278.41
428.61	280.20
428.99	282.13
429.36	284.22
429.73	286.29
430.10	288.32
430.47	290.36
430.85	292.50
431.22	294.71
431.59	297.09
431.96	299.36
432.33	301.83
432.70	304.24
433.08	307.03
433.45	309.69
433.82	312.33
434.19	315.23
434.56	318.02
434.93	320.71
435.30	323.35
435.68	326.29
436.05	329.15
436.42	331.93
436.79	334.47
437.16	337.19
437.53	340.04
437.90	342.84
438.27	345.61
438.64	348.44
439.01	351.02
439.38	353.28
439.75	355.46
440.13	357.96
440.50	360.27
440.87	362.13
441.24	364.08
441.61	366.26
441.98	367.77
442.35	369.59
442.72	371.41
443.09	373.23
443.46	374.22
443.83	374.81
444.20	375.34
444.57	376.20
444.94	376.51
445.31	376.80
445.68	377.15
446.05	377.25
446.42	376.86
446.79	376.48
447.16	376.00
447.53	375.70
447.90	374.56
448.27	373.42
448.64	371.85
449.01	370.72
449.37	368.70
449.74	366.79
450.11	364.51
450.48	362.05
450.85	359.54
451.22	357.38
451.59	355.36
451.96	353.42
452.33	350.82
452.70	348.42
453.07	345.60
453.43	342.69
453.80	339.91
454.17	337.23
454.54	334.67
454.91	331.95
455.28	329.28
455.65	326.78
456.02	324.31
456.38	322.17
456.75	319.49
457.12	317.28
457.49	315.06
457.86	312.90
458.23	311.06
458.59	308.98
458.96	306.92
459.33	305.02
459.70	303.13
460.07	301.59
460.43	299.86
460.80	298.26
461.17	296.83
461.54	295.31
461.91	293.91
462.27	292.46
462.64	291.24
463.01	289.87
463.38	288.53
463.74	287.15
464.11	285.95
464.48	284.94
464.85	283.82
465.21	282.92
465.58	282.00
465.95	280.88
466.32	279.96
466.68	279.07
467.05	278.18
467.42	277.28
467.78	276.34
468.15	275.45
468.52	274.79
468.88	273.92
469.25	273.15
469.62	272.50
469.98	271.82
470.35	271.12
470.72	270.50
471.08	269.87
471.45	269.32
471.82	268.76
472.18	268.12
472.55	267.66
472.92	267.13
473.28	266.66
473.65	266.21
474.02	265.72
474.38	265.34
474.75	264.98
475.11	264.61
475.48	264.35
475.85	264.10
476.21	263.85
476.58	263.64
476.94	263.49
477.31	263.29
477.67	263.12
478.04	263.04
478.41	262.99
478.77	263.03
479.14	262.96
479.50	262.97
479.87	263.04
480.23	263.10
480.60	263.15
480.96	263.20
481.33	263.40
481.69	263.62
482.06	263.79
482.42	264.02
482.79	264.29
483.15	264.60
483.52	264.99
483.88	265.32
484.25	265.73
484.61	266.12
484.98	266.60
485.34	267.16
485.71	267.70
486.07	268.28
486.44	268.79
486.80	269.47
487.17	270.18
487.53	270.97
487.90	271.85
488.26	272.77
488.62	273.77
488.99	274.72
489.35	275.74
489.72	276.87
490.08	278.06
490.44	279.29
490.81	280.60
491.17	281.89
491.54	283.34
491.90	284.86
492.26	286.49
492.63	288.19
492.99	289.92
493.36	291.81
493.72	293.85
494.08	295.94
494.45	298.16
494.81	300.47
495.17	302.86
495.54	305.40
495.90	308.11
496.26	310.89
496.63	313.85
496.99	316.96
497.35	320.16
497.72	323.55
498.08	327.03
498.44	330.62
498.80	334.58
499.17	338.63
499.53	342.69
499.89	347.03
500.26	351.43
500.62	356.13
500.98	361.05
501.34	366.08
501.71	371.41
502.07	376.82
502.43	382.46
502.79	388.24
503.16	394.25
503.52	400.50
503.88	406.88
504.24	413.44
504.60	420.21
504.97	427.31
505.33	434.54
505.69	442.24
506.05	450.07
506.41	457.99
506.78	466.05
507.14	474.55
507.50	483.21
507.86	492.24
508.22	501.39
508.59	510.54
508.95	520.08
509.31	529.88
509.67	539.99
510.03	550.23
510.39	560.78
510.75	571.61
511.12	582.48
511.48	593.75
511.84	605.19
512.20	616.69
512.56	628.61
512.92	640.87
513.28	653.15
513.64	665.60
514.00	678.14
514.37	691.12
514.73	704.28
515.09	717.37
515.45	730.71
515.81	744.29
516.17	758.37
516.53	772.50
516.89	786.67
517.25	800.87
517.61	815.32
517.97	829.80
518.33	844.27
518.69	858.95
519.05	873.95
519.41	889.24
519.77	904.86
520.13	920.37
520.49	935.72
520.85	951.23
521.21	967.00
521.57	983.29
521.93	999.16
522.29	1015.50
522.65	1031.79
523.01	1048.02
523.37	1064.22
523.73	1080.41
524.09	1096.54
524.45	1112.82
524.81	1129.56
525.17	1146.40
525.53	1163.36
525.89	1180.24
526.25	1197.22
526.61	1213.61
526.97	1230.33
527.33	1246.88
527.68	1263.52
528.04	1280.10
528.40	1296.75
528.76	1313.97
529.12	1330.80
529.48	1347.80
529.84	1363.92
530.20	1380.75
530.56	1397.86
530.91	1415.25
531.27	1432.03
531.63	1448.72
531.99	1465.47
532.35	1481.47
532.71	1497.48
533.07	1513.87
533.42	1529.78
533.78	1545.89
534.14	1562.30
534.50	1577.74
534.86	1593.67
535.21	1608.91
535.57	1625.01
535.93	1640.62
536.29	1655.45
536.65	1670.52
537.00	1685.40
537.36	1700.86
537.72	1715.36
538.08	1729.88
538.44	1743.79
538.79	1757.85
539.15	1771.64
539.51	1785.49
539.87	1799.92
540.22	1813.77
540.58	1827.63
540.94	1841.25
541.29	1854.24
541.65	1867.03
542.01	1880.36
542.37	1892.75
542.72	1905.36
543.08	1917.02
543.44	1929.54
543.79	1940.87
544.15	1951.84
544.51	1963.27
544.87	1974.21
545.22	1985.09
545.58	1995.41
545.94	2005.13
546.29	2014.92
546.65	2024.67
547.01	2033.92
547.36	2042.68
547.72	2051.17
548.07	2059.11
548.43	2067.27
548.79	2075.41
549.14	2082.93
549.50	2090.31
549.86	2098.12
550.21	2105.27
550.57	2112.44
550.92	2118.99
551.28	2125.99
551.64	2133.08
551.99	2139.65
552.35	2145.76
552.70	2151.75
553.06	2157.67
553.41	2164.07
553.77	2170.13
554.13	2176.20
554.48	2182.30
554.84	2187.64
555.19	2192.86
555.55	2197.85
555.90	2202.17
556.26	2206.86
556.61	2211.50
556.97	2215.57
557.32	2219.74
557.68	2223.92
558.03	2228.25
558.39	2231.89
558.74	2236.41
559.10	2240.32
559.45	2243.95
559.81	2248.13
560.16	2251.89
560.52	2254.94
560.87	2258.26
561.23	2260.82
561.58	2263.75
561.94	2266.21
562.29	2268.65
562.64	2271.26
563.00	2273.84
563.35	2277.30
563.71	2280.37
564.06	2283.62
564.42	2286.35
564.77	2288.64
565.12	2290.64
565.48	2292.37
565.83	2294.12
566.19	2295.35
566.54	2296.05
566.89	2296.99
567.25	2297.53
567.60	2298.74
567.96	2300.27
568.31	2300.90
568.66	2301.89
569.02	2302.22
569.37	2302.38
569.72	2302.98
570.08	2302.95
570.43	2302.68
570.78	2301.84
571.14	2300.15
571.49	2298.47
571.84	2298.12
572.20	2296.66
572.55	2295.49
572.90	2293.70
573.26	2291.93
573.61	2290.00
573.96	2288.09
574.31	2284.99
574.67	2281.80
575.02	2278.13
575.37	2274.45
575.72	2270.48
576.08	2266.98
576.43	2263.54
576.78	2259.55
577.13	2256.18
577.49	2252.90
577.84	2249.41
578.19	2245.54
578.54	2241.70
578.90	2237.43
579.25	2231.66
579.60	2226.59
579.95	2221.41
580.30	2216.31
580.66	2211.03
581.01	2205.92
581.36	2200.82
581.71	2196.41
582.06	2191.74
582.42	2187.02
582.77	2181.78
583.12	2177.14
583.47	2172.21
583.82	2166.90
584.17	2161.51
584.53	2155.86
584.88	2149.92
585.23	2143.75
585.58	2138.20
585.93	2132.54
586.28	2127.67
586.63	2122.37
586.98	2117.17
587.34	2112.50
587.69	2107.45
588.04	2102.17
588.39	2096.35
588.74	2089.73
589.09	2083.46
589.44	2076.52
589.79	2070.42
590.14	2064.63
590.49	2057.81
590.84	2051.32
591.19	2045.25
591.54	2038.68
591.89	2031.06
592.25	2024.22
592.60	2017.03
592.95	2009.19
593.30	2001.74
593.65	1993.93
594.00	1986.95
594.35	1979.51
594.70	1971.25
595.05	1963.90
595.40	1956.59
595.75	1949.01
596.10	1942.63
596.45	1935.74
596.80	1929.51
597.15	1922.73
597.50	1915.60
597.85	1909.15
598.19	1902.45
598.54	1895.34
598.89	1888.77
599.24	1882.96
599.59	1876.17
599.94	1869.93
600.29	1863.64
600.64	1857.17
600.99	1849.60
601.34	1842.70
601.69	1835.77
602.04	1828.79
602.39	1821.42
602.74	1814.45
603.08	1807.70
603.43	1800.95
603.78	1793.69
604.13	1786.40
604.48	1779.06
604.83	1772.18
605.18	1765.09
605.53	1756.93
605.87	1748.91
606.22	1741.69
606.57	1733.74
606.92	1726.46
607.27	1719.22
607.62	1712.28
607.96	1704.97
608.31	1698.42
608.66	1690.79
609.01	1683.36
609.36	1675.84
609.70	1667.90
610.05	1659.80
610.40	1652.12
610.75	1643.87
611.10	1636.30
611.44	1628.06
611.79	1620.05
612.14	1611.45
612.49	1602.46
612.83	1594.18
613.18	1586.02
613.53	1577.92
613.88	1569.36
614.22	1561.22
614.57	1552.73
614.92	1544.79
615.27	1537.22
615.61	1529.00
615.96	1521.09
616.31	1513.49
616.65	1506.24
617.00	1498.73
617.35	1491.23
617.70	1482.91
618.04	1474.50
618.39	1466.28
618.74	1458.81
619.08	1450.72
619.43	1443.27
619.78	1436.40
620.12	1429.33
620.47	1421.93
620.82	1413.86
621.16	1406.60
621.51	1399.02
621.85	1391.49
622.20	1382.98
622.55	1374.75
622.89	1366.85
623.24	1359.22
623.59	1351.84
623.93	1344.34
624.28	1337.13
624.62	1329.58
624.97	1322.54
625.32	1315.78
625.66	1308.85
626.01	1301.59
626.35	1294.22
626.70	1286.48
627.04	1278.84
627.39	1271.15
627.73	1263.73
628.08	1256.79
628.43	1249.46
628.77	1242.08
629.12	1234.57
629.46	1227.42
629.81	1220.11
630.15	1213.07
630.50	1205.77
630.84	1197.75
631.19	1189.94
631.53	1182.49
631.88	1175.04
632.22	1167.43
632.57	1160.27
632.91	1152.79
633.26	1145.48
633.60	1138.08
633.95	1131.07
634.29	1124.00
634.64	1117.33
634.98	1110.12
635.32	1103.05
635.67	1096.61
636.01	1090.12
636.36	1083.41
636.70	1076.93
637.05	1070.44
637.39	1063.98
637.73	1057.51
638.08	1051.59
638.42	1045.65
638.77	1039.36
639.11	1032.77
639.45	1026.53
639.80	1019.89
640.14	1013.49
640.49	1006.94
640.83	1000.77
641.17	994.49
641.52	988.26
641.86	981.97
642.20	976.18
642.55	969.93
642.89	963.44
643.23	956.92
643.58	951.07
643.92	944.97
644.26	938.83
644.61	932.87
644.95	926.88
645.29	920.27
645.64	913.49
645.98	907.15
646.32	901.40
646.66	895.36
647.01	889.52
647.35	883.85
647.69	878.07
648.04	872.60
648.38	866.86
648.72	860.88
649.06	854.73
649.41	848.79
649.75	842.77
650.09	836.94
650.43	831.23
650.78	825.06
651.12	819.16
651.46	813.49
651.80	807.65
652.14	802.20
652.49	796.89
652.83	791.74
653.17	786.06
653.51	780.37
653.85	775.00
654.20	769.42
654.54	763.46
654.88	757.87
655.22	751.95
655.56	746.27
655.90	740.88
656.25	735.72
656.59	730.39
656.93	725.39
657.27	720.24
657.61	714.83
657.95	709.88
658.29	704.86
658.64	699.61
658.98	694.48
659.32	689.16
659.66	684.05
660.00	678.85
660.34	674.07
660.68	669.21
661.02	664.20
661.36	659.53
661.70	655.09
662.05	650.73
662.39	646.47
662.73	642.10
663.07	637.72
663.41	633.37
663.75	629.01
664.09	624.48
664.43	620.13
664.77	616.07
665.11	611.85
665.45	607.80
665.79	603.81
666.13	599.69
666.47	595.63
666.81	591.50
667.15	587.41
667.49	583.47
667.83	579.71
668.17	575.87
668.51	571.83
668.85	567.87
669.19	564.01
669.53	560.20
669.87	556.40
670.21	552.82
670.55	549.20
670.89	545.76
671.23	542.40
671.57	538.91
671.91	535.41
672.25	532.01
672.58	528.49
672.92	525.11
673.26	522.03
673.60	518.92
673.94	515.84
674.28	512.99
674.62	510.04
674.96	506.97
675.30	504.12
675.64	501.24
675.97	498.53
676.31	495.74
676.65	492.84
676.99	490.12
677.33	487.22
677.67	484.43
678.01	481.41
678.34	478.46
678.68	475.61
679.02	472.78
679.36	470.01
679.70	467.30
680.04	464.49
680.37	461.60
680.71	458.72
681.05	456.15
681.39	453.41
681.73	450.79
682.06	448.25
682.40	445.68
682.74	443.13
683.08	440.57
683.42	437.96
683.75	435.43
684.09	432.91
684.43	430.50
684.77	428.03
685.10	425.75
685.44	423.46
685.78	421.23
686.12	419.02
686.45	416.76
686.79	414.47
687.13	412.38
687.46	410.24
687.80	408.17
688.14	405.97
688.48	403.94
688.81	401.73
689.15	399.64
689.49	397.49
689.82	395.40
690.16	393.34
690.50	391.38
690.83	389.52
691.17	387.55
691.51	385.71
691.84	383.87
692.18	381.96
692.52	380.00
692.85	378.06
693.19	376.17
693.52	374.39
693.86	372.61
694.20	370.83
694.53	369.06
694.87	367.21
695.21	365.48
695.54	363.66
695.88	361.95
696.21	360.21
696.55	358.56
696.88	356.95
697.22	355.31
697.56	353.73
697.89	352.05
698.23	350.49
698.56	348.86
698.90	347.28
699.23	345.63
699.57	344.07
699.90	342.58
700.24	341.06
700.58	339.49
700.91	338.00
701.25	336.58
701.58	335.19
701.92	333.92
702.25	332.55
702.59	331.18
702.92	329.88
703.26	328.61
703.59	327.36
703.93	326.19
704.26	324.99
704.60	323.72
704.93	322.47
705.26	321.22
705.60	320.04
705.93	318.93
706.27	317.93
706.60	316.94
706.94	315.89
707.27	314.76
707.61	313.74
707.94	312.72
708.27	311.63
708.61	310.55
708.94	309.54
709.28	308.58
709.61	307.72
709.94	306.76
710.28	305.74
710.61	304.80
710.95	303.72
711.28	302.83
711.61	301.90
711.95	300.99
712.28	300.09
712.61	299.13
712.95	298.20
713.28	297.36
713.61	296.40
713.95	295.50
714.28	294.69
714.61	293.83
714.95	293.00
715.28	292.15
715.61	291.31
715.95	290.48
716.28	289.62
716.61	288.76
716.95	287.98
717.28	287.25
717.61	286.45
717.94	285.70
718.28	284.87
718.61	284.12
718.94	283.46
719.27	282.80
719.61	282.16
719.94	281.49
720.27	280.74
720.60	280.13
720.94	279.49
721.27	278.92
721.60	278.34
721.93	277.73
722.27	277.18
722.60	276.64
722.93	276.02
723.26	275.49
723.59	274.93
723.93	274.36
724.26	273.84
724.59	273.30
724.92	272.77
725.25	272.29
725.59	271.77
725.92	271.28
726.25	270.77
726.58	270.27
726.91	269.79
727.24	269.30
727.57	268.84
727.91	268.33
728.24	267.87
728.57	267.38
728.90	266.96
729.23	266.48
729.56	266.06
729.89	265.60
730.22	265.10
730.55	264.65
730.89	264.18
731.22	263.70
731.55	263.29
731.88	262.88
732.21	262.45
732.54	262.02
732.87	261.58
733.20	261.19
733.53	260.78
733.86	260.40
734.19	259.98
734.52	259.57
734.85	259.30
735.18	258.86
735.51	258.48
735.84	258.11
736.17	257.76
736.50	257.33
736.83	257.12
737.16	256.80
737.49	256.44
737.82	256.11
738.15	255.80
738.48	255.44
738.81	255.13
739.14	254.81
739.47	254.51
739.80	254.20
740.13	253.87
740.46	253.58
740.79	253.25
741.12	252.99
741.45	252.71
741.78	252.35
742.11	252.08
742.44	251.76
742.77	251.47
743.10	251.16
743.43	250.89
743.75	250.51
744.08	250.35
744.41	250.08
744.74	249.81
745.07	249.54
745.40	249.30
745.73	249.08
746.06	248.79
746.39	248.56
746.71	248.29
747.04	248.03
747.37	247.78
747.70	247.54
748.03	247.26
748.36	247.02
748.68	246.75
749.01	246.50
749.34	246.30
749.67	246.08
750.00	245.91
750.33	245.76
750.65	245.55
750.98	245.21
751.31	245.01
751.64	244.84
751.97	244.65
752.29	244.45
752.62	244.18
752.95	243.98
753.28	243.76
753.60	243.58
753.93	243.39
754.26	243.18
754.59	242.94
754.91	242.74
755.24	242.54
755.57	242.38
755.90	242.23
756.22	242.05
756.55	241.83
756.88	241.61
757.20	241.39
757.53	241.18
757.86	240.99
758.19	240.82
758.51	240.64
758.84	240.43
759.17	240.26
759.49	240.10
759.82	239.96
760.15	239.79
760.47	239.66
760.80	239.47
761.13	239.34
761.45	239.18
761.78	239.04
762.11	238.87
762.43	238.67
762.76	238.53
763.08	238.39
763.41	238.29
763.74	238.15
764.06	237.99
764.39	237.88
764.71	237.74
765.04	237.58
765.37	237.41
765.69	237.30
766.02	237.15
766.34	237.01
766.67	236.89
767.00	236.81
767.32	236.70
767.65	236.66
767.97	236.55
768.30	236.49
768.62	236.39
768.95	236.28
769.27	236.21
769.60	236.13
769.92	236.02
770.25	235.87
770.57	235.74
770.90	235.61
771.22	235.46
771.55	235.35
771.87	235.30
772.20	235.22
772.52	235.21
772.85	235.24
773.17	235.17
773.50	235.06
773.82	234.91
774.15	234.76
774.47	234.63
774.80	234.49
775.12	234.38
775.45	234.30
775.77	234.21
776.09	234.13
776.42	234.03
776.74	233.97
777.07	233.90
777.39	233.85
777.72	233.76
778.04	233.75
778.36	233.68
778.69	233.57
779.01	233.50
779.33	233.33
779.66	233.16
779.98	233.05
780.31	232.98
780.63	233.00
780.95	232.98
781.28	232.89
781.60	232.87
781.92	232.82
782.25	232.77
782.57	232.73
782.89	232.66
783.22	232.58
783.54	232.52
783.86	232.51
784.19	232.44
784.51	232.45
784.83	232.37
785.16	232.30
785.48	232.27
785.80	232.26
786.12	232.21
786.45	232.15
786.77	232.13
787.09	232.09
