SpectraSuite Data File
++++++++++++++++++++++++++++++++++++
Date: Fri Feb 01 17:06:00 EST 2013
User: group
Dark Spectrum Present: No
Reference Spectrum Present: No
Number of Sampled Component Spectra: 1
Spectrometers: USB2E7196
Integration Time (usec): 35000 (USB2E7196)
Spectra Averaged: 100 (USB2E7196)
Boxcar Smoothing: 10 (USB2E7196)
Correct for Electrical Dark: No (USB2E7196)
Strobe/Lamp Enabled: No (USB2E7196)
Correct for Detector Non-linearity: No (USB2E7196)
Correct for Stray Light: No (USB2E7196)
Number of Pixels in Processed Spectrum: 2048
>>>>>Begin Processed Spectral Data<<<<<
339.09	0.00
339.48	213.30
339.86	214.79
340.24	215.81
340.63	218.06
341.01	220.82
341.39	220.45
341.78	221.72
342.16	222.87
342.54	223.16
342.93	211.75
343.31	222.46
343.69	223.04
344.07	223.50
344.46	223.96
344.84	224.30
345.22	224.53
345.60	224.76
345.99	224.95
346.37	225.06
346.75	225.17
347.13	225.25
347.52	225.31
347.90	225.37
348.28	225.39
348.66	225.46
349.05	225.47
349.43	225.53
349.81	225.61
350.19	225.67
350.57	225.72
350.96	225.81
351.34	225.90
351.72	225.96
352.10	226.09
352.48	226.13
352.87	226.19
353.25	226.26
353.63	226.32
354.01	226.40
354.39	226.50
354.77	226.56
355.15	226.63
355.54	226.71
355.92	226.74
356.30	226.84
356.68	226.95
357.06	227.02
357.44	227.08
357.82	227.14
358.20	227.18
358.58	227.25
358.97	227.32
359.35	227.36
359.73	227.44
360.11	227.47
360.49	227.55
360.87	227.58
361.25	227.63
361.63	227.73
362.01	227.77
362.39	227.76
362.77	227.80
363.15	227.84
363.53	227.87
363.91	227.92
364.29	227.94
364.67	227.84
365.05	227.84
365.43	227.84
365.81	227.85
366.19	227.92
366.57	227.96
366.95	227.96
367.33	227.95
367.71	227.92
368.09	227.93
368.47	227.89
368.85	227.92
369.23	227.89
369.61	227.81
369.99	227.79
370.37	227.83
370.75	227.84
371.13	227.78
371.51	227.74
371.89	227.68
372.27	227.64
372.65	227.61
373.03	227.56
373.41	227.52
373.78	227.44
374.16	227.32
374.54	227.21
374.92	227.09
375.30	227.03
375.68	226.97
376.06	226.90
376.44	226.85
376.82	226.75
377.19	226.71
377.57	226.59
377.95	226.52
378.33	226.43
378.71	226.32
379.09	226.26
379.47	226.19
379.84	226.11
380.22	226.02
380.60	225.95
380.98	225.88
381.36	225.79
381.73	225.71
382.11	225.68
382.49	225.64
382.87	225.61
383.25	225.56
383.62	225.58
384.00	225.48
384.38	225.43
384.76	225.39
385.13	225.36
385.51	225.35
385.89	225.26
386.27	225.23
386.64	225.18
387.02	225.11
387.40	225.08
387.78	225.08
388.15	225.06
388.53	225.01
388.91	224.99
389.29	224.96
389.66	224.97
390.04	224.93
390.42	224.91
390.79	224.88
391.17	224.86
391.55	224.76
391.92	224.79
392.30	224.79
392.68	224.76
393.05	224.78
393.43	224.78
393.81	224.77
394.18	224.73
394.56	224.75
394.94	224.81
395.31	224.82
395.69	224.83
396.06	224.87
396.44	224.89
396.82	224.90
397.19	224.99
397.57	225.01
397.95	225.07
398.32	225.07
398.70	225.16
399.07	225.23
399.45	225.31
399.82	225.34
400.20	225.38
400.58	225.47
400.95	225.46
401.33	225.56
401.70	225.74
402.08	225.86
402.45	225.93
402.83	226.01
403.20	226.11
403.58	226.21
403.95	226.33
404.33	226.46
404.71	226.59
405.08	226.73
405.46	226.85
405.83	226.97
406.21	227.15
406.58	227.30
406.96	227.43
407.33	227.59
407.70	227.80
408.08	228.08
408.45	228.28
408.83	228.53
409.20	228.73
409.58	228.89
409.95	229.14
410.33	229.43
410.70	229.70
411.08	229.97
411.45	230.30
411.82	230.65
412.20	231.00
412.57	231.43
412.95	231.75
413.32	232.16
413.69	232.59
414.07	233.02
414.44	233.48
414.82	233.97
415.19	234.50
415.56	235.00
415.94	235.52
416.31	236.17
416.68	236.79
417.06	237.49
417.43	238.20
417.81	238.95
418.18	239.69
418.55	240.50
418.93	241.37
419.30	242.24
419.67	243.13
420.04	244.07
420.42	245.03
420.79	246.21
421.16	247.38
421.54	248.55
421.91	249.76
422.28	250.99
422.66	252.34
423.03	253.67
423.40	255.02
423.77	256.44
424.15	257.83
424.52	259.31
424.89	260.95
425.26	262.47
425.64	263.92
426.01	265.52
426.38	267.20
426.75	268.87
427.13	270.62
427.50	272.40
427.87	274.24
428.24	276.09
428.61	277.84
428.99	279.75
429.36	281.83
429.73	283.86
430.10	285.86
430.47	287.89
430.85	289.95
431.22	292.16
431.59	294.51
431.96	296.72
432.33	299.13
432.70	301.47
433.08	304.27
433.45	306.90
433.82	309.47
434.19	312.33
434.56	315.12
434.93	317.72
435.30	320.29
435.68	323.17
436.05	325.97
436.42	328.73
436.79	331.20
437.16	333.84
437.53	336.63
437.90	339.37
438.27	342.08
438.64	344.85
439.01	347.41
439.38	349.58
439.75	351.77
440.13	354.27
440.50	356.56
440.87	358.34
441.24	360.26
441.61	362.41
441.98	363.89
442.35	365.65
442.72	367.48
443.09	369.30
443.46	370.28
443.83	370.86
444.20	371.33
444.57	372.20
444.94	372.51
445.31	372.89
445.68	373.32
446.05	373.41
446.42	373.06
446.79	372.74
447.16	372.36
447.53	372.06
447.90	370.93
448.27	369.80
448.64	368.31
449.01	367.20
449.37	365.26
449.74	363.35
450.11	361.11
450.48	358.69
450.85	356.18
451.22	354.09
451.59	352.10
451.96	350.21
452.33	347.62
452.70	345.32
453.07	342.49
453.43	339.58
453.80	336.82
454.17	334.17
454.54	331.57
454.91	328.86
455.28	326.19
455.65	323.71
456.02	321.29
456.38	319.08
456.75	316.47
457.12	314.25
457.49	312.07
457.86	309.95
458.23	308.12
458.59	306.07
458.96	303.99
459.33	302.14
459.70	300.26
460.07	298.78
460.43	297.05
460.80	295.46
461.17	294.08
461.54	292.57
461.91	291.20
462.27	289.79
462.64	288.57
463.01	287.24
463.38	285.98
463.74	284.64
464.11	283.50
464.48	282.48
464.85	281.36
465.21	280.49
465.58	279.58
465.95	278.47
466.32	277.63
466.68	276.76
467.05	275.91
467.42	275.02
467.78	274.11
468.15	273.28
468.52	272.63
468.88	271.75
469.25	271.01
469.62	270.40
469.98	269.74
470.35	269.14
470.72	268.56
471.08	267.95
471.45	267.43
471.82	266.93
472.18	266.35
472.55	265.95
472.92	265.47
473.28	265.03
473.65	264.66
474.02	264.23
474.38	263.88
474.75	263.60
475.11	263.30
475.48	263.06
475.85	262.83
476.21	262.60
476.58	262.45
476.94	262.35
477.31	262.17
477.67	262.05
478.04	261.92
478.41	261.84
478.77	261.89
479.14	261.84
479.50	261.86
479.87	261.93
480.23	262.03
480.60	262.13
480.96	262.23
481.33	262.43
481.69	262.62
482.06	262.82
482.42	263.03
482.79	263.30
483.15	263.59
483.52	263.96
483.88	264.31
484.25	264.73
484.61	265.14
484.98	265.59
485.34	266.14
485.71	266.72
486.07	267.36
486.44	267.92
486.80	268.60
487.17	269.33
487.53	270.14
487.90	270.98
488.26	271.90
488.62	272.83
488.99	273.80
489.35	274.87
489.72	275.96
490.08	277.14
490.44	278.35
490.81	279.71
491.17	281.05
491.54	282.52
491.90	284.00
492.26	285.64
492.63	287.39
492.99	289.13
493.36	291.02
493.72	293.07
494.08	295.15
494.45	297.39
494.81	299.73
495.17	302.15
495.54	304.67
495.90	307.33
496.26	310.11
496.63	313.07
496.99	316.12
497.35	319.38
497.72	322.77
498.08	326.33
498.44	329.98
498.80	333.88
499.17	337.92
499.53	342.11
499.89	346.50
500.26	350.94
500.62	355.60
500.98	360.51
501.34	365.52
501.71	370.82
502.07	376.25
502.43	381.79
502.79	387.53
503.16	393.60
503.52	399.84
503.88	406.23
504.24	412.84
504.60	419.72
504.97	426.77
505.33	433.99
505.69	441.62
506.05	449.28
506.41	457.12
506.78	465.22
507.14	473.56
507.50	482.08
507.86	491.05
508.22	500.16
508.59	509.28
508.95	518.78
509.31	528.49
509.67	538.42
510.03	548.58
510.39	558.91
510.75	569.51
511.12	580.28
511.48	591.46
511.84	602.71
512.20	614.00
512.56	625.76
512.92	637.75
513.28	649.90
513.64	662.18
514.00	674.68
514.37	687.37
514.73	700.26
515.09	713.16
515.45	726.14
515.81	739.42
516.17	753.14
516.53	766.98
516.89	780.88
517.25	794.75
517.61	808.90
517.97	823.19
518.33	837.37
518.69	851.74
519.05	866.36
519.41	881.18
519.77	896.40
520.13	911.52
520.49	926.58
520.85	941.68
521.21	957.10
521.57	972.90
521.93	988.39
522.29	1004.32
522.65	1020.16
523.01	1036.05
523.37	1051.76
523.73	1067.60
524.09	1083.29
524.45	1099.16
524.81	1115.44
525.17	1131.95
525.53	1148.50
525.89	1164.96
526.25	1181.51
526.61	1197.60
526.97	1213.95
527.33	1230.14
527.68	1246.32
528.04	1262.40
528.40	1278.43
528.76	1295.04
529.12	1311.20
529.48	1327.66
529.84	1343.30
530.20	1359.55
530.56	1376.12
530.91	1393.13
531.27	1409.52
531.63	1425.55
531.99	1441.86
532.35	1457.52
532.71	1472.99
533.07	1488.74
533.42	1504.28
533.78	1519.99
534.14	1535.88
534.50	1550.95
534.86	1566.44
535.21	1581.34
535.57	1596.92
535.93	1612.11
536.29	1626.66
536.65	1641.40
537.00	1655.77
537.36	1670.69
537.72	1684.86
538.08	1699.01
538.44	1712.44
538.79	1726.03
539.15	1739.44
539.51	1752.71
539.87	1766.71
540.22	1779.95
540.58	1793.37
540.94	1806.30
541.29	1818.75
541.65	1830.98
542.01	1843.73
542.37	1855.69
542.72	1867.76
543.08	1879.25
543.44	1891.45
543.79	1902.36
544.15	1913.11
544.51	1924.41
544.87	1935.12
545.22	1945.79
545.58	1955.74
545.94	1965.47
546.29	1975.06
546.65	1984.75
547.01	1993.96
547.36	2002.41
547.72	2010.83
548.07	2018.69
548.43	2026.80
548.79	2034.71
549.14	2042.21
549.50	2049.38
549.86	2056.94
550.21	2064.21
550.57	2071.20
550.92	2077.64
551.28	2084.68
551.64	2091.61
551.99	2098.08
552.35	2104.28
552.70	2110.36
553.06	2116.33
553.41	2122.46
553.77	2128.49
554.13	2134.41
554.48	2140.43
554.84	2146.03
555.19	2151.31
555.55	2156.49
555.90	2160.92
556.26	2166.04
556.61	2170.72
556.97	2175.24
557.32	2179.30
557.68	2183.38
558.03	2187.83
558.39	2191.49
558.74	2196.02
559.10	2199.96
559.45	2203.69
559.81	2207.86
560.16	2211.75
560.52	2215.21
560.87	2218.68
561.23	2221.30
561.58	2224.26
561.94	2226.92
562.29	2229.34
562.64	2232.30
563.00	2234.85
563.35	2238.39
563.71	2241.43
564.06	2244.62
564.42	2247.57
564.77	2250.40
565.12	2252.99
565.48	2255.13
565.83	2257.19
566.19	2258.73
566.54	2259.77
566.89	2261.20
567.25	2262.09
567.60	2263.30
567.96	2265.17
568.31	2266.13
568.66	2267.57
569.02	2268.42
569.37	2269.07
569.72	2270.10
570.08	2270.34
570.43	2270.63
570.78	2270.45
571.14	2269.04
571.49	2267.97
571.84	2267.72
572.20	2266.80
572.55	2265.88
572.90	2264.19
573.26	2263.10
573.61	2261.51
573.96	2260.05
574.31	2257.17
574.67	2254.47
575.02	2251.35
575.37	2247.89
575.72	2244.54
576.08	2241.23
576.43	2238.06
576.78	2234.59
577.13	2231.47
577.49	2228.47
577.84	2225.20
578.19	2221.55
578.54	2218.38
578.90	2214.61
579.25	2209.40
579.60	2204.70
579.95	2200.00
580.30	2195.31
580.66	2190.41
581.01	2185.74
581.36	2180.97
581.71	2177.19
582.06	2173.03
582.42	2168.80
582.77	2163.92
583.12	2159.48
583.47	2155.14
583.82	2150.51
584.17	2145.51
584.53	2140.35
584.88	2134.86
585.23	2129.38
585.58	2124.16
585.93	2118.83
586.28	2114.10
586.63	2109.35
586.98	2104.43
587.34	2099.73
587.69	2095.12
588.04	2090.13
588.39	2084.55
588.74	2078.31
589.09	2072.27
589.44	2065.56
589.79	2059.54
590.14	2054.15
590.49	2047.70
590.84	2041.40
591.19	2035.38
591.54	2029.09
591.89	2022.00
592.25	2015.66
592.60	2008.67
592.95	2001.31
593.30	1994.11
593.65	1986.79
594.00	1979.74
594.35	1972.68
594.70	1964.94
595.05	1958.10
595.40	1950.95
595.75	1943.74
596.10	1937.82
596.45	1931.24
596.80	1925.46
597.15	1919.27
597.50	1912.36
597.85	1906.10
598.19	1899.75
598.54	1893.05
598.89	1886.42
599.24	1880.62
599.59	1874.16
599.94	1868.04
600.29	1861.94
600.64	1855.57
600.99	1848.24
601.34	1841.67
601.69	1834.72
602.04	1827.96
602.39	1820.63
602.74	1814.00
603.08	1807.48
603.43	1800.80
603.78	1793.53
604.13	1786.40
604.48	1779.21
604.83	1772.51
605.18	1765.96
605.53	1758.04
605.87	1750.14
606.22	1743.04
606.57	1735.28
606.92	1727.83
607.27	1720.80
607.62	1713.98
607.96	1706.99
608.31	1700.57
608.66	1693.18
609.01	1685.87
609.36	1678.45
609.70	1670.60
610.05	1662.60
610.40	1654.92
610.75	1646.71
611.10	1639.25
611.44	1630.86
611.79	1622.83
612.14	1614.22
612.49	1604.91
612.83	1596.64
613.18	1588.57
613.53	1580.50
613.88	1572.02
614.22	1563.94
614.57	1555.34
614.92	1547.39
615.27	1539.83
615.61	1531.66
615.96	1523.57
616.31	1515.92
616.65	1508.60
617.00	1501.03
617.35	1493.46
617.70	1485.30
618.04	1476.90
618.39	1468.73
618.74	1461.12
619.08	1452.89
619.43	1445.33
619.78	1438.48
620.12	1431.42
620.47	1424.03
620.82	1415.94
621.16	1408.58
621.51	1400.99
621.85	1393.50
622.20	1384.97
622.55	1376.59
622.89	1368.66
623.24	1361.04
623.59	1353.57
623.93	1346.21
624.28	1339.06
624.62	1331.62
624.97	1324.45
625.32	1317.74
625.66	1310.69
626.01	1303.60
626.35	1296.23
626.70	1288.50
627.04	1280.91
627.39	1273.15
627.73	1265.74
628.08	1258.89
628.43	1251.72
628.77	1244.39
629.12	1236.97
629.46	1229.86
629.81	1222.31
630.15	1215.11
630.50	1207.80
630.84	1199.91
631.19	1191.88
631.53	1184.35
631.88	1176.69
632.22	1169.14
632.57	1161.77
632.91	1154.32
633.26	1147.03
633.60	1139.65
633.95	1132.52
634.29	1125.41
634.64	1118.69
634.98	1111.43
635.32	1104.30
635.67	1097.54
636.01	1090.97
636.36	1084.20
636.70	1077.69
637.05	1071.26
637.39	1064.85
637.73	1058.40
638.08	1052.41
638.42	1046.51
638.77	1040.23
639.11	1033.80
639.45	1027.46
639.80	1020.88
640.14	1014.57
640.49	1008.09
640.83	1001.85
641.17	995.72
641.52	989.48
641.86	983.03
642.20	977.13
642.55	970.80
642.89	964.51
643.23	957.98
643.58	952.24
643.92	946.14
644.26	940.27
644.61	934.15
644.95	928.23
645.29	921.75
645.64	915.11
645.98	908.69
646.32	902.81
646.66	896.86
647.01	891.10
647.35	885.39
647.69	879.49
648.04	873.90
648.38	868.08
648.72	862.12
649.06	856.14
649.41	850.29
649.75	844.45
650.09	838.51
650.43	832.76
650.78	826.58
651.12	820.65
651.46	814.91
651.80	809.33
652.14	803.92
652.49	798.57
652.83	793.38
653.17	787.82
653.51	782.19
653.85	776.77
654.20	771.24
654.54	765.28
654.88	759.57
655.22	753.74
655.56	748.16
655.90	742.71
656.25	737.53
656.59	732.17
656.93	727.15
657.27	722.06
657.61	716.62
657.95	711.59
658.29	706.51
658.64	701.20
658.98	695.95
659.32	690.52
659.66	685.30
660.00	680.07
660.34	675.09
660.68	670.21
661.02	665.15
661.36	660.50
661.70	656.02
662.05	651.71
662.39	647.48
662.73	643.08
663.07	638.77
663.41	634.39
663.75	630.03
664.09	625.44
664.43	621.02
664.77	616.93
665.11	612.70
665.45	608.57
665.79	604.51
666.13	600.40
666.47	596.30
666.81	592.22
667.15	588.06
667.49	584.20
667.83	580.30
668.17	576.46
668.51	572.36
668.85	568.41
669.19	564.51
669.53	560.74
669.87	556.87
670.21	553.16
670.55	549.49
670.89	546.01
671.23	542.60
671.57	539.14
671.91	535.67
672.25	532.16
672.58	528.67
672.92	525.28
673.26	522.07
673.60	518.92
673.94	515.85
674.28	512.94
674.62	509.99
674.96	506.96
675.30	504.05
675.64	501.16
675.97	498.35
676.31	495.53
676.65	492.57
676.99	489.88
677.33	487.01
677.67	484.20
678.01	481.18
678.34	478.24
678.68	475.36
679.02	472.55
679.36	469.79
679.70	467.07
680.04	464.35
680.37	461.55
680.71	458.80
681.05	456.20
681.39	453.53
681.73	450.88
682.06	448.37
682.40	445.79
682.74	443.18
683.08	440.66
683.42	438.10
683.75	435.64
684.09	433.00
684.43	430.53
684.77	428.12
685.10	425.78
685.44	423.47
685.78	421.18
686.12	418.92
686.45	416.65
686.79	414.35
687.13	412.16
687.46	410.00
687.80	407.80
688.14	405.52
688.48	403.49
688.81	401.24
689.15	399.08
689.49	396.97
689.82	394.93
690.16	392.79
690.50	390.84
690.83	388.86
691.17	386.93
691.51	385.00
691.84	383.12
692.18	381.29
692.52	379.40
692.85	377.44
693.19	375.58
693.52	373.73
693.86	371.92
694.20	370.14
694.53	368.33
694.87	366.48
695.21	364.69
695.54	362.80
695.88	361.08
696.21	359.35
696.55	357.63
696.88	355.95
697.22	354.33
697.56	352.67
697.89	351.06
698.23	349.51
698.56	347.94
698.90	346.40
699.23	344.69
699.57	343.08
699.90	341.53
700.24	339.97
700.58	338.49
700.91	336.98
701.25	335.56
701.58	334.19
701.92	332.87
702.25	331.52
702.59	330.18
702.92	328.90
703.26	327.60
703.59	326.37
703.93	325.19
704.26	323.95
704.60	322.67
704.93	321.41
705.26	320.13
705.60	318.97
705.93	317.78
706.27	316.78
706.60	315.72
706.94	314.68
707.27	313.59
707.61	312.48
707.94	311.49
708.27	310.38
708.61	309.32
708.94	308.30
709.28	307.31
709.61	306.37
709.94	305.38
710.28	304.36
710.61	303.34
710.95	302.22
711.28	301.32
711.61	300.36
711.95	299.46
712.28	298.52
712.61	297.55
712.95	296.60
713.28	295.67
713.61	294.79
713.95	293.90
714.28	293.05
714.61	292.18
714.95	291.32
715.28	290.47
715.61	289.60
715.95	288.76
716.28	287.90
716.61	287.03
716.95	286.25
717.28	285.51
717.61	284.78
717.94	284.07
718.28	283.24
718.61	282.51
718.94	281.81
719.27	281.15
719.61	280.47
719.94	279.81
720.27	279.10
720.60	278.43
720.94	277.79
721.27	277.18
721.60	276.67
721.93	276.09
722.27	275.53
722.60	274.95
722.93	274.38
723.26	273.82
723.59	273.30
723.93	272.75
724.26	272.20
724.59	271.65
724.92	271.12
725.25	270.63
725.59	270.11
725.92	269.61
726.25	269.08
726.58	268.59
726.91	268.13
727.24	267.64
727.57	267.16
727.91	266.65
728.24	266.15
728.57	265.62
728.90	265.12
729.23	264.63
729.56	264.21
729.89	263.70
730.22	263.23
730.55	262.76
730.89	262.28
731.22	261.81
731.55	261.35
731.88	260.92
732.21	260.50
732.54	260.05
732.87	259.60
733.20	259.20
733.53	258.83
733.86	258.44
734.19	258.02
734.52	257.64
734.85	257.31
735.18	256.88
735.51	256.52
735.84	256.18
736.17	255.80
736.50	255.38
736.83	255.20
737.16	254.85
737.49	254.52
737.82	254.19
738.15	253.88
738.48	253.54
738.81	253.22
739.14	252.87
739.47	252.60
739.80	252.31
740.13	252.01
740.46	251.63
740.79	251.29
741.12	251.04
741.45	250.72
741.78	250.39
742.11	250.12
742.44	249.81
742.77	249.52
743.10	249.24
743.43	248.96
743.75	248.55
744.08	248.42
744.41	248.15
744.74	247.88
745.07	247.60
745.40	247.35
745.73	247.11
746.06	246.86
746.39	246.61
746.71	246.32
747.04	246.07
747.37	245.83
747.70	245.62
748.03	245.36
748.36	245.19
748.68	244.98
749.01	244.76
749.34	244.57
749.67	244.34
750.00	244.09
750.33	243.95
750.65	243.78
750.98	243.44
751.31	243.23
751.64	243.04
751.97	242.92
752.29	242.71
752.62	242.46
752.95	242.26
753.28	242.02
753.60	241.83
753.93	241.71
754.26	241.56
754.59	241.32
754.91	241.12
755.24	240.88
755.57	240.71
755.90	240.52
756.22	240.32
756.55	240.15
756.88	239.99
757.20	239.77
757.53	239.56
757.86	239.40
758.19	239.27
758.51	239.12
758.84	238.88
759.17	238.74
759.49	238.59
759.82	238.47
760.15	238.33
760.47	238.18
760.80	237.96
761.13	237.83
761.45	237.68
761.78	237.55
762.11	237.38
762.43	237.21
762.76	237.08
763.08	236.93
763.41	236.79
763.74	236.64
764.06	236.49
764.39	236.33
764.71	236.16
765.04	235.94
765.37	235.77
765.69	235.64
766.02	235.51
766.34	235.38
766.67	235.21
767.00	235.13
767.32	235.04
767.65	234.98
767.97	234.83
768.30	234.72
768.62	234.59
768.95	234.48
769.27	234.38
769.60	234.25
769.92	234.12
770.25	233.98
770.57	233.83
770.90	233.74
771.22	233.64
771.55	233.54
771.87	233.47
772.20	233.36
772.52	233.33
772.85	233.32
773.17	233.21
773.50	233.10
773.82	232.93
774.15	232.78
774.47	232.58
774.80	232.46
775.12	232.33
775.45	232.26
775.77	232.16
776.09	232.05
776.42	231.94
776.74	231.86
777.07	231.80
777.39	231.79
777.72	231.65
778.04	231.60
778.36	231.51
778.69	231.44
779.01	231.35
779.33	231.18
779.66	230.98
779.98	230.90
780.31	230.83
780.63	230.83
780.95	230.77
781.28	230.73
781.60	230.67
781.92	230.60
782.25	230.55
782.57	230.48
782.89	230.43
783.22	230.39
783.54	230.33
783.86	230.25
784.19	230.18
784.51	230.16
784.83	230.09
785.16	230.03
785.48	229.99
785.80	229.95
786.12	229.94
786.45	229.93
786.77	229.91
787.09	229.88
