SpectraSuite Data File
++++++++++++++++++++++++++++++++++++
Date: Fri Feb 01 16:37:50 EST 2013
User: group
Dark Spectrum Present: No
Reference Spectrum Present: No
Number of Sampled Component Spectra: 1
Spectrometers: USB2E7196
Integration Time (usec): 35000 (USB2E7196)
Spectra Averaged: 100 (USB2E7196)
Boxcar Smoothing: 10 (USB2E7196)
Correct for Electrical Dark: No (USB2E7196)
Strobe/Lamp Enabled: No (USB2E7196)
Correct for Detector Non-linearity: No (USB2E7196)
Correct for Stray Light: No (USB2E7196)
Number of Pixels in Processed Spectrum: 2048
>>>>>Begin Processed Spectral Data<<<<<
339.09	0.00
339.48	214.09
339.86	215.41
340.24	217.30
340.63	218.76
341.01	221.66
341.39	221.32
341.78	222.54
342.16	223.45
342.54	224.56
342.93	212.70
343.31	223.42
343.69	223.97
344.07	224.45
344.46	224.89
344.84	225.21
345.22	225.41
345.60	225.63
345.99	225.76
346.37	225.89
346.75	225.96
347.13	226.05
347.52	226.08
347.90	226.12
348.28	226.10
348.66	226.13
349.05	226.09
349.43	226.12
349.81	226.13
350.19	226.14
350.57	226.17
350.96	226.25
351.34	226.32
351.72	226.41
352.10	226.49
352.48	226.51
352.87	226.58
353.25	226.66
353.63	226.73
354.01	226.85
354.39	226.91
354.77	227.00
355.15	227.06
355.54	227.10
355.92	227.12
356.30	227.17
356.68	227.30
357.06	227.39
357.44	227.44
357.82	227.50
358.20	227.55
358.58	227.60
358.97	227.65
359.35	227.73
359.73	227.76
360.11	227.79
360.49	227.82
360.87	227.85
361.25	227.89
361.63	227.96
362.01	227.99
362.39	228.00
362.77	228.01
363.15	228.01
363.53	228.03
363.91	228.07
364.29	228.11
364.67	228.05
365.05	228.07
365.43	228.11
365.81	228.16
366.19	228.25
366.57	228.28
366.95	228.23
367.33	228.21
367.71	228.22
368.09	228.23
368.47	228.25
368.85	228.25
369.23	228.23
369.61	228.17
369.99	228.16
370.37	228.17
370.75	228.22
371.13	228.18
371.51	228.18
371.89	228.14
372.27	228.11
372.65	228.04
373.03	227.99
373.41	227.89
373.78	227.79
374.16	227.68
374.54	227.60
374.92	227.58
375.30	227.54
375.68	227.47
376.06	227.42
376.44	227.37
376.82	227.33
377.19	227.29
377.57	227.22
377.95	227.13
378.33	227.06
378.71	226.97
379.09	226.93
379.47	226.86
379.84	226.83
380.22	226.74
380.60	226.67
380.98	226.59
381.36	226.54
381.73	226.48
382.11	226.42
382.49	226.39
382.87	226.28
383.25	226.24
383.62	226.30
384.00	226.21
384.38	226.17
384.76	226.14
385.13	226.12
385.51	226.07
385.89	226.01
386.27	225.94
386.64	225.87
387.02	225.80
387.40	225.77
387.78	225.70
388.15	225.69
388.53	225.68
388.91	225.65
389.29	225.63
389.66	225.62
390.04	225.60
390.42	225.58
390.79	225.58
391.17	225.52
391.55	225.38
391.92	225.39
392.30	225.36
392.68	225.30
393.05	225.27
393.43	225.29
393.81	225.28
394.18	225.29
394.56	225.30
394.94	225.34
395.31	225.33
395.69	225.37
396.06	225.40
396.44	225.40
396.82	225.45
397.19	225.53
397.57	225.57
397.95	225.60
398.32	225.64
398.70	225.70
399.07	225.78
399.45	225.82
399.82	225.87
400.20	225.90
400.58	225.93
400.95	225.97
401.33	226.04
401.70	226.19
402.08	226.29
402.45	226.39
402.83	226.53
403.20	226.62
403.58	226.73
403.95	226.83
404.33	227.00
404.71	227.11
405.08	227.27
405.46	227.39
405.83	227.55
406.21	227.66
406.58	227.85
406.96	228.04
407.33	228.24
407.70	228.41
408.08	228.71
408.45	228.96
408.83	229.20
409.20	229.40
409.58	229.58
409.95	229.82
410.33	230.13
410.70	230.34
411.08	230.64
411.45	230.97
411.82	231.29
412.20	231.63
412.57	232.02
412.95	232.36
413.32	232.77
413.69	233.16
414.07	233.58
414.44	234.05
414.82	234.49
415.19	235.03
415.56	235.59
415.94	236.15
416.31	236.80
416.68	237.43
417.06	238.15
417.43	238.83
417.81	239.63
418.18	240.36
418.55	241.22
418.93	242.11
419.30	242.99
419.67	243.91
420.04	244.89
420.42	245.92
420.79	247.08
421.16	248.23
421.54	249.42
421.91	250.66
422.28	251.91
422.66	253.21
423.03	254.52
423.40	255.86
423.77	257.25
424.15	258.69
424.52	260.20
424.89	261.82
425.26	263.33
425.64	264.76
426.01	266.36
426.38	268.00
426.75	269.67
427.13	271.36
427.50	273.17
427.87	275.02
428.24	276.82
428.61	278.56
428.99	280.49
429.36	282.57
429.73	284.57
430.10	286.54
430.47	288.62
430.85	290.72
431.22	292.94
431.59	295.29
431.96	297.48
432.33	299.88
432.70	302.23
433.08	305.07
433.45	307.69
433.82	310.28
434.19	313.12
434.56	315.90
434.93	318.51
435.30	321.11
435.68	323.97
436.05	326.78
436.42	329.51
436.79	332.02
437.16	334.68
437.53	337.51
437.90	340.29
438.27	343.02
438.64	345.81
439.01	348.39
439.38	350.60
439.75	352.78
440.13	355.25
440.50	357.52
440.87	359.35
441.24	361.25
441.61	363.38
441.98	364.90
442.35	366.67
442.72	368.52
443.09	370.28
443.46	371.25
443.83	371.84
444.20	372.40
444.57	373.20
444.94	373.51
445.31	373.84
445.68	374.22
446.05	374.29
446.42	373.94
446.79	373.51
447.16	373.04
447.53	372.69
447.90	371.56
448.27	370.40
448.64	368.82
449.01	367.68
449.37	365.69
449.74	363.76
450.11	361.54
450.48	359.12
450.85	356.63
451.22	354.52
451.59	352.48
451.96	350.49
452.33	347.94
452.70	345.60
453.07	342.79
453.43	339.93
453.80	337.16
454.17	334.49
454.54	331.97
454.91	329.25
455.28	326.62
455.65	324.19
456.02	321.81
456.38	319.68
456.75	317.06
457.12	314.84
457.49	312.64
457.86	310.50
458.23	308.65
458.59	306.64
458.96	304.57
459.33	302.80
459.70	300.96
460.07	299.44
460.43	297.73
460.80	296.15
461.17	294.72
461.54	293.26
461.91	291.84
462.27	290.42
462.64	289.25
463.01	287.90
463.38	286.62
463.74	285.28
464.11	284.16
464.48	283.17
464.85	282.11
465.21	281.29
465.58	280.33
465.95	279.24
466.32	278.34
466.68	277.46
467.05	276.55
467.42	275.68
467.78	274.79
468.15	273.95
468.52	273.28
468.88	272.41
469.25	271.68
469.62	271.08
469.98	270.42
470.35	269.80
470.72	269.22
471.08	268.55
471.45	268.04
471.82	267.52
472.18	266.94
472.55	266.52
472.92	266.02
473.28	265.61
473.65	265.21
474.02	264.78
474.38	264.40
474.75	264.12
475.11	263.80
475.48	263.54
475.85	263.35
476.21	263.16
476.58	263.02
476.94	262.86
477.31	262.70
477.67	262.55
478.04	262.44
478.41	262.41
478.77	262.47
479.14	262.36
479.50	262.36
479.87	262.40
480.23	262.45
480.60	262.47
480.96	262.57
481.33	262.76
481.69	262.94
482.06	263.14
482.42	263.30
482.79	263.58
483.15	263.90
483.52	264.25
483.88	264.55
484.25	264.90
484.61	265.31
484.98	265.75
485.34	266.30
485.71	266.84
486.07	267.43
486.44	268.00
486.80	268.70
487.17	269.41
487.53	270.21
487.90	271.06
488.26	271.99
488.62	272.95
488.99	273.94
489.35	274.98
489.72	276.09
490.08	277.31
490.44	278.52
490.81	279.83
491.17	281.15
491.54	282.64
491.90	284.17
492.26	285.81
492.63	287.54
492.99	289.31
493.36	291.25
493.72	293.30
494.08	295.41
494.45	297.70
494.81	300.08
495.17	302.51
495.54	305.11
495.90	307.85
496.26	310.72
496.63	313.70
496.99	316.82
497.35	320.09
497.72	323.51
498.08	327.02
498.44	330.71
498.80	334.62
499.17	338.68
499.53	342.88
499.89	347.26
500.26	351.79
500.62	356.45
500.98	361.44
501.34	366.53
501.71	371.84
502.07	377.30
502.43	382.94
502.79	388.78
503.16	394.80
503.52	401.07
503.88	407.39
504.24	414.00
504.60	420.92
504.97	428.11
505.33	435.44
505.69	443.19
506.05	450.95
506.41	458.88
506.78	467.06
507.14	475.50
507.50	484.26
507.86	493.32
508.22	502.55
508.59	511.75
508.95	521.31
509.31	531.18
509.67	541.25
510.03	551.54
510.39	562.17
510.75	572.95
511.12	583.86
511.48	595.16
511.84	606.53
512.20	617.97
512.56	629.86
512.92	642.07
513.28	654.37
513.64	666.89
514.00	679.58
514.37	692.42
514.73	705.46
515.09	718.41
515.45	731.62
515.81	745.14
516.17	759.12
516.53	773.19
516.89	787.35
517.25	801.45
517.61	815.81
517.97	830.21
518.33	844.62
518.69	859.34
519.05	874.31
519.41	889.49
519.77	904.91
520.13	920.32
520.49	935.60
520.85	950.94
521.21	966.50
521.57	982.65
521.93	998.38
522.29	1014.55
522.65	1030.81
523.01	1046.91
523.37	1062.80
523.73	1078.76
524.09	1094.78
524.45	1110.92
524.81	1127.45
525.17	1144.03
525.53	1160.74
525.89	1177.56
526.25	1194.24
526.61	1210.47
526.97	1227.15
527.33	1243.53
527.68	1259.90
528.04	1276.25
528.40	1292.66
528.76	1309.62
529.12	1326.17
529.48	1342.98
529.84	1359.01
530.20	1375.47
530.56	1392.32
530.91	1409.66
531.27	1426.30
531.63	1442.60
531.99	1459.06
532.35	1474.90
532.71	1490.70
533.07	1506.74
533.42	1522.53
533.78	1538.55
534.14	1554.68
534.50	1569.84
534.86	1585.62
535.21	1600.71
535.57	1616.46
535.93	1631.83
536.29	1646.46
536.65	1661.19
537.00	1675.70
537.36	1690.92
537.72	1705.17
538.08	1719.55
538.44	1733.18
538.79	1746.91
539.15	1760.32
539.51	1773.92
539.87	1788.04
540.22	1801.64
540.58	1815.28
540.94	1828.37
541.29	1840.94
541.65	1853.32
542.01	1866.34
542.37	1878.46
542.72	1890.72
543.08	1902.29
543.44	1914.51
543.79	1925.67
544.15	1936.64
544.51	1948.19
544.87	1959.01
545.22	1969.89
545.58	1980.02
545.94	1989.71
546.29	1999.46
546.65	2009.27
547.01	2018.44
547.36	2027.14
547.72	2035.54
548.07	2043.43
548.43	2051.62
548.79	2059.47
549.14	2067.23
549.50	2074.52
549.86	2082.12
550.21	2089.43
550.57	2096.67
550.92	2103.28
551.28	2110.27
551.64	2117.20
551.99	2123.59
552.35	2129.66
552.70	2135.78
553.06	2141.67
553.41	2148.11
553.77	2154.09
554.13	2160.20
554.48	2166.31
554.84	2171.88
555.19	2177.20
555.55	2182.36
555.90	2186.80
556.26	2191.93
556.61	2196.48
556.97	2200.96
557.32	2205.20
557.68	2209.36
558.03	2213.64
558.39	2217.22
558.74	2221.85
559.10	2225.88
559.45	2229.47
559.81	2233.71
560.16	2237.54
560.52	2240.76
560.87	2244.05
561.23	2246.82
561.58	2249.80
561.94	2252.40
562.29	2254.70
562.64	2257.52
563.00	2259.95
563.35	2263.41
563.71	2266.60
564.06	2269.81
564.42	2272.73
564.77	2275.24
565.12	2277.75
565.48	2279.74
565.83	2281.96
566.19	2283.40
566.54	2284.24
566.89	2285.58
567.25	2286.38
567.60	2287.62
567.96	2289.40
568.31	2290.26
568.66	2291.40
569.02	2292.04
569.37	2292.34
569.72	2293.25
570.08	2293.40
570.43	2293.55
570.78	2293.10
571.14	2291.47
571.49	2290.22
571.84	2289.70
572.20	2288.66
572.55	2287.54
572.90	2285.88
573.26	2284.36
573.61	2282.58
573.96	2280.96
574.31	2278.08
574.67	2274.99
575.02	2271.39
575.37	2268.03
575.72	2264.31
576.08	2260.93
576.43	2257.50
576.78	2253.97
577.13	2250.80
577.49	2247.56
577.84	2244.30
578.19	2240.59
578.54	2237.22
578.90	2233.08
579.25	2227.67
579.60	2222.89
579.95	2217.95
580.30	2212.96
580.66	2207.91
581.01	2203.03
581.36	2198.16
581.71	2193.94
582.06	2189.75
582.42	2185.38
582.77	2180.25
583.12	2175.89
583.47	2171.48
583.82	2166.73
584.17	2161.58
584.53	2156.16
584.88	2150.71
585.23	2144.95
585.58	2139.43
585.93	2133.75
586.28	2129.01
586.63	2124.15
586.98	2119.01
587.34	2114.33
587.69	2109.50
588.04	2104.34
588.39	2098.70
588.74	2092.32
589.09	2086.23
589.44	2079.59
589.79	2073.55
590.14	2067.97
590.49	2061.41
590.84	2054.91
591.19	2048.94
591.54	2042.56
591.89	2035.47
592.25	2028.90
592.60	2021.74
592.95	2014.44
593.30	2007.33
593.65	1999.66
594.00	1992.50
594.35	1985.33
594.70	1977.27
595.05	1970.31
595.40	1963.00
595.75	1955.40
596.10	1949.35
596.45	1942.82
596.80	1936.64
597.15	1930.21
597.50	1923.35
597.85	1916.86
598.19	1910.36
598.54	1903.46
598.89	1896.91
599.24	1891.02
599.59	1884.37
599.94	1878.13
600.29	1871.81
600.64	1865.23
600.99	1858.10
601.34	1851.34
601.69	1844.35
602.04	1837.63
602.39	1830.38
602.74	1823.75
603.08	1817.39
603.43	1810.61
603.78	1803.26
604.13	1796.03
604.48	1788.90
604.83	1781.95
605.18	1775.28
605.53	1767.38
605.87	1759.32
606.22	1751.99
606.57	1743.91
606.92	1736.41
607.27	1729.39
607.62	1722.61
607.96	1715.48
608.31	1709.00
608.66	1701.51
609.01	1694.08
609.36	1686.73
609.70	1678.65
610.05	1670.64
610.40	1662.96
610.75	1654.57
611.10	1646.94
611.44	1638.42
611.79	1630.30
612.14	1621.63
612.49	1612.35
612.83	1603.88
613.18	1595.78
613.53	1587.74
613.88	1579.25
614.22	1571.07
614.57	1562.33
614.92	1554.25
615.27	1546.80
615.61	1538.45
615.96	1530.42
616.31	1522.76
616.65	1515.26
617.00	1507.75
617.35	1500.01
617.70	1491.78
618.04	1483.47
618.39	1475.26
618.74	1467.86
619.08	1459.58
619.43	1452.05
619.78	1445.14
620.12	1437.99
620.47	1430.43
620.82	1422.23
621.16	1414.79
621.51	1407.12
621.85	1399.55
622.20	1391.09
622.55	1382.58
622.89	1374.59
623.24	1366.90
623.59	1359.50
623.93	1351.94
624.28	1344.67
624.62	1337.16
624.97	1329.88
625.32	1322.95
625.66	1315.94
626.01	1308.74
626.35	1301.46
626.70	1293.66
627.04	1285.97
627.39	1278.24
627.73	1270.87
628.08	1263.92
628.43	1256.77
628.77	1249.59
629.12	1242.11
629.46	1234.87
629.81	1227.46
630.15	1220.31
630.50	1213.01
630.84	1204.81
631.19	1196.79
631.53	1189.26
631.88	1181.63
632.22	1173.96
632.57	1166.76
632.91	1159.06
633.26	1151.69
633.60	1144.15
633.95	1137.05
634.29	1129.93
634.64	1123.23
634.98	1115.89
635.32	1108.85
635.67	1102.11
636.01	1095.38
636.36	1088.59
636.70	1082.05
637.05	1075.48
637.39	1069.02
637.73	1062.60
638.08	1056.73
638.42	1050.84
638.77	1044.41
639.11	1037.90
639.45	1031.56
639.80	1024.87
640.14	1018.63
640.49	1012.15
640.83	1005.90
641.17	999.70
641.52	993.46
641.86	986.94
642.20	981.04
642.55	974.64
642.89	968.32
643.23	961.79
643.58	956.08
643.92	949.89
644.26	943.92
644.61	937.88
644.95	931.85
645.29	925.37
645.64	918.68
645.98	912.37
646.32	906.48
646.66	900.53
647.01	894.73
647.35	889.10
647.69	883.21
648.04	877.67
648.38	871.91
648.72	865.95
649.06	860.02
649.41	854.15
649.75	848.26
650.09	842.25
650.43	836.46
650.78	830.33
651.12	824.39
651.46	818.65
651.80	812.94
652.14	807.50
652.49	802.12
652.83	797.00
653.17	791.34
653.51	785.68
653.85	780.18
654.20	774.65
654.54	768.57
654.88	762.78
655.22	756.89
655.56	751.12
655.90	745.64
656.25	740.39
656.59	735.03
656.93	729.98
657.27	724.87
657.61	719.44
657.95	714.25
658.29	709.14
658.64	703.82
658.98	698.48
659.32	693.00
659.66	687.81
660.00	682.48
660.34	677.57
660.68	672.66
661.02	667.62
661.36	662.84
661.70	658.40
662.05	654.08
662.39	649.74
662.73	645.30
663.07	640.92
663.41	636.47
663.75	632.05
664.09	627.47
664.43	623.05
664.77	618.95
665.11	614.85
665.45	610.75
665.79	606.67
666.13	602.54
666.47	598.46
666.81	594.34
667.15	590.17
667.49	586.26
667.83	582.42
668.17	578.49
668.51	574.49
668.85	570.45
669.19	566.52
669.53	562.73
669.87	558.87
670.21	555.20
670.55	551.54
670.89	548.08
671.23	544.60
671.57	541.09
671.91	537.58
672.25	533.92
672.58	530.41
672.92	527.02
673.26	523.86
673.60	520.60
673.94	517.51
674.28	514.56
674.62	511.59
674.96	508.54
675.30	505.65
675.64	502.70
675.97	499.87
676.31	497.05
676.65	494.13
676.99	491.44
677.33	488.52
677.67	485.69
678.01	482.66
678.34	479.71
678.68	476.81
679.02	474.00
679.36	471.26
679.70	468.52
680.04	465.76
680.37	462.89
680.71	460.17
681.05	457.43
681.39	454.69
681.73	451.96
682.06	449.32
682.40	446.79
682.74	444.20
683.08	441.62
683.42	439.01
683.75	436.47
684.09	433.84
684.43	431.41
684.77	428.90
685.10	426.51
685.44	424.19
685.78	421.85
686.12	419.57
686.45	417.25
686.79	414.95
687.13	412.77
687.46	410.61
687.80	408.43
688.14	406.26
688.48	404.20
688.81	402.03
689.15	399.94
689.49	397.80
689.82	395.77
690.16	393.73
690.50	391.77
690.83	389.88
691.17	387.90
691.51	385.97
691.84	384.17
692.18	382.29
692.52	380.26
692.85	378.35
693.19	376.47
693.52	374.61
693.86	372.79
694.20	370.95
694.53	369.12
694.87	367.29
695.21	365.53
695.54	363.68
695.88	361.95
696.21	360.20
696.55	358.52
696.88	356.79
697.22	355.06
697.56	353.41
697.89	351.70
698.23	350.15
698.56	348.54
698.90	346.97
699.23	345.34
699.57	343.89
699.90	342.38
700.24	340.86
700.58	339.38
700.91	337.92
701.25	336.47
701.58	335.15
701.92	333.81
702.25	332.39
702.59	331.09
702.92	329.79
703.26	328.49
703.59	327.20
703.93	326.04
704.26	324.87
704.60	323.60
704.93	322.35
705.26	321.08
705.60	319.87
705.93	318.66
706.27	317.56
706.60	316.45
706.94	315.39
707.27	314.24
707.61	313.18
707.94	312.17
708.27	311.11
708.61	309.99
708.94	308.97
709.28	308.02
709.61	306.97
709.94	305.99
710.28	304.97
710.61	303.96
710.95	302.90
711.28	301.99
711.61	301.01
711.95	300.11
712.28	299.17
712.61	298.22
712.95	297.28
713.28	296.41
713.61	295.52
713.95	294.60
714.28	293.76
714.61	292.86
714.95	292.03
715.28	291.19
715.61	290.32
715.95	289.47
716.28	288.60
716.61	287.79
716.95	286.95
717.28	286.18
717.61	285.40
717.94	284.60
718.28	283.77
718.61	283.10
718.94	282.39
719.27	281.75
719.61	281.09
719.94	280.45
720.27	279.74
720.60	279.03
720.94	278.39
721.27	277.79
721.60	277.20
721.93	276.58
722.27	276.00
722.60	275.44
722.93	274.88
723.26	274.32
723.59	273.81
723.93	273.28
724.26	272.74
724.59	272.17
724.92	271.69
725.25	271.18
725.59	270.62
725.92	270.10
726.25	269.59
726.58	269.10
726.91	268.60
727.24	268.11
727.57	267.64
727.91	267.14
728.24	266.62
728.57	266.15
728.90	265.65
729.23	265.15
729.56	264.73
729.89	264.22
730.22	263.72
730.55	263.25
730.89	262.81
731.22	262.37
731.55	261.95
731.88	261.50
732.21	261.07
732.54	260.68
732.87	260.26
733.20	259.86
733.53	259.45
733.86	259.08
734.19	258.71
734.52	258.34
734.85	258.01
735.18	257.64
735.51	257.27
735.84	256.91
736.17	256.59
736.50	256.21
736.83	256.03
737.16	255.71
737.49	255.37
737.82	255.04
738.15	254.69
738.48	254.36
738.81	254.06
739.14	253.72
739.47	253.41
739.80	253.09
740.13	252.78
740.46	252.51
740.79	252.17
741.12	251.86
741.45	251.59
741.78	251.28
742.11	251.02
742.44	250.72
742.77	250.47
743.10	250.18
743.43	249.87
743.75	249.44
744.08	249.31
744.41	249.05
744.74	248.75
745.07	248.50
745.40	248.28
745.73	248.05
746.06	247.80
746.39	247.54
746.71	247.26
747.04	246.97
747.37	246.68
747.70	246.44
748.03	246.22
748.36	246.00
748.68	245.74
749.01	245.44
749.34	245.22
749.67	244.98
750.00	244.74
750.33	244.55
750.65	244.38
750.98	244.02
751.31	243.80
751.64	243.57
751.97	243.41
752.29	243.15
752.62	242.91
752.95	242.68
753.28	242.46
753.60	242.26
753.93	242.10
754.26	241.89
754.59	241.66
754.91	241.43
755.24	241.21
755.57	241.02
755.90	240.89
756.22	240.67
756.55	240.44
756.88	240.22
757.20	240.02
757.53	239.81
757.86	239.64
758.19	239.50
758.51	239.37
758.84	239.14
759.17	238.96
759.49	238.78
759.82	238.67
760.15	238.54
760.47	238.38
760.80	238.17
761.13	238.04
761.45	237.93
761.78	237.76
762.11	237.61
762.43	237.45
762.76	237.30
763.08	237.18
763.41	237.10
763.74	237.01
764.06	236.85
764.39	236.69
764.71	236.55
765.04	236.36
765.37	236.21
765.69	236.08
766.02	235.95
766.34	235.84
766.67	235.70
767.00	235.54
767.32	235.48
767.65	235.45
767.97	235.37
768.30	235.26
768.62	235.16
768.95	235.05
769.27	234.95
769.60	234.86
769.92	234.74
770.25	234.57
770.57	234.45
770.90	234.35
771.22	234.27
771.55	234.20
771.87	234.12
772.20	234.01
772.52	234.02
772.85	234.04
773.17	233.93
773.50	233.80
773.82	233.73
774.15	233.58
774.47	233.40
774.80	233.29
775.12	233.19
775.45	233.12
775.77	233.06
776.09	232.98
776.42	232.88
776.74	232.83
777.07	232.77
777.39	232.69
777.72	232.62
778.04	232.54
778.36	232.41
778.69	232.39
779.01	232.34
779.33	232.17
779.66	232.02
779.98	231.94
780.31	231.92
780.63	231.94
780.95	231.88
781.28	231.86
781.60	231.78
781.92	231.72
782.25	231.68
782.57	231.60
782.89	231.55
783.22	231.51
783.54	231.45
783.86	231.40
784.19	231.33
784.51	231.31
784.83	231.26
785.16	231.23
785.48	231.15
785.80	231.11
786.12	231.07
786.45	231.05
786.77	231.06
787.09	231.00
