SpectraSuite Data File
++++++++++++++++++++++++++++++++++++
Date: Fri Feb 01 18:15:37 EST 2013
User: group
Dark Spectrum Present: No
Reference Spectrum Present: No
Number of Sampled Component Spectra: 1
Spectrometers: USB2E7196
Integration Time (usec): 35000 (USB2E7196)
Spectra Averaged: 100 (USB2E7196)
Boxcar Smoothing: 10 (USB2E7196)
Correct for Electrical Dark: No (USB2E7196)
Strobe/Lamp Enabled: No (USB2E7196)
Correct for Detector Non-linearity: No (USB2E7196)
Correct for Stray Light: No (USB2E7196)
Number of Pixels in Processed Spectrum: 2048
>>>>>Begin Processed Spectral Data<<<<<
339.09	0.00
339.48	212.76
339.86	214.54
340.24	215.77
340.63	217.51
341.01	220.21
341.39	219.72
341.78	221.41
342.16	222.37
342.54	222.63
342.93	211.31
343.31	221.98
343.69	222.55
344.07	223.00
344.46	223.46
344.84	223.82
345.22	224.06
345.60	224.34
345.99	224.54
346.37	224.66
346.75	224.77
347.13	224.87
347.52	224.92
347.90	225.00
348.28	225.01
348.66	225.04
349.05	225.06
349.43	225.13
349.81	225.18
350.19	225.22
350.57	225.30
350.96	225.37
351.34	225.46
351.72	225.53
352.10	225.63
352.48	225.69
352.87	225.75
353.25	225.80
353.63	225.85
354.01	225.88
354.39	225.96
354.77	226.06
355.15	226.17
355.54	226.25
355.92	226.29
356.30	226.38
356.68	226.54
357.06	226.62
357.44	226.66
357.82	226.74
358.20	226.84
358.58	226.91
358.97	226.98
359.35	227.09
359.73	227.15
360.11	227.23
360.49	227.29
360.87	227.36
361.25	227.44
361.63	227.54
362.01	227.63
362.39	227.67
362.77	227.74
363.15	227.74
363.53	227.80
363.91	227.87
364.29	227.90
364.67	227.84
365.05	227.85
365.43	227.89
365.81	227.92
366.19	227.97
366.57	228.02
366.95	228.03
367.33	228.01
367.71	228.02
368.09	228.00
368.47	227.98
368.85	227.96
369.23	227.97
369.61	227.91
369.99	227.92
370.37	227.91
370.75	227.94
371.13	227.90
371.51	227.84
371.89	227.80
372.27	227.81
372.65	227.75
373.03	227.70
373.41	227.67
373.78	227.62
374.16	227.50
374.54	227.39
374.92	227.31
375.30	227.25
375.68	227.17
376.06	227.14
376.44	227.08
376.82	227.01
377.19	226.94
377.57	226.87
377.95	226.75
378.33	226.69
378.71	226.57
379.09	226.52
379.47	226.47
379.84	226.36
380.22	226.28
380.60	226.24
380.98	226.19
381.36	226.13
381.73	226.10
382.11	226.06
382.49	226.00
382.87	225.94
383.25	225.85
383.62	225.90
384.00	225.84
384.38	225.78
384.76	225.77
385.13	225.75
385.51	225.67
385.89	225.61
386.27	225.56
386.64	225.49
387.02	225.46
387.40	225.39
387.78	225.38
388.15	225.35
388.53	225.26
388.91	225.19
389.29	225.14
389.66	225.08
390.04	225.04
390.42	225.04
390.79	225.03
391.17	225.05
391.55	224.97
391.92	224.97
392.30	225.01
392.68	224.94
393.05	224.88
393.43	224.93
393.81	224.95
394.18	224.93
394.56	224.95
394.94	224.95
395.31	224.99
395.69	225.04
396.06	225.04
396.44	225.12
396.82	225.14
397.19	225.23
397.57	225.24
397.95	225.31
398.32	225.33
398.70	225.37
399.07	225.44
399.45	225.47
399.82	225.50
400.20	225.56
400.58	225.69
400.95	225.75
401.33	225.85
401.70	226.01
402.08	226.12
402.45	226.21
402.83	226.33
403.20	226.44
403.58	226.53
403.95	226.68
404.33	226.81
404.71	226.96
405.08	227.16
405.46	227.32
405.83	227.48
406.21	227.67
406.58	227.89
406.96	228.07
407.33	228.29
407.70	228.53
408.08	228.82
408.45	229.09
408.83	229.37
409.20	229.63
409.58	229.86
409.95	230.19
410.33	230.51
410.70	230.83
411.08	231.22
411.45	231.65
411.82	232.07
412.20	232.55
412.57	233.13
412.95	233.54
413.32	234.09
413.69	234.69
414.07	235.30
414.44	235.97
414.82	236.63
415.19	237.40
415.56	238.14
415.94	238.92
416.31	239.79
416.68	240.69
417.06	241.68
417.43	242.62
417.81	243.69
418.18	244.83
418.55	246.04
418.93	247.29
419.30	248.53
419.67	249.82
420.04	251.15
420.42	252.53
420.79	254.18
421.16	255.82
421.54	257.47
421.91	259.18
422.28	260.88
422.66	262.75
423.03	264.53
423.40	266.39
423.77	268.36
424.15	270.35
424.52	272.42
424.89	274.68
425.26	276.89
425.64	278.95
426.01	281.19
426.38	283.53
426.75	285.82
427.13	288.25
427.50	290.82
427.87	293.50
428.24	296.14
428.61	298.60
428.99	301.35
429.36	304.33
429.73	307.20
430.10	310.05
430.47	312.97
430.85	316.00
431.22	319.19
431.59	322.58
431.96	325.77
432.33	329.29
432.70	332.63
433.08	336.60
433.45	340.28
433.82	343.91
434.19	347.93
434.56	351.85
434.93	355.57
435.30	359.25
435.68	363.31
436.05	367.31
436.42	371.26
436.79	374.76
437.16	378.55
437.53	382.64
437.90	386.66
438.27	390.49
438.64	394.49
439.01	398.11
439.38	401.26
439.75	404.32
440.13	407.83
440.50	411.14
440.87	413.77
441.24	416.51
441.61	419.63
441.98	421.78
442.35	424.44
442.72	427.07
443.09	429.65
443.46	431.03
443.83	431.87
444.20	432.62
444.57	433.86
444.94	434.24
445.31	434.59
445.68	435.04
446.05	435.20
446.42	434.65
446.79	434.07
447.16	433.42
447.53	432.96
447.90	431.34
448.27	429.76
448.64	427.47
449.01	425.89
449.37	423.08
449.74	420.37
450.11	417.11
450.48	413.68
450.85	410.11
451.22	407.10
451.59	404.20
451.96	401.44
452.33	397.75
452.70	394.44
453.07	390.50
453.43	386.43
453.80	382.50
454.17	378.71
454.54	375.17
454.91	371.33
455.28	367.56
455.65	364.09
456.02	360.54
456.38	357.51
456.75	353.76
457.12	350.58
457.49	347.44
457.86	344.40
458.23	341.73
458.59	338.82
458.96	335.86
459.33	333.24
459.70	330.61
460.07	328.47
460.43	326.03
460.80	323.75
461.17	321.72
461.54	319.58
461.91	317.60
462.27	315.50
462.64	313.74
463.01	311.80
463.38	309.85
463.74	307.97
464.11	306.33
464.48	304.83
464.85	303.25
465.21	302.03
465.58	300.74
465.95	299.15
466.32	297.89
466.68	296.62
467.05	295.34
467.42	294.04
467.78	292.71
468.15	291.45
468.52	290.45
468.88	289.22
469.25	288.14
469.62	287.21
469.98	286.23
470.35	285.30
470.72	284.43
471.08	283.54
471.45	282.74
471.82	281.94
472.18	281.09
472.55	280.46
472.92	279.69
473.28	279.02
473.65	278.39
474.02	277.70
474.38	277.10
474.75	276.59
475.11	276.08
475.48	275.64
475.85	275.30
476.21	274.93
476.58	274.60
476.94	274.30
477.31	273.97
477.67	273.73
478.04	273.49
478.41	273.34
478.77	273.28
479.14	273.09
479.50	273.06
479.87	273.03
480.23	272.99
480.60	272.99
480.96	272.98
481.33	273.14
481.69	273.35
482.06	273.48
482.42	273.64
482.79	273.85
483.15	274.13
483.52	274.42
483.88	274.72
484.25	275.10
484.61	275.50
484.98	275.95
485.34	276.46
485.71	277.04
486.07	277.61
486.44	278.17
486.80	278.85
487.17	279.54
487.53	280.40
487.90	281.31
488.26	282.29
488.62	283.28
488.99	284.29
489.35	285.33
489.72	286.52
490.08	287.78
490.44	289.12
490.81	290.51
491.17	291.97
491.54	293.53
491.90	295.12
492.26	296.87
492.63	298.71
492.99	300.60
493.36	302.66
493.72	304.87
494.08	307.11
494.45	309.55
494.81	312.05
495.17	314.64
495.54	317.38
495.90	320.22
496.26	323.21
496.63	326.31
496.99	329.64
497.35	333.12
497.72	336.76
498.08	340.48
498.44	344.42
498.80	348.63
499.17	352.98
499.53	357.47
499.89	362.16
500.26	366.99
500.62	372.01
500.98	377.28
501.34	382.69
501.71	388.43
502.07	394.33
502.43	400.41
502.79	406.64
503.16	413.15
503.52	419.91
503.88	426.85
504.24	434.07
504.60	441.47
504.97	449.18
505.33	457.09
505.69	465.47
506.05	473.90
506.41	482.32
506.78	491.15
507.14	500.34
507.50	509.78
507.86	519.53
508.22	529.54
508.59	539.53
508.95	549.92
509.31	560.55
509.67	571.47
510.03	582.67
510.39	594.21
510.75	606.00
511.12	617.87
511.48	630.14
511.84	642.59
512.20	655.16
512.56	668.09
512.92	681.32
513.28	694.79
513.64	708.41
514.00	722.39
514.37	736.54
514.73	750.76
515.09	765.04
515.45	779.61
515.81	794.52
516.17	809.89
516.53	825.40
516.89	841.05
517.25	856.58
517.61	872.49
517.97	888.42
518.33	904.23
518.69	920.56
519.05	937.12
519.41	953.97
519.77	971.25
520.13	988.47
520.49	1005.59
520.85	1022.61
521.21	1040.02
521.57	1058.07
521.93	1075.56
522.29	1093.81
522.65	1111.99
523.01	1130.03
523.37	1147.93
523.73	1166.05
524.09	1184.10
524.45	1202.32
524.81	1220.99
525.17	1239.76
525.53	1258.76
525.89	1277.84
526.25	1296.72
526.61	1315.22
526.97	1334.12
527.33	1352.67
527.68	1371.28
528.04	1389.95
528.40	1408.76
528.76	1428.09
529.12	1446.92
529.48	1466.23
529.84	1484.50
530.20	1503.39
530.56	1522.91
530.91	1542.85
531.27	1561.99
531.63	1580.81
531.99	1599.74
532.35	1618.04
532.71	1636.44
533.07	1655.04
533.42	1673.39
533.78	1691.98
534.14	1710.84
534.50	1728.54
534.86	1746.89
535.21	1764.70
535.57	1783.08
535.93	1801.15
536.29	1818.41
536.65	1836.09
537.00	1853.40
537.36	1871.35
537.72	1888.35
538.08	1905.34
538.44	1921.56
538.79	1938.03
539.15	1954.09
539.51	1970.49
539.87	1987.48
540.22	2003.83
540.58	2020.26
540.94	2036.12
541.29	2051.50
541.65	2066.72
542.01	2082.49
542.37	2097.52
542.72	2112.50
543.08	2126.88
543.44	2141.92
543.79	2155.82
544.15	2169.37
544.51	2183.42
544.87	2196.96
545.22	2210.39
545.58	2223.20
545.94	2235.51
546.29	2247.81
546.65	2260.40
547.01	2272.29
547.36	2283.60
547.72	2294.42
548.07	2304.72
548.43	2315.21
548.79	2325.69
549.14	2335.55
549.50	2345.36
549.86	2355.20
550.21	2364.90
550.57	2374.48
550.92	2383.21
551.28	2392.51
551.64	2401.78
551.99	2410.56
552.35	2418.87
552.70	2427.16
553.06	2435.14
553.41	2443.58
553.77	2451.59
554.13	2459.80
554.48	2467.90
554.84	2475.48
555.19	2482.77
555.55	2489.86
555.90	2496.37
556.26	2503.36
556.61	2510.08
556.97	2516.36
557.32	2522.54
557.68	2528.40
558.03	2534.38
558.39	2539.92
558.74	2546.52
559.10	2552.20
559.45	2557.55
559.81	2563.56
560.16	2569.19
560.52	2574.22
560.87	2579.36
561.23	2583.76
561.58	2588.26
561.94	2592.35
562.29	2595.89
562.64	2600.16
563.00	2604.35
563.35	2609.55
563.71	2614.02
564.06	2618.81
564.42	2623.00
564.77	2626.82
565.12	2630.64
565.48	2634.07
565.83	2637.33
566.19	2639.95
566.54	2642.05
566.89	2644.48
567.25	2646.32
567.60	2648.83
567.96	2651.77
568.31	2653.53
568.66	2655.85
569.02	2657.54
569.37	2658.74
569.72	2660.89
570.08	2661.92
570.43	2662.67
570.78	2662.97
571.14	2662.12
571.49	2661.13
571.84	2661.68
572.20	2661.26
572.55	2660.85
572.90	2659.70
573.26	2658.91
573.61	2657.48
573.96	2656.13
574.31	2653.51
574.67	2650.69
575.02	2647.14
575.37	2643.77
575.72	2640.22
576.08	2636.72
576.43	2633.31
576.78	2629.90
577.13	2626.80
577.49	2623.69
577.84	2620.26
578.19	2616.21
578.54	2612.61
578.90	2608.51
579.25	2602.43
579.60	2597.10
579.95	2591.67
580.30	2586.31
580.66	2580.75
581.01	2575.48
581.36	2570.17
581.71	2565.58
582.06	2560.88
582.42	2556.09
582.77	2550.39
583.12	2545.49
583.47	2540.53
583.82	2535.14
584.17	2529.25
584.53	2523.15
584.88	2516.87
585.23	2510.62
585.58	2504.45
585.93	2498.21
586.28	2492.77
586.63	2487.25
586.98	2481.52
587.34	2476.31
587.69	2470.73
588.04	2464.74
588.39	2458.34
588.74	2450.92
589.09	2443.97
589.44	2436.13
589.79	2429.02
590.14	2422.54
590.49	2415.01
590.84	2407.55
591.19	2400.52
591.54	2393.15
591.89	2384.73
592.25	2376.99
592.60	2368.66
592.95	2360.17
593.30	2351.61
593.65	2342.66
594.00	2334.44
594.35	2325.98
594.70	2316.53
595.05	2308.32
595.40	2299.83
595.75	2290.94
596.10	2283.83
596.45	2276.03
596.80	2268.91
597.15	2261.30
597.50	2253.03
597.85	2245.31
598.19	2237.58
598.54	2229.39
598.89	2221.44
599.24	2214.43
599.59	2206.80
599.94	2199.35
600.29	2191.70
600.64	2184.09
600.99	2175.26
601.34	2167.27
601.69	2159.03
602.04	2150.99
602.39	2142.26
602.74	2134.14
603.08	2126.16
603.43	2117.98
603.78	2109.14
604.13	2100.43
604.48	2091.88
604.83	2083.69
605.18	2075.51
605.53	2066.09
605.87	2056.44
606.22	2047.86
606.57	2038.25
606.92	2029.15
607.27	2020.62
607.62	2012.32
607.96	2003.53
608.31	1995.85
608.66	1986.63
609.01	1977.69
609.36	1968.59
609.70	1959.00
610.05	1949.35
610.40	1940.26
610.75	1930.37
611.10	1921.22
611.44	1910.96
611.79	1901.19
612.14	1890.76
612.49	1879.74
612.83	1869.57
613.18	1859.80
613.53	1850.07
613.88	1839.85
614.22	1829.97
614.57	1819.55
614.92	1810.02
615.27	1800.98
615.61	1790.94
615.96	1781.27
616.31	1772.08
616.65	1763.18
617.00	1754.03
617.35	1744.83
617.70	1734.78
618.04	1724.53
618.39	1714.65
618.74	1705.77
619.08	1695.90
619.43	1686.78
619.78	1678.40
620.12	1669.83
620.47	1660.91
620.82	1650.87
621.16	1641.81
621.51	1632.53
621.85	1623.17
622.20	1612.61
622.55	1602.49
622.89	1593.01
623.24	1583.76
623.59	1574.65
623.93	1565.58
624.28	1556.94
624.62	1547.85
624.97	1539.10
625.32	1530.89
625.66	1522.35
626.01	1513.72
626.35	1504.74
626.70	1495.40
627.04	1486.08
627.39	1476.64
627.73	1467.54
628.08	1459.33
628.43	1450.74
628.77	1442.01
629.12	1433.06
629.46	1424.57
629.81	1415.57
630.15	1406.78
630.50	1397.94
630.84	1388.21
631.19	1378.67
631.53	1369.43
631.88	1360.26
632.22	1351.09
632.57	1342.29
632.91	1333.28
633.26	1324.28
633.60	1315.36
633.95	1306.70
634.29	1298.06
634.64	1290.06
634.98	1281.30
635.32	1272.68
635.67	1264.64
636.01	1256.58
636.36	1248.44
636.70	1240.62
637.05	1232.79
637.39	1224.98
637.73	1217.09
638.08	1209.99
638.42	1202.75
638.77	1195.20
639.11	1187.36
639.45	1179.69
639.80	1171.71
640.14	1164.08
640.49	1156.28
640.83	1148.74
641.17	1141.36
641.52	1133.85
641.86	1125.97
642.20	1119.00
642.55	1111.46
642.89	1103.81
643.23	1096.00
643.58	1089.14
643.92	1081.70
644.26	1074.56
644.61	1067.38
644.95	1060.27
645.29	1052.56
645.64	1044.53
645.98	1036.83
646.32	1029.79
646.66	1022.63
647.01	1015.79
647.35	1008.92
647.69	1001.89
648.04	995.35
648.38	988.64
648.72	981.70
649.06	974.66
649.41	967.67
649.75	960.74
650.09	953.64
650.43	946.75
650.78	939.45
651.12	932.47
651.46	925.65
651.80	918.96
652.14	912.52
652.49	906.13
652.83	900.05
653.17	893.48
653.51	886.87
653.85	880.51
654.20	873.80
654.54	866.72
654.88	859.94
655.22	853.00
655.56	846.09
655.90	839.50
656.25	833.26
656.59	826.85
656.93	820.72
657.27	814.64
657.61	808.22
657.95	802.19
658.29	796.18
658.64	789.96
658.98	783.57
659.32	777.14
659.66	770.88
660.00	764.59
660.34	758.63
660.68	752.75
661.02	746.72
661.36	741.14
661.70	735.86
662.05	730.72
662.39	725.53
662.73	720.28
663.07	715.10
663.41	709.85
663.75	704.57
664.09	699.13
664.43	693.88
664.77	689.03
665.11	683.93
665.45	679.02
665.79	674.24
666.13	669.42
666.47	664.60
666.81	659.82
667.15	655.01
667.49	650.44
667.83	645.90
668.17	641.43
668.51	636.73
668.85	631.92
669.19	627.40
669.53	622.91
669.87	618.32
670.21	613.99
670.55	609.70
670.89	605.61
671.23	601.54
671.57	597.39
671.91	593.28
672.25	589.12
672.58	584.96
672.92	580.89
673.26	577.14
673.60	573.41
673.94	569.71
674.28	566.28
674.62	562.80
674.96	559.17
675.30	555.68
675.64	552.16
675.97	548.89
676.31	545.50
676.65	542.07
676.99	538.90
677.33	535.53
677.67	532.23
678.01	528.73
678.34	525.30
678.68	521.96
679.02	518.60
679.36	515.38
679.70	512.22
680.04	509.03
680.37	505.69
680.71	502.35
681.05	499.22
681.39	496.00
681.73	492.87
682.06	489.93
682.40	486.96
682.74	484.00
683.08	480.97
683.42	477.95
683.75	474.99
684.09	471.97
684.43	469.08
684.77	466.16
685.10	463.35
685.44	460.66
685.78	457.87
686.12	455.22
686.45	452.53
686.79	449.78
687.13	447.14
687.46	444.55
687.80	441.99
688.14	439.35
688.48	436.88
688.81	434.17
689.15	431.59
689.49	428.98
689.82	426.48
690.16	424.01
690.50	421.69
690.83	419.41
691.17	417.10
691.51	414.82
691.84	412.62
692.18	410.36
692.52	407.99
692.85	405.71
693.19	403.49
693.52	401.28
693.86	399.09
694.20	397.00
694.53	394.84
694.87	392.68
695.21	390.61
695.54	388.46
695.88	386.40
696.21	384.31
696.55	382.30
696.88	380.27
697.22	378.28
697.56	376.36
697.89	374.39
698.23	372.47
698.56	370.53
698.90	368.63
699.23	366.69
699.57	364.86
699.90	363.08
700.24	361.22
700.58	359.41
700.91	357.70
701.25	355.92
701.58	354.33
701.92	352.70
702.25	351.07
702.59	349.49
702.92	347.92
703.26	346.41
703.59	344.94
703.93	343.53
704.26	342.10
704.60	340.51
704.93	339.01
705.26	337.49
705.60	336.12
705.93	334.75
706.27	333.49
706.60	332.23
706.94	330.94
707.27	329.64
707.61	328.36
707.94	327.09
708.27	325.83
708.61	324.52
708.94	323.31
709.28	322.16
709.61	320.96
709.94	319.86
710.28	318.66
710.61	317.49
710.95	316.24
711.28	315.10
711.61	314.00
711.95	312.90
712.28	311.78
712.61	310.62
712.95	309.49
713.28	308.42
713.61	307.32
713.95	306.25
714.28	305.21
714.61	304.23
714.95	303.23
715.28	302.22
715.61	301.20
715.95	300.21
716.28	299.15
716.61	298.17
716.95	297.18
717.28	296.25
717.61	295.31
717.94	294.42
718.28	293.49
718.61	292.61
718.94	291.76
719.27	291.00
719.61	290.23
719.94	289.42
720.27	288.57
720.60	287.79
720.94	287.06
721.27	286.37
721.60	285.67
721.93	284.96
722.27	284.33
722.60	283.65
722.93	282.99
723.26	282.35
723.59	281.68
723.93	281.02
724.26	280.37
724.59	279.72
724.92	279.11
725.25	278.54
725.59	277.94
725.92	277.37
726.25	276.73
726.58	276.15
726.91	275.58
727.24	275.04
727.57	274.50
727.91	273.88
728.24	273.37
728.57	272.79
728.90	272.23
729.23	271.63
729.56	271.13
729.89	270.52
730.22	269.96
730.55	269.40
730.89	268.88
731.22	268.35
731.55	267.83
731.88	267.32
732.21	266.78
732.54	266.27
732.87	265.72
733.20	265.25
733.53	264.76
733.86	264.33
734.19	263.89
734.52	263.44
734.85	263.11
735.18	262.61
735.51	262.14
735.84	261.71
736.17	261.31
736.50	260.82
736.83	260.53
737.16	260.11
737.49	259.71
737.82	259.29
738.15	258.89
738.48	258.49
738.81	258.10
739.14	257.74
739.47	257.40
739.80	257.02
740.13	256.65
740.46	256.25
740.79	255.88
741.12	255.50
741.45	255.14
741.78	254.70
742.11	254.35
742.44	253.99
742.77	253.63
743.10	253.28
743.43	252.95
743.75	252.53
744.08	252.33
744.41	252.01
744.74	251.71
745.07	251.38
745.40	251.10
745.73	250.77
746.06	250.44
746.39	250.09
746.71	249.79
747.04	249.47
747.37	249.16
747.70	248.83
748.03	248.50
748.36	248.19
748.68	247.88
749.01	247.59
749.34	247.32
749.67	247.05
750.00	246.76
750.33	246.54
750.65	246.24
750.98	245.86
751.31	245.63
751.64	245.37
751.97	245.15
752.29	244.88
752.62	244.60
752.95	244.34
753.28	244.09
753.60	243.84
753.93	243.62
754.26	243.39
754.59	243.14
754.91	242.94
755.24	242.71
755.57	242.50
755.90	242.29
756.22	242.06
756.55	241.85
756.88	241.62
757.20	241.34
757.53	241.14
757.86	240.96
758.19	240.75
758.51	240.55
758.84	240.37
759.17	240.16
759.49	239.97
759.82	239.84
760.15	239.68
760.47	239.51
760.80	239.31
761.13	239.16
761.45	238.96
761.78	238.76
762.11	238.59
762.43	238.44
762.76	238.24
763.08	238.08
763.41	237.91
763.74	237.76
764.06	237.62
764.39	237.47
764.71	237.30
765.04	237.16
765.37	237.02
765.69	236.83
766.02	236.70
766.34	236.60
766.67	236.42
767.00	236.27
767.32	236.18
767.65	236.16
767.97	236.03
768.30	235.94
768.62	235.82
768.95	235.67
769.27	235.55
769.60	235.47
769.92	235.36
770.25	235.22
770.57	235.10
770.90	234.98
771.22	234.84
771.55	234.75
771.87	234.63
772.20	234.52
772.52	234.53
772.85	234.56
773.17	234.44
773.50	234.34
773.82	234.22
774.15	234.08
774.47	233.90
774.80	233.81
775.12	233.74
775.45	233.64
775.77	233.54
776.09	233.44
776.42	233.32
776.74	233.26
777.07	233.16
777.39	233.06
777.72	232.96
778.04	232.91
778.36	232.85
778.69	232.74
779.01	232.63
779.33	232.43
779.66	232.21
779.98	232.12
780.31	232.03
780.63	231.98
780.95	231.93
781.28	231.85
781.60	231.75
781.92	231.67
782.25	231.60
782.57	231.55
782.89	231.46
783.22	231.38
783.54	231.30
783.86	231.25
784.19	231.20
784.51	231.18
784.83	231.09
785.16	230.96
785.48	230.91
785.80	230.87
786.12	230.86
786.45	230.82
