SpectraSuite Data File
++++++++++++++++++++++++++++++++++++
Date: Fri Feb 01 16:55:28 EST 2013
User: group
Dark Spectrum Present: No
Reference Spectrum Present: No
Number of Sampled Component Spectra: 1
Spectrometers: USB2E7196
Integration Time (usec): 35000 (USB2E7196)
Spectra Averaged: 100 (USB2E7196)
Boxcar Smoothing: 10 (USB2E7196)
Correct for Electrical Dark: No (USB2E7196)
Strobe/Lamp Enabled: No (USB2E7196)
Correct for Detector Non-linearity: No (USB2E7196)
Correct for Stray Light: No (USB2E7196)
Number of Pixels in Processed Spectrum: 2048
>>>>>Begin Processed Spectral Data<<<<<
339.09	0.00
339.48	213.86
339.86	214.26
340.24	216.41
340.63	217.99
341.01	220.64
341.39	220.28
341.78	221.82
342.16	223.13
342.54	223.19
342.93	211.76
343.31	222.47
343.69	222.98
344.07	223.48
344.46	223.87
344.84	224.24
345.22	224.47
345.60	224.70
345.99	224.88
346.37	225.00
346.75	225.09
347.13	225.18
347.52	225.25
347.90	225.32
348.28	225.33
348.66	225.37
349.05	225.38
349.43	225.38
349.81	225.43
350.19	225.47
350.57	225.53
350.96	225.61
351.34	225.70
351.72	225.80
352.10	225.88
352.48	225.97
352.87	226.02
353.25	226.05
353.63	226.15
354.01	226.21
354.39	226.30
354.77	226.40
355.15	226.52
355.54	226.61
355.92	226.63
356.30	226.73
356.68	226.85
357.06	226.93
357.44	227.00
357.82	227.07
358.20	227.13
358.58	227.20
358.97	227.26
359.35	227.32
359.73	227.40
360.11	227.44
360.49	227.53
360.87	227.57
361.25	227.67
361.63	227.72
362.01	227.79
362.39	227.81
362.77	227.83
363.15	227.84
363.53	227.81
363.91	227.83
364.29	227.82
364.67	227.78
365.05	227.80
365.43	227.82
365.81	227.81
366.19	227.87
366.57	227.90
366.95	227.92
367.33	227.92
367.71	227.88
368.09	227.90
368.47	227.86
368.85	227.86
369.23	227.82
369.61	227.80
369.99	227.79
370.37	227.76
370.75	227.78
371.13	227.75
371.51	227.72
371.89	227.73
372.27	227.73
372.65	227.68
373.03	227.65
373.41	227.60
373.78	227.57
374.16	227.44
374.54	227.37
374.92	227.30
375.30	227.25
375.68	227.19
376.06	227.15
376.44	227.10
376.82	227.02
377.19	226.94
377.57	226.86
377.95	226.75
378.33	226.67
378.71	226.54
379.09	226.50
379.47	226.45
379.84	226.37
380.22	226.29
380.60	226.22
380.98	226.15
381.36	226.08
381.73	226.02
382.11	226.00
382.49	225.95
382.87	225.86
383.25	225.77
383.62	225.83
384.00	225.72
384.38	225.63
384.76	225.60
385.13	225.59
385.51	225.54
385.89	225.50
386.27	225.45
386.64	225.43
387.02	225.38
387.40	225.30
387.78	225.23
388.15	225.19
388.53	225.14
388.91	225.09
389.29	225.05
389.66	225.03
390.04	224.98
390.42	224.93
390.79	224.89
391.17	224.86
391.55	224.73
391.92	224.75
392.30	224.78
392.68	224.74
393.05	224.72
393.43	224.72
393.81	224.72
394.18	224.72
394.56	224.73
394.94	224.73
395.31	224.76
395.69	224.79
396.06	224.80
396.44	224.81
396.82	224.81
397.19	224.90
397.57	224.93
397.95	225.00
398.32	225.05
398.70	225.10
399.07	225.16
399.45	225.18
399.82	225.21
400.20	225.21
400.58	225.27
400.95	225.28
401.33	225.37
401.70	225.49
402.08	225.54
402.45	225.64
402.83	225.74
403.20	225.84
403.58	225.94
403.95	226.06
404.33	226.19
404.71	226.29
405.08	226.45
405.46	226.53
405.83	226.67
406.21	226.81
406.58	226.97
406.96	227.10
407.33	227.26
407.70	227.43
408.08	227.70
408.45	227.92
408.83	228.16
409.20	228.34
409.58	228.52
409.95	228.80
410.33	229.04
410.70	229.25
411.08	229.53
411.45	229.83
411.82	230.16
412.20	230.54
412.57	230.98
412.95	231.29
413.32	231.71
413.69	232.14
414.07	232.59
414.44	233.04
414.82	233.54
415.19	234.13
415.56	234.73
415.94	235.28
416.31	235.95
416.68	236.61
417.06	237.32
417.43	238.01
417.81	238.75
418.18	239.54
418.55	240.42
418.93	241.30
419.30	242.18
419.67	243.12
420.04	244.07
420.42	245.05
420.79	246.21
421.16	247.38
421.54	248.55
421.91	249.73
422.28	251.04
422.66	252.37
423.03	253.70
423.40	255.00
423.77	256.43
424.15	257.83
424.52	259.31
424.89	260.92
425.26	262.42
425.64	263.89
426.01	265.50
426.38	267.15
426.75	268.83
427.13	270.57
427.50	272.34
427.87	274.21
428.24	276.08
428.61	277.85
428.99	279.71
429.36	281.80
429.73	283.85
430.10	285.86
430.47	287.90
430.85	290.00
431.22	292.27
431.59	294.61
431.96	296.84
432.33	299.27
432.70	301.65
433.08	304.47
433.45	307.12
433.82	309.73
434.19	312.59
434.56	315.39
434.93	318.00
435.30	320.62
435.68	323.47
436.05	326.26
436.42	328.99
436.79	331.57
437.16	334.22
437.53	337.07
437.90	339.83
438.27	342.52
438.64	345.31
439.01	347.85
439.38	350.08
439.75	352.24
440.13	354.73
440.50	357.04
440.87	358.87
441.24	360.79
441.61	362.89
441.98	364.36
442.35	366.15
442.72	368.04
443.09	369.78
443.46	370.78
443.83	371.37
444.20	371.91
444.57	372.73
444.94	373.04
445.31	373.34
445.68	373.72
446.05	373.85
446.42	373.44
446.79	373.02
447.16	372.58
447.53	372.27
447.90	371.14
448.27	369.99
448.64	368.45
449.01	367.33
449.37	365.39
449.74	363.54
450.11	361.30
450.48	358.81
450.85	356.35
451.22	354.23
451.59	352.19
451.96	350.24
452.33	347.65
452.70	345.30
453.07	342.53
453.43	339.65
453.80	336.89
454.17	334.27
454.54	331.76
454.91	329.05
455.28	326.36
455.65	323.90
456.02	321.43
456.38	319.27
456.75	316.61
457.12	314.35
457.49	312.13
457.86	309.99
458.23	308.17
458.59	306.13
458.96	304.04
459.33	302.21
459.70	300.39
460.07	298.91
460.43	297.22
460.80	295.60
461.17	294.17
461.54	292.69
461.91	291.27
462.27	289.81
462.64	288.60
463.01	287.26
463.38	285.98
463.74	284.67
464.11	283.48
464.48	282.50
464.85	281.41
465.21	280.58
465.58	279.65
465.95	278.60
466.32	277.73
466.68	276.89
467.05	276.04
467.42	275.16
467.78	274.25
468.15	273.41
468.52	272.75
468.88	271.91
469.25	271.15
469.62	270.55
469.98	269.92
470.35	269.28
470.72	268.70
471.08	268.04
471.45	267.53
471.82	267.03
472.18	266.43
472.55	265.98
472.92	265.44
473.28	265.00
473.65	264.54
474.02	264.08
474.38	263.71
474.75	263.39
475.11	263.08
475.48	262.85
475.85	262.59
476.21	262.40
476.58	262.24
476.94	262.09
477.31	261.91
477.67	261.77
478.04	261.67
478.41	261.64
478.77	261.67
479.14	261.64
479.50	261.63
479.87	261.72
480.23	261.86
480.60	261.93
480.96	262.07
481.33	262.28
481.69	262.51
482.06	262.73
482.42	262.95
482.79	263.21
483.15	263.48
483.52	263.93
483.88	264.27
484.25	264.64
484.61	265.08
484.98	265.55
485.34	266.12
485.71	266.70
486.07	267.32
486.44	267.92
486.80	268.60
487.17	269.36
487.53	270.13
487.90	270.95
488.26	271.90
488.62	272.87
488.99	273.85
489.35	274.88
489.72	275.97
490.08	277.15
490.44	278.35
490.81	279.69
491.17	281.02
491.54	282.48
491.90	284.03
492.26	285.67
492.63	287.39
492.99	289.17
493.36	291.10
493.72	293.09
494.08	295.18
494.45	297.41
494.81	299.74
495.17	302.18
495.54	304.76
495.90	307.45
496.26	310.26
496.63	313.18
496.99	316.28
497.35	319.54
497.72	322.93
498.08	326.45
498.44	330.14
498.80	333.99
499.17	338.05
499.53	342.19
499.89	346.57
500.26	351.08
500.62	355.72
500.98	360.62
501.34	365.69
501.71	370.96
502.07	376.39
502.43	382.02
502.79	387.81
503.16	393.83
503.52	400.02
503.88	406.34
504.24	412.95
504.60	419.77
504.97	426.82
505.33	434.12
505.69	441.80
506.05	449.52
506.41	457.35
506.78	465.38
507.14	473.75
507.50	482.36
507.86	491.26
508.22	500.38
508.59	509.56
508.95	519.04
509.31	528.74
509.67	538.74
510.03	548.89
510.39	559.36
510.75	570.03
511.12	580.85
511.48	592.06
511.84	603.38
512.20	614.77
512.56	626.60
512.92	638.65
513.28	650.80
513.64	663.12
514.00	675.70
514.37	688.57
514.73	701.52
515.09	714.37
515.45	727.57
515.81	740.99
516.17	754.69
516.53	768.73
516.89	782.79
517.25	796.73
517.61	811.01
517.97	825.22
518.33	839.51
518.69	854.11
519.05	868.82
519.41	883.82
519.77	899.18
520.13	914.46
520.49	929.54
520.85	944.82
521.21	960.33
521.57	976.26
521.93	991.77
522.29	1007.86
522.65	1023.91
523.01	1039.78
523.37	1055.63
523.73	1071.61
524.09	1087.48
524.45	1103.45
524.81	1119.85
525.17	1136.32
525.53	1152.96
525.89	1169.54
526.25	1186.13
526.61	1202.26
526.97	1218.71
527.33	1235.04
527.68	1251.32
528.04	1267.56
528.40	1283.90
528.76	1300.64
529.12	1317.03
529.48	1333.63
529.84	1349.38
530.20	1365.73
530.56	1382.53
530.91	1399.51
531.27	1416.02
531.63	1432.04
531.99	1448.41
532.35	1464.14
532.71	1479.78
533.07	1495.81
533.42	1511.46
533.78	1527.27
534.14	1543.30
534.50	1558.33
534.86	1573.81
535.21	1588.73
535.57	1604.41
535.93	1619.47
536.29	1633.92
536.65	1648.62
537.00	1663.09
537.36	1678.17
537.72	1692.45
538.08	1706.58
538.44	1720.18
538.79	1733.85
539.15	1747.16
539.51	1760.60
539.87	1774.66
540.22	1788.06
540.58	1801.51
540.94	1814.42
541.29	1826.85
541.65	1839.24
542.01	1852.12
542.37	1864.13
542.72	1876.25
543.08	1887.82
543.44	1900.10
543.79	1911.28
544.15	1922.09
544.51	1933.50
544.87	1944.16
545.22	1954.77
545.58	1964.83
545.94	1974.42
546.29	1984.08
546.65	1993.83
547.01	2003.01
547.36	2011.54
547.72	2020.04
548.07	2027.81
548.43	2035.98
548.79	2043.98
549.14	2051.55
549.50	2058.92
549.86	2066.58
550.21	2073.80
550.57	2080.93
550.92	2087.27
551.28	2094.35
551.64	2101.48
551.99	2107.92
552.35	2114.06
552.70	2120.24
553.06	2126.31
553.41	2132.65
553.77	2138.50
554.13	2144.59
554.48	2150.62
554.84	2156.27
555.19	2161.40
555.55	2166.54
555.90	2171.01
556.26	2176.07
556.61	2180.70
556.97	2185.09
557.32	2189.25
557.68	2193.47
558.03	2197.75
558.39	2201.62
558.74	2206.14
559.10	2209.95
559.45	2213.58
559.81	2217.92
560.16	2221.88
560.52	2225.06
560.87	2228.44
561.23	2231.34
561.58	2234.33
561.94	2237.05
562.29	2239.36
562.64	2242.38
563.00	2245.11
563.35	2248.66
563.71	2251.77
564.06	2255.13
564.42	2258.03
564.77	2260.79
565.12	2263.34
565.48	2265.30
565.83	2267.34
566.19	2268.85
566.54	2269.83
566.89	2271.25
567.25	2272.11
567.60	2273.27
567.96	2275.18
568.31	2276.11
568.66	2277.43
569.02	2278.15
569.37	2278.56
569.72	2279.63
570.08	2279.80
570.43	2279.96
570.78	2279.61
571.14	2278.26
571.49	2277.12
571.84	2276.89
572.20	2275.88
572.55	2274.90
572.90	2273.42
573.26	2272.24
573.61	2270.49
573.96	2269.10
574.31	2266.22
574.67	2263.47
575.02	2260.19
575.37	2256.87
575.72	2253.51
576.08	2250.23
576.43	2247.10
576.78	2243.80
577.13	2240.74
577.49	2237.72
577.84	2234.53
578.19	2230.88
578.54	2227.52
578.90	2223.55
579.25	2218.26
579.60	2213.52
579.95	2208.83
580.30	2204.14
580.66	2199.16
581.01	2194.48
581.36	2189.74
581.71	2185.96
582.06	2181.74
582.42	2177.46
582.77	2172.44
583.12	2167.94
583.47	2163.44
583.82	2158.69
584.17	2153.56
584.53	2148.20
584.88	2142.72
585.23	2136.94
585.58	2131.62
585.93	2126.30
586.28	2121.52
586.63	2116.65
586.98	2111.70
587.34	2107.03
587.69	2102.22
588.04	2097.07
588.39	2091.64
588.74	2085.13
589.09	2078.96
589.44	2072.15
589.79	2066.11
590.14	2060.61
590.49	2054.20
590.84	2047.90
591.19	2042.11
591.54	2035.74
591.89	2028.59
592.25	2022.09
592.60	2015.09
592.95	2007.85
593.30	2000.56
593.65	1993.09
594.00	1986.08
594.35	1978.93
594.70	1970.89
595.05	1963.94
595.40	1956.71
595.75	1949.24
596.10	1943.35
596.45	1936.93
596.80	1930.92
597.15	1924.59
597.50	1917.68
597.85	1911.22
598.19	1904.77
598.54	1897.84
598.89	1891.32
599.24	1885.56
599.59	1879.10
599.94	1873.03
600.29	1866.69
600.64	1860.10
600.99	1852.87
601.34	1846.25
601.69	1839.29
602.04	1832.67
602.39	1825.45
602.74	1818.74
603.08	1812.21
603.43	1805.46
603.78	1798.14
604.13	1791.14
604.48	1783.94
604.83	1777.17
605.18	1770.62
605.53	1762.75
605.87	1754.73
606.22	1747.50
606.57	1739.64
606.92	1732.23
607.27	1725.25
607.62	1718.52
607.96	1711.54
608.31	1705.13
608.66	1697.58
609.01	1690.25
609.36	1682.83
609.70	1674.81
610.05	1666.93
610.40	1659.34
610.75	1651.17
611.10	1643.61
611.44	1635.16
611.79	1627.15
612.14	1618.62
612.49	1609.25
612.83	1600.95
613.18	1592.81
613.53	1584.87
613.88	1576.49
614.22	1568.39
614.57	1559.59
614.92	1551.67
615.27	1544.23
615.61	1535.86
615.96	1527.91
616.31	1520.26
616.65	1512.92
617.00	1505.50
617.35	1497.86
617.70	1489.53
618.04	1481.01
618.39	1472.74
618.74	1465.26
619.08	1457.07
619.43	1449.45
619.78	1442.59
620.12	1435.45
620.47	1428.06
620.82	1419.81
621.16	1412.29
621.51	1404.64
621.85	1397.18
622.20	1388.64
622.55	1380.14
622.89	1372.38
623.24	1364.73
623.59	1357.27
623.93	1349.67
624.28	1342.39
624.62	1334.99
624.97	1327.91
625.32	1321.11
625.66	1314.13
626.01	1306.97
626.35	1299.62
626.70	1291.88
627.04	1284.22
627.39	1276.38
627.73	1269.01
628.08	1262.20
628.43	1255.01
628.77	1247.66
629.12	1240.17
629.46	1233.07
629.81	1225.69
630.15	1218.33
630.50	1210.92
630.84	1202.84
631.19	1194.98
631.53	1187.40
631.88	1179.77
632.22	1172.11
632.57	1164.85
632.91	1157.27
633.26	1149.82
633.60	1142.33
633.95	1135.10
634.29	1128.12
634.64	1121.54
634.98	1114.19
635.32	1107.09
635.67	1100.45
636.01	1093.79
636.36	1086.95
636.70	1080.30
637.05	1073.70
637.39	1067.31
637.73	1060.84
638.08	1054.92
638.42	1048.86
638.77	1042.58
639.11	1036.09
639.45	1029.75
639.80	1023.13
640.14	1016.81
640.49	1010.35
640.83	1004.15
641.17	998.05
641.52	991.69
641.86	985.14
642.20	979.28
642.55	972.83
642.89	966.40
643.23	959.79
643.58	954.09
643.92	947.94
644.26	942.02
644.61	935.99
644.95	930.07
645.29	923.53
645.64	916.90
645.98	910.48
646.32	904.51
646.66	898.45
647.01	892.74
647.35	887.05
647.69	881.19
648.04	875.57
648.38	869.83
648.72	863.95
649.06	858.02
649.41	852.10
649.75	846.25
650.09	840.32
650.43	834.64
650.78	828.46
651.12	822.54
651.46	816.75
651.80	811.11
652.14	805.60
652.49	800.27
652.83	795.09
653.17	789.59
653.51	783.96
653.85	778.60
654.20	772.94
654.54	766.92
654.88	761.17
655.22	755.36
655.56	749.59
655.90	744.03
656.25	738.80
656.59	733.45
656.93	728.41
657.27	723.31
657.61	717.86
657.95	712.83
658.29	707.76
658.64	702.55
658.98	697.18
659.32	691.79
659.66	686.67
660.00	681.42
660.34	676.39
660.68	671.52
661.02	666.49
661.36	661.79
661.70	657.32
662.05	652.96
662.39	648.67
662.73	644.25
663.07	639.91
663.41	635.42
663.75	631.05
664.09	626.47
664.43	622.07
664.77	618.02
665.11	613.79
665.45	609.65
665.79	605.59
666.13	601.51
666.47	597.41
666.81	593.24
667.15	589.12
667.49	585.15
667.83	581.31
668.17	577.36
668.51	573.32
668.85	569.34
669.19	565.47
669.53	561.61
669.87	557.84
670.21	554.18
670.55	550.55
670.89	547.05
671.23	543.66
671.57	540.14
671.91	536.60
672.25	533.07
672.58	529.54
672.92	526.09
673.26	522.93
673.60	519.77
673.94	516.64
674.28	513.68
674.62	510.85
674.96	507.75
675.30	504.81
675.64	501.86
675.97	499.04
676.31	496.21
676.65	493.30
676.99	490.53
677.33	487.69
677.67	484.81
678.01	481.79
678.34	478.79
678.68	475.90
679.02	473.08
679.36	470.28
679.70	467.61
680.04	464.88
680.37	462.03
680.71	459.25
681.05	456.60
681.39	453.89
681.73	451.20
682.06	448.65
682.40	446.14
682.74	443.60
683.08	441.08
683.42	438.46
683.75	435.95
684.09	433.39
684.43	430.90
684.77	428.52
685.10	426.17
685.44	423.86
685.78	421.55
686.12	419.26
686.45	416.97
686.79	414.65
687.13	412.41
687.46	410.21
687.80	408.05
688.14	405.83
688.48	403.79
688.81	401.54
689.15	399.38
689.49	397.21
689.82	395.17
690.16	393.06
690.50	391.14
690.83	389.17
691.17	387.17
691.51	385.26
691.84	383.40
692.18	381.50
692.52	379.54
692.85	377.61
693.19	375.83
693.52	374.00
693.86	372.21
694.20	370.47
694.53	368.68
694.87	366.83
695.21	365.03
695.54	363.19
695.88	361.44
696.21	359.68
696.55	358.03
696.88	356.35
697.22	354.64
697.56	352.97
697.89	351.30
698.23	349.73
698.56	348.14
698.90	346.58
699.23	344.93
699.57	343.36
699.90	341.83
700.24	340.21
700.58	338.74
700.91	337.28
701.25	335.83
701.58	334.45
701.92	333.08
702.25	331.75
702.59	330.39
702.92	329.07
703.26	327.79
703.59	326.46
703.93	325.22
704.26	324.06
704.60	322.81
704.93	321.57
705.26	320.32
705.60	319.09
705.93	317.88
706.27	316.84
706.60	315.78
706.94	314.66
707.27	313.56
707.61	312.45
707.94	311.39
708.27	310.28
708.61	309.21
708.94	308.20
709.28	307.22
709.61	306.25
709.94	305.31
710.28	304.27
710.61	303.31
710.95	302.27
711.28	301.33
711.61	300.32
711.95	299.41
712.28	298.48
712.61	297.54
712.95	296.65
713.28	295.74
713.61	294.83
713.95	294.00
714.28	293.13
714.61	292.29
714.95	291.41
715.28	290.60
715.61	289.75
715.95	288.90
716.28	288.02
716.61	287.18
716.95	286.32
717.28	285.61
717.61	284.90
717.94	284.20
718.28	283.37
718.61	282.70
718.94	282.03
719.27	281.33
719.61	280.69
719.94	280.04
720.27	279.32
720.60	278.69
720.94	278.06
721.27	277.48
721.60	276.89
721.93	276.36
722.27	275.80
722.60	275.24
722.93	274.67
723.26	274.15
723.59	273.60
723.93	273.11
724.26	272.58
724.59	271.98
724.92	271.40
725.25	270.92
725.59	270.39
725.92	269.88
726.25	269.36
726.58	268.85
726.91	268.30
727.24	267.85
727.57	267.35
727.91	266.84
728.24	266.37
728.57	265.89
728.90	265.39
729.23	264.85
729.56	264.38
729.89	263.93
730.22	263.42
730.55	263.00
730.89	262.55
731.22	262.07
731.55	261.68
731.88	261.22
732.21	260.79
732.54	260.34
732.87	259.90
733.20	259.49
733.53	259.09
733.86	258.75
734.19	258.36
734.52	257.96
734.85	257.65
735.18	257.20
735.51	256.84
735.84	256.47
736.17	256.15
736.50	255.79
736.83	255.55
737.16	255.22
737.49	254.87
737.82	254.50
738.15	254.16
738.48	253.81
738.81	253.50
739.14	253.21
739.47	252.89
739.80	252.59
740.13	252.30
740.46	252.00
740.79	251.67
741.12	251.34
741.45	251.06
741.78	250.73
742.11	250.49
742.44	250.14
742.77	249.88
743.10	249.56
743.43	249.25
743.75	248.85
744.08	248.73
744.41	248.43
744.74	248.15
745.07	247.86
745.40	247.60
745.73	247.37
746.06	247.05
746.39	246.78
746.71	246.49
747.04	246.23
747.37	245.96
747.70	245.70
748.03	245.48
748.36	245.22
748.68	244.93
749.01	244.68
749.34	244.46
749.67	244.20
750.00	243.98
750.33	243.82
750.65	243.58
750.98	243.23
751.31	243.03
751.64	242.82
751.97	242.67
752.29	242.45
752.62	242.20
752.95	241.99
753.28	241.79
753.60	241.60
753.93	241.43
754.26	241.23
754.59	241.00
754.91	240.74
755.24	240.58
755.57	240.43
755.90	240.22
756.22	240.07
756.55	239.86
756.88	239.71
757.20	239.48
757.53	239.34
757.86	239.17
758.19	238.99
758.51	238.84
758.84	238.63
759.17	238.47
759.49	238.32
759.82	238.21
760.15	238.04
760.47	237.88
760.80	237.68
761.13	237.54
761.45	237.42
761.78	237.32
762.11	237.16
762.43	236.98
762.76	236.85
763.08	236.71
763.41	236.59
763.74	236.45
764.06	236.32
764.39	236.17
764.71	236.05
765.04	235.89
765.37	235.75
765.69	235.65
766.02	235.52
766.34	235.40
766.67	235.29
767.00	235.16
767.32	235.07
767.65	235.00
767.97	234.93
768.30	234.79
768.62	234.66
768.95	234.55
769.27	234.47
769.60	234.38
769.92	234.25
770.25	234.12
770.57	233.98
770.90	233.86
771.22	233.74
771.55	233.64
771.87	233.55
772.20	233.43
772.52	233.39
772.85	233.41
773.17	233.30
773.50	233.17
773.82	233.06
774.15	232.95
774.47	232.81
774.80	232.69
775.12	232.60
775.45	232.53
775.77	232.47
776.09	232.40
776.42	232.32
776.74	232.27
777.07	232.19
777.39	232.12
777.72	232.06
778.04	231.99
778.36	231.89
778.69	231.83
779.01	231.78
779.33	231.62
779.66	231.45
779.98	231.40
780.31	231.33
780.63	231.33
780.95	231.29
781.28	231.24
781.60	231.14
781.92	231.11
782.25	231.03
782.57	230.95
782.89	230.86
783.22	230.79
783.54	230.72
783.86	230.69
784.19	230.65
784.51	230.61
784.83	230.57
785.16	230.48
785.48	230.45
785.80	230.39
786.12	230.37
786.45	230.34
786.77	230.30
787.09	230.26
