SpectraSuite Data File
++++++++++++++++++++++++++++++++++++
Date: Fri Feb 01 15:58:19 EST 2013
User: group
Dark Spectrum Present: No
Reference Spectrum Present: No
Number of Sampled Component Spectra: 1
Spectrometers: USB2E7196
Integration Time (usec): 35000 (USB2E7196)
Spectra Averaged: 100 (USB2E7196)
Boxcar Smoothing: 10 (USB2E7196)
Correct for Electrical Dark: No (USB2E7196)
Strobe/Lamp Enabled: No (USB2E7196)
Correct for Detector Non-linearity: No (USB2E7196)
Correct for Stray Light: No (USB2E7196)
Number of Pixels in Processed Spectrum: 2048
>>>>>Begin Processed Spectral Data<<<<<
339.09	0.00
339.48	214.79
339.86	216.65
340.24	217.51
340.63	219.22
341.01	221.60
341.39	221.58
341.78	223.13
342.16	224.17
342.54	224.88
342.93	213.14
343.31	223.95
343.69	224.49
344.07	224.94
344.46	225.35
344.84	225.72
345.22	225.98
345.60	226.22
345.99	226.37
346.37	226.52
346.75	226.65
347.13	226.71
347.52	226.72
347.90	226.82
348.28	226.83
348.66	226.86
349.05	226.86
349.43	226.91
349.81	226.94
350.19	226.99
350.57	227.07
350.96	227.14
351.34	227.18
351.72	227.28
352.10	227.36
352.48	227.43
352.87	227.51
353.25	227.55
353.63	227.63
354.01	227.72
354.39	227.81
354.77	227.82
355.15	227.92
355.54	228.02
355.92	228.06
356.30	228.15
356.68	228.29
357.06	228.37
357.44	228.41
357.82	228.49
358.20	228.61
358.58	228.67
358.97	228.76
359.35	228.84
359.73	228.91
360.11	228.98
360.49	229.02
360.87	229.07
361.25	229.14
361.63	229.22
362.01	229.28
362.39	229.30
362.77	229.35
363.15	229.40
363.53	229.44
363.91	229.47
364.29	229.48
364.67	229.40
365.05	229.41
365.43	229.40
365.81	229.42
366.19	229.41
366.57	229.44
366.95	229.40
367.33	229.39
367.71	229.37
368.09	229.36
368.47	229.40
368.85	229.42
369.23	229.42
369.61	229.37
369.99	229.40
370.37	229.37
370.75	229.42
371.13	229.33
371.51	229.27
371.89	229.25
372.27	229.21
372.65	229.17
373.03	229.16
373.41	229.12
373.78	229.06
374.16	228.96
374.54	228.89
374.92	228.85
375.30	228.76
375.68	228.68
376.06	228.61
376.44	228.53
376.82	228.44
377.19	228.37
377.57	228.25
377.95	228.13
378.33	228.04
378.71	227.91
379.09	227.87
379.47	227.80
379.84	227.69
380.22	227.65
380.60	227.52
380.98	227.44
381.36	227.39
381.73	227.31
382.11	227.27
382.49	227.18
382.87	227.11
383.25	227.07
383.62	227.11
384.00	227.06
384.38	226.99
384.76	226.92
385.13	226.88
385.51	226.88
385.89	226.84
386.27	226.77
386.64	226.72
387.02	226.67
387.40	226.62
387.78	226.60
388.15	226.52
388.53	226.52
388.91	226.48
389.29	226.40
389.66	226.39
390.04	226.33
390.42	226.32
390.79	226.29
391.17	226.25
391.55	226.14
391.92	226.12
392.30	226.12
392.68	226.09
393.05	226.07
393.43	226.10
393.81	226.07
394.18	226.08
394.56	226.08
394.94	226.09
395.31	226.11
395.69	226.16
396.06	226.21
396.44	226.24
396.82	226.26
397.19	226.37
397.57	226.39
397.95	226.46
398.32	226.46
398.70	226.53
399.07	226.60
399.45	226.67
399.82	226.74
400.20	226.80
400.58	226.90
400.95	226.94
401.33	226.99
401.70	227.17
402.08	227.25
402.45	227.39
402.83	227.50
403.20	227.58
403.58	227.66
403.95	227.81
404.33	227.97
404.71	228.13
405.08	228.32
405.46	228.46
405.83	228.64
406.21	228.83
406.58	229.01
406.96	229.16
407.33	229.34
407.70	229.53
408.08	229.83
408.45	230.06
408.83	230.31
409.20	230.54
409.58	230.72
409.95	231.04
410.33	231.30
410.70	231.55
411.08	231.89
411.45	232.21
411.82	232.53
412.20	232.88
412.57	233.30
412.95	233.56
413.32	233.96
413.69	234.35
414.07	234.78
414.44	235.27
414.82	235.78
415.19	236.32
415.56	236.90
415.94	237.41
416.31	238.00
416.68	238.63
417.06	239.35
417.43	240.04
417.81	240.79
418.18	241.55
418.55	242.39
418.93	243.27
419.30	244.16
419.67	245.09
420.04	246.01
420.42	246.99
420.79	248.23
421.16	249.39
421.54	250.58
421.91	251.80
422.28	253.03
422.66	254.34
423.03	255.66
423.40	256.98
423.77	258.39
424.15	259.82
424.52	261.34
424.89	262.95
425.26	264.48
425.64	265.92
426.01	267.50
426.38	269.15
426.75	270.78
427.13	272.52
427.50	274.30
427.87	276.18
428.24	278.02
428.61	279.73
428.99	281.67
429.36	283.77
429.73	285.81
430.10	287.83
430.47	289.91
430.85	292.04
431.22	294.27
431.59	296.64
431.96	298.90
432.33	301.33
432.70	303.72
433.08	306.54
433.45	309.21
433.82	311.82
434.19	314.72
434.56	317.54
434.93	320.19
435.30	322.86
435.68	325.69
436.05	328.52
436.42	331.30
436.79	333.84
437.16	336.54
437.53	339.39
437.90	342.17
438.27	344.88
438.64	347.69
439.01	350.24
439.38	352.44
439.75	354.59
440.13	357.06
440.50	359.37
440.87	361.13
441.24	363.05
441.61	365.18
441.98	366.68
442.35	368.43
442.72	370.25
443.09	371.97
443.46	372.98
443.83	373.55
444.20	374.02
444.57	374.83
444.94	375.08
445.31	375.36
445.68	375.72
446.05	375.83
446.42	375.41
446.79	375.00
447.16	374.59
447.53	374.27
447.90	373.15
448.27	371.95
448.64	370.45
449.01	369.29
449.37	367.35
449.74	365.45
450.11	363.28
450.48	360.83
450.85	358.30
451.22	356.17
451.59	354.21
451.96	352.31
452.33	349.69
452.70	347.32
453.07	344.54
453.43	341.67
453.80	338.90
454.17	336.22
454.54	333.69
454.91	330.98
455.28	328.32
455.65	325.82
456.02	323.38
456.38	321.23
456.75	318.60
457.12	316.34
457.49	314.13
457.86	311.94
458.23	310.09
458.59	308.13
458.96	306.08
459.33	304.20
459.70	302.31
460.07	300.81
460.43	299.16
460.80	297.51
461.17	296.07
461.54	294.58
461.91	293.19
462.27	291.74
462.64	290.50
463.01	289.19
463.38	287.91
463.74	286.57
464.11	285.40
464.48	284.34
464.85	283.23
465.21	282.37
465.58	281.46
465.95	280.37
466.32	279.42
466.68	278.48
467.05	277.59
467.42	276.72
467.78	275.80
468.15	274.92
468.52	274.27
468.88	273.40
469.25	272.62
469.62	272.00
469.98	271.30
470.35	270.68
470.72	270.04
471.08	269.39
471.45	268.86
471.82	268.32
472.18	267.77
472.55	267.34
472.92	266.83
473.28	266.34
473.65	265.84
474.02	265.42
474.38	265.11
474.75	264.79
475.11	264.46
475.48	264.18
475.85	263.95
476.21	263.72
476.58	263.55
476.94	263.40
477.31	263.25
477.67	263.15
478.04	263.05
478.41	262.99
478.77	263.02
479.14	262.96
479.50	262.93
479.87	263.01
480.23	263.10
480.60	263.15
480.96	263.25
481.33	263.51
481.69	263.71
482.06	263.89
482.42	264.08
482.79	264.36
483.15	264.71
483.52	265.10
483.88	265.47
484.25	265.83
484.61	266.22
484.98	266.66
485.34	267.19
485.71	267.77
486.07	268.39
486.44	268.95
486.80	269.63
487.17	270.40
487.53	271.22
487.90	272.07
488.26	273.00
488.62	273.96
488.99	274.93
489.35	276.00
489.72	277.10
490.08	278.32
490.44	279.53
490.81	280.86
491.17	282.16
491.54	283.66
491.90	285.19
492.26	286.86
492.63	288.61
492.99	290.40
493.36	292.30
493.72	294.35
494.08	296.44
494.45	298.74
494.81	301.11
495.17	303.52
495.54	306.09
495.90	308.75
496.26	311.56
496.63	314.57
496.99	317.65
497.35	320.88
497.72	324.28
498.08	327.81
498.44	331.48
498.80	335.43
499.17	339.43
499.53	343.64
499.89	348.01
500.26	352.50
500.62	357.19
500.98	362.13
501.34	367.19
501.71	372.57
502.07	377.97
502.43	383.59
502.79	389.39
503.16	395.44
503.52	401.82
503.88	408.26
504.24	414.82
504.60	421.74
504.97	428.93
505.33	436.25
505.69	443.92
506.05	451.70
506.41	459.59
506.78	467.75
507.14	476.20
507.50	484.92
507.86	493.93
508.22	503.15
508.59	512.35
508.95	521.96
509.31	531.76
509.67	541.90
510.03	552.19
510.39	562.77
510.75	573.61
511.12	584.47
511.48	595.78
511.84	607.25
512.20	618.72
512.56	630.66
512.92	642.82
513.28	655.20
513.64	667.65
514.00	680.32
514.37	693.25
514.73	706.32
515.09	719.33
515.45	732.68
515.81	746.19
516.17	760.25
516.53	774.35
516.89	788.51
517.25	802.68
517.61	817.09
517.97	831.55
518.33	845.95
518.69	860.74
519.05	875.69
519.41	890.76
519.77	906.36
520.13	921.70
520.49	937.15
520.85	952.54
521.21	968.27
521.57	984.51
521.93	1000.27
522.29	1016.66
522.65	1032.95
523.01	1049.20
523.37	1065.19
523.73	1081.31
524.09	1097.35
524.45	1113.57
524.81	1130.10
525.17	1146.84
525.53	1163.77
525.89	1180.62
526.25	1197.36
526.61	1213.74
526.97	1230.54
527.33	1246.88
527.68	1263.60
528.04	1279.99
528.40	1296.59
528.76	1313.59
529.12	1330.13
529.48	1346.98
529.84	1362.86
530.20	1379.52
530.56	1396.43
530.91	1413.93
531.27	1430.53
531.63	1447.03
531.99	1463.61
532.35	1479.62
532.71	1495.58
533.07	1511.69
533.42	1527.47
533.78	1543.44
534.14	1559.71
534.50	1574.96
534.86	1590.88
535.21	1606.00
535.57	1621.76
535.93	1637.20
536.29	1651.94
536.65	1667.01
537.00	1681.76
537.36	1697.29
537.72	1711.75
538.08	1726.12
538.44	1739.74
538.79	1753.64
539.15	1767.32
539.51	1781.00
539.87	1795.18
540.22	1808.86
540.58	1822.64
540.94	1836.07
541.29	1849.03
541.65	1861.58
542.01	1874.81
542.37	1887.08
542.72	1899.44
543.08	1911.31
543.44	1923.67
543.79	1934.87
544.15	1945.74
544.51	1957.26
544.87	1968.02
545.22	1978.63
545.58	1988.66
545.94	1998.37
546.29	2008.25
546.65	2018.00
547.01	2027.15
547.36	2035.99
547.72	2044.34
548.07	2052.13
548.43	2060.25
548.79	2068.21
549.14	2075.75
549.50	2083.21
549.86	2090.74
550.21	2098.03
550.57	2105.15
550.92	2111.63
551.28	2118.71
551.64	2125.79
551.99	2132.35
552.35	2138.47
552.70	2144.86
553.06	2150.95
553.41	2157.41
553.77	2163.52
554.13	2169.65
554.48	2175.98
554.84	2181.27
555.19	2186.68
555.55	2191.80
555.90	2196.20
556.26	2201.02
556.61	2205.77
556.97	2209.93
557.32	2214.13
557.68	2218.22
558.03	2222.55
558.39	2226.38
558.74	2231.05
559.10	2234.91
559.45	2238.55
559.81	2242.88
560.16	2246.65
560.52	2249.87
560.87	2253.24
561.23	2255.77
561.58	2258.80
561.94	2261.23
562.29	2263.78
562.64	2266.39
563.00	2268.91
563.35	2272.52
563.71	2275.71
564.06	2278.89
564.42	2281.73
564.77	2284.27
565.12	2286.71
565.48	2288.68
565.83	2290.50
566.19	2291.66
566.54	2292.55
566.89	2293.68
567.25	2294.23
567.60	2295.51
567.96	2297.21
568.31	2298.14
568.66	2299.27
569.02	2299.85
569.37	2300.27
569.72	2301.09
570.08	2301.23
570.43	2301.34
570.78	2300.64
571.14	2299.14
571.49	2297.92
571.84	2297.60
572.20	2296.45
572.55	2295.36
572.90	2293.75
573.26	2292.32
573.61	2290.75
573.96	2289.08
574.31	2286.11
574.67	2283.09
575.02	2279.42
575.37	2276.13
575.72	2272.16
576.08	2268.92
576.43	2265.56
576.78	2261.92
577.13	2258.73
577.49	2255.74
577.84	2252.26
578.19	2248.69
578.54	2244.91
578.90	2240.62
579.25	2235.10
579.60	2230.00
579.95	2224.99
580.30	2220.00
580.66	2214.98
581.01	2210.04
581.36	2205.14
581.71	2201.02
582.06	2196.72
582.42	2192.27
582.77	2187.01
583.12	2182.57
583.47	2177.79
583.82	2172.64
584.17	2167.35
584.53	2161.81
584.88	2156.15
585.23	2150.36
585.58	2144.78
585.93	2139.41
586.28	2134.61
586.63	2129.59
586.98	2124.79
587.34	2119.99
587.69	2114.91
588.04	2109.46
588.39	2103.70
588.74	2097.25
589.09	2091.03
589.44	2084.07
589.79	2078.17
590.14	2072.63
590.49	2065.92
590.84	2059.49
591.19	2053.59
591.54	2047.03
591.89	2039.63
592.25	2032.75
592.60	2025.61
592.95	2018.02
593.30	2010.68
593.65	2003.18
594.00	1996.10
594.35	1988.75
594.70	1980.76
595.05	1973.65
595.40	1966.47
595.75	1959.05
596.10	1952.87
596.45	1946.17
596.80	1940.01
597.15	1933.28
597.50	1926.05
597.85	1919.74
598.19	1913.04
598.54	1905.80
598.89	1899.29
599.24	1893.49
599.59	1886.74
599.94	1880.46
600.29	1874.31
600.64	1867.90
600.99	1860.54
601.34	1853.67
601.69	1846.69
602.04	1839.81
602.39	1832.60
602.74	1825.71
603.08	1818.99
603.43	1812.15
603.78	1804.80
604.13	1797.65
604.48	1790.29
604.83	1783.51
605.18	1776.49
605.53	1768.64
605.87	1760.85
606.22	1753.59
606.57	1745.62
606.92	1738.46
607.27	1731.40
607.62	1724.37
607.96	1717.02
608.31	1710.25
608.66	1702.69
609.01	1695.15
609.36	1687.61
609.70	1679.55
610.05	1671.46
610.40	1663.64
610.75	1655.29
611.10	1647.67
611.44	1639.26
611.79	1631.38
612.14	1622.65
612.49	1613.60
612.83	1605.27
613.18	1596.97
613.53	1588.75
613.88	1580.15
614.22	1571.82
614.57	1563.15
614.92	1555.15
615.27	1547.47
615.61	1539.31
615.96	1531.25
616.31	1523.68
616.65	1516.38
617.00	1508.81
617.35	1501.24
617.70	1493.03
618.04	1484.60
618.39	1476.35
618.74	1468.79
619.08	1460.41
619.43	1452.81
619.78	1445.83
620.12	1438.44
620.47	1430.90
620.82	1422.86
621.16	1415.61
621.51	1407.97
621.85	1400.31
622.20	1391.69
622.55	1383.43
622.89	1375.41
623.24	1367.84
623.59	1360.39
623.93	1352.79
624.28	1345.66
624.62	1338.06
624.97	1330.81
625.32	1324.09
625.66	1317.09
626.01	1309.92
626.35	1302.40
626.70	1294.71
627.04	1286.98
627.39	1279.39
627.73	1272.06
628.08	1265.19
628.43	1257.77
628.77	1250.38
629.12	1242.84
629.46	1235.72
629.81	1228.32
630.15	1221.06
630.50	1213.62
630.84	1205.45
631.19	1197.56
631.53	1190.00
631.88	1182.48
632.22	1174.91
632.57	1167.53
632.91	1160.05
633.26	1152.60
633.60	1145.32
633.95	1138.17
634.29	1131.25
634.64	1124.43
634.98	1117.04
635.32	1109.82
635.67	1103.21
636.01	1096.60
636.36	1089.81
636.70	1083.23
637.05	1076.57
637.39	1070.20
637.73	1063.71
638.08	1057.92
638.42	1051.91
638.77	1045.43
639.11	1038.88
639.45	1032.50
639.80	1025.85
640.14	1019.41
640.49	1012.82
640.83	1006.51
641.17	1000.28
641.52	993.82
641.86	987.44
642.20	981.58
642.55	975.38
642.89	968.99
643.23	962.51
643.58	956.75
643.92	950.59
644.26	944.53
644.61	938.42
644.95	932.45
645.29	925.78
645.64	918.91
645.98	912.62
646.32	906.76
646.66	900.66
647.01	894.86
647.35	889.10
647.69	883.36
648.04	877.85
648.38	872.05
648.72	866.05
649.06	859.98
649.41	854.19
649.75	848.14
650.09	842.17
650.43	836.35
650.78	830.24
651.12	824.36
651.46	818.71
651.80	813.04
652.14	807.61
652.49	802.22
652.83	797.11
653.17	791.32
653.51	785.63
653.85	780.27
654.20	774.66
654.54	768.71
654.88	762.97
655.22	757.09
655.56	751.39
655.90	746.00
656.25	740.77
656.59	735.36
656.93	730.35
657.27	725.11
657.61	719.69
657.95	714.57
658.29	709.43
658.64	704.20
658.98	698.86
659.32	693.34
659.66	688.13
660.00	682.81
660.34	677.96
660.68	673.02
661.02	667.98
661.36	663.18
661.70	658.61
662.05	654.22
662.39	649.87
662.73	645.50
663.07	641.14
663.41	636.69
663.75	632.17
664.09	627.49
664.43	623.18
664.77	619.08
665.11	614.82
665.45	610.74
665.79	606.62
666.13	602.57
666.47	598.52
666.81	594.42
667.15	590.40
667.49	586.44
667.83	582.65
668.17	578.73
668.51	574.72
668.85	570.78
669.19	566.98
669.53	563.08
669.87	559.13
670.21	555.37
670.55	551.75
670.89	548.40
671.23	545.04
671.57	541.48
671.91	537.90
672.25	534.37
672.58	530.78
672.92	527.34
673.26	524.11
673.60	520.96
673.94	517.79
674.28	514.87
674.62	511.95
674.96	508.81
675.30	505.94
675.64	502.99
675.97	500.16
676.31	497.24
676.65	494.33
676.99	491.67
677.33	488.83
677.67	486.03
678.01	482.90
678.34	479.86
678.68	476.99
679.02	474.16
679.36	471.45
679.70	468.76
680.04	466.03
680.37	463.19
680.71	460.40
681.05	457.78
681.39	455.04
681.73	452.35
682.06	449.91
682.40	447.36
682.74	444.90
683.08	442.40
683.42	439.82
683.75	437.43
684.09	434.90
684.43	432.46
684.77	429.99
685.10	427.68
685.44	425.45
685.78	423.22
686.12	421.00
686.45	418.70
686.79	416.41
687.13	414.21
687.46	412.03
687.80	409.93
688.14	407.75
688.48	405.70
688.81	403.49
689.15	401.28
689.49	399.12
689.82	397.00
690.16	394.92
690.50	393.01
690.83	391.01
691.17	388.99
691.51	387.06
691.84	385.18
692.18	383.27
692.52	381.22
692.85	379.27
693.19	377.41
693.52	375.63
693.86	373.83
694.20	372.08
694.53	370.28
694.87	368.39
695.21	366.62
695.54	364.77
695.88	363.05
696.21	361.38
696.55	359.73
696.88	358.05
697.22	356.40
697.56	354.77
697.89	353.12
698.23	351.53
698.56	349.90
698.90	348.29
699.23	346.62
699.57	345.11
699.90	343.52
700.24	341.94
700.58	340.33
700.91	338.80
701.25	337.34
701.58	335.95
701.92	334.61
702.25	333.24
702.59	331.86
702.92	330.51
703.26	329.13
703.59	327.81
703.93	326.63
704.26	325.38
704.60	324.02
704.93	322.69
705.26	321.45
705.60	320.29
705.93	319.16
706.27	318.12
706.60	317.05
706.94	316.00
707.27	314.86
707.61	313.79
707.94	312.78
708.27	311.66
708.61	310.60
708.94	309.56
709.28	308.56
709.61	307.61
709.94	306.66
710.28	305.69
710.61	304.71
710.95	303.63
711.28	302.70
711.61	301.78
711.95	300.90
712.28	299.88
712.61	298.90
712.95	297.96
713.28	297.09
713.61	296.21
713.95	295.29
714.28	294.45
714.61	293.62
714.95	292.80
715.28	291.96
715.61	291.08
715.95	290.22
716.28	289.33
716.61	288.50
716.95	287.65
717.28	286.88
717.61	286.13
717.94	285.40
718.28	284.59
718.61	283.85
718.94	283.13
719.27	282.50
719.61	281.86
719.94	281.20
720.27	280.48
720.60	279.81
720.94	279.19
721.27	278.62
721.60	278.01
721.93	277.38
722.27	276.81
722.60	276.24
722.93	275.66
723.26	275.15
723.59	274.57
723.93	274.06
724.26	273.51
724.59	272.96
724.92	272.46
725.25	271.95
725.59	271.45
725.92	270.89
726.25	270.38
726.58	269.88
726.91	269.39
727.24	268.91
727.57	268.46
727.91	267.93
728.24	267.48
728.57	267.02
728.90	266.57
729.23	266.13
729.56	265.73
729.89	265.27
730.22	264.83
730.55	264.38
730.89	263.94
731.22	263.50
731.55	263.06
731.88	262.65
732.21	262.25
732.54	261.80
732.87	261.47
733.20	261.11
733.53	260.73
733.86	260.35
734.19	259.96
734.52	259.59
734.85	259.33
735.18	258.91
735.51	258.55
735.84	258.20
736.17	257.83
736.50	257.43
736.83	257.20
737.16	256.86
737.49	256.53
737.82	256.15
738.15	255.83
738.48	255.51
738.81	255.15
739.14	254.81
739.47	254.49
739.80	254.12
740.13	253.83
740.46	253.50
740.79	253.18
741.12	252.88
741.45	252.56
741.78	252.17
742.11	251.89
742.44	251.56
742.77	251.22
743.10	250.91
743.43	250.63
743.75	250.25
744.08	250.03
744.41	249.76
744.74	249.49
745.07	249.16
745.40	248.91
745.73	248.69
746.06	248.40
746.39	248.13
746.71	247.90
747.04	247.59
747.37	247.32
747.70	247.07
748.03	246.82
748.36	246.59
748.68	246.34
749.01	246.08
749.34	245.82
749.67	245.60
750.00	245.36
750.33	245.18
750.65	244.94
750.98	244.66
751.31	244.41
751.64	244.22
751.97	244.07
752.29	243.85
752.62	243.58
752.95	243.37
753.28	243.17
753.60	242.95
753.93	242.78
754.26	242.56
754.59	242.32
754.91	242.10
755.24	241.86
755.57	241.69
755.90	241.50
756.22	241.33
756.55	241.15
756.88	240.96
757.20	240.73
757.53	240.51
757.86	240.32
758.19	240.18
758.51	240.01
758.84	239.78
759.17	239.61
759.49	239.46
759.82	239.33
760.15	239.16
760.47	239.00
760.80	238.81
761.13	238.68
761.45	238.52
761.78	238.35
762.11	238.23
762.43	238.09
762.76	237.94
763.08	237.80
763.41	237.69
763.74	237.56
764.06	237.43
764.39	237.34
764.71	237.18
765.04	237.05
765.37	236.95
765.69	236.84
766.02	236.70
766.34	236.59
766.67	236.50
767.00	236.43
767.32	236.41
767.65	236.35
767.97	236.23
768.30	236.13
768.62	236.09
768.95	235.97
769.27	235.88
769.60	235.80
769.92	235.70
770.25	235.53
770.57	235.43
770.90	235.31
771.22	235.23
771.55	235.12
771.87	235.04
772.20	234.89
772.52	234.91
772.85	234.96
773.17	234.86
773.50	234.72
773.82	234.62
774.15	234.47
774.47	234.35
774.80	234.27
775.12	234.21
775.45	234.10
775.77	234.02
776.09	233.94
776.42	233.86
776.74	233.79
777.07	233.77
777.39	233.69
777.72	233.61
778.04	233.55
778.36	233.51
778.69	233.47
779.01	233.46
779.33	233.30
779.66	233.16
779.98	233.07
780.31	233.03
780.63	233.01
780.95	232.96
781.28	232.87
781.60	232.81
781.92	232.75
782.25	232.67
782.57	232.62
782.89	232.55
783.22	232.49
783.54	232.42
783.86	232.34
784.19	232.30
784.51	232.28
784.83	232.18
785.16	232.11
785.48	232.02
785.80	231.94
786.12	231.89
786.45	231.80
786.77	231.79
787.09	231.70
