SpectraSuite Data File
++++++++++++++++++++++++++++++++++++
Date: Fri Feb 01 15:49:40 EST 2013
User: group
Dark Spectrum Present: No
Reference Spectrum Present: No
Number of Sampled Component Spectra: 1
Spectrometers: USB2E7196
Integration Time (usec): 35000 (USB2E7196)
Spectra Averaged: 100 (USB2E7196)
Boxcar Smoothing: 10 (USB2E7196)
Correct for Electrical Dark: No (USB2E7196)
Strobe/Lamp Enabled: No (USB2E7196)
Correct for Detector Non-linearity: No (USB2E7196)
Correct for Stray Light: No (USB2E7196)
Number of Pixels in Processed Spectrum: 2048
>>>>>Begin Processed Spectral Data<<<<<
339.09	0.00
339.48	214.64
339.86	215.87
340.24	217.08
340.63	218.77
341.01	222.28
341.39	221.87
341.78	223.26
342.16	223.88
342.54	224.66
342.93	213.08
343.31	223.86
343.69	224.42
344.07	224.90
344.46	225.35
344.84	225.75
345.22	225.98
345.60	226.24
345.99	226.44
346.37	226.59
346.75	226.73
347.13	226.80
347.52	226.87
347.90	226.98
348.28	227.01
348.66	227.08
349.05	227.11
349.43	227.14
349.81	227.23
350.19	227.28
350.57	227.32
350.96	227.41
351.34	227.50
351.72	227.60
352.10	227.70
352.48	227.78
352.87	227.84
353.25	227.90
353.63	227.96
354.01	228.01
354.39	228.10
354.77	228.16
355.15	228.27
355.54	228.38
355.92	228.39
356.30	228.46
356.68	228.59
357.06	228.68
357.44	228.72
357.82	228.73
358.20	228.79
358.58	228.83
358.97	228.89
359.35	228.94
359.73	229.01
360.11	229.05
360.49	229.09
360.87	229.12
361.25	229.18
361.63	229.28
362.01	229.33
362.39	229.34
362.77	229.35
363.15	229.37
363.53	229.35
363.91	229.37
364.29	229.37
364.67	229.28
365.05	229.27
365.43	229.31
365.81	229.35
366.19	229.40
366.57	229.47
366.95	229.45
367.33	229.44
367.71	229.38
368.09	229.40
368.47	229.37
368.85	229.37
369.23	229.36
369.61	229.25
369.99	229.22
370.37	229.20
370.75	229.23
371.13	229.15
371.51	229.08
371.89	229.02
372.27	228.99
372.65	228.94
373.03	228.88
373.41	228.81
373.78	228.74
374.16	228.60
374.54	228.47
374.92	228.40
375.30	228.33
375.68	228.28
376.06	228.20
376.44	228.16
376.82	228.07
377.19	227.98
377.57	227.92
377.95	227.79
378.33	227.71
378.71	227.58
379.09	227.54
379.47	227.50
379.84	227.44
380.22	227.34
380.60	227.23
380.98	227.12
381.36	227.05
381.73	226.99
382.11	226.97
382.49	226.95
382.87	226.90
383.25	226.84
383.62	226.89
384.00	226.80
384.38	226.73
384.76	226.69
385.13	226.67
385.51	226.60
385.89	226.59
386.27	226.53
386.64	226.50
387.02	226.44
387.40	226.39
387.78	226.34
388.15	226.31
388.53	226.29
388.91	226.26
389.29	226.24
389.66	226.21
390.04	226.15
390.42	226.10
390.79	226.09
391.17	226.09
391.55	225.95
391.92	225.96
392.30	225.98
392.68	225.99
393.05	225.98
393.43	226.01
393.81	226.04
394.18	226.06
394.56	226.08
394.94	226.13
395.31	226.13
395.69	226.19
396.06	226.26
396.44	226.31
396.82	226.34
397.19	226.43
397.57	226.47
397.95	226.54
398.32	226.57
398.70	226.63
399.07	226.68
399.45	226.77
399.82	226.84
400.20	226.87
400.58	226.93
400.95	226.99
401.33	227.13
401.70	227.28
402.08	227.38
402.45	227.50
402.83	227.62
403.20	227.75
403.58	227.88
403.95	228.02
404.33	228.16
404.71	228.33
405.08	228.52
405.46	228.68
405.83	228.87
406.21	229.04
406.58	229.21
406.96	229.42
407.33	229.59
407.70	229.78
408.08	230.06
408.45	230.28
408.83	230.50
409.20	230.70
409.58	230.89
409.95	231.15
410.33	231.42
410.70	231.67
411.08	231.98
411.45	232.27
411.82	232.54
412.20	232.88
412.57	233.29
412.95	233.58
413.32	233.97
413.69	234.36
414.07	234.81
414.44	235.27
414.82	235.74
415.19	236.30
415.56	236.88
415.94	237.44
416.31	238.05
416.68	238.68
417.06	239.40
417.43	240.08
417.81	240.82
418.18	241.59
418.55	242.46
418.93	243.30
419.30	244.20
419.67	245.15
420.04	246.10
420.42	247.09
420.79	248.27
421.16	249.40
421.54	250.60
421.91	251.81
422.28	253.04
422.66	254.31
423.03	255.59
423.40	256.96
423.77	258.35
424.15	259.80
424.52	261.28
424.89	262.88
425.26	264.41
425.64	265.83
426.01	267.42
426.38	269.03
426.75	270.71
427.13	272.41
427.50	274.24
427.87	276.11
428.24	277.98
428.61	279.70
428.99	281.65
429.36	283.71
429.73	285.77
430.10	287.83
430.47	289.91
430.85	292.02
431.22	294.19
431.59	296.54
431.96	298.78
432.33	301.29
432.70	303.65
433.08	306.47
433.45	309.16
433.82	311.73
434.19	314.59
434.56	317.37
434.93	320.00
435.30	322.61
435.68	325.50
436.05	328.30
436.42	331.12
436.79	333.63
437.16	336.35
437.53	339.18
437.90	342.04
438.27	344.80
438.64	347.62
439.01	350.20
439.38	352.45
439.75	354.62
440.13	357.05
440.50	359.38
440.87	361.25
441.24	363.15
441.61	365.32
441.98	366.84
442.35	368.64
442.72	370.54
443.09	372.31
443.46	373.30
443.83	373.91
444.20	374.43
444.57	375.28
444.94	375.57
445.31	375.90
445.68	376.16
446.05	376.28
446.42	375.92
446.79	375.50
447.16	375.06
447.53	374.75
447.90	373.65
448.27	372.47
448.64	370.89
449.01	369.80
449.37	367.84
449.74	365.95
450.11	363.71
450.48	361.23
450.85	358.69
451.22	356.56
451.59	354.49
451.96	352.53
452.33	349.93
452.70	347.57
453.07	344.73
453.43	341.87
453.80	339.10
454.17	336.40
454.54	333.89
454.91	331.20
455.28	328.51
455.65	326.00
456.02	323.58
456.38	321.44
456.75	318.75
457.12	316.48
457.49	314.28
457.86	312.12
458.23	310.27
458.59	308.24
458.96	306.13
459.33	304.29
459.70	302.41
460.07	300.90
460.43	299.20
460.80	297.63
461.17	296.18
461.54	294.64
461.91	293.20
462.27	291.75
462.64	290.46
463.01	289.11
463.38	287.81
463.74	286.47
464.11	285.29
464.48	284.28
464.85	283.18
465.21	282.30
465.58	281.35
465.95	280.24
466.32	279.35
466.68	278.47
467.05	277.58
467.42	276.70
467.78	275.78
468.15	274.87
468.52	274.14
468.88	273.27
469.25	272.51
469.62	271.90
469.98	271.22
470.35	270.60
470.72	270.01
471.08	269.32
471.45	268.77
471.82	268.21
472.18	267.62
472.55	267.20
472.92	266.67
473.28	266.23
473.65	265.79
474.02	265.36
474.38	265.00
474.75	264.66
475.11	264.30
475.48	264.05
475.85	263.81
476.21	263.59
476.58	263.42
476.94	263.27
477.31	263.11
477.67	262.95
478.04	262.81
478.41	262.77
478.77	262.84
479.14	262.74
479.50	262.75
479.87	262.82
480.23	262.88
480.60	262.93
480.96	263.03
481.33	263.20
481.69	263.41
482.06	263.61
482.42	263.82
482.79	264.09
483.15	264.40
483.52	264.78
483.88	265.13
484.25	265.50
484.61	265.94
484.98	266.38
485.34	266.92
485.71	267.55
486.07	268.13
486.44	268.72
486.80	269.43
487.17	270.17
487.53	270.97
487.90	271.84
488.26	272.78
488.62	273.79
488.99	274.77
489.35	275.78
489.72	276.94
490.08	278.16
490.44	279.39
490.81	280.73
491.17	282.07
491.54	283.58
491.90	285.12
492.26	286.79
492.63	288.55
492.99	290.36
493.36	292.24
493.72	294.28
494.08	296.36
494.45	298.61
494.81	300.98
495.17	303.41
495.54	305.92
495.90	308.60
496.26	311.41
496.63	314.39
496.99	317.55
497.35	320.78
497.72	324.17
498.08	327.70
498.44	331.41
498.80	335.36
499.17	339.41
499.53	343.56
499.89	347.91
500.26	352.44
500.62	357.14
500.98	362.11
501.34	367.23
501.71	372.55
502.07	378.01
502.43	383.62
502.79	389.50
503.16	395.66
503.52	401.92
503.88	408.29
504.24	414.93
504.60	421.80
504.97	428.91
505.33	436.24
505.69	443.94
506.05	451.68
506.41	459.60
506.78	467.77
507.14	476.22
507.50	484.90
507.86	493.89
508.22	502.99
508.59	512.19
508.95	521.75
509.31	531.59
509.67	541.72
510.03	551.99
510.39	562.50
510.75	573.22
511.12	584.21
511.48	595.54
511.84	606.94
512.20	618.49
512.56	630.44
512.92	642.64
513.28	654.99
513.64	667.51
514.00	680.16
514.37	693.09
514.73	706.21
515.09	719.26
515.45	732.63
515.81	746.33
516.17	760.29
516.53	774.41
516.89	788.58
517.25	802.67
517.61	817.14
517.97	831.59
518.33	846.04
518.69	860.88
519.05	875.88
519.41	891.06
519.77	906.61
520.13	922.06
520.49	937.48
520.85	952.80
521.21	968.54
521.57	984.77
521.93	1000.44
522.29	1016.82
522.65	1033.07
523.01	1049.22
523.37	1065.23
523.73	1081.44
524.09	1097.50
524.45	1113.74
524.81	1130.45
525.17	1147.19
525.53	1164.05
525.89	1180.96
526.25	1197.71
526.61	1214.11
526.97	1230.89
527.33	1247.28
527.68	1263.80
528.04	1280.19
528.40	1296.76
528.76	1313.76
529.12	1330.39
529.48	1347.41
529.84	1363.46
530.20	1380.07
530.56	1397.16
530.91	1414.50
531.27	1431.22
531.63	1447.66
531.99	1464.37
532.35	1480.38
532.71	1496.24
533.07	1512.54
533.42	1528.47
533.78	1544.38
534.14	1560.66
534.50	1575.85
534.86	1591.76
535.21	1607.00
535.57	1622.94
535.93	1638.57
536.29	1653.38
536.65	1668.45
537.00	1683.13
537.36	1698.25
537.72	1712.81
538.08	1727.04
538.44	1740.85
538.79	1754.75
539.15	1768.49
539.51	1782.15
539.87	1796.43
540.22	1810.13
540.58	1823.92
540.94	1837.16
541.29	1850.07
541.65	1862.66
542.01	1875.96
542.37	1888.25
542.72	1900.70
543.08	1912.41
543.44	1924.69
543.79	1935.93
544.15	1946.88
544.51	1958.52
544.87	1969.53
545.22	1980.38
545.58	1990.63
545.94	2000.38
546.29	2010.10
546.65	2019.90
547.01	2029.16
547.36	2037.84
547.72	2046.39
548.07	2054.21
548.43	2062.42
548.79	2070.53
549.14	2078.06
549.50	2085.44
549.86	2093.16
550.21	2100.42
550.57	2107.62
550.92	2114.20
551.28	2121.15
551.64	2128.15
551.99	2134.63
552.35	2140.77
552.70	2146.83
553.06	2152.87
553.41	2159.23
553.77	2165.34
554.13	2171.45
554.48	2177.62
554.84	2183.10
555.19	2188.30
555.55	2193.46
555.90	2197.89
556.26	2202.86
556.61	2207.63
556.97	2211.81
557.32	2215.86
557.68	2219.97
558.03	2224.35
558.39	2228.11
558.74	2232.75
559.10	2236.57
559.45	2240.20
559.81	2244.54
560.16	2248.40
560.52	2251.63
560.87	2254.94
561.23	2257.72
561.58	2260.61
561.94	2263.05
562.29	2265.36
562.64	2268.08
563.00	2270.57
563.35	2274.19
563.71	2277.15
564.06	2280.33
564.42	2283.26
564.77	2285.80
565.12	2288.06
565.48	2289.92
565.83	2291.75
566.19	2293.05
566.54	2294.05
566.89	2295.14
567.25	2295.74
567.60	2297.08
567.96	2298.73
568.31	2299.64
568.66	2300.50
569.02	2301.08
569.37	2301.55
569.72	2302.47
570.08	2302.64
570.43	2302.61
570.78	2301.80
571.14	2300.37
571.49	2298.98
571.84	2298.65
572.20	2297.51
572.55	2296.50
572.90	2294.88
573.26	2293.48
573.61	2291.75
573.96	2289.90
574.31	2286.92
574.67	2283.91
575.02	2280.27
575.37	2276.79
575.72	2272.95
576.08	2269.79
576.43	2266.42
576.78	2262.53
577.13	2259.29
577.49	2256.13
577.84	2252.67
578.19	2249.08
578.54	2245.32
578.90	2241.04
579.25	2235.39
579.60	2230.46
579.95	2225.40
580.30	2220.33
580.66	2215.09
581.01	2210.10
581.36	2205.20
581.71	2201.05
582.06	2196.51
582.42	2192.12
582.77	2186.91
583.12	2182.34
583.47	2177.46
583.82	2172.42
584.17	2167.37
584.53	2161.91
584.88	2156.29
585.23	2150.52
585.58	2144.98
585.93	2139.53
586.28	2134.88
586.63	2129.83
586.98	2124.68
587.34	2119.91
587.69	2115.05
588.04	2109.90
588.39	2104.29
588.74	2097.92
589.09	2091.67
589.44	2084.98
589.79	2078.93
590.14	2073.34
590.49	2066.80
590.84	2060.49
591.19	2054.44
591.54	2047.91
591.89	2040.50
592.25	2033.73
592.60	2026.46
592.95	2018.83
593.30	2011.55
593.65	2003.90
594.00	1996.94
594.35	1989.70
594.70	1981.80
595.05	1974.52
595.40	1967.13
595.75	1959.55
596.10	1953.34
596.45	1946.72
596.80	1940.58
597.15	1933.78
597.50	1926.73
597.85	1920.28
598.19	1913.66
598.54	1906.67
598.89	1900.00
599.24	1894.07
599.59	1887.27
599.94	1881.25
600.29	1874.93
600.64	1868.29
600.99	1860.91
601.34	1854.04
601.69	1847.16
602.04	1840.24
602.39	1832.90
602.74	1826.14
603.08	1819.54
603.43	1812.74
603.78	1805.43
604.13	1798.12
604.48	1790.72
604.83	1783.81
605.18	1776.70
605.53	1768.59
605.87	1760.64
606.22	1753.42
606.57	1745.48
606.92	1738.40
607.27	1731.12
607.62	1724.18
607.96	1716.90
608.31	1710.13
608.66	1702.45
609.01	1694.82
609.36	1687.23
609.70	1679.27
610.05	1671.12
610.40	1663.34
610.75	1654.99
611.10	1647.21
611.44	1638.73
611.79	1630.93
612.14	1622.14
612.49	1613.12
612.83	1604.89
613.18	1596.63
613.53	1588.50
613.88	1579.90
614.22	1571.45
614.57	1562.84
614.92	1554.74
615.27	1547.18
615.61	1538.94
615.96	1530.84
616.31	1523.29
616.65	1515.89
617.00	1508.33
617.35	1500.74
617.70	1492.45
618.04	1483.94
618.39	1475.77
618.74	1468.26
619.08	1459.98
619.43	1452.47
619.78	1445.58
620.12	1438.33
620.47	1430.81
620.82	1422.65
621.16	1415.26
621.51	1407.66
621.85	1400.11
622.20	1391.65
622.55	1383.32
622.89	1375.49
623.24	1367.97
623.59	1360.52
623.93	1353.05
624.28	1345.83
624.62	1338.31
624.97	1331.10
625.32	1324.30
625.66	1317.28
626.01	1310.12
626.35	1302.49
626.70	1294.85
627.04	1287.00
627.39	1279.23
627.73	1271.80
628.08	1264.83
628.43	1257.50
628.77	1250.15
629.12	1242.53
629.46	1235.44
629.81	1228.02
630.15	1220.78
630.50	1213.33
630.84	1205.23
631.19	1197.32
631.53	1189.82
631.88	1182.23
632.22	1174.56
632.57	1167.32
632.91	1159.84
633.26	1152.38
633.60	1145.13
633.95	1137.92
634.29	1130.96
634.64	1124.32
634.98	1117.01
635.32	1109.84
635.67	1103.41
636.01	1096.73
636.36	1089.90
636.70	1083.36
637.05	1076.78
637.39	1070.23
637.73	1063.71
638.08	1057.71
638.42	1051.66
638.77	1045.24
639.11	1038.74
639.45	1032.45
639.80	1025.74
640.14	1019.29
640.49	1012.74
640.83	1006.45
641.17	1000.22
641.52	993.93
641.86	987.45
642.20	981.60
642.55	975.34
642.89	968.77
643.23	962.27
643.58	956.52
643.92	950.32
644.26	944.28
644.61	938.37
644.95	932.38
645.29	925.82
645.64	919.10
645.98	912.71
646.32	906.83
646.66	900.79
647.01	895.00
647.35	889.31
647.69	883.45
648.04	877.89
648.38	872.12
648.72	866.11
649.06	860.05
649.41	854.24
649.75	848.27
650.09	842.34
650.43	836.50
650.78	830.32
651.12	824.37
651.46	818.61
651.80	812.83
652.14	807.45
652.49	802.03
652.83	796.85
653.17	791.10
653.51	785.33
653.85	779.92
654.20	774.34
654.54	768.28
654.88	762.60
655.22	756.80
655.56	751.18
655.90	745.79
656.25	740.52
656.59	735.06
656.93	729.96
657.27	724.78
657.61	719.40
657.95	714.31
658.29	709.20
658.64	703.99
658.98	698.69
659.32	693.25
659.66	688.11
660.00	682.78
660.34	677.91
660.68	673.06
661.02	668.00
661.36	663.26
661.70	658.83
662.05	654.50
662.39	650.08
662.73	645.54
663.07	641.06
663.41	636.62
663.75	632.18
664.09	627.66
664.43	623.23
664.77	619.12
665.11	614.94
665.45	610.81
665.79	606.67
666.13	602.52
666.47	598.40
666.81	594.19
667.15	590.11
667.49	586.15
667.83	582.33
668.17	578.45
668.51	574.38
668.85	570.30
669.19	566.40
669.53	562.56
669.87	558.68
670.21	555.07
670.55	551.41
670.89	547.94
671.23	544.44
671.57	540.94
671.91	537.40
672.25	533.88
672.58	530.34
672.92	526.97
673.26	523.80
673.60	520.67
673.94	517.54
674.28	514.64
674.62	511.73
674.96	508.60
675.30	505.68
675.64	502.74
675.97	499.99
676.31	497.10
676.65	494.17
676.99	491.46
677.33	488.54
677.67	485.72
678.01	482.71
678.34	479.77
678.68	476.95
679.02	474.14
679.36	471.39
679.70	468.68
680.04	465.91
680.37	463.05
680.71	460.22
681.05	457.66
681.39	454.93
681.73	452.26
682.06	449.76
682.40	447.18
682.74	444.60
683.08	442.07
683.42	439.47
683.75	437.01
684.09	434.47
684.43	431.98
684.77	429.53
685.10	427.16
685.44	424.85
685.78	422.55
686.12	420.25
686.45	417.98
686.79	415.68
687.13	413.53
687.46	411.36
687.80	409.23
688.14	407.01
688.48	404.92
688.81	402.67
689.15	400.53
689.49	398.38
689.82	396.34
690.16	394.27
690.50	392.37
690.83	390.39
691.17	388.48
691.51	386.59
691.84	384.80
692.18	382.88
692.52	380.87
692.85	378.93
693.19	377.09
693.52	375.27
693.86	373.51
694.20	371.70
694.53	369.91
694.87	368.06
695.21	366.29
695.54	364.51
695.88	362.82
696.21	361.09
696.55	359.43
696.88	357.78
697.22	356.11
697.56	354.49
697.89	352.89
698.23	351.23
698.56	349.60
698.90	347.99
699.23	346.35
699.57	344.83
699.90	343.32
700.24	341.77
700.58	340.20
700.91	338.66
701.25	337.21
701.58	335.84
701.92	334.51
702.25	333.11
702.59	331.74
702.92	330.42
703.26	329.12
703.59	327.82
703.93	326.59
704.26	325.35
704.60	324.01
704.93	322.71
705.26	321.44
705.60	320.28
705.93	319.12
706.27	318.08
706.60	317.07
706.94	315.98
707.27	314.82
707.61	313.76
707.94	312.72
708.27	311.63
708.61	310.54
708.94	309.54
709.28	308.58
709.61	307.60
709.94	306.66
710.28	305.59
710.61	304.65
710.95	303.59
711.28	302.69
711.61	301.73
711.95	300.83
712.28	299.90
712.61	298.95
712.95	297.97
713.28	297.06
713.61	296.11
713.95	295.23
714.28	294.43
714.61	293.59
714.95	292.77
715.28	291.92
715.61	291.06
715.95	290.19
716.28	289.32
716.61	288.49
716.95	287.67
717.28	286.97
717.61	286.17
717.94	285.45
718.28	284.63
718.61	283.92
718.94	283.25
719.27	282.57
719.61	281.90
719.94	281.27
720.27	280.58
720.60	279.91
720.94	279.27
721.27	278.69
721.60	278.08
721.93	277.50
722.27	276.93
722.60	276.39
722.93	275.82
723.26	275.29
723.59	274.73
723.93	274.17
724.26	273.60
724.59	273.03
724.92	272.50
725.25	271.99
725.59	271.46
725.92	270.93
726.25	270.43
726.58	269.95
726.91	269.45
727.24	269.00
727.57	268.52
727.91	268.02
728.24	267.53
728.57	267.04
728.90	266.60
729.23	266.14
729.56	265.72
729.89	265.26
730.22	264.82
730.55	264.34
730.89	263.89
731.22	263.46
731.55	263.09
731.88	262.67
732.21	262.27
732.54	261.85
732.87	261.41
733.20	261.02
733.53	260.65
733.86	260.26
734.19	259.85
734.52	259.49
734.85	259.19
735.18	258.76
735.51	258.42
735.84	258.02
736.17	257.66
736.50	257.26
736.83	257.04
737.16	256.66
737.49	256.35
737.82	255.98
738.15	255.66
738.48	255.30
738.81	254.99
739.14	254.63
739.47	254.34
739.80	254.04
740.13	253.74
740.46	253.40
740.79	253.09
741.12	252.77
741.45	252.43
741.78	252.11
742.11	251.86
742.44	251.54
742.77	251.24
743.10	250.95
743.43	250.62
743.75	250.21
744.08	250.10
744.41	249.84
744.74	249.58
745.07	249.31
745.40	249.07
745.73	248.78
746.06	248.51
746.39	248.25
746.71	247.98
747.04	247.71
747.37	247.46
747.70	247.23
748.03	247.01
748.36	246.84
748.68	246.57
749.01	246.31
749.34	246.05
749.67	245.82
750.00	245.57
750.33	245.43
750.65	245.23
750.98	244.84
751.31	244.59
751.64	244.38
751.97	244.17
752.29	243.98
752.62	243.73
752.95	243.55
753.28	243.33
753.60	243.10
753.93	242.95
754.26	242.73
754.59	242.47
754.91	242.21
755.24	241.97
755.57	241.77
755.90	241.59
756.22	241.43
756.55	241.23
756.88	241.06
757.20	240.80
757.53	240.57
757.86	240.43
758.19	240.28
758.51	240.12
758.84	239.92
759.17	239.72
759.49	239.60
759.82	239.44
760.15	239.27
760.47	239.19
760.80	239.00
761.13	238.88
761.45	238.75
761.78	238.63
762.11	238.48
762.43	238.30
762.76	238.16
763.08	238.00
763.41	237.88
763.74	237.73
764.06	237.60
764.39	237.47
764.71	237.30
765.04	237.19
765.37	237.03
765.69	236.92
766.02	236.80
766.34	236.63
766.67	236.50
767.00	236.40
767.32	236.27
767.65	236.22
767.97	236.10
768.30	235.98
768.62	235.85
768.95	235.74
769.27	235.68
769.60	235.58
769.92	235.50
770.25	235.41
770.57	235.30
770.90	235.20
771.22	235.09
771.55	235.04
771.87	234.91
772.20	234.82
772.52	234.80
772.85	234.80
773.17	234.70
773.50	234.60
773.82	234.51
774.15	234.39
774.47	234.22
774.80	234.11
775.12	234.02
775.45	233.94
775.77	233.86
776.09	233.75
776.42	233.66
776.74	233.60
777.07	233.50
777.39	233.41
777.72	233.33
778.04	233.27
778.36	233.20
778.69	233.14
779.01	233.08
779.33	232.93
779.66	232.78
779.98	232.74
780.31	232.67
780.63	232.62
780.95	232.56
781.28	232.50
781.60	232.41
781.92	232.37
782.25	232.32
782.57	232.27
782.89	232.20
783.22	232.13
783.54	232.02
783.86	231.95
784.19	231.93
784.51	231.89
784.83	231.81
785.16	231.70
785.48	231.65
785.80	231.60
786.12	231.52
786.45	231.45
786.77	231.42
787.09	231.38
