SpectraSuite Data File
++++++++++++++++++++++++++++++++++++
Date: Fri Feb 01 15:57:58 EST 2013
User: group
Dark Spectrum Present: No
Reference Spectrum Present: No
Number of Sampled Component Spectra: 1
Spectrometers: USB2E7196
Integration Time (usec): 35000 (USB2E7196)
Spectra Averaged: 100 (USB2E7196)
Boxcar Smoothing: 10 (USB2E7196)
Correct for Electrical Dark: No (USB2E7196)
Strobe/Lamp Enabled: No (USB2E7196)
Correct for Detector Non-linearity: No (USB2E7196)
Correct for Stray Light: No (USB2E7196)
Number of Pixels in Processed Spectrum: 2048
>>>>>Begin Processed Spectral Data<<<<<
339.09	0.00
339.48	214.45
339.86	216.09
340.24	217.33
340.63	218.91
341.01	222.30
341.39	221.50
341.78	222.92
342.16	223.78
342.54	224.99
342.93	213.10
343.31	223.87
343.69	224.43
344.07	224.90
344.46	225.33
344.84	225.73
345.22	225.93
345.60	226.19
345.99	226.39
346.37	226.51
346.75	226.59
347.13	226.65
347.52	226.73
347.90	226.81
348.28	226.84
348.66	226.88
349.05	226.88
349.43	226.91
349.81	226.98
350.19	227.00
350.57	227.02
350.96	227.09
351.34	227.17
351.72	227.26
352.10	227.34
352.48	227.42
352.87	227.45
353.25	227.53
353.63	227.59
354.01	227.65
354.39	227.75
354.77	227.82
355.15	227.92
355.54	227.97
355.92	228.00
356.30	228.05
356.68	228.18
357.06	228.22
357.44	228.28
357.82	228.35
358.20	228.44
358.58	228.47
358.97	228.54
359.35	228.62
359.73	228.67
360.11	228.73
360.49	228.78
360.87	228.84
361.25	228.90
361.63	228.99
362.01	229.04
362.39	229.07
362.77	229.12
363.15	229.16
363.53	229.18
363.91	229.25
364.29	229.30
364.67	229.21
365.05	229.23
365.43	229.24
365.81	229.27
366.19	229.32
366.57	229.35
366.95	229.36
367.33	229.31
367.71	229.31
368.09	229.31
368.47	229.29
368.85	229.26
369.23	229.27
369.61	229.20
369.99	229.18
370.37	229.14
370.75	229.16
371.13	229.08
371.51	229.01
371.89	228.95
372.27	228.94
372.65	228.90
373.03	228.85
373.41	228.80
373.78	228.73
374.16	228.61
374.54	228.52
374.92	228.44
375.30	228.37
375.68	228.31
376.06	228.27
376.44	228.19
376.82	228.14
377.19	228.04
377.57	227.96
377.95	227.87
378.33	227.82
378.71	227.68
379.09	227.65
379.47	227.62
379.84	227.56
380.22	227.43
380.60	227.35
380.98	227.28
381.36	227.22
381.73	227.13
382.11	227.06
382.49	227.00
382.87	226.93
383.25	226.88
383.62	226.91
384.00	226.82
384.38	226.77
384.76	226.74
385.13	226.74
385.51	226.70
385.89	226.62
386.27	226.60
386.64	226.55
387.02	226.47
387.40	226.42
387.78	226.39
388.15	226.39
388.53	226.36
388.91	226.33
389.29	226.29
389.66	226.27
390.04	226.27
390.42	226.28
390.79	226.30
391.17	226.28
391.55	226.16
391.92	226.16
392.30	226.18
392.68	226.16
393.05	226.13
393.43	226.13
393.81	226.16
394.18	226.15
394.56	226.19
394.94	226.25
395.31	226.27
395.69	226.31
396.06	226.35
396.44	226.40
396.82	226.43
397.19	226.51
397.57	226.56
397.95	226.63
398.32	226.63
398.70	226.68
399.07	226.75
399.45	226.82
399.82	226.92
400.20	226.96
400.58	227.06
400.95	227.11
401.33	227.22
401.70	227.37
402.08	227.47
402.45	227.56
402.83	227.68
403.20	227.78
403.58	227.89
403.95	228.03
404.33	228.16
404.71	228.27
405.08	228.43
405.46	228.56
405.83	228.71
406.21	228.85
406.58	229.02
406.96	229.19
407.33	229.39
407.70	229.56
408.08	229.82
408.45	230.01
408.83	230.24
409.20	230.48
409.58	230.67
409.95	230.95
410.33	231.20
410.70	231.46
411.08	231.75
411.45	232.02
411.82	232.28
412.20	232.62
412.57	233.06
412.95	233.38
413.32	233.76
413.69	234.18
414.07	234.65
414.44	235.12
414.82	235.59
415.19	236.14
415.56	236.69
415.94	237.26
416.31	237.92
416.68	238.51
417.06	239.20
417.43	239.89
417.81	240.65
418.18	241.44
418.55	242.26
418.93	243.15
419.30	244.08
419.67	245.06
420.04	246.02
420.42	246.96
420.79	248.15
421.16	249.29
421.54	250.47
421.91	251.70
422.28	252.98
422.66	254.31
423.03	255.61
423.40	256.95
423.77	258.32
424.15	259.74
424.52	261.26
424.89	262.86
425.26	264.44
425.64	265.88
426.01	267.50
426.38	269.14
426.75	270.79
427.13	272.48
427.50	274.26
427.87	276.09
428.24	278.01
428.61	279.76
428.99	281.70
429.36	283.80
429.73	285.85
430.10	287.85
430.47	289.93
430.85	292.03
431.22	294.26
431.59	296.66
431.96	298.89
432.33	301.37
432.70	303.76
433.08	306.52
433.45	309.15
433.82	311.72
434.19	314.63
434.56	317.42
434.93	320.06
435.30	322.69
435.68	325.60
436.05	328.38
436.42	331.13
436.79	333.64
437.16	336.32
437.53	339.17
437.90	341.98
438.27	344.72
438.64	347.55
439.01	350.14
439.38	352.30
439.75	354.48
440.13	356.97
440.50	359.25
440.87	361.11
441.24	363.04
441.61	365.19
441.98	366.62
442.35	368.40
442.72	370.28
443.09	372.06
443.46	373.05
443.83	373.64
444.20	374.16
444.57	375.06
444.94	375.36
445.31	375.63
445.68	375.96
446.05	376.02
446.42	375.61
446.79	375.19
447.16	374.79
447.53	374.45
447.90	373.26
448.27	372.12
448.64	370.52
449.01	369.40
449.37	367.45
449.74	365.56
450.11	363.35
450.48	360.87
450.85	358.35
451.22	356.21
451.59	354.18
451.96	352.22
452.33	349.54
452.70	347.15
453.07	344.34
453.43	341.44
453.80	338.67
454.17	336.02
454.54	333.44
454.91	330.70
455.28	328.01
455.65	325.53
456.02	323.06
456.38	320.89
456.75	318.18
457.12	315.93
457.49	313.73
457.86	311.58
458.23	309.73
458.59	307.72
458.96	305.67
459.33	303.83
459.70	301.99
460.07	300.53
460.43	298.81
460.80	297.20
461.17	295.79
461.54	294.30
461.91	292.89
462.27	291.48
462.64	290.25
463.01	288.90
463.38	287.65
463.74	286.33
464.11	285.20
464.48	284.24
464.85	283.16
465.21	282.35
465.58	281.42
465.95	280.35
466.32	279.45
466.68	278.55
467.05	277.67
467.42	276.78
467.78	275.86
468.15	275.03
468.52	274.34
468.88	273.44
469.25	272.66
469.62	272.02
469.98	271.33
470.35	270.70
470.72	270.13
471.08	269.46
471.45	268.90
471.82	268.33
472.18	267.73
472.55	267.30
472.92	266.74
473.28	266.28
473.65	265.84
474.02	265.40
474.38	265.04
474.75	264.73
475.11	264.41
475.48	264.11
475.85	263.87
476.21	263.68
476.58	263.54
476.94	263.40
477.31	263.25
477.67	263.12
478.04	263.05
478.41	262.98
478.77	263.03
479.14	262.96
479.50	263.03
479.87	263.11
480.23	263.19
480.60	263.26
480.96	263.34
481.33	263.54
481.69	263.73
482.06	263.89
482.42	264.08
482.79	264.34
483.15	264.69
483.52	265.10
483.88	265.49
484.25	265.89
484.61	266.32
484.98	266.77
485.34	267.36
485.71	267.94
486.07	268.54
486.44	269.10
486.80	269.86
487.17	270.57
487.53	271.36
487.90	272.19
488.26	273.14
488.62	274.15
488.99	275.10
489.35	276.13
489.72	277.29
490.08	278.47
490.44	279.70
490.81	281.02
491.17	282.33
491.54	283.76
491.90	285.30
492.26	286.90
492.63	288.58
492.99	290.32
493.36	292.23
493.72	294.27
494.08	296.36
494.45	298.60
494.81	300.95
495.17	303.37
495.54	305.91
495.90	308.58
496.26	311.33
496.63	314.28
496.99	317.39
497.35	320.67
497.72	324.13
498.08	327.65
498.44	331.30
498.80	335.24
499.17	339.29
499.53	343.42
499.89	347.82
500.26	352.35
500.62	357.00
500.98	361.93
501.34	367.03
501.71	372.38
502.07	377.79
502.43	383.41
502.79	389.22
503.16	395.35
503.52	401.60
503.88	408.10
504.24	414.79
504.60	421.68
504.97	428.78
505.33	436.06
505.69	443.76
506.05	451.56
506.41	459.43
506.78	467.57
507.14	476.09
507.50	484.85
507.86	493.89
508.22	503.13
508.59	512.36
508.95	521.99
509.31	531.83
509.67	541.98
510.03	552.33
510.39	562.89
510.75	573.69
511.12	584.68
511.48	595.95
511.84	607.37
512.20	618.80
512.56	630.75
512.92	642.97
513.28	655.40
513.64	667.87
514.00	680.56
514.37	693.55
514.73	706.58
515.09	719.66
515.45	733.00
515.81	746.54
516.17	760.53
516.53	774.56
516.89	788.70
517.25	802.81
517.61	817.20
517.97	831.70
518.33	846.14
518.69	860.91
519.05	875.85
519.41	891.01
519.77	906.58
520.13	922.00
520.49	937.33
520.85	952.64
521.21	968.37
521.57	984.65
521.93	1000.40
522.29	1016.81
522.65	1033.02
523.01	1049.10
523.37	1065.21
523.73	1081.29
524.09	1097.32
524.45	1113.55
524.81	1130.20
525.17	1147.00
525.53	1163.92
525.89	1180.77
526.25	1197.55
526.61	1213.98
526.97	1230.62
527.33	1247.17
527.68	1263.68
528.04	1280.11
528.40	1296.72
528.76	1313.76
529.12	1330.26
529.48	1346.94
529.84	1362.89
530.20	1379.48
530.56	1396.54
530.91	1413.90
531.27	1430.55
531.63	1447.10
531.99	1463.74
532.35	1479.59
532.71	1495.40
533.07	1511.50
533.42	1527.24
533.78	1543.17
534.14	1559.37
534.50	1574.71
534.86	1590.51
535.21	1605.73
535.57	1621.60
535.93	1637.00
536.29	1651.70
536.65	1666.70
537.00	1681.54
537.36	1696.83
537.72	1711.41
538.08	1725.75
538.44	1739.41
538.79	1753.36
539.15	1766.85
539.51	1780.53
539.87	1794.89
540.22	1808.63
540.58	1822.48
540.94	1835.82
541.29	1848.78
541.65	1861.30
542.01	1874.50
542.37	1886.76
542.72	1899.18
543.08	1910.92
543.44	1923.41
543.79	1934.60
544.15	1945.60
544.51	1957.18
544.87	1968.05
545.22	1978.82
545.58	1989.01
545.94	1998.83
546.29	2008.69
546.65	2018.57
547.01	2027.74
547.36	2036.39
547.72	2044.77
548.07	2052.47
548.43	2060.70
548.79	2068.65
549.14	2076.18
549.50	2083.54
549.86	2091.17
550.21	2098.38
550.57	2105.45
550.92	2111.83
551.28	2118.73
551.64	2125.76
551.99	2132.16
552.35	2138.39
552.70	2144.43
553.06	2150.49
553.41	2156.79
553.77	2162.91
554.13	2169.06
554.48	2175.19
554.84	2180.63
555.19	2185.89
555.55	2191.14
555.90	2195.50
556.26	2200.52
556.61	2205.32
556.97	2209.50
557.32	2213.62
557.68	2217.74
558.03	2222.03
558.39	2225.82
558.74	2230.72
559.10	2234.58
559.45	2238.43
559.81	2242.61
560.16	2246.37
560.52	2249.64
560.87	2253.00
561.23	2255.54
561.58	2258.52
561.94	2261.10
562.29	2263.41
562.64	2266.05
563.00	2268.75
563.35	2272.28
563.71	2275.11
564.06	2278.30
564.42	2281.30
564.77	2283.72
565.12	2286.05
565.48	2287.97
565.83	2289.81
566.19	2290.98
566.54	2291.92
566.89	2292.99
567.25	2293.60
567.60	2295.04
567.96	2296.65
568.31	2297.54
568.66	2298.76
569.02	2299.17
569.37	2299.39
569.72	2300.38
570.08	2300.68
570.43	2300.55
570.78	2299.96
571.14	2298.59
571.49	2297.30
571.84	2297.01
572.20	2296.02
572.55	2294.95
572.90	2293.56
573.26	2292.16
573.61	2290.58
573.96	2288.83
574.31	2285.82
574.67	2282.86
575.02	2279.23
575.37	2275.77
575.72	2271.87
576.08	2268.49
576.43	2265.19
576.78	2261.45
577.13	2258.30
577.49	2255.04
577.84	2251.61
578.19	2248.00
578.54	2244.36
578.90	2240.10
579.25	2234.53
579.60	2229.61
579.95	2224.65
580.30	2219.58
580.66	2214.56
581.01	2209.62
581.36	2204.72
581.71	2200.61
582.06	2196.21
582.42	2191.65
582.77	2186.46
583.12	2182.04
583.47	2177.27
583.82	2172.36
584.17	2167.18
584.53	2161.73
584.88	2156.22
585.23	2150.42
585.58	2144.85
585.93	2139.47
586.28	2134.81
586.63	2129.74
586.98	2124.58
587.34	2119.81
587.69	2114.83
588.04	2109.49
588.39	2103.62
588.74	2097.08
589.09	2090.88
589.44	2083.97
589.79	2078.08
590.14	2072.45
590.49	2065.96
590.84	2059.66
591.19	2053.65
591.54	2047.24
591.89	2039.79
592.25	2032.94
592.60	2025.77
592.95	2018.09
593.30	2010.77
593.65	2003.11
594.00	1995.99
594.35	1988.82
594.70	1980.99
595.05	1973.84
595.40	1966.55
595.75	1959.22
596.10	1953.04
596.45	1946.29
596.80	1940.27
597.15	1933.49
597.50	1926.41
597.85	1919.93
598.19	1913.14
598.54	1905.95
598.89	1899.31
599.24	1893.41
599.59	1886.71
599.94	1880.59
600.29	1874.35
600.64	1867.72
600.99	1860.39
601.34	1853.54
601.69	1846.66
602.04	1839.74
602.39	1832.41
602.74	1825.57
603.08	1818.82
603.43	1812.11
603.78	1804.86
604.13	1797.75
604.48	1790.58
604.83	1783.70
605.18	1776.70
605.53	1768.72
605.87	1760.82
606.22	1753.65
606.57	1745.77
606.92	1738.50
607.27	1731.22
607.62	1724.33
607.96	1717.02
608.31	1710.41
608.66	1703.00
609.01	1695.33
609.36	1687.69
609.70	1679.67
610.05	1671.61
610.40	1663.86
610.75	1655.47
611.10	1647.80
611.44	1639.22
611.79	1631.24
612.14	1622.45
612.49	1613.27
612.83	1604.91
613.18	1596.69
613.53	1588.55
613.88	1579.96
614.22	1571.62
614.57	1563.07
614.92	1555.03
615.27	1547.44
615.61	1539.04
615.96	1530.91
616.31	1523.31
616.65	1516.03
617.00	1508.48
617.35	1500.86
617.70	1492.52
618.04	1484.11
618.39	1475.88
618.74	1468.25
619.08	1459.94
619.43	1452.56
619.78	1445.64
620.12	1438.54
620.47	1431.16
620.82	1423.04
621.16	1415.66
621.51	1408.21
621.85	1400.56
622.20	1391.95
622.55	1383.60
622.89	1375.66
623.24	1368.04
623.59	1360.71
623.93	1353.04
624.28	1345.88
624.62	1338.28
624.97	1331.19
625.32	1324.46
625.66	1317.39
626.01	1310.30
626.35	1302.82
626.70	1295.06
627.04	1287.42
627.39	1279.67
627.73	1272.22
628.08	1265.32
628.43	1257.94
628.77	1250.51
629.12	1242.97
629.46	1235.89
629.81	1228.62
630.15	1221.43
630.50	1213.94
630.84	1205.69
631.19	1197.89
631.53	1190.34
631.88	1182.85
632.22	1175.23
632.57	1167.92
632.91	1160.39
633.26	1152.96
633.60	1145.65
633.95	1138.54
634.29	1131.50
634.64	1124.86
634.98	1117.48
635.32	1110.27
635.67	1103.82
636.01	1097.15
636.36	1090.36
636.70	1083.86
637.05	1077.20
637.39	1070.80
637.73	1064.37
638.08	1058.50
638.42	1052.50
638.77	1046.01
639.11	1039.46
639.45	1033.06
639.80	1026.29
640.14	1019.90
640.49	1013.33
640.83	1006.94
641.17	1000.64
641.52	994.19
641.86	987.66
642.20	981.74
642.55	975.46
642.89	968.87
643.23	962.31
643.58	956.58
643.92	950.38
644.26	944.29
644.61	938.21
644.95	932.08
645.29	925.47
645.64	918.72
645.98	912.47
646.32	906.60
646.66	900.56
647.01	894.80
647.35	889.07
647.69	883.22
648.04	877.73
648.38	871.97
648.72	865.93
649.06	859.90
649.41	854.03
649.75	848.09
650.09	842.18
650.43	836.41
650.78	830.20
651.12	824.28
651.46	818.56
651.80	812.77
652.14	807.49
652.49	802.08
652.83	796.87
653.17	791.08
653.51	785.35
653.85	779.98
654.20	774.37
654.54	768.44
654.88	762.80
655.22	756.86
655.56	751.15
655.90	745.78
656.25	740.47
656.59	735.13
656.93	730.05
657.27	724.86
657.61	719.43
657.95	714.32
658.29	709.13
658.64	703.92
658.98	698.66
659.32	693.14
659.66	687.90
660.00	682.48
660.34	677.60
660.68	672.66
661.02	667.56
661.36	662.81
661.70	658.22
662.05	653.79
662.39	649.50
662.73	645.07
663.07	640.69
663.41	636.27
663.75	631.79
664.09	627.24
664.43	622.86
664.77	618.77
665.11	614.48
665.45	610.48
665.79	606.34
666.13	602.22
666.47	598.16
666.81	594.09
667.15	590.11
667.49	586.17
667.83	582.37
668.17	578.48
668.51	574.44
668.85	570.45
669.19	566.68
669.53	562.78
669.87	558.86
670.21	555.20
670.55	551.59
670.89	548.20
671.23	544.73
671.57	541.25
671.91	537.70
672.25	534.23
672.58	530.67
672.92	527.26
673.26	524.10
673.60	520.94
673.94	517.82
674.28	514.92
674.62	512.03
674.96	508.92
675.30	506.00
675.64	503.08
675.97	500.32
676.31	497.42
676.65	494.53
676.99	491.83
677.33	488.95
677.67	486.13
678.01	483.03
678.34	480.01
678.68	477.03
679.02	474.23
679.36	471.49
679.70	468.74
680.04	466.06
680.37	463.15
680.71	460.35
681.05	457.72
681.39	454.94
681.73	452.28
682.06	449.75
682.40	447.20
682.74	444.66
683.08	442.10
683.42	439.48
683.75	436.97
684.09	434.43
684.43	431.95
684.77	429.45
685.10	427.13
685.44	424.86
685.78	422.70
686.12	420.45
686.45	418.14
686.79	415.87
687.13	413.66
687.46	411.54
687.80	409.42
688.14	407.25
688.48	405.18
688.81	402.93
689.15	400.78
689.49	398.60
689.82	396.53
690.16	394.50
690.50	392.59
690.83	390.66
691.17	388.68
691.51	386.78
691.84	384.95
692.18	382.98
692.52	381.00
692.85	379.05
693.19	377.10
693.52	375.29
693.86	373.48
694.20	371.70
694.53	369.85
694.87	367.95
695.21	366.11
695.54	364.30
695.88	362.57
696.21	360.83
696.55	359.16
696.88	357.47
697.22	355.77
697.56	354.14
697.89	352.48
698.23	350.89
698.56	349.26
698.90	347.64
699.23	346.00
699.57	344.48
699.90	342.92
700.24	341.37
700.58	339.82
700.91	338.32
701.25	336.84
701.58	335.51
701.92	334.19
702.25	332.86
702.59	331.49
702.92	330.16
703.26	328.87
703.59	327.56
703.93	326.37
704.26	325.14
704.60	323.82
704.93	322.54
705.26	321.32
705.60	320.18
705.93	319.05
706.27	318.04
706.60	316.99
706.94	315.92
707.27	314.82
707.61	313.79
707.94	312.78
708.27	311.68
708.61	310.56
708.94	309.57
709.28	308.59
709.61	307.61
709.94	306.65
710.28	305.63
710.61	304.70
710.95	303.62
711.28	302.71
711.61	301.76
711.95	300.86
712.28	299.87
712.61	298.86
712.95	297.94
713.28	297.03
713.61	296.12
713.95	295.21
714.28	294.35
714.61	293.47
714.95	292.61
715.28	291.78
715.61	290.92
715.95	290.08
716.28	289.24
716.61	288.44
716.95	287.62
717.28	286.90
717.61	286.12
717.94	285.36
718.28	284.53
718.61	283.81
718.94	283.12
719.27	282.48
719.61	281.88
719.94	281.21
720.27	280.50
720.60	279.78
720.94	279.14
721.27	278.57
721.60	277.97
721.93	277.35
722.27	276.78
722.60	276.23
722.93	275.64
723.26	275.07
723.59	274.50
723.93	274.00
724.26	273.42
724.59	272.90
724.92	272.43
725.25	271.92
725.59	271.40
725.92	270.88
726.25	270.36
726.58	269.86
726.91	269.35
727.24	268.89
727.57	268.47
727.91	267.98
728.24	267.49
728.57	266.99
728.90	266.56
729.23	266.07
729.56	265.65
729.89	265.16
730.22	264.71
730.55	264.26
730.89	263.78
731.22	263.33
731.55	262.86
731.88	262.44
732.21	262.00
732.54	261.57
732.87	261.14
733.20	260.77
733.53	260.38
733.86	260.01
734.19	259.60
734.52	259.24
734.85	258.93
735.18	258.53
735.51	258.20
735.84	257.86
736.17	257.49
736.50	257.11
736.83	256.90
737.16	256.54
737.49	256.20
737.82	255.86
738.15	255.54
738.48	255.21
738.81	254.85
739.14	254.54
739.47	254.21
739.80	253.93
740.13	253.63
740.46	253.27
740.79	252.92
741.12	252.64
741.45	252.31
741.78	251.98
742.11	251.71
742.44	251.37
742.77	251.05
743.10	250.77
743.43	250.45
743.75	250.04
744.08	249.92
744.41	249.61
744.74	249.37
745.07	249.10
745.40	248.87
745.73	248.67
746.06	248.39
746.39	248.12
746.71	247.85
747.04	247.55
747.37	247.33
747.70	247.12
748.03	246.84
748.36	246.62
748.68	246.39
749.01	246.12
749.34	245.91
749.67	245.67
750.00	245.50
750.33	245.36
750.65	245.17
750.98	244.80
751.31	244.60
751.64	244.39
751.97	244.23
752.29	244.03
752.62	243.77
752.95	243.58
753.28	243.37
753.60	243.14
753.93	242.95
754.26	242.75
754.59	242.50
754.91	242.30
755.24	242.13
755.57	241.94
755.90	241.74
756.22	241.56
756.55	241.39
756.88	241.16
757.20	240.90
757.53	240.71
757.86	240.53
758.19	240.37
758.51	240.18
758.84	239.95
759.17	239.76
759.49	239.61
759.82	239.47
760.15	239.33
760.47	239.21
760.80	239.06
761.13	238.93
761.45	238.78
761.78	238.64
762.11	238.50
762.43	238.36
762.76	238.22
763.08	238.06
763.41	237.93
763.74	237.76
764.06	237.64
764.39	237.52
764.71	237.38
765.04	237.23
765.37	237.13
765.69	236.97
766.02	236.81
766.34	236.66
766.67	236.52
767.00	236.43
767.32	236.34
767.65	236.27
767.97	236.14
768.30	236.03
768.62	235.93
768.95	235.80
769.27	235.63
769.60	235.53
769.92	235.40
770.25	235.28
770.57	235.17
770.90	235.06
771.22	234.95
771.55	234.85
771.87	234.77
772.20	234.64
772.52	234.66
772.85	234.67
773.17	234.61
773.50	234.46
773.82	234.35
774.15	234.19
774.47	234.05
774.80	233.96
775.12	233.86
775.45	233.77
775.77	233.64
776.09	233.61
776.42	233.53
776.74	233.50
777.07	233.42
777.39	233.34
777.72	233.26
778.04	233.20
778.36	233.13
778.69	233.05
779.01	232.99
779.33	232.84
779.66	232.71
779.98	232.62
780.31	232.60
780.63	232.58
780.95	232.56
781.28	232.50
781.60	232.42
781.92	232.39
782.25	232.34
782.57	232.30
782.89	232.23
783.22	232.17
783.54	232.08
783.86	232.05
784.19	232.02
784.51	232.00
784.83	231.92
785.16	231.86
785.48	231.85
785.80	231.79
786.12	231.74
786.45	231.68
786.77	231.66
787.09	231.63
