SpectraSuite Data File
++++++++++++++++++++++++++++++++++++
Date: Fri Feb 01 15:26:31 EST 2013
User: group
Dark Spectrum Present: No
Reference Spectrum Present: No
Number of Sampled Component Spectra: 1
Spectrometers: USB2E7196
Integration Time (usec): 35000 (USB2E7196)
Spectra Averaged: 100 (USB2E7196)
Boxcar Smoothing: 10 (USB2E7196)
Correct for Electrical Dark: No (USB2E7196)
Strobe/Lamp Enabled: No (USB2E7196)
Correct for Detector Non-linearity: No (USB2E7196)
Correct for Stray Light: No (USB2E7196)
Number of Pixels in Processed Spectrum: 2048
>>>>>Begin Processed Spectral Data<<<<<
339.09	0.00
339.48	215.09
339.86	216.98
340.24	218.00
340.63	219.07
341.01	222.51
341.39	221.90
341.78	223.52
342.16	224.97
342.54	224.72
342.93	213.53
343.31	224.31
343.69	224.87
344.07	225.34
344.46	225.75
344.84	226.15
345.22	226.40
345.60	226.64
345.99	226.83
346.37	226.95
346.75	227.04
347.13	227.09
347.52	227.17
347.90	227.26
348.28	227.31
348.66	227.31
349.05	227.27
349.43	227.31
349.81	227.35
350.19	227.41
350.57	227.44
350.96	227.50
351.34	227.61
351.72	227.68
352.10	227.74
352.48	227.78
352.87	227.84
353.25	227.88
353.63	227.98
354.01	228.04
354.39	228.12
354.77	228.21
355.15	228.38
355.54	228.44
355.92	228.45
356.30	228.48
356.68	228.62
357.06	228.72
357.44	228.79
357.82	228.82
358.20	228.89
358.58	228.97
358.97	229.04
359.35	229.09
359.73	229.14
360.11	229.18
360.49	229.26
360.87	229.31
361.25	229.37
361.63	229.42
362.01	229.44
362.39	229.47
362.77	229.52
363.15	229.51
363.53	229.51
363.91	229.56
364.29	229.62
364.67	229.55
365.05	229.57
365.43	229.57
365.81	229.60
366.19	229.64
366.57	229.68
366.95	229.66
367.33	229.60
367.71	229.63
368.09	229.64
368.47	229.64
368.85	229.61
369.23	229.61
369.61	229.52
369.99	229.53
370.37	229.52
370.75	229.51
371.13	229.43
371.51	229.36
371.89	229.29
372.27	229.23
372.65	229.18
373.03	229.11
373.41	229.03
373.78	229.01
374.16	228.90
374.54	228.78
374.92	228.70
375.30	228.68
375.68	228.53
376.06	228.46
376.44	228.39
376.82	228.29
377.19	228.21
377.57	228.15
377.95	228.05
378.33	227.96
378.71	227.78
379.09	227.73
379.47	227.71
379.84	227.65
380.22	227.59
380.60	227.50
380.98	227.43
381.36	227.37
381.73	227.26
382.11	227.21
382.49	227.15
382.87	227.05
383.25	226.95
383.62	227.02
384.00	226.93
384.38	226.84
384.76	226.83
385.13	226.79
385.51	226.74
385.89	226.66
386.27	226.60
386.64	226.62
387.02	226.54
387.40	226.45
387.78	226.42
388.15	226.37
388.53	226.33
388.91	226.28
389.29	226.23
389.66	226.20
390.04	226.16
390.42	226.15
390.79	226.18
391.17	226.19
391.55	226.10
391.92	226.09
392.30	226.10
392.68	226.07
393.05	226.08
393.43	226.07
393.81	226.11
394.18	226.13
394.56	226.15
394.94	226.23
395.31	226.26
395.69	226.31
396.06	226.33
396.44	226.37
396.82	226.46
397.19	226.58
397.57	226.65
397.95	226.73
398.32	226.78
398.70	226.82
399.07	226.91
399.45	226.97
399.82	227.07
400.20	227.14
400.58	227.26
400.95	227.32
401.33	227.43
401.70	227.57
402.08	227.68
402.45	227.76
402.83	227.87
403.20	228.01
403.58	228.12
403.95	228.28
404.33	228.44
404.71	228.57
405.08	228.75
405.46	228.89
405.83	229.09
406.21	229.23
406.58	229.42
406.96	229.59
407.33	229.80
407.70	230.02
408.08	230.29
408.45	230.53
408.83	230.75
409.20	230.99
409.58	231.20
409.95	231.45
410.33	231.74
410.70	232.02
411.08	232.34
411.45	232.67
411.82	232.99
412.20	233.36
412.57	233.79
412.95	234.07
413.32	234.45
413.69	234.84
414.07	235.29
414.44	235.76
414.82	236.23
415.19	236.79
415.56	237.32
415.94	237.89
416.31	238.51
416.68	239.16
417.06	239.89
417.43	240.56
417.81	241.34
418.18	242.13
418.55	242.99
418.93	243.85
419.30	244.73
419.67	245.62
420.04	246.54
420.42	247.55
420.79	248.74
421.16	249.92
421.54	251.07
421.91	252.30
422.28	253.52
422.66	254.84
423.03	256.12
423.40	257.45
423.77	258.82
424.15	260.24
424.52	261.71
424.89	263.29
425.26	264.86
425.64	266.31
426.01	267.91
426.38	269.49
426.75	271.18
427.13	272.92
427.50	274.75
427.87	276.64
428.24	278.43
428.61	280.17
428.99	282.11
429.36	284.23
429.73	286.26
430.10	288.32
430.47	290.41
430.85	292.53
431.22	294.77
431.59	297.17
431.96	299.41
432.33	301.87
432.70	304.23
433.08	307.03
433.45	309.68
433.82	312.28
434.19	315.21
434.56	318.00
434.93	320.67
435.30	323.28
435.68	326.16
436.05	329.02
436.42	331.84
436.79	334.40
437.16	337.11
437.53	339.97
437.90	342.77
438.27	345.51
438.64	348.34
439.01	350.95
439.38	353.18
439.75	355.34
440.13	357.88
440.50	360.25
440.87	362.08
441.24	364.03
441.61	366.19
441.98	367.66
442.35	369.50
442.72	371.32
443.09	373.12
443.46	374.11
443.83	374.70
444.20	375.17
444.57	375.95
444.94	376.20
445.31	376.57
445.68	376.93
446.05	376.98
446.42	376.58
446.79	376.17
447.16	375.68
447.53	375.38
447.90	374.19
448.27	373.01
448.64	371.46
449.01	370.27
449.37	368.29
449.74	366.41
450.11	364.12
450.48	361.63
450.85	359.15
451.22	357.02
451.59	354.99
451.96	353.05
452.33	350.48
452.70	348.16
453.07	345.31
453.43	342.39
453.80	339.62
454.17	336.92
454.54	334.37
454.91	331.68
455.28	328.98
455.65	326.49
456.02	324.03
456.38	321.85
456.75	319.23
457.12	317.00
457.49	314.75
457.86	312.60
458.23	310.78
458.59	308.68
458.96	306.60
459.33	304.73
459.70	302.84
460.07	301.30
460.43	299.57
460.80	297.92
461.17	296.52
461.54	295.04
461.91	293.62
462.27	292.14
462.64	290.90
463.01	289.56
463.38	288.24
463.74	286.87
464.11	285.70
464.48	284.63
464.85	283.48
465.21	282.63
465.58	281.71
465.95	280.57
466.32	279.66
466.68	278.73
467.05	277.80
467.42	276.94
467.78	275.98
468.15	275.09
468.52	274.42
468.88	273.55
469.25	272.76
469.62	272.13
469.98	271.48
470.35	270.84
470.72	270.23
471.08	269.56
471.45	269.03
471.82	268.48
472.18	267.90
472.55	267.47
472.92	266.93
473.28	266.45
473.65	265.98
474.02	265.53
474.38	265.19
474.75	264.89
475.11	264.52
475.48	264.25
475.85	264.02
476.21	263.76
476.58	263.58
476.94	263.43
477.31	263.27
477.67	263.12
478.04	263.02
478.41	262.95
478.77	263.02
479.14	262.93
479.50	262.94
479.87	263.00
480.23	263.06
480.60	263.12
480.96	263.20
481.33	263.43
481.69	263.65
482.06	263.82
482.42	263.99
482.79	264.28
483.15	264.60
483.52	265.01
483.88	265.38
484.25	265.75
484.61	266.17
484.98	266.62
485.34	267.19
485.71	267.76
486.07	268.36
486.44	268.93
486.80	269.69
487.17	270.43
487.53	271.26
487.90	272.13
488.26	273.08
488.62	274.09
488.99	275.09
489.35	276.16
489.72	277.27
490.08	278.54
490.44	279.77
490.81	281.12
491.17	282.44
491.54	283.94
491.90	285.50
492.26	287.11
492.63	288.87
492.99	290.63
493.36	292.53
493.72	294.60
494.08	296.66
494.45	298.88
494.81	301.25
495.17	303.66
495.54	306.26
495.90	308.96
496.26	311.76
496.63	314.71
496.99	317.79
497.35	321.08
497.72	324.48
498.08	328.02
498.44	331.70
498.80	335.64
499.17	339.65
499.53	343.80
499.89	348.19
500.26	352.63
500.62	357.28
500.98	362.23
501.34	367.28
501.71	372.67
502.07	378.08
502.43	383.64
502.79	389.47
503.16	395.52
503.52	401.82
503.88	408.23
504.24	414.81
504.60	421.68
504.97	428.82
505.33	436.10
505.69	443.80
506.05	451.62
506.41	459.43
506.78	467.59
507.14	476.04
507.50	484.75
507.86	493.81
508.22	502.96
508.59	512.16
508.95	521.74
509.31	531.47
509.67	541.59
510.03	551.87
510.39	562.41
510.75	573.24
511.12	584.17
511.48	595.43
511.84	606.97
512.20	618.52
512.56	630.50
512.92	642.71
513.28	655.05
513.64	667.55
514.00	680.35
514.37	693.26
514.73	706.31
515.09	719.43
515.45	732.72
515.81	746.34
516.17	760.36
516.53	774.45
516.89	788.64
517.25	802.88
517.61	817.40
517.97	831.92
518.33	846.31
518.69	861.10
519.05	876.12
519.41	891.25
519.77	906.81
520.13	922.30
520.49	937.66
520.85	953.12
521.21	968.78
521.57	985.05
521.93	1000.94
522.29	1017.43
522.65	1033.68
523.01	1049.95
523.37	1066.02
523.73	1082.25
524.09	1098.40
524.45	1114.84
524.81	1131.57
525.17	1148.43
525.53	1165.37
525.89	1182.35
526.25	1199.11
526.61	1215.56
526.97	1232.41
527.33	1248.97
527.68	1265.65
528.04	1282.34
528.40	1298.95
528.76	1316.05
529.12	1332.73
529.48	1349.54
529.84	1365.54
530.20	1382.25
530.56	1399.36
530.91	1416.98
531.27	1433.79
531.63	1450.27
531.99	1466.96
532.35	1482.89
532.71	1498.83
533.07	1515.07
533.42	1530.96
533.78	1547.09
534.14	1563.48
534.50	1578.79
534.86	1594.72
535.21	1609.89
535.57	1625.81
535.93	1641.44
536.29	1656.40
536.65	1671.46
537.00	1686.49
537.36	1701.89
537.72	1716.51
538.08	1730.97
538.44	1744.70
538.79	1758.69
539.15	1772.64
539.51	1786.41
539.87	1800.89
540.22	1814.64
540.58	1828.60
540.94	1842.08
541.29	1855.23
541.65	1867.91
542.01	1881.26
542.37	1893.59
542.72	1906.08
543.08	1917.82
543.44	1930.17
543.79	1941.36
544.15	1952.51
544.51	1963.98
544.87	1975.00
545.22	1985.85
545.58	1996.14
545.94	2005.93
546.29	2015.81
546.65	2025.54
547.01	2034.83
547.36	2043.61
547.72	2052.12
548.07	2060.11
548.43	2068.30
548.79	2076.36
549.14	2083.84
549.50	2091.26
549.86	2099.03
550.21	2106.30
550.57	2113.52
550.92	2120.22
551.28	2127.40
551.64	2134.43
551.99	2141.04
552.35	2147.16
552.70	2153.24
553.06	2159.18
553.41	2165.57
553.77	2171.58
554.13	2177.61
554.48	2183.62
554.84	2188.93
555.19	2194.40
555.55	2199.29
555.90	2203.70
556.26	2208.43
556.61	2213.28
556.97	2217.34
557.32	2221.41
557.68	2225.56
558.03	2229.86
558.39	2233.45
558.74	2238.02
559.10	2241.79
559.45	2245.44
559.81	2249.84
560.16	2253.77
560.52	2257.03
560.87	2260.27
561.23	2263.01
561.58	2265.96
561.94	2268.53
562.29	2271.09
562.64	2273.64
563.00	2276.32
563.35	2279.92
563.71	2283.00
564.06	2286.19
564.42	2289.08
564.77	2291.57
565.12	2293.73
565.48	2295.45
565.83	2297.29
566.19	2298.52
566.54	2299.55
566.89	2300.60
567.25	2301.06
567.60	2302.25
567.96	2303.82
568.31	2304.81
568.66	2305.78
569.02	2306.30
569.37	2306.53
569.72	2307.23
570.08	2307.30
570.43	2307.20
570.78	2306.36
571.14	2304.87
571.49	2303.57
571.84	2303.32
572.20	2302.11
572.55	2301.06
572.90	2299.71
573.26	2298.25
573.61	2296.43
573.96	2294.48
574.31	2291.34
574.67	2288.21
575.02	2284.64
575.37	2281.16
575.72	2277.23
576.08	2273.86
576.43	2270.53
576.78	2266.88
577.13	2263.66
577.49	2260.47
577.84	2256.93
578.19	2253.24
578.54	2249.46
578.90	2244.99
579.25	2239.41
579.60	2234.24
579.95	2229.30
580.30	2224.00
580.66	2218.86
581.01	2213.86
581.36	2208.88
581.71	2204.67
582.06	2200.16
582.42	2195.44
582.77	2190.24
583.12	2185.57
583.47	2180.62
583.82	2175.56
584.17	2170.10
584.53	2164.42
584.88	2158.61
585.23	2152.74
585.58	2147.30
585.93	2141.77
586.28	2136.99
586.63	2131.71
586.98	2126.69
587.34	2121.95
587.69	2117.12
588.04	2111.78
588.39	2106.13
588.74	2099.61
589.09	2093.49
589.44	2086.55
589.79	2080.57
590.14	2074.87
590.49	2068.35
590.84	2061.95
591.19	2055.86
591.54	2049.43
591.89	2042.02
592.25	2035.30
592.60	2028.08
592.95	2020.30
593.30	2013.00
593.65	2005.34
594.00	1998.27
594.35	1990.97
594.70	1982.84
595.05	1975.51
595.40	1968.14
595.75	1960.44
596.10	1954.08
596.45	1947.15
596.80	1940.97
597.15	1934.19
597.50	1926.92
597.85	1920.40
598.19	1913.74
598.54	1906.62
598.89	1900.07
599.24	1894.11
599.59	1887.32
599.94	1881.07
600.29	1874.75
600.64	1868.05
600.99	1860.44
601.34	1853.51
601.69	1846.51
602.04	1839.45
602.39	1832.07
602.74	1825.23
603.08	1818.60
603.43	1811.88
603.78	1804.79
604.13	1797.48
604.48	1790.18
604.83	1783.47
605.18	1776.36
605.53	1768.26
605.87	1760.22
606.22	1752.88
606.57	1744.83
606.92	1737.58
607.27	1730.42
607.62	1723.47
607.96	1716.17
608.31	1709.49
608.66	1701.92
609.01	1694.30
609.36	1686.76
609.70	1678.71
610.05	1670.56
610.40	1662.75
610.75	1654.39
611.10	1646.59
611.44	1638.35
611.79	1630.44
612.14	1621.54
612.49	1612.42
612.83	1604.05
613.18	1595.91
613.53	1587.83
613.88	1579.43
614.22	1571.21
614.57	1562.60
614.92	1554.44
615.27	1546.80
615.61	1538.56
615.96	1530.68
616.31	1523.14
616.65	1515.76
617.00	1508.19
617.35	1500.54
617.70	1492.16
618.04	1483.67
618.39	1475.37
618.74	1467.75
619.08	1459.27
619.43	1451.85
619.78	1444.98
620.12	1437.81
620.47	1430.30
620.82	1422.07
621.16	1414.54
621.51	1406.77
621.85	1398.99
622.20	1390.49
622.55	1382.17
622.89	1374.22
623.24	1366.41
623.59	1359.00
623.93	1351.58
624.28	1344.26
624.62	1336.70
624.97	1329.62
625.32	1322.89
625.66	1315.84
626.01	1308.59
626.35	1301.20
626.70	1293.31
627.04	1285.50
627.39	1277.78
627.73	1270.25
628.08	1263.34
628.43	1256.13
628.77	1248.73
629.12	1241.30
629.46	1234.08
629.81	1226.72
630.15	1219.57
630.50	1212.29
630.84	1204.12
631.19	1196.04
631.53	1188.62
631.88	1181.11
632.22	1173.55
632.57	1166.23
632.91	1158.78
633.26	1151.37
633.60	1144.14
633.95	1137.17
634.29	1130.24
634.64	1123.57
634.98	1116.25
635.32	1109.11
635.67	1102.51
636.01	1095.86
636.36	1088.96
636.70	1082.56
637.05	1076.03
637.39	1069.55
637.73	1062.95
638.08	1057.04
638.42	1051.24
638.77	1044.77
639.11	1038.20
639.45	1031.70
639.80	1024.99
640.14	1018.54
640.49	1012.04
640.83	1005.60
641.17	999.40
641.52	993.03
641.86	986.64
642.20	980.82
642.55	974.59
642.89	968.14
643.23	961.70
643.58	955.97
643.92	949.69
644.26	943.52
644.61	937.58
644.95	931.52
645.29	924.86
645.64	918.07
645.98	911.80
646.32	905.95
646.66	899.99
647.01	894.24
647.35	888.59
647.69	882.85
648.04	877.41
648.38	871.57
648.72	865.51
649.06	859.41
649.41	853.62
649.75	847.55
650.09	841.63
650.43	835.85
650.78	829.78
651.12	823.90
651.46	818.30
651.80	812.43
652.14	807.08
652.49	801.78
652.83	796.57
653.17	790.81
653.51	785.07
653.85	779.63
654.20	773.98
654.54	767.95
654.88	762.12
655.22	756.23
655.56	750.52
655.90	745.10
656.25	739.83
656.59	734.38
656.93	729.34
657.27	724.14
657.61	718.68
657.95	713.57
658.29	708.53
658.64	703.18
658.98	697.95
659.32	692.48
659.66	687.23
660.00	681.85
660.34	677.00
660.68	672.12
661.02	667.10
661.36	662.40
661.70	657.92
662.05	653.60
662.39	649.28
662.73	644.87
663.07	640.53
663.41	636.16
663.75	631.70
664.09	627.13
664.43	622.73
664.77	618.60
665.11	614.32
665.45	610.20
665.79	606.14
666.13	602.02
666.47	597.96
666.81	593.82
667.15	589.79
667.49	585.87
667.83	582.12
668.17	578.19
668.51	574.13
668.85	570.08
669.19	566.19
669.53	562.30
669.87	558.43
670.21	554.69
670.55	551.02
670.89	547.61
671.23	544.20
671.57	540.68
671.91	537.16
672.25	533.67
672.58	530.16
672.92	526.80
673.26	523.65
673.60	520.56
673.94	517.49
674.28	514.56
674.62	511.60
674.96	508.42
675.30	505.51
675.64	502.59
675.97	499.92
676.31	497.08
676.65	494.24
676.99	491.53
677.33	488.73
677.67	485.89
678.01	482.88
678.34	479.87
678.68	477.06
679.02	474.24
679.36	471.52
679.70	468.82
680.04	466.03
680.37	463.13
680.71	460.33
681.05	457.78
681.39	455.10
681.73	452.41
682.06	449.93
682.40	447.41
682.74	444.88
683.08	442.31
683.42	439.74
683.75	437.18
684.09	434.65
684.43	432.15
684.77	429.71
685.10	427.39
685.44	425.12
685.78	422.85
686.12	420.60
686.45	418.28
686.79	415.96
687.13	413.78
687.46	411.66
687.80	409.55
688.14	407.28
688.48	405.29
688.81	403.03
689.15	400.92
689.49	398.82
689.82	396.80
690.16	394.72
690.50	392.78
690.83	390.84
691.17	388.87
691.51	386.97
691.84	385.14
692.18	383.16
692.52	381.20
692.85	379.26
693.19	377.42
693.52	375.64
693.86	373.86
694.20	372.06
694.53	370.28
694.87	368.38
695.21	366.61
695.54	364.74
695.88	363.10
696.21	361.33
696.55	359.60
696.88	357.87
697.22	356.22
697.56	354.53
697.89	352.87
698.23	351.22
698.56	349.62
698.90	348.01
699.23	346.33
699.57	344.79
699.90	343.23
700.24	341.69
700.58	340.08
700.91	338.54
701.25	337.12
701.58	335.73
701.92	334.39
702.25	332.98
702.59	331.58
702.92	330.23
703.26	328.92
703.59	327.65
703.93	326.46
704.26	325.19
704.60	323.95
704.93	322.70
705.26	321.49
705.60	320.29
705.93	319.16
706.27	318.14
706.60	317.05
706.94	315.98
707.27	314.80
707.61	313.77
707.94	312.76
708.27	311.68
708.61	310.58
708.94	309.56
709.28	308.60
709.61	307.69
709.94	306.76
710.28	305.75
710.61	304.79
710.95	303.76
711.28	302.82
711.61	301.87
711.95	300.96
712.28	300.01
712.61	299.01
712.95	298.06
713.28	297.20
713.61	296.30
713.95	295.40
714.28	294.63
714.61	293.78
714.95	292.92
715.28	292.06
715.61	291.22
715.95	290.40
716.28	289.55
716.61	288.72
716.95	287.89
717.28	287.18
717.61	286.43
717.94	285.66
718.28	284.89
718.61	284.19
718.94	283.51
719.27	282.85
719.61	282.23
719.94	281.61
720.27	280.93
720.60	280.26
720.94	279.65
721.27	279.00
721.60	278.42
721.93	277.85
722.27	277.31
722.60	276.77
722.93	276.24
723.26	275.71
723.59	275.17
723.93	274.65
724.26	274.05
724.59	273.53
724.92	273.02
725.25	272.51
725.59	271.98
725.92	271.47
726.25	270.97
726.58	270.48
726.91	269.98
727.24	269.48
727.57	269.06
727.91	268.54
728.24	268.08
728.57	267.60
728.90	267.14
729.23	266.66
729.56	266.27
729.89	265.78
730.22	265.28
730.55	264.81
730.89	264.34
731.22	263.91
731.55	263.42
731.88	262.97
732.21	262.54
732.54	262.12
732.87	261.70
733.20	261.35
733.53	260.94
733.86	260.56
734.19	260.18
734.52	259.75
734.85	259.47
735.18	259.05
735.51	258.70
735.84	258.33
736.17	257.96
736.50	257.51
736.83	257.25
737.16	256.90
737.49	256.56
737.82	256.22
738.15	255.89
738.48	255.56
738.81	255.28
739.14	254.97
739.47	254.63
739.80	254.32
740.13	253.96
740.46	253.66
740.79	253.31
741.12	253.00
741.45	252.71
741.78	252.37
742.11	252.06
742.44	251.73
742.77	251.42
743.10	251.10
743.43	250.83
743.75	250.44
744.08	250.27
744.41	249.98
744.74	249.71
745.07	249.43
745.40	249.19
745.73	248.91
746.06	248.62
746.39	248.37
746.71	248.09
747.04	247.82
747.37	247.56
747.70	247.31
748.03	247.07
748.36	246.82
748.68	246.54
749.01	246.29
749.34	246.05
749.67	245.81
750.00	245.57
750.33	245.41
750.65	245.18
750.98	244.86
751.31	244.61
751.64	244.41
751.97	244.23
752.29	244.02
752.62	243.78
752.95	243.58
753.28	243.37
753.60	243.13
753.93	242.92
754.26	242.72
754.59	242.52
754.91	242.30
755.24	242.07
755.57	241.90
755.90	241.70
756.22	241.52
756.55	241.35
756.88	241.17
757.20	240.95
757.53	240.77
757.86	240.60
758.19	240.47
758.51	240.28
758.84	240.12
759.17	239.95
759.49	239.83
759.82	239.68
760.15	239.53
760.47	239.40
760.80	239.26
761.13	239.11
761.45	238.94
761.78	238.77
762.11	238.71
762.43	238.56
762.76	238.46
763.08	238.35
763.41	238.22
763.74	238.10
764.06	237.98
764.39	237.86
764.71	237.74
765.04	237.61
765.37	237.51
765.69	237.36
766.02	237.21
766.34	237.08
766.67	236.93
767.00	236.85
767.32	236.80
767.65	236.74
767.97	236.65
768.30	236.55
768.62	236.45
768.95	236.28
769.27	236.19
769.60	236.09
769.92	235.96
770.25	235.84
770.57	235.73
770.90	235.63
771.22	235.48
771.55	235.38
771.87	235.28
772.20	235.17
772.52	235.16
772.85	235.19
773.17	235.09
773.50	235.01
773.82	234.89
774.15	234.74
774.47	234.59
774.80	234.49
775.12	234.40
775.45	234.32
775.77	234.27
776.09	234.23
776.42	234.18
776.74	234.14
777.07	234.05
777.39	234.00
777.72	233.91
778.04	233.90
778.36	233.82
778.69	233.74
779.01	233.68
779.33	233.55
779.66	233.38
779.98	233.29
780.31	233.19
780.63	233.16
780.95	233.10
781.28	233.02
781.60	232.95
781.92	232.87
782.25	232.78
782.57	232.70
782.89	232.56
783.22	232.47
783.54	232.35
783.86	232.28
784.19	232.19
784.51	232.14
784.83	232.02
785.16	231.91
785.48	231.88
785.80	231.83
786.12	231.75
786.45	231.68
786.77	231.66
787.09	231.63
