SpectraSuite Data File
++++++++++++++++++++++++++++++++++++
Date: Fri Feb 01 16:27:58 EST 2013
User: group
Dark Spectrum Present: No
Reference Spectrum Present: No
Number of Sampled Component Spectra: 1
Spectrometers: USB2E7196
Integration Time (usec): 35000 (USB2E7196)
Spectra Averaged: 100 (USB2E7196)
Boxcar Smoothing: 10 (USB2E7196)
Correct for Electrical Dark: No (USB2E7196)
Strobe/Lamp Enabled: No (USB2E7196)
Correct for Detector Non-linearity: No (USB2E7196)
Correct for Stray Light: No (USB2E7196)
Number of Pixels in Processed Spectrum: 2048
>>>>>Begin Processed Spectral Data<<<<<
339.09	0.00
339.48	213.69
339.86	215.33
340.24	216.55
340.63	218.43
341.01	220.98
341.39	221.07
341.78	222.49
342.16	223.27
342.54	223.88
342.93	212.30
343.31	223.03
343.69	223.60
344.07	224.09
344.46	224.53
344.84	224.86
345.22	225.12
345.60	225.36
345.99	225.54
346.37	225.67
346.75	225.75
347.13	225.87
347.52	225.93
347.90	226.00
348.28	226.03
348.66	226.07
349.05	226.12
349.43	226.12
349.81	226.16
350.19	226.21
350.57	226.28
350.96	226.37
351.34	226.44
351.72	226.52
352.10	226.60
352.48	226.70
352.87	226.79
353.25	226.81
353.63	226.88
354.01	226.93
354.39	227.04
354.77	227.14
355.15	227.23
355.54	227.29
355.92	227.34
356.30	227.41
356.68	227.58
357.06	227.64
357.44	227.69
357.82	227.76
358.20	227.84
358.58	227.90
358.97	227.94
359.35	228.02
359.73	228.11
360.11	228.15
360.49	228.19
360.87	228.26
361.25	228.32
361.63	228.40
362.01	228.46
362.39	228.46
362.77	228.50
363.15	228.50
363.53	228.54
363.91	228.56
364.29	228.56
364.67	228.48
365.05	228.48
365.43	228.53
365.81	228.54
366.19	228.56
366.57	228.57
366.95	228.56
367.33	228.51
367.71	228.48
368.09	228.51
368.47	228.47
368.85	228.43
369.23	228.44
369.61	228.34
369.99	228.35
370.37	228.32
370.75	228.34
371.13	228.31
371.51	228.27
371.89	228.23
372.27	228.22
372.65	228.17
373.03	228.15
373.41	228.06
373.78	228.00
374.16	227.90
374.54	227.84
374.92	227.79
375.30	227.74
375.68	227.66
376.06	227.55
376.44	227.49
376.82	227.45
377.19	227.38
377.57	227.33
377.95	227.21
378.33	227.16
378.71	227.05
379.09	226.98
379.47	226.88
379.84	226.81
380.22	226.68
380.60	226.59
380.98	226.52
381.36	226.44
381.73	226.37
382.11	226.35
382.49	226.30
382.87	226.23
383.25	226.20
383.62	226.25
384.00	226.21
384.38	226.16
384.76	226.14
385.13	226.13
385.51	226.07
385.89	226.04
386.27	225.98
386.64	225.95
387.02	225.88
387.40	225.88
387.78	225.84
388.15	225.82
388.53	225.81
388.91	225.79
389.29	225.79
389.66	225.79
390.04	225.72
390.42	225.69
390.79	225.69
391.17	225.68
391.55	225.57
391.92	225.58
392.30	225.60
392.68	225.56
393.05	225.55
393.43	225.61
393.81	225.65
394.18	225.63
394.56	225.65
394.94	225.70
395.31	225.71
395.69	225.76
396.06	225.81
396.44	225.87
396.82	225.87
397.19	225.96
397.57	225.99
397.95	226.05
398.32	226.06
398.70	226.11
399.07	226.21
399.45	226.25
399.82	226.31
400.20	226.34
400.58	226.41
400.95	226.44
401.33	226.48
401.70	226.61
402.08	226.75
402.45	226.81
402.83	226.88
403.20	226.99
403.58	227.07
403.95	227.20
404.33	227.32
404.71	227.47
405.08	227.64
405.46	227.75
405.83	227.93
406.21	228.10
406.58	228.24
406.96	228.38
407.33	228.58
407.70	228.75
408.08	229.03
408.45	229.25
408.83	229.51
409.20	229.73
409.58	229.90
409.95	230.13
410.33	230.37
410.70	230.66
411.08	230.94
411.45	231.25
411.82	231.52
412.20	231.86
412.57	232.25
412.95	232.52
413.32	232.94
413.69	233.32
414.07	233.76
414.44	234.23
414.82	234.65
415.19	235.17
415.56	235.74
415.94	236.26
416.31	236.87
416.68	237.46
417.06	238.18
417.43	238.85
417.81	239.61
418.18	240.39
418.55	241.19
418.93	242.06
419.30	242.95
419.67	243.92
420.04	244.84
420.42	245.81
420.79	246.99
421.16	248.10
421.54	249.26
421.91	250.44
422.28	251.70
422.66	253.05
423.03	254.35
423.40	255.65
423.77	257.04
424.15	258.45
424.52	259.97
424.89	261.57
425.26	263.08
425.64	264.53
426.01	266.10
426.38	267.76
426.75	269.40
427.13	271.12
427.50	272.92
427.87	274.79
428.24	276.64
428.61	278.36
428.99	280.31
429.36	282.43
429.73	284.46
430.10	286.45
430.47	288.50
430.85	290.64
431.22	292.88
431.59	295.28
431.96	297.51
432.33	299.96
432.70	302.28
433.08	305.11
433.45	307.72
433.82	310.35
434.19	313.24
434.56	316.06
434.93	318.68
435.30	321.29
435.68	324.17
436.05	327.00
436.42	329.81
436.79	332.30
437.16	335.00
437.53	337.85
437.90	340.63
438.27	343.34
438.64	346.14
439.01	348.75
439.38	350.96
439.75	353.11
440.13	355.58
440.50	357.92
440.87	359.74
441.24	361.66
441.61	363.78
441.98	365.30
442.35	367.12
442.72	368.97
443.09	370.73
443.46	371.73
443.83	372.35
444.20	372.83
444.57	373.68
444.94	373.98
445.31	374.34
445.68	374.72
446.05	374.81
446.42	374.44
446.79	374.02
447.16	373.59
447.53	373.29
447.90	372.16
448.27	371.03
448.64	369.48
449.01	368.37
449.37	366.46
449.74	364.52
450.11	362.27
450.48	359.86
450.85	357.36
451.22	355.22
451.59	353.15
451.96	351.21
452.33	348.63
452.70	346.28
453.07	343.43
453.43	340.56
453.80	337.84
454.17	335.18
454.54	332.64
454.91	329.95
455.28	327.28
455.65	324.82
456.02	322.41
456.38	320.29
456.75	317.65
457.12	315.38
457.49	313.19
457.86	311.06
458.23	309.19
458.59	307.15
458.96	305.05
459.33	303.27
459.70	301.46
460.07	299.96
460.43	298.22
460.80	296.60
461.17	295.11
461.54	293.61
461.91	292.15
462.27	290.71
462.64	289.46
463.01	288.11
463.38	286.78
463.74	285.40
464.11	284.23
464.48	283.21
464.85	282.10
465.21	281.24
465.58	280.29
465.95	279.18
466.32	278.29
466.68	277.44
467.05	276.52
467.42	275.62
467.78	274.67
468.15	273.79
468.52	273.16
468.88	272.35
469.25	271.57
469.62	270.96
469.98	270.27
470.35	269.67
470.72	269.08
471.08	268.46
471.45	267.92
471.82	267.38
472.18	266.79
472.55	266.35
472.92	265.81
473.28	265.36
473.65	264.91
474.02	264.46
474.38	264.05
474.75	263.72
475.11	263.39
475.48	263.15
475.85	262.93
476.21	262.67
476.58	262.49
476.94	262.34
477.31	262.16
477.67	262.01
478.04	261.84
478.41	261.81
478.77	261.83
479.14	261.77
479.50	261.80
479.87	261.89
480.23	262.00
480.60	262.11
480.96	262.21
481.33	262.43
481.69	262.69
482.06	262.95
482.42	263.17
482.79	263.43
483.15	263.77
483.52	264.17
483.88	264.55
484.25	264.96
484.61	265.42
484.98	265.90
485.34	266.48
485.71	267.12
486.07	267.70
486.44	268.27
486.80	268.99
487.17	269.71
487.53	270.54
487.90	271.41
488.26	272.33
488.62	273.33
488.99	274.34
489.35	275.35
489.72	276.49
490.08	277.72
490.44	278.98
490.81	280.33
491.17	281.70
491.54	283.17
491.90	284.72
492.26	286.37
492.63	288.16
492.99	289.95
493.36	291.87
493.72	293.94
494.08	296.09
494.45	298.35
494.81	300.75
495.17	303.20
495.54	305.74
495.90	308.48
496.26	311.29
496.63	314.25
496.99	317.42
497.35	320.69
497.72	324.10
498.08	327.64
498.44	331.30
498.80	335.22
499.17	339.31
499.53	343.50
499.89	347.90
500.26	352.42
500.62	357.11
500.98	362.12
501.34	367.21
501.71	372.56
502.07	378.05
502.43	383.67
502.79	389.49
503.16	395.55
503.52	401.83
503.88	408.30
504.24	414.96
504.60	421.86
504.97	428.95
505.33	436.24
505.69	443.96
506.05	451.78
506.41	459.69
506.78	467.83
507.14	476.29
507.50	485.05
507.86	494.07
508.22	503.25
508.59	512.41
508.95	522.06
509.31	531.89
509.67	541.93
510.03	552.24
510.39	562.76
510.75	573.54
511.12	584.39
511.48	595.63
511.84	607.04
512.20	618.49
512.56	630.37
512.92	642.54
513.28	654.85
513.64	667.34
514.00	679.99
514.37	692.91
514.73	705.88
515.09	718.81
515.45	732.03
515.81	745.60
516.17	759.53
516.53	773.53
516.89	787.63
517.25	801.80
517.61	816.13
517.97	830.55
518.33	844.92
518.69	859.68
519.05	874.59
519.41	889.74
519.77	905.22
520.13	920.65
520.49	936.01
520.85	951.32
521.21	967.05
521.57	983.18
521.93	998.80
522.29	1015.23
522.65	1031.38
523.01	1047.54
523.37	1063.47
523.73	1079.57
524.09	1095.50
524.45	1111.70
524.81	1128.26
525.17	1144.95
525.53	1161.79
525.89	1178.62
526.25	1195.45
526.61	1211.70
526.97	1228.32
527.33	1244.74
527.68	1261.32
528.04	1277.75
528.40	1294.20
528.76	1311.06
529.12	1327.58
529.48	1344.36
529.84	1360.17
530.20	1376.75
530.56	1393.67
530.91	1411.04
531.27	1427.77
531.63	1444.28
531.99	1460.74
532.35	1476.58
532.71	1492.41
533.07	1508.45
533.42	1524.36
533.78	1540.29
534.14	1556.58
534.50	1571.95
534.86	1587.70
535.21	1602.81
535.57	1618.64
535.93	1634.16
536.29	1648.95
536.65	1664.00
537.00	1678.72
537.36	1693.94
537.72	1708.33
538.08	1722.70
538.44	1736.23
538.79	1749.94
539.15	1763.40
539.51	1777.05
539.87	1791.27
540.22	1804.97
540.58	1818.69
540.94	1831.83
541.29	1844.51
541.65	1856.99
542.01	1870.02
542.37	1882.20
542.72	1894.54
543.08	1906.30
543.44	1918.57
543.79	1929.64
544.15	1940.50
544.51	1952.07
544.87	1963.00
545.22	1973.78
545.58	1983.87
545.94	1993.76
546.29	2003.50
546.65	2013.44
547.01	2022.72
547.36	2031.40
547.72	2039.65
548.07	2047.53
548.43	2055.63
548.79	2063.78
549.14	2071.37
549.50	2078.68
549.86	2086.28
550.21	2093.45
550.57	2100.34
550.92	2106.82
551.28	2113.81
551.64	2120.77
551.99	2127.20
552.35	2133.31
552.70	2139.47
553.06	2145.45
553.41	2151.74
553.77	2157.86
554.13	2163.81
554.48	2169.84
554.84	2175.22
555.19	2180.64
555.55	2185.81
555.90	2190.21
556.26	2195.08
556.61	2199.82
556.97	2204.04
557.32	2208.22
557.68	2212.33
558.03	2216.65
558.39	2220.40
558.74	2225.03
559.10	2228.93
559.45	2232.74
559.81	2237.01
560.16	2240.80
560.52	2243.87
560.87	2247.27
561.23	2249.74
561.58	2252.70
561.94	2255.25
562.29	2257.64
562.64	2260.26
563.00	2262.73
563.35	2266.36
563.71	2269.30
564.06	2272.40
564.42	2275.40
564.77	2277.94
565.12	2280.25
565.48	2282.22
565.83	2284.14
566.19	2285.31
566.54	2286.25
566.89	2287.29
567.25	2287.99
567.60	2289.19
567.96	2291.07
568.31	2291.88
568.66	2293.33
569.02	2293.93
569.37	2294.29
569.72	2295.33
570.08	2295.57
570.43	2295.72
570.78	2295.14
571.14	2293.75
571.49	2292.59
571.84	2292.28
572.20	2291.25
572.55	2290.23
572.90	2288.65
573.26	2287.39
573.61	2286.05
573.96	2284.33
574.31	2281.47
574.67	2278.48
575.02	2274.99
575.37	2271.59
575.72	2267.84
576.08	2264.29
576.43	2260.97
576.78	2257.40
577.13	2254.27
577.49	2251.30
577.84	2247.77
578.19	2244.16
578.54	2240.61
578.90	2236.33
579.25	2230.81
579.60	2225.86
579.95	2220.91
580.30	2216.05
580.66	2210.86
581.01	2205.80
581.36	2201.05
581.71	2196.94
582.06	2192.64
582.42	2188.35
582.77	2183.25
583.12	2178.89
583.47	2174.30
583.82	2169.48
584.17	2164.28
584.53	2158.76
584.88	2153.15
585.23	2147.66
585.58	2142.17
585.93	2136.81
586.28	2132.18
586.63	2127.23
586.98	2122.32
587.34	2117.74
587.69	2113.00
588.04	2107.87
588.39	2102.34
588.74	2095.88
589.09	2089.79
589.44	2082.97
589.79	2077.09
590.14	2071.68
590.49	2065.08
590.84	2058.88
591.19	2052.92
591.54	2046.51
591.89	2039.19
592.25	2032.43
592.60	2025.29
592.95	2017.83
593.30	2010.55
593.65	2003.01
594.00	1996.00
594.35	1988.68
594.70	1980.70
595.05	1973.63
595.40	1966.32
595.75	1958.89
596.10	1952.81
596.45	1946.02
596.80	1939.97
597.15	1933.32
597.50	1926.05
597.85	1919.58
598.19	1912.84
598.54	1905.68
598.89	1899.04
599.24	1893.20
599.59	1886.47
599.94	1880.21
600.29	1873.83
600.64	1867.21
600.99	1859.80
601.34	1852.99
601.69	1846.23
602.04	1839.53
602.39	1832.18
602.74	1825.41
603.08	1818.63
603.43	1811.78
603.78	1804.45
604.13	1797.23
604.48	1789.94
604.83	1783.20
605.18	1776.34
605.53	1768.42
605.87	1760.52
606.22	1753.46
606.57	1745.60
606.92	1738.39
607.27	1731.21
607.62	1724.36
607.96	1717.09
608.31	1710.42
608.66	1702.91
609.01	1695.29
609.36	1687.65
609.70	1679.55
610.05	1671.44
610.40	1663.83
610.75	1655.62
611.10	1648.05
611.44	1639.68
611.79	1631.65
612.14	1622.94
612.49	1613.75
612.83	1605.40
613.18	1597.30
613.53	1589.04
613.88	1580.45
614.22	1572.17
614.57	1563.65
614.92	1555.59
615.27	1548.09
615.61	1539.80
615.96	1531.71
616.31	1524.09
616.65	1516.70
617.00	1509.20
617.35	1501.60
617.70	1493.14
618.04	1484.61
618.39	1476.43
618.74	1468.81
619.08	1460.57
619.43	1452.92
619.78	1446.10
620.12	1438.94
620.47	1431.39
620.82	1423.25
621.16	1415.92
621.51	1408.40
621.85	1400.74
622.20	1392.18
622.55	1383.78
622.89	1375.86
623.24	1368.18
623.59	1360.69
623.93	1353.15
624.28	1345.86
624.62	1338.38
624.97	1331.22
625.32	1324.47
625.66	1317.48
626.01	1310.29
626.35	1302.84
626.70	1295.27
627.04	1287.37
627.39	1279.59
627.73	1272.14
628.08	1265.28
628.43	1257.87
628.77	1250.35
629.12	1242.88
629.46	1235.76
629.81	1228.38
630.15	1221.23
630.50	1213.89
630.84	1205.80
631.19	1197.77
631.53	1190.30
631.88	1182.68
632.22	1175.13
632.57	1167.80
632.91	1160.17
633.26	1152.69
633.60	1145.36
633.95	1138.16
634.29	1131.23
634.64	1124.54
634.98	1117.23
635.32	1110.12
635.67	1103.54
636.01	1096.96
636.36	1090.06
636.70	1083.46
637.05	1076.88
637.39	1070.43
637.73	1063.87
638.08	1057.94
638.42	1052.08
638.77	1045.69
639.11	1039.06
639.45	1032.68
639.80	1026.01
640.14	1019.68
640.49	1013.23
640.83	1006.88
641.17	1000.54
641.52	994.24
641.86	987.81
642.20	981.99
642.55	975.59
642.89	969.14
643.23	962.60
643.58	956.85
643.92	950.77
644.26	944.59
644.61	938.57
644.95	932.51
645.29	925.88
645.64	919.15
645.98	912.76
646.32	906.95
646.66	900.89
647.01	895.04
647.35	889.22
647.69	883.33
648.04	877.75
648.38	871.99
648.72	865.99
649.06	859.90
649.41	853.92
649.75	848.01
650.09	842.13
650.43	836.36
650.78	830.17
651.12	824.19
651.46	818.52
651.80	812.70
652.14	807.32
652.49	801.96
652.83	796.75
653.17	791.06
653.51	785.31
653.85	779.98
654.20	774.37
654.54	768.42
654.88	762.71
655.22	756.85
655.56	751.20
655.90	745.75
656.25	740.53
656.59	735.17
656.93	730.10
657.27	724.94
657.61	719.43
657.95	714.31
658.29	709.20
658.64	703.96
658.98	698.66
659.32	693.23
659.66	688.10
660.00	682.73
660.34	677.75
660.68	672.86
661.02	667.76
661.36	663.05
661.70	658.51
662.05	654.14
662.39	649.74
662.73	645.22
663.07	640.85
663.41	636.39
663.75	631.89
664.09	627.23
664.43	622.77
664.77	618.71
665.11	614.48
665.45	610.35
665.79	606.27
666.13	602.20
666.47	598.11
666.81	593.89
667.15	589.83
667.49	585.96
667.83	582.11
668.17	578.22
668.51	574.13
668.85	570.12
669.19	566.27
669.53	562.46
669.87	558.64
670.21	554.94
670.55	551.28
670.89	547.89
671.23	544.51
671.57	541.01
671.91	537.46
672.25	533.90
672.58	530.41
672.92	527.01
673.26	523.83
673.60	520.66
673.94	517.57
674.28	514.63
674.62	511.60
674.96	508.51
675.30	505.56
675.64	502.60
675.97	499.78
676.31	496.92
676.65	494.00
676.99	491.26
677.33	488.35
677.67	485.53
678.01	482.44
678.34	479.50
678.68	476.58
679.02	473.78
679.36	471.02
679.70	468.26
680.04	465.53
680.37	462.65
680.71	459.83
681.05	457.21
681.39	454.46
681.73	451.82
682.06	449.30
682.40	446.75
682.74	444.24
683.08	441.72
683.42	439.11
683.75	436.57
684.09	434.07
684.43	431.63
684.77	429.15
685.10	426.84
685.44	424.52
685.78	422.23
686.12	419.95
686.45	417.67
686.79	415.34
687.13	413.10
687.46	410.95
687.80	408.77
688.14	406.54
688.48	404.48
688.81	402.28
689.15	400.15
689.49	398.04
689.82	395.97
690.16	393.92
690.50	391.96
690.83	390.04
691.17	388.05
691.51	386.13
691.84	384.35
692.18	382.44
692.52	380.40
692.85	378.48
693.19	376.56
693.52	374.75
693.86	372.97
694.20	371.23
694.53	369.41
694.87	367.62
695.21	365.86
695.54	364.04
695.88	362.34
696.21	360.60
696.55	358.90
696.88	357.22
697.22	355.54
697.56	353.93
697.89	352.28
698.23	350.66
698.56	349.04
698.90	347.39
699.23	345.72
699.57	344.20
699.90	342.68
700.24	341.20
700.58	339.69
700.91	338.22
701.25	336.74
701.58	335.35
701.92	333.99
702.25	332.58
702.59	331.19
702.92	329.86
703.26	328.58
703.59	327.29
703.93	326.09
704.26	324.89
704.60	323.58
704.93	322.35
705.26	321.11
705.60	319.93
705.93	318.80
706.27	317.77
706.60	316.69
706.94	315.60
707.27	314.44
707.61	313.35
707.94	312.29
708.27	311.25
708.61	310.19
708.94	309.18
709.28	308.23
709.61	307.28
709.94	306.29
710.28	305.24
710.61	304.28
710.95	303.19
711.28	302.23
711.61	301.28
711.95	300.31
712.28	299.38
712.61	298.41
712.95	297.47
713.28	296.59
713.61	295.67
713.95	294.80
714.28	293.98
714.61	293.10
714.95	292.25
715.28	291.34
715.61	290.46
715.95	289.55
716.28	288.66
716.61	287.83
716.95	286.99
717.28	286.28
717.61	285.48
717.94	284.75
718.28	283.96
718.61	283.24
718.94	282.55
719.27	281.88
719.61	281.22
719.94	280.55
720.27	279.81
720.60	279.17
720.94	278.51
721.27	277.88
721.60	277.31
721.93	276.69
722.27	276.14
722.60	275.57
722.93	275.01
723.26	274.46
723.59	273.90
723.93	273.33
724.26	272.74
724.59	272.18
724.92	271.65
725.25	271.15
725.59	270.60
725.92	270.10
726.25	269.57
726.58	269.08
726.91	268.58
727.24	268.13
727.57	267.67
727.91	267.17
728.24	266.73
728.57	266.25
728.90	265.80
729.23	265.29
729.56	264.86
729.89	264.41
730.22	263.95
730.55	263.50
730.89	263.10
731.22	262.65
731.55	262.24
731.88	261.80
732.21	261.31
732.54	260.90
732.87	260.47
733.20	260.06
733.53	259.63
733.86	259.22
734.19	258.82
734.52	258.40
734.85	258.06
735.18	257.65
735.51	257.26
735.84	256.91
736.17	256.59
736.50	256.21
736.83	255.98
737.16	255.63
737.49	255.30
737.82	254.94
738.15	254.63
738.48	254.28
738.81	253.96
739.14	253.70
739.47	253.39
739.80	253.08
740.13	252.81
740.46	252.56
740.79	252.29
741.12	251.96
741.45	251.69
741.78	251.39
742.11	251.12
742.44	250.80
742.77	250.52
743.10	250.23
743.43	249.93
743.75	249.56
744.08	249.43
744.41	249.14
744.74	248.86
745.07	248.60
745.40	248.34
745.73	248.12
746.06	247.87
746.39	247.61
746.71	247.35
747.04	247.05
747.37	246.75
747.70	246.48
748.03	246.27
748.36	246.07
748.68	245.83
749.01	245.57
749.34	245.35
749.67	245.10
750.00	244.89
750.33	244.76
750.65	244.52
750.98	244.21
751.31	244.02
751.64	243.83
751.97	243.62
752.29	243.40
752.62	243.17
752.95	242.92
753.28	242.67
753.60	242.43
753.93	242.29
754.26	242.14
754.59	241.91
754.91	241.69
755.24	241.45
755.57	241.21
755.90	241.03
756.22	240.82
756.55	240.64
756.88	240.42
757.20	240.15
757.53	239.95
757.86	239.76
758.19	239.57
758.51	239.36
758.84	239.21
759.17	239.05
759.49	238.87
759.82	238.76
760.15	238.66
760.47	238.56
760.80	238.36
761.13	238.20
761.45	238.06
761.78	237.91
762.11	237.76
762.43	237.63
762.76	237.47
763.08	237.37
763.41	237.26
763.74	237.10
764.06	236.98
764.39	236.85
764.71	236.73
765.04	236.61
765.37	236.48
765.69	236.31
766.02	236.17
766.34	236.03
766.67	235.86
767.00	235.71
767.32	235.64
767.65	235.56
767.97	235.43
768.30	235.32
768.62	235.21
768.95	235.11
769.27	235.01
769.60	234.92
769.92	234.80
770.25	234.66
770.57	234.56
770.90	234.43
771.22	234.33
771.55	234.22
771.87	234.13
772.20	234.03
772.52	233.99
772.85	234.01
773.17	233.93
773.50	233.85
773.82	233.76
774.15	233.62
774.47	233.48
774.80	233.40
775.12	233.32
775.45	233.25
775.77	233.13
776.09	233.05
776.42	232.96
776.74	232.90
777.07	232.81
777.39	232.72
777.72	232.65
778.04	232.58
778.36	232.51
778.69	232.45
779.01	232.38
779.33	232.27
779.66	232.12
779.98	232.00
780.31	231.96
780.63	231.95
780.95	231.92
781.28	231.87
781.60	231.76
781.92	231.69
782.25	231.66
782.57	231.59
782.89	231.54
783.22	231.48
783.54	231.38
783.86	231.33
784.19	231.30
784.51	231.29
784.83	231.23
785.16	231.16
785.48	231.09
785.80	231.06
786.12	231.04
786.45	231.03
786.77	231.04
787.09	230.95
