SpectraSuite Data File
++++++++++++++++++++++++++++++++++++
Date: Fri Feb 01 15:56:52 EST 2013
User: group
Dark Spectrum Present: No
Reference Spectrum Present: No
Number of Sampled Component Spectra: 1
Spectrometers: USB2E7196
Integration Time (usec): 35000 (USB2E7196)
Spectra Averaged: 100 (USB2E7196)
Boxcar Smoothing: 10 (USB2E7196)
Correct for Electrical Dark: No (USB2E7196)
Strobe/Lamp Enabled: No (USB2E7196)
Correct for Detector Non-linearity: No (USB2E7196)
Correct for Stray Light: No (USB2E7196)
Number of Pixels in Processed Spectrum: 2048
>>>>>Begin Processed Spectral Data<<<<<
339.09	0.00
339.48	214.93
339.86	216.70
340.24	217.81
340.63	219.20
341.01	222.16
341.39	221.81
341.78	222.81
342.16	224.62
342.54	224.69
342.93	213.39
343.31	224.14
343.69	224.68
344.07	225.15
344.46	225.56
344.84	225.96
345.22	226.20
345.60	226.47
345.99	226.65
346.37	226.79
346.75	226.88
347.13	226.96
347.52	226.99
347.90	227.07
348.28	227.11
348.66	227.12
349.05	227.06
349.43	227.07
349.81	227.12
350.19	227.21
350.57	227.26
350.96	227.28
351.34	227.37
351.72	227.44
352.10	227.50
352.48	227.59
352.87	227.61
353.25	227.64
353.63	227.67
354.01	227.74
354.39	227.76
354.77	227.87
355.15	227.93
355.54	227.99
355.92	228.00
356.30	228.04
356.68	228.19
357.06	228.26
357.44	228.35
357.82	228.37
358.20	228.38
358.58	228.40
358.97	228.47
359.35	228.57
359.73	228.62
360.11	228.72
360.49	228.73
360.87	228.79
361.25	228.86
361.63	228.93
362.01	228.96
362.39	228.99
362.77	228.99
363.15	229.03
363.53	229.03
363.91	229.05
364.29	229.09
364.67	229.06
365.05	229.07
365.43	229.07
365.81	229.10
366.19	229.13
366.57	229.19
366.95	229.21
367.33	229.18
367.71	229.18
368.09	229.14
368.47	229.13
368.85	229.12
369.23	229.09
369.61	229.01
369.99	229.02
370.37	229.02
370.75	229.04
371.13	228.95
371.51	228.92
371.89	228.90
372.27	228.85
372.65	228.78
373.03	228.76
373.41	228.68
373.78	228.63
374.16	228.54
374.54	228.44
374.92	228.34
375.30	228.26
375.68	228.17
376.06	228.11
376.44	228.05
376.82	228.00
377.19	227.95
377.57	227.90
377.95	227.80
378.33	227.72
378.71	227.62
379.09	227.58
379.47	227.54
379.84	227.47
380.22	227.39
380.60	227.29
380.98	227.22
381.36	227.15
381.73	227.08
382.11	227.04
382.49	226.97
382.87	226.90
383.25	226.87
383.62	226.96
384.00	226.87
384.38	226.79
384.76	226.73
385.13	226.72
385.51	226.69
385.89	226.66
386.27	226.63
386.64	226.59
387.02	226.53
387.40	226.47
387.78	226.46
388.15	226.43
388.53	226.42
388.91	226.38
389.29	226.37
389.66	226.34
390.04	226.30
390.42	226.32
390.79	226.30
391.17	226.30
391.55	226.12
391.92	226.14
392.30	226.18
392.68	226.17
393.05	226.12
393.43	226.13
393.81	226.10
394.18	226.10
394.56	226.13
394.94	226.16
395.31	226.18
395.69	226.20
396.06	226.24
396.44	226.24
396.82	226.25
397.19	226.32
397.57	226.34
397.95	226.41
398.32	226.42
398.70	226.47
399.07	226.50
399.45	226.60
399.82	226.66
400.20	226.70
400.58	226.73
400.95	226.80
401.33	226.91
401.70	227.08
402.08	227.17
402.45	227.26
402.83	227.39
403.20	227.50
403.58	227.59
403.95	227.73
404.33	227.92
404.71	228.10
405.08	228.30
405.46	228.44
405.83	228.60
406.21	228.74
406.58	228.91
406.96	229.08
407.33	229.27
407.70	229.45
408.08	229.73
408.45	229.97
408.83	230.21
409.20	230.39
409.58	230.56
409.95	230.81
410.33	231.08
410.70	231.32
411.08	231.61
411.45	231.93
411.82	232.23
412.20	232.55
412.57	232.95
412.95	233.22
413.32	233.63
413.69	234.05
414.07	234.49
414.44	234.99
414.82	235.49
415.19	236.03
415.56	236.58
415.94	237.12
416.31	237.78
416.68	238.40
417.06	239.10
417.43	239.77
417.81	240.55
418.18	241.33
418.55	242.18
418.93	243.05
419.30	243.96
419.67	244.88
420.04	245.83
420.42	246.82
420.79	248.02
421.16	249.18
421.54	250.37
421.91	251.58
422.28	252.78
422.66	254.09
423.03	255.43
423.40	256.79
423.77	258.20
424.15	259.60
424.52	261.08
424.89	262.69
425.26	264.28
425.64	265.75
426.01	267.31
426.38	268.91
426.75	270.58
427.13	272.28
427.50	274.10
427.87	275.95
428.24	277.85
428.61	279.57
428.99	281.47
429.36	283.55
429.73	285.60
430.10	287.65
430.47	289.68
430.85	291.75
431.22	294.00
431.59	296.36
431.96	298.63
432.33	301.11
432.70	303.48
433.08	306.28
433.45	308.92
433.82	311.55
434.19	314.46
434.56	317.33
434.93	320.01
435.30	322.60
435.68	325.48
436.05	328.28
436.42	331.08
436.79	333.63
437.16	336.33
437.53	339.18
437.90	342.02
438.27	344.83
438.64	347.65
439.01	350.19
439.38	352.40
439.75	354.57
440.13	357.10
440.50	359.41
440.87	361.25
441.24	363.16
441.61	365.32
441.98	366.82
442.35	368.58
442.72	370.40
443.09	372.23
443.46	373.25
443.83	373.82
444.20	374.30
444.57	375.15
444.94	375.44
445.31	375.75
445.68	376.07
446.05	376.12
446.42	375.78
446.79	375.39
447.16	374.94
447.53	374.64
447.90	373.46
448.27	372.36
448.64	370.77
449.01	369.62
449.37	367.67
449.74	365.75
450.11	363.56
450.48	361.10
450.85	358.57
451.22	356.44
451.59	354.40
451.96	352.47
452.33	349.88
452.70	347.50
453.07	344.70
453.43	341.80
453.80	339.02
454.17	336.34
454.54	333.77
454.91	331.04
455.28	328.35
455.65	325.85
456.02	323.39
456.38	321.29
456.75	318.64
457.12	316.39
457.49	314.15
457.86	311.98
458.23	310.11
458.59	308.06
458.96	305.97
459.33	304.12
459.70	302.27
460.07	300.73
460.43	299.03
460.80	297.45
461.17	296.00
461.54	294.54
461.91	293.10
462.27	291.70
462.64	290.49
463.01	289.15
463.38	287.86
463.74	286.47
464.11	285.25
464.48	284.24
464.85	283.15
465.21	282.27
465.58	281.35
465.95	280.27
466.32	279.38
466.68	278.49
467.05	277.64
467.42	276.74
467.78	275.84
468.15	274.97
468.52	274.29
468.88	273.41
469.25	272.65
469.62	272.06
469.98	271.38
470.35	270.75
470.72	270.10
471.08	269.44
471.45	268.89
471.82	268.36
472.18	267.78
472.55	267.33
472.92	266.83
473.28	266.31
473.65	265.88
474.02	265.46
474.38	265.10
474.75	264.76
475.11	264.41
475.48	264.12
475.85	263.88
476.21	263.64
476.58	263.49
476.94	263.32
477.31	263.13
477.67	262.98
478.04	262.86
478.41	262.88
478.77	262.96
479.14	262.90
479.50	262.93
479.87	262.98
480.23	263.05
480.60	263.12
480.96	263.25
481.33	263.46
481.69	263.65
482.06	263.81
482.42	264.01
482.79	264.28
483.15	264.60
483.52	265.03
483.88	265.40
484.25	265.80
484.61	266.26
484.98	266.71
485.34	267.25
485.71	267.83
486.07	268.39
486.44	268.97
486.80	269.69
487.17	270.38
487.53	271.21
487.90	272.08
488.26	273.02
488.62	273.99
488.99	274.93
489.35	275.96
489.72	277.08
490.08	278.29
490.44	279.54
490.81	280.86
491.17	282.17
491.54	283.61
491.90	285.14
492.26	286.79
492.63	288.53
492.99	290.30
493.36	292.20
493.72	294.27
494.08	296.35
494.45	298.60
494.81	301.01
495.17	303.40
495.54	305.94
495.90	308.63
496.26	311.45
496.63	314.39
496.99	317.49
497.35	320.76
497.72	324.14
498.08	327.66
498.44	331.35
498.80	335.29
499.17	339.39
499.53	343.55
499.89	347.91
500.26	352.39
500.62	357.05
500.98	362.04
501.34	367.12
501.71	372.45
502.07	377.88
502.43	383.48
502.79	389.31
503.16	395.36
503.52	401.65
503.88	408.05
504.24	414.73
504.60	421.65
504.97	428.78
505.33	436.13
505.69	443.85
506.05	451.64
506.41	459.53
506.78	467.63
507.14	476.04
507.50	484.72
507.86	493.75
508.22	502.97
508.59	512.20
508.95	521.76
509.31	531.51
509.67	541.62
510.03	551.88
510.39	562.50
510.75	573.30
511.12	584.20
511.48	595.49
511.84	606.96
512.20	618.44
512.56	630.37
512.92	642.55
513.28	654.91
513.64	667.43
514.00	680.19
514.37	693.18
514.73	706.25
515.09	719.30
515.45	732.61
515.81	746.16
516.17	760.11
516.53	774.30
516.89	788.55
517.25	802.71
517.61	817.12
517.97	831.57
518.33	845.98
518.69	860.76
519.05	875.77
519.41	890.88
519.77	906.43
520.13	921.90
520.49	937.24
520.85	952.65
521.21	968.28
521.57	984.43
521.93	1000.08
522.29	1016.54
522.65	1032.82
523.01	1049.02
523.37	1065.11
523.73	1081.23
524.09	1097.17
524.45	1113.49
524.81	1130.22
525.17	1147.09
525.53	1163.89
525.89	1180.80
526.25	1197.68
526.61	1214.12
526.97	1230.91
527.33	1247.38
527.68	1263.99
528.04	1280.43
528.40	1297.00
528.76	1314.09
529.12	1330.63
529.48	1347.60
529.84	1363.51
530.20	1380.09
530.56	1397.00
530.91	1414.32
531.27	1431.10
531.63	1447.61
531.99	1464.02
532.35	1479.79
532.71	1495.65
533.07	1511.95
533.42	1527.62
533.78	1543.47
534.14	1559.65
534.50	1574.86
534.86	1590.64
535.21	1605.79
535.57	1621.74
535.93	1637.17
536.29	1651.83
536.65	1666.80
537.00	1681.48
537.36	1696.86
537.72	1711.27
538.08	1725.73
538.44	1739.40
538.79	1753.18
539.15	1766.79
539.51	1780.47
539.87	1794.84
540.22	1808.59
540.58	1822.31
540.94	1835.76
541.29	1848.62
541.65	1861.20
542.01	1874.35
542.37	1886.69
542.72	1898.95
543.08	1910.69
543.44	1922.93
543.79	1934.19
544.15	1945.15
544.51	1956.70
544.87	1967.68
545.22	1978.50
545.58	1988.61
545.94	1998.40
546.29	2008.33
546.65	2018.21
547.01	2027.52
547.36	2036.15
547.72	2044.53
548.07	2052.25
548.43	2060.37
548.79	2068.47
549.14	2076.01
549.50	2083.64
549.86	2091.39
550.21	2098.74
550.57	2105.82
550.92	2112.34
551.28	2119.43
551.64	2126.64
551.99	2133.14
552.35	2139.22
552.70	2145.39
553.06	2151.56
553.41	2157.91
553.77	2163.83
554.13	2169.93
554.48	2176.02
554.84	2181.50
555.19	2186.82
555.55	2192.04
555.90	2196.59
556.26	2201.37
556.61	2206.13
556.97	2210.12
557.32	2214.13
557.68	2218.26
558.03	2222.66
558.39	2226.53
558.74	2231.15
559.10	2234.94
559.45	2238.56
559.81	2242.74
560.16	2246.52
560.52	2249.60
560.87	2253.10
561.23	2255.88
561.58	2258.75
561.94	2261.32
562.29	2263.74
562.64	2266.33
563.00	2269.00
563.35	2272.46
563.71	2275.71
564.06	2279.06
564.42	2282.10
564.77	2284.73
565.12	2287.01
565.48	2288.84
565.83	2290.63
566.19	2291.93
566.54	2292.83
566.89	2294.01
567.25	2294.71
567.60	2296.03
567.96	2297.80
568.31	2298.53
568.66	2299.60
569.02	2300.10
569.37	2300.30
569.72	2301.04
570.08	2301.23
570.43	2301.21
570.78	2300.46
571.14	2298.83
571.49	2297.26
571.84	2296.88
572.20	2295.74
572.55	2294.70
572.90	2293.10
573.26	2291.82
573.61	2290.27
573.96	2288.51
574.31	2285.52
574.67	2282.55
575.02	2279.00
575.37	2275.67
575.72	2271.90
576.08	2268.51
576.43	2265.35
576.78	2261.82
577.13	2258.72
577.49	2255.64
577.84	2252.17
578.19	2248.55
578.54	2244.89
578.90	2240.71
579.25	2235.03
579.60	2229.87
579.95	2224.83
580.30	2219.94
580.66	2214.72
581.01	2209.66
581.36	2204.70
581.71	2200.55
582.06	2195.97
582.42	2191.42
582.77	2186.10
583.12	2181.57
583.47	2176.92
583.82	2171.93
584.17	2166.70
584.53	2161.18
584.88	2155.54
585.23	2149.74
585.58	2144.27
585.93	2138.99
586.28	2134.28
586.63	2129.32
586.98	2124.51
587.34	2119.83
587.69	2114.86
588.04	2109.65
588.39	2103.92
588.74	2097.41
589.09	2091.25
589.44	2084.52
589.79	2078.69
590.14	2073.02
590.49	2066.49
590.84	2060.07
591.19	2053.91
591.54	2047.34
591.89	2040.04
592.25	2033.22
592.60	2026.06
592.95	2018.64
593.30	2011.16
593.65	2003.56
594.00	1996.55
594.35	1989.12
594.70	1981.04
595.05	1973.84
595.40	1966.54
595.75	1959.08
596.10	1952.87
596.45	1946.23
596.80	1940.04
597.15	1933.32
597.50	1926.27
597.85	1919.79
598.19	1913.15
598.54	1906.09
598.89	1899.49
599.24	1893.65
599.59	1886.94
599.94	1880.75
600.29	1874.35
600.64	1867.87
600.99	1860.44
601.34	1853.59
601.69	1846.72
602.04	1839.88
602.39	1832.53
602.74	1825.71
603.08	1818.92
603.43	1812.27
603.78	1804.85
604.13	1797.67
604.48	1790.25
604.83	1783.36
605.18	1776.28
605.53	1768.28
605.87	1760.25
606.22	1753.08
606.57	1745.13
606.92	1737.91
607.27	1730.67
607.62	1723.74
607.96	1716.47
608.31	1709.79
608.66	1702.10
609.01	1694.48
609.36	1686.97
609.70	1678.99
610.05	1670.84
610.40	1663.16
610.75	1654.82
611.10	1647.24
611.44	1638.79
611.79	1630.81
612.14	1622.09
612.49	1613.00
612.83	1604.69
613.18	1596.57
613.53	1588.49
613.88	1579.83
614.22	1571.52
614.57	1562.95
614.92	1554.84
615.27	1547.11
615.61	1538.74
615.96	1530.81
616.31	1523.23
616.65	1515.86
617.00	1508.28
617.35	1500.67
617.70	1492.41
618.04	1483.93
618.39	1475.71
618.74	1468.19
619.08	1459.96
619.43	1452.50
619.78	1445.64
620.12	1438.44
620.47	1430.96
620.82	1422.80
621.16	1415.55
621.51	1407.94
621.85	1400.36
622.20	1391.84
622.55	1383.68
622.89	1375.86
623.24	1368.26
623.59	1360.84
623.93	1353.26
624.28	1346.07
624.62	1338.63
624.97	1331.38
625.32	1324.66
625.66	1317.61
626.01	1310.35
626.35	1302.90
626.70	1295.14
627.04	1287.45
627.39	1279.63
627.73	1272.27
628.08	1265.31
628.43	1257.94
628.77	1250.53
629.12	1242.91
629.46	1235.88
629.81	1228.45
630.15	1221.28
630.50	1213.76
630.84	1205.61
631.19	1197.69
631.53	1190.17
631.88	1182.63
632.22	1174.99
632.57	1167.67
632.91	1160.11
633.26	1152.70
633.60	1145.41
633.95	1138.33
634.29	1131.35
634.64	1124.67
634.98	1117.25
635.32	1110.14
635.67	1103.59
636.01	1096.95
636.36	1090.21
636.70	1083.56
637.05	1076.95
637.39	1070.43
637.73	1063.95
638.08	1058.11
638.42	1052.14
638.77	1045.70
639.11	1039.03
639.45	1032.74
639.80	1026.03
640.14	1019.65
640.49	1013.16
640.83	1006.84
641.17	1000.57
641.52	994.11
641.86	987.68
642.20	981.83
642.55	975.47
642.89	968.92
643.23	962.47
643.58	956.75
643.92	950.62
644.26	944.55
644.61	938.60
644.95	932.56
645.29	925.91
645.64	919.21
645.98	912.92
646.32	907.09
646.66	901.00
647.01	895.20
647.35	889.50
647.69	883.59
648.04	878.02
648.38	872.14
648.72	866.12
649.06	860.03
649.41	854.17
649.75	848.29
650.09	842.32
650.43	836.53
650.78	830.25
651.12	824.24
651.46	818.46
651.80	812.65
652.14	807.27
652.49	801.86
652.83	796.67
653.17	790.95
653.51	785.26
653.85	779.91
654.20	774.27
654.54	768.26
654.88	762.52
655.22	756.63
655.56	751.04
655.90	745.62
656.25	740.41
656.59	735.06
656.93	730.01
657.27	724.84
657.61	719.34
657.95	714.21
658.29	709.19
658.64	703.96
658.98	698.72
659.32	693.27
659.66	688.10
660.00	682.73
660.34	677.76
660.68	672.81
661.02	667.74
661.36	663.08
661.70	658.62
662.05	654.30
662.39	649.92
662.73	645.41
663.07	641.10
663.41	636.63
663.75	632.14
664.09	627.51
664.43	623.12
664.77	619.04
665.11	614.89
665.45	610.76
665.79	606.70
666.13	602.53
666.47	598.42
666.81	594.27
667.15	590.25
667.49	586.39
667.83	582.63
668.17	578.67
668.51	574.54
668.85	570.49
669.19	566.65
669.53	562.86
669.87	559.02
670.21	555.27
670.55	551.66
670.89	548.24
671.23	544.79
671.57	541.30
671.91	537.74
672.25	534.19
672.58	530.61
672.92	527.19
673.26	524.03
673.60	520.90
673.94	517.81
674.28	514.85
674.62	511.85
674.96	508.68
675.30	505.80
675.64	502.94
675.97	500.13
676.31	497.26
676.65	494.34
676.99	491.65
677.33	488.75
677.67	485.91
678.01	482.88
678.34	479.89
678.68	477.03
679.02	474.19
679.36	471.47
679.70	468.83
680.04	466.09
680.37	463.23
680.71	460.42
681.05	457.79
681.39	455.09
681.73	452.48
682.06	449.97
682.40	447.44
682.74	444.89
683.08	442.39
683.42	439.79
683.75	437.34
684.09	434.73
684.43	432.29
684.77	429.86
685.10	427.48
685.44	425.24
685.78	422.93
686.12	420.71
686.45	418.40
686.79	416.10
687.13	413.94
687.46	411.74
687.80	409.62
688.14	407.41
688.48	405.31
688.81	403.05
689.15	400.91
689.49	398.79
689.82	396.69
690.16	394.60
690.50	392.62
690.83	390.64
691.17	388.66
691.51	386.75
691.84	384.90
692.18	382.92
692.52	380.91
692.85	378.98
693.19	377.08
693.52	375.26
693.86	373.42
694.20	371.61
694.53	369.87
694.87	368.02
695.21	366.25
695.54	364.46
695.88	362.77
696.21	361.07
696.55	359.33
696.88	357.64
697.22	355.98
697.56	354.36
697.89	352.71
698.23	351.12
698.56	349.53
698.90	347.91
699.23	346.32
699.57	344.75
699.90	343.19
700.24	341.65
700.58	340.13
700.91	338.63
701.25	337.16
701.58	335.74
701.92	334.38
702.25	332.96
702.59	331.59
702.92	330.21
703.26	328.90
703.59	327.60
703.93	326.44
704.26	325.18
704.60	323.93
704.93	322.66
705.26	321.38
705.60	320.20
705.93	319.04
706.27	317.99
706.60	316.94
706.94	315.92
707.27	314.82
707.61	313.74
707.94	312.74
708.27	311.67
708.61	310.59
708.94	309.58
709.28	308.64
709.61	307.64
709.94	306.72
710.28	305.71
710.61	304.76
710.95	303.70
711.28	302.82
711.61	301.82
711.95	300.90
712.28	299.94
712.61	298.94
712.95	297.98
713.28	297.16
713.61	296.34
713.95	295.44
714.28	294.62
714.61	293.79
714.95	292.92
715.28	292.07
715.61	291.26
715.95	290.39
716.28	289.50
716.61	288.69
716.95	287.84
717.28	287.09
717.61	286.30
717.94	285.52
718.28	284.70
718.61	283.99
718.94	283.29
719.27	282.67
719.61	282.08
719.94	281.47
720.27	280.68
720.60	279.97
720.94	279.35
721.27	278.75
721.60	278.14
721.93	277.57
722.27	276.98
722.60	276.39
722.93	275.82
723.26	275.31
723.59	274.76
723.93	274.24
724.26	273.69
724.59	273.14
724.92	272.70
725.25	272.20
725.59	271.65
725.92	271.11
726.25	270.61
726.58	270.06
726.91	269.52
727.24	269.07
727.57	268.62
727.91	268.07
728.24	267.58
728.57	267.11
728.90	266.63
729.23	266.17
729.56	265.77
729.89	265.29
730.22	264.82
730.55	264.35
730.89	263.89
731.22	263.46
731.55	263.03
731.88	262.56
732.21	262.14
732.54	261.76
732.87	261.40
733.20	261.00
733.53	260.62
733.86	260.29
734.19	259.85
734.52	259.44
734.85	259.16
735.18	258.72
735.51	258.36
735.84	257.98
736.17	257.63
736.50	257.20
736.83	256.97
737.16	256.61
737.49	256.28
737.82	255.94
738.15	255.58
738.48	255.21
738.81	254.84
739.14	254.47
739.47	254.16
739.80	253.77
740.13	253.45
740.46	253.11
740.79	252.76
741.12	252.50
741.45	252.19
741.78	251.83
742.11	251.55
742.44	251.23
742.77	250.95
743.10	250.61
743.43	250.34
743.75	249.97
744.08	249.86
744.41	249.59
744.74	249.30
745.07	249.00
745.40	248.76
745.73	248.56
746.06	248.31
746.39	248.02
746.71	247.78
747.04	247.49
747.37	247.24
747.70	247.02
748.03	246.75
748.36	246.52
748.68	246.28
749.01	246.04
749.34	245.78
749.67	245.56
750.00	245.35
750.33	245.20
750.65	244.99
750.98	244.61
751.31	244.44
751.64	244.26
751.97	244.13
752.29	243.92
752.62	243.67
752.95	243.44
753.28	243.26
753.60	243.04
753.93	242.87
754.26	242.67
754.59	242.44
754.91	242.24
755.24	242.03
755.57	241.83
755.90	241.65
756.22	241.45
756.55	241.23
756.88	241.05
757.20	240.76
757.53	240.56
757.86	240.40
758.19	240.22
758.51	240.05
758.84	239.85
759.17	239.67
759.49	239.52
759.82	239.40
760.15	239.24
760.47	239.10
760.80	238.92
761.13	238.81
761.45	238.62
761.78	238.51
762.11	238.41
762.43	238.28
762.76	238.12
763.08	238.01
763.41	237.91
763.74	237.83
764.06	237.72
764.39	237.61
764.71	237.45
765.04	237.31
765.37	237.16
765.69	237.03
766.02	236.93
766.34	236.83
766.67	236.69
767.00	236.60
767.32	236.54
767.65	236.51
767.97	236.43
768.30	236.35
768.62	236.20
768.95	236.07
769.27	235.98
769.60	235.90
769.92	235.80
770.25	235.67
770.57	235.53
770.90	235.44
771.22	235.34
771.55	235.28
771.87	235.18
772.20	235.07
772.52	235.07
772.85	235.07
773.17	234.97
773.50	234.86
773.82	234.76
774.15	234.60
774.47	234.44
774.80	234.28
775.12	234.16
775.45	234.09
775.77	233.97
776.09	233.88
776.42	233.77
776.74	233.72
777.07	233.63
777.39	233.53
777.72	233.42
778.04	233.34
778.36	233.24
778.69	233.17
779.01	233.14
779.33	232.95
779.66	232.77
779.98	232.69
780.31	232.67
780.63	232.65
780.95	232.62
781.28	232.57
781.60	232.49
781.92	232.48
782.25	232.37
782.57	232.35
782.89	232.29
783.22	232.25
783.54	232.16
783.86	232.11
784.19	232.05
784.51	232.04
784.83	231.95
785.16	231.90
785.48	231.81
785.80	231.73
786.12	231.69
786.45	231.61
786.77	231.56
787.09	231.46
