SpectraSuite Data File
++++++++++++++++++++++++++++++++++++
Date: Fri Feb 01 18:13:35 EST 2013
User: group
Dark Spectrum Present: No
Reference Spectrum Present: No
Number of Sampled Component Spectra: 1
Spectrometers: USB2E7196
Integration Time (usec): 35000 (USB2E7196)
Spectra Averaged: 100 (USB2E7196)
Boxcar Smoothing: 10 (USB2E7196)
Correct for Electrical Dark: No (USB2E7196)
Strobe/Lamp Enabled: No (USB2E7196)
Correct for Detector Non-linearity: No (USB2E7196)
Correct for Stray Light: No (USB2E7196)
Number of Pixels in Processed Spectrum: 2048
>>>>>Begin Processed Spectral Data<<<<<
339.09	0.00
339.48	213.65
339.86	214.86
340.24	216.21
340.63	218.17
341.01	220.26
341.39	220.12
341.78	221.65
342.16	222.84
342.54	223.03
342.93	211.80
343.31	222.52
343.69	223.04
344.07	223.49
344.46	223.92
344.84	224.27
345.22	224.51
345.60	224.75
345.99	224.94
346.37	225.10
346.75	225.25
347.13	225.32
347.52	225.38
347.90	225.48
348.28	225.47
348.66	225.48
349.05	225.48
349.43	225.54
349.81	225.59
350.19	225.65
350.57	225.70
350.96	225.75
351.34	225.81
351.72	225.89
352.10	226.01
352.48	226.09
352.87	226.16
353.25	226.22
353.63	226.28
354.01	226.34
354.39	226.38
354.77	226.42
355.15	226.52
355.54	226.57
355.92	226.60
356.30	226.65
356.68	226.78
357.06	226.85
357.44	226.88
357.82	226.93
358.20	227.00
358.58	227.03
358.97	227.12
359.35	227.19
359.73	227.27
360.11	227.34
360.49	227.40
360.87	227.43
361.25	227.49
361.63	227.59
362.01	227.65
362.39	227.67
362.77	227.70
363.15	227.73
363.53	227.76
363.91	227.75
364.29	227.81
364.67	227.73
365.05	227.74
365.43	227.80
365.81	227.85
366.19	227.88
366.57	227.92
366.95	227.93
367.33	227.89
367.71	227.88
368.09	227.89
368.47	227.87
368.85	227.85
369.23	227.87
369.61	227.80
369.99	227.78
370.37	227.78
370.75	227.84
371.13	227.80
371.51	227.74
371.89	227.75
372.27	227.71
372.65	227.72
373.03	227.70
373.41	227.64
373.78	227.57
374.16	227.49
374.54	227.45
374.92	227.39
375.30	227.34
375.68	227.30
376.06	227.24
376.44	227.17
376.82	227.14
377.19	227.06
377.57	227.00
377.95	226.92
378.33	226.85
378.71	226.71
379.09	226.70
379.47	226.68
379.84	226.61
380.22	226.57
380.60	226.49
380.98	226.40
381.36	226.33
381.73	226.24
382.11	226.21
382.49	226.13
382.87	226.04
383.25	226.00
383.62	226.04
384.00	225.98
384.38	225.92
384.76	225.92
385.13	225.91
385.51	225.88
385.89	225.84
386.27	225.80
386.64	225.77
387.02	225.68
387.40	225.61
387.78	225.58
388.15	225.54
388.53	225.49
388.91	225.49
389.29	225.47
389.66	225.50
390.04	225.46
390.42	225.47
390.79	225.48
391.17	225.44
391.55	225.33
391.92	225.30
392.30	225.30
392.68	225.23
393.05	225.23
393.43	225.25
393.81	225.28
394.18	225.26
394.56	225.29
394.94	225.33
395.31	225.36
395.69	225.41
396.06	225.47
396.44	225.47
396.82	225.48
397.19	225.56
397.57	225.55
397.95	225.57
398.32	225.56
398.70	225.60
399.07	225.69
399.45	225.74
399.82	225.79
400.20	225.84
400.58	225.93
400.95	225.93
401.33	226.03
401.70	226.15
402.08	226.26
402.45	226.34
402.83	226.51
403.20	226.57
403.58	226.65
403.95	226.76
404.33	226.93
404.71	227.07
405.08	227.26
405.46	227.43
405.83	227.62
406.21	227.81
406.58	228.00
406.96	228.19
407.33	228.43
407.70	228.68
408.08	229.00
408.45	229.26
408.83	229.55
409.20	229.81
409.58	230.04
409.95	230.40
410.33	230.75
410.70	231.03
411.08	231.43
411.45	231.85
411.82	232.27
412.20	232.74
412.57	233.27
412.95	233.67
413.32	234.22
413.69	234.74
414.07	235.31
414.44	235.97
414.82	236.67
415.19	237.39
415.56	238.16
415.94	238.92
416.31	239.80
416.68	240.69
417.06	241.67
417.43	242.66
417.81	243.69
418.18	244.75
418.55	245.91
418.93	247.10
419.30	248.37
419.67	249.68
420.04	251.00
420.42	252.40
420.79	254.04
421.16	255.67
421.54	257.37
421.91	259.09
422.28	260.86
422.66	262.69
423.03	264.50
423.40	266.38
423.77	268.34
424.15	270.35
424.52	272.46
424.89	274.71
425.26	276.91
425.64	278.97
426.01	281.23
426.38	283.60
426.75	285.95
427.13	288.36
427.50	290.94
427.87	293.63
428.24	296.24
428.61	298.72
428.99	301.43
429.36	304.44
429.73	307.35
430.10	310.22
430.47	313.17
430.85	316.23
431.22	319.34
431.59	322.69
431.96	325.85
432.33	329.36
432.70	332.75
433.08	336.66
433.45	340.39
433.82	344.08
434.19	348.15
434.56	352.14
434.93	355.87
435.30	359.54
435.68	363.60
436.05	367.60
436.42	371.57
436.79	375.19
437.16	378.95
437.53	382.95
437.90	386.86
438.27	390.73
438.64	394.65
439.01	398.33
439.38	401.51
439.75	404.54
440.13	408.03
440.50	411.28
440.87	413.92
441.24	416.67
441.61	419.70
441.98	421.76
442.35	424.28
442.72	426.97
443.09	429.52
443.46	430.94
443.83	431.74
444.20	432.45
444.57	433.59
444.94	433.96
445.31	434.46
445.68	434.97
446.05	435.04
446.42	434.52
446.79	433.92
447.16	433.33
447.53	432.89
447.90	431.27
448.27	429.68
448.64	427.44
449.01	425.83
449.37	423.08
449.74	420.45
450.11	417.30
450.48	413.75
450.85	410.16
451.22	407.08
451.59	404.27
451.96	401.51
452.33	397.79
452.70	394.52
453.07	390.50
453.43	386.40
453.80	382.47
454.17	378.71
454.54	375.14
454.91	371.24
455.28	367.49
455.65	363.96
456.02	360.41
456.38	357.37
456.75	353.53
457.12	350.31
457.49	347.15
457.86	344.10
458.23	341.48
458.59	338.61
458.96	335.68
459.33	333.01
459.70	330.40
460.07	328.28
460.43	325.80
460.80	323.49
461.17	321.45
461.54	319.33
461.91	317.29
462.27	315.22
462.64	313.46
463.01	311.52
463.38	309.66
463.74	307.79
464.11	306.14
464.48	304.72
464.85	303.14
465.21	301.90
465.58	300.55
465.95	298.97
466.32	297.65
466.68	296.40
467.05	295.14
467.42	293.85
467.78	292.53
468.15	291.32
468.52	290.40
468.88	289.17
469.25	288.08
469.62	287.20
469.98	286.26
470.35	285.35
470.72	284.49
471.08	283.58
471.45	282.82
471.82	282.05
472.18	281.18
472.55	280.57
472.92	279.80
473.28	279.14
473.65	278.50
474.02	277.84
474.38	277.29
474.75	276.80
475.11	276.25
475.48	275.80
475.85	275.43
476.21	275.05
476.58	274.75
476.94	274.48
477.31	274.15
477.67	273.83
478.04	273.61
478.41	273.45
478.77	273.38
479.14	273.19
479.50	273.10
479.87	273.11
480.23	273.11
480.60	273.12
480.96	273.11
481.33	273.28
481.69	273.45
482.06	273.55
482.42	273.67
482.79	273.91
483.15	274.25
483.52	274.61
483.88	274.89
484.25	275.28
484.61	275.67
484.98	276.11
485.34	276.71
485.71	277.30
486.07	277.93
486.44	278.50
486.80	279.22
487.17	279.98
487.53	280.81
487.90	281.69
488.26	282.65
488.62	283.70
488.99	284.70
489.35	285.77
489.72	286.98
490.08	288.27
490.44	289.57
490.81	290.95
491.17	292.33
491.54	293.93
491.90	295.51
492.26	297.27
492.63	299.12
492.99	301.03
493.36	303.08
493.72	305.27
494.08	307.53
494.45	309.92
494.81	312.46
495.17	315.03
495.54	317.78
495.90	320.67
496.26	323.68
496.63	326.88
496.99	330.26
497.35	333.73
497.72	337.34
498.08	341.12
498.44	345.06
498.80	349.31
499.17	353.67
499.53	358.18
499.89	362.89
500.26	367.72
500.62	372.72
500.98	378.02
501.34	383.45
501.71	389.19
502.07	395.04
502.43	401.03
502.79	407.31
503.16	413.83
503.52	420.60
503.88	427.52
504.24	434.58
504.60	442.00
504.97	449.67
505.33	457.57
505.69	465.88
506.05	474.23
506.41	482.68
506.78	491.45
507.14	500.56
507.50	510.01
507.86	519.75
508.22	529.74
508.59	539.67
508.95	550.00
509.31	560.63
509.67	571.61
510.03	582.84
510.39	594.33
510.75	606.03
511.12	617.88
511.48	630.15
511.84	642.65
512.20	655.09
512.56	668.08
512.92	681.37
513.28	694.85
513.64	708.53
514.00	722.49
514.37	736.58
514.73	750.86
515.09	765.04
515.45	779.57
515.81	794.38
516.17	809.69
516.53	825.26
516.89	840.82
517.25	856.36
517.61	872.18
517.97	888.04
518.33	903.98
518.69	920.33
519.05	936.78
519.41	953.55
519.77	970.82
520.13	987.97
520.49	1005.06
520.85	1022.11
521.21	1039.49
521.57	1057.55
521.93	1075.14
522.29	1093.34
522.65	1111.51
523.01	1129.53
523.37	1147.46
523.73	1165.59
524.09	1183.67
524.45	1201.87
524.81	1220.53
525.17	1239.32
525.53	1258.32
525.89	1277.25
526.25	1296.23
526.61	1314.74
526.97	1333.53
527.33	1352.08
527.68	1370.83
528.04	1389.45
528.40	1408.17
528.76	1427.45
529.12	1446.27
529.48	1465.50
529.84	1483.81
530.20	1502.74
530.56	1522.19
530.91	1542.13
531.27	1561.24
531.63	1579.88
531.99	1598.92
532.35	1617.16
532.71	1635.50
533.07	1654.22
533.42	1672.61
533.78	1691.09
534.14	1709.98
534.50	1727.91
534.86	1746.38
535.21	1764.14
535.57	1782.64
535.93	1800.73
536.29	1818.00
536.65	1835.63
537.00	1852.81
537.36	1870.57
537.72	1887.62
538.08	1904.62
538.44	1920.83
538.79	1937.24
539.15	1953.43
539.51	1969.73
539.87	1986.75
540.22	2003.09
540.58	2019.57
540.94	2035.41
541.29	2050.81
541.65	2066.00
542.01	2081.89
542.37	2096.78
542.72	2111.74
543.08	2126.19
543.44	2141.20
543.79	2155.00
544.15	2168.28
544.51	2182.60
544.87	2196.31
545.22	2209.86
545.58	2222.65
545.94	2234.89
546.29	2247.30
546.65	2259.82
547.01	2271.57
547.36	2282.75
547.72	2293.70
548.07	2303.73
548.43	2314.33
548.79	2324.73
549.14	2334.56
549.50	2344.08
549.86	2354.16
550.21	2363.79
550.57	2373.14
550.92	2382.09
551.28	2391.51
551.64	2400.95
551.99	2409.64
552.35	2417.85
552.70	2426.12
553.06	2434.17
553.41	2442.78
553.77	2450.97
554.13	2459.22
554.48	2467.57
554.84	2475.35
555.19	2482.55
555.55	2489.85
555.90	2496.33
556.26	2503.34
556.61	2510.00
556.97	2516.23
557.32	2522.02
557.68	2527.98
558.03	2534.14
558.39	2539.42
558.74	2546.03
559.10	2551.83
559.45	2557.18
559.81	2563.14
560.16	2568.57
560.52	2573.52
560.87	2578.45
561.23	2582.49
561.58	2586.94
561.94	2590.83
562.29	2594.41
562.64	2598.73
563.00	2602.82
563.35	2607.86
563.71	2612.42
564.06	2617.05
564.42	2621.43
564.77	2625.39
565.12	2629.15
565.48	2632.37
565.83	2635.72
566.19	2638.27
566.54	2640.26
566.89	2642.73
567.25	2644.57
567.60	2647.10
567.96	2650.05
568.31	2652.04
568.66	2654.49
569.02	2656.05
569.37	2657.35
569.72	2659.24
570.08	2660.14
570.43	2660.99
570.78	2661.25
571.14	2660.21
571.49	2659.56
571.84	2659.86
572.20	2659.56
572.55	2659.07
572.90	2658.01
573.26	2657.13
573.61	2655.53
573.96	2654.33
574.31	2651.47
574.67	2648.68
575.02	2645.19
575.37	2641.94
575.72	2638.20
576.08	2634.71
576.43	2631.41
576.78	2627.94
577.13	2624.79
577.49	2621.76
577.84	2618.22
578.19	2614.28
578.54	2610.71
578.90	2606.47
579.25	2600.65
579.60	2595.37
579.95	2590.06
580.30	2584.67
580.66	2579.05
581.01	2573.96
581.36	2568.47
581.71	2564.07
582.06	2559.50
582.42	2554.69
582.77	2548.90
583.12	2543.93
583.47	2539.08
583.82	2533.81
584.17	2528.06
584.53	2522.10
584.88	2515.93
585.23	2509.69
585.58	2503.49
585.93	2497.36
586.28	2491.88
586.63	2486.16
586.98	2480.49
587.34	2475.25
587.69	2469.73
588.04	2463.84
588.39	2457.38
588.74	2450.02
589.09	2443.05
589.44	2435.13
589.79	2428.09
590.14	2421.55
590.49	2414.00
590.84	2406.45
591.19	2399.42
591.54	2391.90
591.89	2383.47
592.25	2375.58
592.60	2367.14
592.95	2358.61
593.30	2350.14
593.65	2341.40
594.00	2333.31
594.35	2324.78
594.70	2315.30
595.05	2307.03
595.40	2298.58
595.75	2289.85
596.10	2282.61
596.45	2274.81
596.80	2267.70
597.15	2260.01
597.50	2251.92
597.85	2244.27
598.19	2236.64
598.54	2228.42
598.89	2220.54
599.24	2213.55
599.59	2205.95
599.94	2198.58
600.29	2191.10
600.64	2183.24
600.99	2174.63
601.34	2166.48
601.69	2158.27
602.04	2150.27
602.39	2141.48
602.74	2133.36
603.08	2125.29
603.43	2117.26
603.78	2108.45
604.13	2099.69
604.48	2091.14
604.83	2082.96
605.18	2074.83
605.53	2065.33
605.87	2055.68
606.22	2047.00
606.57	2037.40
606.92	2028.36
607.27	2019.81
607.62	2011.53
607.96	2002.85
608.31	1994.78
608.66	1985.66
609.01	1976.61
609.36	1967.42
609.70	1957.81
610.05	1948.13
610.40	1938.96
610.75	1928.97
611.10	1919.93
611.44	1909.94
611.79	1900.15
612.14	1889.69
612.49	1878.65
612.83	1868.46
613.18	1858.67
613.53	1848.94
613.88	1838.76
614.22	1828.80
614.57	1818.47
614.92	1808.87
615.27	1799.89
615.61	1790.06
615.96	1780.43
616.31	1771.24
616.65	1762.40
617.00	1753.35
617.35	1744.12
617.70	1734.22
618.04	1724.20
618.39	1714.20
618.74	1705.08
619.08	1695.22
619.43	1686.08
619.78	1677.68
620.12	1669.15
620.47	1660.14
620.82	1650.28
621.16	1641.30
621.51	1632.09
621.85	1622.80
622.20	1612.48
622.55	1602.38
622.89	1592.71
623.24	1583.43
623.59	1574.35
623.93	1565.22
624.28	1556.50
624.62	1547.58
624.97	1538.85
625.32	1530.53
625.66	1522.01
626.01	1513.41
626.35	1504.48
626.70	1495.06
627.04	1485.80
627.39	1476.31
627.73	1467.30
628.08	1458.95
628.43	1450.28
628.77	1441.61
629.12	1432.60
629.46	1423.85
629.81	1414.71
630.15	1406.12
630.50	1397.29
630.84	1387.51
631.19	1378.01
631.53	1368.89
631.88	1359.63
632.22	1350.49
632.57	1341.73
632.91	1332.67
633.26	1323.71
633.60	1314.77
633.95	1306.24
634.29	1297.79
634.64	1289.77
634.98	1281.03
635.32	1272.49
635.67	1264.45
636.01	1256.40
636.36	1248.28
636.70	1240.45
637.05	1232.74
637.39	1224.92
637.73	1217.18
638.08	1210.11
638.42	1202.85
638.77	1195.21
639.11	1187.45
639.45	1179.81
639.80	1171.85
640.14	1164.19
640.49	1156.39
640.83	1148.90
641.17	1141.55
641.52	1134.00
641.86	1126.25
642.20	1119.25
642.55	1111.65
642.89	1103.97
643.23	1096.06
643.58	1089.28
643.92	1082.01
644.26	1074.80
644.61	1067.53
644.95	1060.34
645.29	1052.59
645.64	1044.61
645.98	1037.06
646.32	1030.08
646.66	1022.84
647.01	1016.00
647.35	1009.17
647.69	1002.17
648.04	995.59
648.38	988.70
648.72	981.64
649.06	974.55
649.41	967.53
649.75	960.54
650.09	953.53
650.43	946.67
650.78	939.29
651.12	932.15
651.46	925.42
651.80	918.76
652.14	912.34
652.49	905.92
652.83	899.88
653.17	893.19
653.51	886.40
653.85	880.09
654.20	873.40
654.54	866.34
654.88	859.55
655.22	852.55
655.56	845.78
655.90	839.22
656.25	832.97
656.59	826.61
656.93	820.65
657.27	814.54
657.61	808.13
657.95	802.04
658.29	796.04
658.64	789.74
658.98	783.41
659.32	776.94
659.66	770.86
660.00	764.51
660.34	758.67
660.68	752.74
661.02	746.73
661.36	741.12
661.70	735.81
662.05	730.59
662.39	725.49
662.73	720.22
663.07	715.11
663.41	709.85
663.75	704.53
664.09	699.05
664.43	693.78
664.77	688.97
665.11	684.03
665.45	679.11
665.79	674.30
666.13	669.43
666.47	664.60
666.81	659.72
667.15	654.91
667.49	650.22
667.83	645.79
668.17	641.26
668.51	636.48
668.85	631.71
669.19	627.24
669.53	622.75
669.87	618.18
670.21	613.80
670.55	609.47
670.89	605.44
671.23	601.45
671.57	597.38
671.91	593.22
672.25	589.03
672.58	584.94
672.92	580.92
673.26	577.18
673.60	573.48
673.94	569.80
674.28	566.31
674.62	562.86
674.96	559.22
675.30	555.74
675.64	552.31
675.97	548.98
676.31	545.61
676.65	542.14
676.99	539.03
677.33	535.62
677.67	532.41
678.01	528.88
678.34	525.35
678.68	521.94
679.02	518.61
679.36	515.39
679.70	512.20
680.04	508.95
680.37	505.64
680.71	502.30
681.05	499.21
681.39	496.03
681.73	492.91
682.06	490.01
682.40	487.03
682.74	484.00
683.08	481.04
683.42	478.00
683.75	475.06
684.09	471.97
684.43	469.06
684.77	466.19
685.10	463.40
685.44	460.69
685.78	457.98
686.12	455.29
686.45	452.58
686.79	449.87
687.13	447.30
687.46	444.62
687.80	442.07
688.14	439.39
688.48	436.99
688.81	434.29
689.15	431.67
689.49	429.06
689.82	426.61
690.16	424.14
690.50	421.77
690.83	419.45
691.17	417.08
691.51	414.84
691.84	412.59
692.18	410.31
692.52	407.98
692.85	405.65
693.19	403.45
693.52	401.24
693.86	399.04
694.20	396.82
694.53	394.74
694.87	392.59
695.21	390.49
695.54	388.28
695.88	386.31
696.21	384.29
696.55	382.33
696.88	380.35
697.22	378.36
697.56	376.43
697.89	374.47
698.23	372.62
698.56	370.71
698.90	368.83
699.23	366.91
699.57	365.06
699.90	363.24
700.24	361.39
700.58	359.61
700.91	357.87
701.25	356.22
701.58	354.61
701.92	353.01
702.25	351.39
702.59	349.79
702.92	348.20
703.26	346.61
703.59	345.14
703.93	343.73
704.26	342.31
704.60	340.78
704.93	339.29
705.26	337.83
705.60	336.39
705.93	334.98
706.27	333.74
706.60	332.49
706.94	331.19
707.27	329.86
707.61	328.58
707.94	327.35
708.27	326.02
708.61	324.69
708.94	323.49
709.28	322.29
709.61	321.12
709.94	319.98
710.28	318.79
710.61	317.57
710.95	316.27
711.28	315.13
711.61	314.03
711.95	312.98
712.28	311.83
712.61	310.65
712.95	309.57
713.28	308.46
713.61	307.38
713.95	306.32
714.28	305.30
714.61	304.28
714.95	303.29
715.28	302.30
715.61	301.23
715.95	300.18
716.28	299.17
716.61	298.20
716.95	297.20
717.28	296.26
717.61	295.36
717.94	294.48
718.28	293.53
718.61	292.66
718.94	291.80
719.27	291.02
719.61	290.27
719.94	289.44
720.27	288.60
720.60	287.82
720.94	287.04
721.27	286.32
721.60	285.64
721.93	284.90
722.27	284.25
722.60	283.64
722.93	282.96
723.26	282.36
723.59	281.68
723.93	281.02
724.26	280.39
724.59	279.72
724.92	279.08
725.25	278.51
725.59	277.88
725.92	277.28
726.25	276.63
726.58	276.03
726.91	275.47
727.24	274.94
727.57	274.36
727.91	273.81
728.24	273.26
728.57	272.66
728.90	272.13
729.23	271.56
729.56	271.03
729.89	270.51
730.22	269.91
730.55	269.37
730.89	268.88
731.22	268.34
731.55	267.83
731.88	267.35
732.21	266.84
732.54	266.35
732.87	265.86
733.20	265.43
733.53	264.98
733.86	264.54
734.19	264.07
734.52	263.66
734.85	263.30
735.18	262.82
735.51	262.41
735.84	261.95
736.17	261.54
736.50	261.08
736.83	260.76
737.16	260.37
737.49	259.96
737.82	259.57
738.15	259.18
738.48	258.81
738.81	258.44
739.14	258.08
739.47	257.73
739.80	257.33
740.13	256.98
740.46	256.63
740.79	256.25
741.12	255.90
741.45	255.52
741.78	255.17
742.11	254.85
742.44	254.48
742.77	254.15
743.10	253.80
743.43	253.47
743.75	253.01
744.08	252.80
744.41	252.48
744.74	252.15
745.07	251.82
745.40	251.54
745.73	251.26
746.06	250.93
746.39	250.62
746.71	250.29
747.04	249.93
747.37	249.59
747.70	249.30
748.03	248.99
748.36	248.70
748.68	248.37
749.01	248.05
749.34	247.78
749.67	247.54
750.00	247.27
750.33	247.07
750.65	246.83
750.98	246.43
751.31	246.16
751.64	245.95
751.97	245.76
752.29	245.47
752.62	245.18
752.95	244.91
753.28	244.62
753.60	244.40
753.93	244.23
754.26	244.01
754.59	243.73
754.91	243.48
755.24	243.21
755.57	242.99
755.90	242.76
756.22	242.50
756.55	242.22
756.88	241.95
757.20	241.64
757.53	241.42
757.86	241.22
758.19	241.03
758.51	240.77
758.84	240.51
759.17	240.29
759.49	240.06
759.82	239.94
760.15	239.76
760.47	239.57
760.80	239.33
761.13	239.14
761.45	238.98
761.78	238.80
762.11	238.64
762.43	238.45
762.76	238.28
763.08	238.10
763.41	237.97
763.74	237.80
764.06	237.65
764.39	237.48
764.71	237.32
765.04	237.15
765.37	236.98
765.69	236.81
766.02	236.68
766.34	236.54
766.67	236.34
767.00	236.19
767.32	236.14
767.65	236.08
767.97	235.95
768.30	235.81
768.62	235.68
768.95	235.54
769.27	235.39
769.60	235.29
769.92	235.15
770.25	235.04
770.57	234.95
770.90	234.83
771.22	234.73
771.55	234.63
771.87	234.56
772.20	234.46
772.52	234.46
772.85	234.46
773.17	234.35
773.50	234.27
773.82	234.20
774.15	234.03
774.47	233.89
774.80	233.80
775.12	233.70
775.45	233.62
775.77	233.55
776.09	233.50
776.42	233.44
776.74	233.44
777.07	233.34
777.39	233.27
777.72	233.21
778.04	233.13
778.36	233.04
778.69	232.97
779.01	232.91
779.33	232.76
779.66	232.59
779.98	232.51
780.31	232.41
780.63	232.35
780.95	232.32
781.28	232.23
781.60	232.14
781.92	232.10
782.25	232.05
782.57	231.97
782.89	231.90
783.22	231.81
783.54	231.72
783.86	231.66
784.19	231.57
784.51	231.54
784.83	231.44
785.16	231.39
785.48	231.32
785.80	231.25
786.12	231.21
786.45	231.15
