SpectraSuite Data File
++++++++++++++++++++++++++++++++++++
Date: Fri Feb 01 15:35:19 EST 2013
User: group
Dark Spectrum Present: No
Reference Spectrum Present: No
Number of Sampled Component Spectra: 1
Spectrometers: USB2E7196
Integration Time (usec): 35000 (USB2E7196)
Spectra Averaged: 100 (USB2E7196)
Boxcar Smoothing: 10 (USB2E7196)
Correct for Electrical Dark: No (USB2E7196)
Strobe/Lamp Enabled: No (USB2E7196)
Correct for Detector Non-linearity: No (USB2E7196)
Correct for Stray Light: No (USB2E7196)
Number of Pixels in Processed Spectrum: 2048
>>>>>Begin Processed Spectral Data<<<<<
339.09	0.00
339.48	214.78
339.86	216.66
340.24	218.01
340.63	219.43
341.01	221.17
341.39	221.88
341.78	223.19
342.16	224.63
342.54	224.68
342.93	213.19
343.31	223.94
343.69	224.50
344.07	224.96
344.46	225.35
344.84	225.72
345.22	225.98
345.60	226.20
345.99	226.39
346.37	226.50
346.75	226.63
347.13	226.71
347.52	226.75
347.90	226.84
348.28	226.90
348.66	226.94
349.05	226.96
349.43	227.01
349.81	227.05
350.19	227.08
350.57	227.15
350.96	227.21
351.34	227.31
351.72	227.38
352.10	227.48
352.48	227.55
352.87	227.59
353.25	227.66
353.63	227.74
354.01	227.75
354.39	227.84
354.77	227.88
355.15	227.98
355.54	228.05
355.92	228.07
356.30	228.13
356.68	228.27
357.06	228.36
357.44	228.39
357.82	228.46
358.20	228.57
358.58	228.61
358.97	228.68
359.35	228.75
359.73	228.84
360.11	228.87
360.49	228.94
360.87	228.97
361.25	229.05
361.63	229.12
362.01	229.22
362.39	229.27
362.77	229.31
363.15	229.33
363.53	229.36
363.91	229.39
364.29	229.42
364.67	229.29
365.05	229.29
365.43	229.32
365.81	229.35
366.19	229.38
366.57	229.42
366.95	229.37
367.33	229.32
367.71	229.29
368.09	229.32
368.47	229.29
368.85	229.28
369.23	229.24
369.61	229.19
369.99	229.19
370.37	229.16
370.75	229.16
371.13	229.11
371.51	229.07
371.89	229.05
372.27	228.98
372.65	228.95
373.03	228.88
373.41	228.82
373.78	228.78
374.16	228.63
374.54	228.56
374.92	228.50
375.30	228.45
375.68	228.36
376.06	228.26
376.44	228.20
376.82	228.18
377.19	228.15
377.57	228.04
377.95	227.95
378.33	227.87
378.71	227.72
379.09	227.67
379.47	227.59
379.84	227.49
380.22	227.41
380.60	227.35
380.98	227.27
381.36	227.21
381.73	227.10
382.11	227.06
382.49	226.98
382.87	226.90
383.25	226.85
383.62	226.90
384.00	226.84
384.38	226.79
384.76	226.73
385.13	226.68
385.51	226.65
385.89	226.57
386.27	226.50
386.64	226.48
387.02	226.42
387.40	226.37
387.78	226.33
388.15	226.29
388.53	226.26
388.91	226.23
389.29	226.18
389.66	226.15
390.04	226.11
390.42	226.08
390.79	226.07
391.17	226.03
391.55	225.90
391.92	225.89
392.30	225.91
392.68	225.85
393.05	225.84
393.43	225.84
393.81	225.83
394.18	225.83
394.56	225.84
394.94	225.90
395.31	225.90
395.69	225.96
396.06	226.02
396.44	226.05
396.82	226.07
397.19	226.20
397.57	226.25
397.95	226.33
398.32	226.37
398.70	226.45
399.07	226.55
399.45	226.59
399.82	226.67
400.20	226.71
400.58	226.78
400.95	226.81
401.33	226.92
401.70	227.09
402.08	227.19
402.45	227.30
402.83	227.38
403.20	227.51
403.58	227.62
403.95	227.73
404.33	227.89
404.71	228.03
405.08	228.20
405.46	228.32
405.83	228.48
406.21	228.66
406.58	228.81
406.96	228.98
407.33	229.20
407.70	229.38
408.08	229.66
408.45	229.89
408.83	230.18
409.20	230.36
409.58	230.54
409.95	230.84
410.33	231.10
410.70	231.37
411.08	231.65
411.45	231.95
411.82	232.27
412.20	232.61
412.57	233.06
412.95	233.33
413.32	233.77
413.69	234.19
414.07	234.61
414.44	235.11
414.82	235.61
415.19	236.14
415.56	236.72
415.94	237.29
416.31	237.95
416.68	238.55
417.06	239.30
417.43	240.01
417.81	240.76
418.18	241.55
418.55	242.40
418.93	243.30
419.30	244.19
419.67	245.16
420.04	246.10
420.42	247.08
420.79	248.27
421.16	249.42
421.54	250.64
421.91	251.88
422.28	253.15
422.66	254.45
423.03	255.79
423.40	257.09
423.77	258.49
424.15	259.91
424.52	261.39
424.89	262.99
425.26	264.52
425.64	265.99
426.01	267.63
426.38	269.29
426.75	270.94
427.13	272.67
427.50	274.46
427.87	276.40
428.24	278.30
428.61	280.04
428.99	281.97
429.36	284.04
429.73	286.10
430.10	288.14
430.47	290.21
430.85	292.30
431.22	294.56
431.59	296.92
431.96	299.17
432.33	301.66
432.70	304.04
433.08	306.87
433.45	309.49
433.82	312.12
434.19	314.99
434.56	317.82
434.93	320.47
435.30	323.08
435.68	325.95
436.05	328.77
436.42	331.60
436.79	334.15
437.16	336.83
437.53	339.66
437.90	342.44
438.27	345.14
438.64	348.01
439.01	350.61
439.38	352.84
439.75	354.97
440.13	357.47
440.50	359.81
440.87	361.60
441.24	363.53
441.61	365.65
441.98	367.12
442.35	368.93
442.72	370.81
443.09	372.64
443.46	373.60
443.83	374.15
444.20	374.60
444.57	375.42
444.94	375.69
445.31	376.00
445.68	376.35
446.05	376.46
446.42	376.04
446.79	375.56
447.16	375.11
447.53	374.80
447.90	373.63
448.27	372.49
448.64	370.96
449.01	369.81
449.37	367.83
449.74	365.91
450.11	363.68
450.48	361.22
450.85	358.66
451.22	356.55
451.59	354.55
451.96	352.59
452.33	349.98
452.70	347.65
453.07	344.86
453.43	341.93
453.80	339.15
454.17	336.49
454.54	333.99
454.91	331.26
455.28	328.63
455.65	326.18
456.02	323.70
456.38	321.51
456.75	318.85
457.12	316.63
457.49	314.41
457.86	312.23
458.23	310.35
458.59	308.32
458.96	306.19
459.33	304.33
459.70	302.52
460.07	301.04
460.43	299.30
460.80	297.65
461.17	296.24
461.54	294.72
461.91	293.30
462.27	291.86
462.64	290.64
463.01	289.25
463.38	287.91
463.74	286.59
464.11	285.47
464.48	284.50
464.85	283.36
465.21	282.51
465.58	281.59
465.95	280.51
466.32	279.62
466.68	278.74
467.05	277.85
467.42	276.93
467.78	275.96
468.15	275.10
468.52	274.45
468.88	273.61
469.25	272.87
469.62	272.25
469.98	271.54
470.35	270.91
470.72	270.33
471.08	269.68
471.45	269.14
471.82	268.56
472.18	267.92
472.55	267.50
472.92	266.96
473.28	266.46
473.65	265.98
474.02	265.50
474.38	265.15
474.75	264.82
475.11	264.49
475.48	264.23
475.85	263.99
476.21	263.75
476.58	263.57
476.94	263.42
477.31	263.22
477.67	263.10
478.04	263.00
478.41	262.92
478.77	262.95
479.14	262.89
479.50	262.91
479.87	263.02
480.23	263.13
480.60	263.19
480.96	263.32
481.33	263.53
481.69	263.76
482.06	263.91
482.42	264.13
482.79	264.40
483.15	264.72
483.52	265.12
483.88	265.47
484.25	265.86
484.61	266.29
484.98	266.78
485.34	267.33
485.71	267.88
486.07	268.49
486.44	269.05
486.80	269.74
487.17	270.47
487.53	271.25
487.90	272.07
488.26	272.97
488.62	273.96
488.99	274.96
489.35	275.99
489.72	277.14
490.08	278.33
490.44	279.58
490.81	280.91
491.17	282.26
491.54	283.72
491.90	285.22
492.26	286.83
492.63	288.55
492.99	290.32
493.36	292.26
493.72	294.33
494.08	296.41
494.45	298.67
494.81	301.04
495.17	303.49
495.54	306.02
495.90	308.73
496.26	311.50
496.63	314.47
496.99	317.59
497.35	320.85
497.72	324.25
498.08	327.76
498.44	331.44
498.80	335.38
499.17	339.43
499.53	343.64
499.89	348.01
500.26	352.53
500.62	357.19
500.98	362.13
501.34	367.16
501.71	372.52
502.07	377.97
502.43	383.54
502.79	389.34
503.16	395.47
503.52	401.76
503.88	408.17
504.24	414.83
504.60	421.69
504.97	428.83
505.33	436.15
505.69	443.83
506.05	451.57
506.41	459.36
506.78	467.49
507.14	475.95
507.50	484.73
507.86	493.74
508.22	503.03
508.59	512.23
508.95	521.87
509.31	531.73
509.67	541.82
510.03	552.11
510.39	562.61
510.75	573.42
511.12	584.36
511.48	595.69
511.84	607.10
512.20	618.69
512.56	630.63
512.92	642.78
513.28	655.14
513.64	667.68
514.00	680.45
514.37	693.41
514.73	706.50
515.09	719.49
515.45	732.75
515.81	746.25
516.17	760.26
516.53	774.36
516.89	788.48
517.25	802.67
517.61	817.19
517.97	831.88
518.33	846.28
518.69	861.17
519.05	876.17
519.41	891.34
519.77	906.86
520.13	922.37
520.49	937.76
520.85	953.29
521.21	968.99
521.57	985.22
521.93	1001.16
522.29	1017.60
522.65	1033.86
523.01	1050.24
523.37	1066.36
523.73	1082.53
524.09	1098.65
524.45	1115.00
524.81	1131.72
525.17	1148.57
525.53	1165.26
525.89	1182.07
526.25	1198.75
526.61	1215.11
526.97	1231.94
527.33	1248.35
527.68	1265.02
528.04	1281.59
528.40	1298.18
528.76	1315.28
529.12	1331.95
529.48	1348.76
529.84	1364.87
530.20	1381.53
530.56	1398.50
530.91	1415.93
531.27	1432.69
531.63	1449.16
531.99	1465.76
532.35	1481.60
532.71	1497.41
533.07	1513.85
533.42	1529.90
533.78	1545.94
534.14	1562.39
534.50	1577.72
534.86	1593.75
535.21	1608.93
535.57	1624.74
535.93	1640.20
536.29	1654.99
536.65	1670.10
537.00	1684.79
537.36	1700.05
537.72	1714.68
538.08	1729.11
538.44	1742.94
538.79	1756.97
539.15	1770.67
539.51	1784.45
539.87	1799.03
540.22	1812.84
540.58	1826.57
540.94	1839.96
541.29	1853.04
541.65	1865.70
542.01	1879.04
542.37	1891.31
542.72	1903.70
543.08	1915.51
543.44	1927.95
543.79	1939.23
544.15	1950.21
544.51	1961.88
544.87	1972.75
545.22	1983.50
545.58	1993.62
545.94	2003.39
546.29	2013.19
546.65	2023.07
547.01	2032.42
547.36	2041.04
547.72	2049.47
548.07	2057.25
548.43	2065.34
548.79	2073.37
549.14	2080.95
549.50	2088.19
549.86	2096.08
550.21	2103.42
550.57	2110.58
550.92	2117.16
551.28	2124.26
551.64	2131.31
551.99	2137.79
552.35	2144.09
552.70	2150.18
553.06	2156.35
553.41	2162.60
553.77	2168.59
554.13	2174.77
554.48	2180.77
554.84	2186.19
555.19	2191.54
555.55	2196.76
555.90	2201.29
556.26	2206.07
556.61	2210.71
556.97	2215.01
557.32	2218.94
557.68	2223.05
558.03	2227.57
558.39	2231.34
558.74	2235.92
559.10	2239.82
559.45	2243.47
559.81	2247.70
560.16	2251.71
560.52	2254.88
560.87	2258.50
561.23	2261.29
561.58	2264.09
561.94	2266.73
562.29	2269.16
562.64	2271.81
563.00	2274.45
563.35	2277.89
563.71	2281.13
564.06	2284.39
564.42	2287.26
564.77	2289.73
565.12	2292.06
565.48	2293.97
565.83	2295.78
566.19	2297.11
566.54	2298.09
566.89	2299.22
567.25	2299.89
567.60	2301.15
567.96	2302.71
568.31	2303.44
568.66	2304.43
569.02	2304.98
569.37	2305.13
569.72	2305.92
570.08	2306.08
570.43	2306.07
570.78	2305.52
571.14	2303.84
571.49	2302.43
571.84	2302.04
572.20	2300.93
572.55	2299.80
572.90	2298.22
573.26	2296.81
573.61	2295.05
573.96	2293.15
574.31	2290.29
574.67	2287.06
575.02	2283.16
575.37	2279.84
575.72	2275.93
576.08	2272.56
576.43	2269.21
576.78	2265.50
577.13	2262.36
577.49	2259.21
577.84	2255.69
578.19	2251.98
578.54	2248.33
578.90	2244.01
579.25	2238.47
579.60	2233.50
579.95	2228.41
580.30	2223.27
580.66	2218.00
581.01	2213.02
581.36	2208.06
581.71	2203.71
582.06	2199.40
582.42	2195.05
582.77	2189.64
583.12	2185.07
583.47	2180.27
583.82	2175.07
584.17	2169.76
584.53	2164.12
584.88	2158.39
585.23	2152.51
585.58	2146.87
585.93	2141.47
586.28	2136.77
586.63	2131.66
586.98	2126.46
587.34	2121.64
587.69	2116.66
588.04	2111.29
588.39	2105.50
588.74	2098.88
589.09	2092.69
589.44	2085.83
589.79	2079.79
590.14	2074.21
590.49	2067.59
590.84	2061.28
591.19	2055.40
591.54	2049.08
591.89	2041.61
592.25	2034.78
592.60	2027.48
592.95	2019.90
593.30	2012.41
593.65	2004.65
594.00	1997.58
594.35	1990.28
594.70	1982.18
595.05	1974.83
595.40	1967.54
595.75	1960.00
596.10	1953.79
596.45	1946.99
596.80	1940.66
597.15	1933.89
597.50	1926.66
597.85	1920.16
598.19	1913.32
598.54	1906.18
598.89	1899.52
599.24	1893.70
599.59	1886.93
599.94	1880.78
600.29	1874.34
600.64	1867.68
600.99	1860.21
601.34	1853.22
601.69	1846.29
602.04	1839.48
602.39	1832.25
602.74	1825.43
603.08	1818.68
603.43	1812.00
603.78	1804.74
604.13	1797.61
604.48	1790.22
604.83	1783.51
605.18	1776.48
605.53	1768.55
605.87	1760.40
606.22	1752.96
606.57	1744.93
606.92	1737.69
607.27	1730.42
607.62	1723.52
607.96	1716.31
608.31	1709.66
608.66	1702.02
609.01	1694.37
609.36	1686.76
609.70	1678.65
610.05	1670.40
610.40	1662.73
610.75	1654.36
611.10	1646.67
611.44	1638.25
611.79	1630.40
612.14	1621.70
612.49	1612.61
612.83	1604.24
613.18	1596.23
613.53	1588.27
613.88	1579.73
614.22	1571.38
614.57	1562.88
614.92	1554.88
615.27	1547.21
615.61	1538.79
615.96	1530.74
616.31	1523.27
616.65	1515.88
617.00	1508.34
617.35	1500.79
617.70	1492.44
618.04	1484.02
618.39	1475.68
618.74	1468.05
619.08	1459.67
619.43	1452.03
619.78	1445.15
620.12	1437.84
620.47	1430.27
620.82	1422.06
621.16	1414.71
621.51	1407.23
621.85	1399.58
622.20	1390.91
622.55	1382.63
622.89	1374.97
623.24	1367.49
623.59	1360.06
623.93	1352.54
624.28	1345.30
624.62	1337.80
624.97	1330.62
625.32	1323.81
625.66	1316.85
626.01	1309.56
626.35	1302.14
626.70	1294.37
627.04	1286.52
627.39	1278.87
627.73	1271.51
628.08	1264.56
628.43	1257.08
628.77	1249.62
629.12	1242.04
629.46	1234.91
629.81	1227.48
630.15	1220.19
630.50	1212.76
630.84	1204.49
631.19	1196.67
631.53	1189.16
631.88	1181.63
632.22	1173.96
632.57	1166.65
632.91	1159.11
633.26	1151.78
633.60	1144.41
633.95	1137.37
634.29	1130.43
634.64	1123.70
634.98	1116.33
635.32	1109.19
635.67	1102.79
636.01	1096.09
636.36	1089.25
636.70	1082.78
637.05	1076.18
637.39	1069.70
637.73	1063.06
638.08	1057.23
638.42	1051.15
638.77	1044.68
639.11	1038.12
639.45	1031.76
639.80	1025.03
640.14	1018.52
640.49	1011.95
640.83	1005.65
641.17	999.36
641.52	992.96
641.86	986.55
642.20	980.62
642.55	974.27
642.89	967.66
643.23	961.19
643.58	955.50
643.92	949.32
644.26	943.26
644.61	937.36
644.95	931.36
645.29	924.75
645.64	918.01
645.98	911.66
646.32	905.75
646.66	899.72
647.01	893.95
647.35	888.30
647.69	882.54
648.04	877.06
648.38	871.34
648.72	865.34
649.06	859.22
649.41	853.43
649.75	847.49
650.09	841.59
650.43	835.78
650.78	829.58
651.12	823.62
651.46	817.98
651.80	812.12
652.14	806.72
652.49	801.41
652.83	796.31
653.17	790.68
653.51	785.10
653.85	779.76
654.20	774.20
654.54	768.24
654.88	762.52
655.22	756.62
655.56	750.88
655.90	745.50
656.25	740.34
656.59	735.03
656.93	729.94
657.27	724.78
657.61	719.37
657.95	714.25
658.29	709.15
658.64	703.89
658.98	698.58
659.32	693.15
659.66	687.91
660.00	682.52
660.34	677.56
660.68	672.63
661.02	667.56
661.36	662.78
661.70	658.28
662.05	653.90
662.39	649.59
662.73	645.17
663.07	640.82
663.41	636.37
663.75	631.78
664.09	627.30
664.43	622.91
664.77	618.79
665.11	614.54
665.45	610.43
665.79	606.36
666.13	602.29
666.47	598.24
666.81	594.08
667.15	590.08
667.49	586.20
667.83	582.31
668.17	578.38
668.51	574.34
668.85	570.31
669.19	566.47
669.53	562.58
669.87	558.64
670.21	554.91
670.55	551.29
670.89	547.86
671.23	544.39
671.57	540.92
671.91	537.42
672.25	534.03
672.58	530.47
672.92	527.03
673.26	523.85
673.60	520.70
673.94	517.60
674.28	514.61
674.62	511.66
674.96	508.53
675.30	505.62
675.64	502.66
675.97	499.92
676.31	497.09
676.65	494.17
676.99	491.51
677.33	488.59
677.67	485.70
678.01	482.75
678.34	479.76
678.68	476.86
679.02	474.02
679.36	471.20
679.70	468.51
680.04	465.80
680.37	462.89
680.71	460.06
681.05	457.43
681.39	454.74
681.73	452.07
682.06	449.55
682.40	447.02
682.74	444.53
683.08	441.97
683.42	439.30
683.75	436.81
684.09	434.27
684.43	431.86
684.77	429.46
685.10	427.04
685.44	424.80
685.78	422.52
686.12	420.25
686.45	418.03
686.79	415.70
687.13	413.50
687.46	411.41
687.80	409.29
688.14	407.10
688.48	405.05
688.81	402.80
689.15	400.68
689.49	398.55
689.82	396.44
690.16	394.32
690.50	392.47
690.83	390.50
691.17	388.50
691.51	386.58
691.84	384.69
692.18	382.74
692.52	380.71
692.85	378.78
693.19	376.93
693.52	375.10
693.86	373.37
694.20	371.61
694.53	369.77
694.87	367.96
695.21	366.20
695.54	364.37
695.88	362.69
696.21	360.97
696.55	359.31
696.88	357.66
697.22	356.05
697.56	354.32
697.89	352.69
698.23	351.10
698.56	349.52
698.90	347.93
699.23	346.32
699.57	344.80
699.90	343.27
700.24	341.72
700.58	340.14
700.91	338.62
701.25	337.19
701.58	335.85
701.92	334.48
702.25	333.06
702.59	331.64
702.92	330.35
703.26	329.04
703.59	327.73
703.93	326.54
704.26	325.32
704.60	324.09
704.93	322.83
705.26	321.61
705.60	320.41
705.93	319.27
706.27	318.25
706.60	317.21
706.94	316.13
707.27	315.00
707.61	313.93
707.94	312.91
708.27	311.78
708.61	310.67
708.94	309.64
709.28	308.67
709.61	307.78
709.94	306.78
710.28	305.75
710.61	304.77
710.95	303.67
711.28	302.75
711.61	301.75
711.95	300.83
712.28	299.84
712.61	298.87
712.95	297.94
713.28	297.03
713.61	296.11
713.95	295.21
714.28	294.40
714.61	293.56
714.95	292.69
715.28	291.86
715.61	290.97
715.95	290.10
716.28	289.23
716.61	288.41
716.95	287.61
717.28	286.88
717.61	286.10
717.94	285.38
718.28	284.56
718.61	283.85
718.94	283.12
719.27	282.48
719.61	281.83
719.94	281.18
720.27	280.47
720.60	279.82
720.94	279.18
721.27	278.58
721.60	277.97
721.93	277.41
722.27	276.86
722.60	276.34
722.93	275.80
723.26	275.28
723.59	274.69
723.93	274.15
724.26	273.59
724.59	273.08
724.92	272.58
725.25	272.08
725.59	271.58
725.92	271.11
726.25	270.63
726.58	270.18
726.91	269.70
727.24	269.26
727.57	268.80
727.91	268.32
728.24	267.84
728.57	267.37
728.90	266.90
729.23	266.42
729.56	265.97
729.89	265.50
730.22	265.05
730.55	264.59
730.89	264.16
731.22	263.74
731.55	263.29
731.88	262.84
732.21	262.40
732.54	261.96
732.87	261.51
733.20	261.08
733.53	260.66
733.86	260.27
734.19	259.87
734.52	259.46
734.85	259.17
735.18	258.77
735.51	258.41
735.84	258.05
736.17	257.70
736.50	257.34
736.83	257.07
737.16	256.69
737.49	256.37
737.82	256.01
738.15	255.65
738.48	255.30
738.81	254.99
739.14	254.68
739.47	254.39
739.80	254.08
740.13	253.77
740.46	253.45
740.79	253.12
741.12	252.81
741.45	252.52
741.78	252.13
742.11	251.88
742.44	251.55
742.77	251.28
743.10	250.97
743.43	250.63
743.75	250.28
744.08	250.13
744.41	249.85
744.74	249.57
745.07	249.31
745.40	249.08
745.73	248.81
746.06	248.55
746.39	248.31
746.71	248.04
747.04	247.74
747.37	247.47
747.70	247.23
748.03	246.92
748.36	246.68
748.68	246.45
749.01	246.17
749.34	245.97
749.67	245.69
750.00	245.47
750.33	245.32
750.65	245.11
750.98	244.78
751.31	244.52
751.64	244.36
751.97	244.22
752.29	244.01
752.62	243.77
752.95	243.53
753.28	243.29
753.60	243.11
753.93	242.97
754.26	242.76
754.59	242.52
754.91	242.37
755.24	242.19
755.57	242.02
755.90	241.83
756.22	241.59
756.55	241.40
756.88	241.21
757.20	240.97
757.53	240.78
757.86	240.61
758.19	240.44
758.51	240.24
758.84	240.00
759.17	239.82
759.49	239.69
759.82	239.60
760.15	239.44
760.47	239.26
760.80	239.08
761.13	239.00
761.45	238.84
761.78	238.71
762.11	238.51
762.43	238.35
762.76	238.22
763.08	238.10
763.41	238.01
763.74	237.88
764.06	237.74
764.39	237.58
764.71	237.42
765.04	237.31
765.37	237.18
765.69	237.06
766.02	236.94
766.34	236.79
766.67	236.63
767.00	236.54
767.32	236.49
767.65	236.45
767.97	236.32
768.30	236.23
768.62	236.11
768.95	236.03
769.27	235.92
769.60	235.80
769.92	235.69
770.25	235.56
770.57	235.45
770.90	235.38
771.22	235.29
771.55	235.23
771.87	235.14
772.20	235.01
772.52	234.96
772.85	234.96
773.17	234.90
773.50	234.81
773.82	234.70
774.15	234.55
774.47	234.40
774.80	234.31
775.12	234.23
775.45	234.15
775.77	234.09
776.09	234.01
776.42	233.92
776.74	233.86
777.07	233.78
777.39	233.73
777.72	233.64
778.04	233.57
778.36	233.49
778.69	233.44
779.01	233.42
779.33	233.31
779.66	233.15
779.98	233.07
780.31	233.02
780.63	232.99
780.95	232.96
781.28	232.89
781.60	232.78
781.92	232.71
782.25	232.68
782.57	232.64
782.89	232.58
783.22	232.51
783.54	232.44
783.86	232.36
784.19	232.28
784.51	232.24
784.83	232.21
785.16	232.14
785.48	232.07
785.80	232.03
786.12	231.96
786.45	231.93
786.77	231.87
787.09	231.81
