SpectraSuite Data File
++++++++++++++++++++++++++++++++++++
Date: Fri Feb 01 18:03:05 EST 2013
User: group
Dark Spectrum Present: No
Reference Spectrum Present: No
Number of Sampled Component Spectra: 1
Spectrometers: USB2E7196
Integration Time (usec): 35000 (USB2E7196)
Spectra Averaged: 100 (USB2E7196)
Boxcar Smoothing: 10 (USB2E7196)
Correct for Electrical Dark: No (USB2E7196)
Strobe/Lamp Enabled: No (USB2E7196)
Correct for Detector Non-linearity: No (USB2E7196)
Correct for Stray Light: No (USB2E7196)
Number of Pixels in Processed Spectrum: 2048
>>>>>Begin Processed Spectral Data<<<<<
339.09	0.00
339.48	212.11
339.86	214.89
340.24	216.11
340.63	217.43
341.01	220.50
341.39	220.16
341.78	221.54
342.16	222.44
342.54	222.61
342.93	211.44
343.31	222.13
343.69	222.71
344.07	223.18
344.46	223.59
344.84	223.98
345.22	224.22
345.60	224.46
345.99	224.63
346.37	224.76
346.75	224.87
347.13	224.94
347.52	225.01
347.90	225.11
348.28	225.13
348.66	225.17
349.05	225.13
349.43	225.21
349.81	225.27
350.19	225.31
350.57	225.38
350.96	225.46
351.34	225.55
351.72	225.66
352.10	225.75
352.48	225.81
352.87	225.83
353.25	225.90
353.63	225.94
354.01	226.02
354.39	226.11
354.77	226.17
355.15	226.25
355.54	226.32
355.92	226.28
356.30	226.35
356.68	226.47
357.06	226.56
357.44	226.59
357.82	226.64
358.20	226.72
358.58	226.78
358.97	226.85
359.35	226.89
359.73	226.94
360.11	226.97
360.49	227.04
360.87	227.08
361.25	227.17
361.63	227.26
362.01	227.32
362.39	227.33
362.77	227.40
363.15	227.46
363.53	227.50
363.91	227.55
364.29	227.61
364.67	227.55
365.05	227.55
365.43	227.60
365.81	227.64
366.19	227.68
366.57	227.71
366.95	227.69
367.33	227.69
367.71	227.67
368.09	227.69
368.47	227.67
368.85	227.66
369.23	227.60
369.61	227.52
369.99	227.51
370.37	227.51
370.75	227.54
371.13	227.47
371.51	227.41
371.89	227.41
372.27	227.32
372.65	227.26
373.03	227.25
373.41	227.17
373.78	227.10
374.16	226.98
374.54	226.87
374.92	226.80
375.30	226.75
375.68	226.70
376.06	226.62
376.44	226.55
376.82	226.49
377.19	226.41
377.57	226.37
377.95	226.29
378.33	226.19
378.71	226.06
379.09	226.02
379.47	225.97
379.84	225.90
380.22	225.84
380.60	225.77
380.98	225.66
381.36	225.59
381.73	225.50
382.11	225.51
382.49	225.46
382.87	225.41
383.25	225.32
383.62	225.40
384.00	225.36
384.38	225.33
384.76	225.32
385.13	225.30
385.51	225.28
385.89	225.20
386.27	225.18
386.64	225.15
387.02	225.10
387.40	225.07
387.78	225.03
388.15	225.03
388.53	225.03
388.91	225.05
389.29	225.03
389.66	225.06
390.04	225.04
390.42	225.05
390.79	225.05
391.17	225.06
391.55	224.91
391.92	224.87
392.30	224.90
392.68	224.88
393.05	224.89
393.43	224.90
393.81	224.91
394.18	224.93
394.56	224.94
394.94	224.97
395.31	224.95
395.69	225.00
396.06	225.04
396.44	225.07
396.82	225.06
397.19	225.17
397.57	225.20
397.95	225.27
398.32	225.30
398.70	225.36
399.07	225.42
399.45	225.51
399.82	225.58
400.20	225.63
400.58	225.70
400.95	225.76
401.33	225.84
401.70	225.99
402.08	226.03
402.45	226.15
402.83	226.29
403.20	226.43
403.58	226.53
403.95	226.64
404.33	226.78
404.71	226.97
405.08	227.14
405.46	227.27
405.83	227.44
406.21	227.60
406.58	227.76
406.96	227.98
407.33	228.20
407.70	228.43
408.08	228.74
408.45	229.02
408.83	229.30
409.20	229.56
409.58	229.79
409.95	230.14
410.33	230.46
410.70	230.78
411.08	231.17
411.45	231.56
411.82	231.98
412.20	232.47
412.57	232.97
412.95	233.37
413.32	233.88
413.69	234.39
414.07	235.00
414.44	235.63
414.82	236.25
415.19	236.96
415.56	237.73
415.94	238.46
416.31	239.31
416.68	240.13
417.06	241.11
417.43	242.04
417.81	243.08
418.18	244.11
418.55	245.26
418.93	246.41
419.30	247.64
419.67	248.92
420.04	250.18
420.42	251.50
420.79	253.08
421.16	254.66
421.54	256.27
421.91	257.90
422.28	259.61
422.66	261.40
423.03	263.13
423.40	264.92
423.77	266.81
424.15	268.74
424.52	270.76
424.89	272.94
425.26	275.06
425.64	277.06
426.01	279.21
426.38	281.45
426.75	283.71
427.13	286.03
427.50	288.49
427.87	291.04
428.24	293.58
428.61	295.99
428.99	298.63
429.36	301.51
429.73	304.35
430.10	307.07
430.47	309.85
430.85	312.76
431.22	315.76
431.59	318.96
431.96	322.00
432.33	325.36
432.70	328.58
433.08	332.37
433.45	335.89
433.82	339.41
434.19	343.31
434.56	347.10
434.93	350.68
435.30	354.20
435.68	358.12
436.05	361.95
436.42	365.75
436.79	369.15
437.16	372.76
437.53	376.56
437.90	380.40
438.27	384.13
438.64	387.94
439.01	391.47
439.38	394.47
439.75	397.37
440.13	400.79
440.50	403.95
440.87	406.47
441.24	409.14
441.61	412.09
441.98	414.16
442.35	416.67
442.72	419.27
443.09	421.73
443.46	423.11
443.83	423.92
444.20	424.56
444.57	425.75
444.94	426.19
445.31	426.62
445.68	427.06
446.05	427.19
446.42	426.71
446.79	426.12
447.16	425.60
447.53	425.19
447.90	423.58
448.27	421.99
448.64	419.86
449.01	418.30
449.37	415.60
449.74	412.98
450.11	409.88
450.48	406.47
450.85	403.03
451.22	400.10
451.59	397.35
451.96	394.71
452.33	391.14
452.70	387.93
453.07	384.10
453.43	380.17
453.80	376.40
454.17	372.79
454.54	369.35
454.91	365.68
455.28	362.07
455.65	358.70
456.02	355.32
456.38	352.39
456.75	348.76
457.12	345.69
457.49	342.66
457.86	339.70
458.23	337.12
458.59	334.31
458.96	331.47
459.33	328.95
459.70	326.44
460.07	324.33
460.43	321.96
460.80	319.74
461.17	317.77
461.54	315.72
461.91	313.72
462.27	311.75
462.64	309.98
463.01	308.11
463.38	306.31
463.74	304.48
464.11	302.87
464.48	301.44
464.85	299.94
465.21	298.70
465.58	297.43
465.95	295.99
466.32	294.78
466.68	293.51
467.05	292.26
467.42	291.03
467.78	289.79
468.15	288.59
468.52	287.67
468.88	286.50
469.25	285.40
469.62	284.55
469.98	283.60
470.35	282.72
470.72	281.89
471.08	280.96
471.45	280.22
471.82	279.45
472.18	278.58
472.55	278.01
472.92	277.33
473.28	276.68
473.65	276.04
474.02	275.40
474.38	274.89
474.75	274.40
475.11	273.89
475.48	273.52
475.85	273.20
476.21	272.83
476.58	272.52
476.94	272.31
477.31	272.04
477.67	271.78
478.04	271.57
478.41	271.41
478.77	271.41
479.14	271.29
479.50	271.25
479.87	271.34
480.23	271.32
480.60	271.34
480.96	271.40
481.33	271.56
481.69	271.72
482.06	271.84
482.42	272.03
482.79	272.25
483.15	272.54
483.52	272.88
483.88	273.24
484.25	273.62
484.61	274.03
484.98	274.48
485.34	275.08
485.71	275.68
486.07	276.36
486.44	276.90
486.80	277.63
487.17	278.40
487.53	279.22
487.90	280.10
488.26	281.04
488.62	282.07
488.99	283.09
489.35	284.19
489.72	285.38
490.08	286.61
490.44	287.90
490.81	289.28
491.17	290.73
491.54	292.27
491.90	293.89
492.26	295.66
492.63	297.47
492.99	299.30
493.36	301.29
493.72	303.45
494.08	305.69
494.45	308.03
494.81	310.50
495.17	313.06
495.54	315.80
495.90	318.62
496.26	321.56
496.63	324.70
496.99	327.99
497.35	331.46
497.72	335.10
498.08	338.83
498.44	342.72
498.80	346.85
499.17	351.10
499.53	355.50
499.89	360.10
500.26	364.89
500.62	369.85
500.98	375.13
501.34	380.50
501.71	386.15
502.07	391.95
502.43	397.86
502.79	404.03
503.16	410.43
503.52	417.12
503.88	423.94
504.24	430.93
504.60	438.20
504.97	445.74
505.33	453.47
505.69	461.68
506.05	469.96
506.41	478.34
506.78	487.05
507.14	496.10
507.50	505.40
507.86	515.04
508.22	524.85
508.59	534.66
508.95	544.89
509.31	555.38
509.67	566.17
510.03	577.23
510.39	588.53
510.75	600.05
511.12	611.76
511.48	623.91
511.84	636.29
512.20	648.68
512.56	661.60
512.92	674.70
513.28	687.97
513.64	701.41
514.00	715.10
514.37	729.01
514.73	743.03
515.09	757.09
515.45	771.44
515.81	786.16
516.17	801.28
516.53	816.53
516.89	831.87
517.25	847.22
517.61	862.77
517.97	878.50
518.33	894.28
518.69	910.31
519.05	926.53
519.41	943.03
519.77	959.90
520.13	976.65
520.49	993.52
520.85	1010.20
521.21	1027.38
521.57	1045.14
521.93	1062.38
522.29	1080.29
522.65	1098.20
523.01	1115.88
523.37	1133.45
523.73	1151.24
524.09	1168.95
524.45	1186.98
524.81	1205.33
525.17	1223.83
525.53	1242.37
525.89	1261.02
526.25	1279.68
526.61	1297.97
526.97	1316.50
527.33	1334.80
527.68	1353.29
528.04	1371.52
528.40	1390.06
528.76	1408.99
529.12	1427.38
529.48	1446.26
529.84	1464.18
530.20	1482.62
530.56	1501.61
530.91	1521.05
531.27	1539.82
531.63	1558.28
531.99	1576.89
532.35	1594.87
532.71	1612.96
533.07	1631.39
533.42	1649.45
533.78	1667.60
534.14	1685.85
534.50	1703.23
534.86	1721.21
535.21	1738.46
535.57	1756.56
535.93	1774.31
536.29	1791.23
536.65	1808.50
537.00	1825.28
537.36	1842.91
537.72	1859.66
538.08	1876.36
538.44	1892.38
538.79	1908.53
539.15	1924.40
539.51	1940.28
539.87	1956.95
540.22	1972.77
540.58	1988.87
540.94	2004.32
541.29	2019.33
541.65	2034.34
542.01	2049.82
542.37	2064.51
542.72	2079.19
543.08	2093.25
543.44	2108.00
543.79	2121.69
544.15	2134.83
544.51	2148.92
544.87	2162.09
545.22	2175.23
545.58	2187.63
545.94	2199.51
546.29	2211.53
546.65	2223.58
547.01	2235.02
547.36	2245.86
547.72	2256.58
548.07	2266.48
548.43	2276.68
548.79	2286.88
549.14	2296.41
549.50	2305.86
549.86	2315.52
550.21	2324.93
550.57	2334.14
550.92	2342.68
551.28	2351.55
551.64	2360.78
551.99	2369.15
552.35	2377.25
552.70	2385.24
553.06	2393.26
553.41	2401.65
553.77	2409.54
554.13	2417.54
554.48	2425.74
554.84	2433.16
555.19	2440.20
555.55	2447.25
555.90	2453.61
556.26	2460.33
556.61	2466.86
556.97	2473.09
557.32	2478.96
557.68	2484.75
558.03	2490.84
558.39	2496.05
558.74	2502.56
559.10	2507.95
559.45	2513.21
559.81	2519.06
560.16	2524.42
560.52	2529.12
560.87	2534.04
561.23	2538.09
561.58	2542.46
561.94	2546.22
562.29	2549.67
562.64	2553.93
563.00	2557.68
563.35	2562.57
563.71	2567.05
564.06	2571.71
564.42	2575.77
564.77	2579.56
565.12	2583.25
565.48	2586.35
565.83	2589.44
566.19	2591.95
566.54	2593.90
566.89	2596.20
567.25	2597.85
567.60	2600.30
567.96	2603.17
568.31	2604.93
568.66	2607.08
569.02	2608.55
569.37	2609.74
569.72	2611.71
570.08	2612.50
570.43	2613.39
570.78	2613.53
571.14	2612.56
571.49	2611.61
571.84	2611.91
572.20	2611.52
572.55	2610.89
572.90	2609.61
573.26	2608.78
573.61	2607.20
573.96	2605.99
574.31	2603.28
574.67	2600.66
575.02	2597.17
575.37	2593.81
575.72	2590.15
576.08	2586.98
576.43	2583.88
576.78	2580.34
577.13	2577.12
577.49	2574.14
577.84	2570.65
578.19	2566.69
578.54	2563.09
578.90	2559.08
579.25	2553.10
579.60	2547.79
579.95	2542.69
580.30	2537.52
580.66	2532.05
581.01	2526.80
581.36	2521.60
581.71	2517.21
582.06	2512.57
582.42	2507.82
582.77	2502.40
583.12	2497.43
583.47	2492.45
583.82	2487.04
584.17	2481.45
584.53	2475.56
584.88	2469.46
585.23	2463.30
585.58	2457.51
585.93	2451.43
586.28	2446.00
586.63	2440.71
586.98	2435.07
587.34	2429.76
587.69	2424.21
588.04	2418.49
588.39	2412.40
588.74	2405.15
589.09	2398.27
589.44	2390.52
589.79	2383.69
590.14	2377.27
590.49	2369.98
590.84	2362.70
591.19	2356.01
591.54	2348.61
591.89	2340.43
592.25	2332.86
592.60	2324.60
592.95	2316.05
593.30	2307.84
593.65	2299.14
594.00	2291.03
594.35	2282.63
594.70	2273.42
595.05	2265.57
595.40	2257.16
595.75	2248.37
596.10	2241.31
596.45	2233.64
596.80	2226.61
597.15	2219.06
597.50	2211.03
597.85	2203.67
598.19	2196.13
598.54	2188.12
598.89	2180.46
599.24	2173.66
599.59	2165.93
599.94	2158.82
600.29	2151.44
600.64	2143.73
600.99	2135.30
601.34	2127.54
601.69	2119.59
602.04	2111.73
602.39	2103.08
602.74	2095.24
603.08	2087.49
603.43	2079.70
603.78	2071.10
604.13	2062.81
604.48	2054.38
604.83	2046.27
605.18	2038.34
605.53	2029.05
605.87	2019.48
606.22	2011.09
606.57	2001.73
606.92	1993.05
607.27	1984.67
607.62	1976.61
607.96	1968.19
608.31	1960.42
608.66	1951.38
609.01	1942.70
609.36	1933.76
609.70	1924.36
610.05	1914.92
610.40	1905.91
610.75	1896.10
611.10	1887.09
611.44	1877.08
611.79	1867.71
612.14	1857.50
612.49	1846.48
612.83	1836.48
613.18	1826.97
613.53	1817.45
613.88	1807.45
614.22	1797.84
614.57	1787.58
614.92	1778.00
615.27	1769.18
615.61	1759.33
615.96	1749.81
616.31	1740.67
616.65	1732.06
617.00	1723.19
617.35	1713.98
617.70	1704.33
618.04	1694.37
618.39	1684.73
618.74	1675.83
619.08	1666.00
619.43	1657.11
619.78	1648.97
620.12	1640.54
620.47	1631.58
620.82	1621.81
621.16	1612.91
621.51	1603.85
621.85	1594.86
622.20	1584.91
622.55	1575.13
622.89	1565.89
623.24	1556.90
623.59	1548.07
623.93	1539.16
624.28	1530.61
624.62	1521.74
624.97	1513.10
625.32	1505.03
625.66	1496.73
626.01	1488.23
626.35	1479.52
626.70	1470.32
627.04	1461.27
627.39	1452.02
627.73	1443.32
628.08	1435.24
628.43	1426.85
628.77	1418.22
629.12	1409.32
629.46	1400.88
629.81	1391.83
630.15	1383.24
630.50	1374.56
630.84	1365.03
631.19	1355.65
631.53	1346.69
631.88	1337.85
632.22	1328.99
632.57	1320.29
632.91	1311.46
633.26	1302.70
633.60	1293.93
633.95	1285.57
634.29	1277.22
634.64	1269.40
634.98	1260.75
635.32	1252.36
635.67	1244.45
636.01	1236.62
636.36	1228.83
636.70	1221.04
637.05	1213.40
637.39	1205.75
637.73	1198.06
638.08	1191.10
638.42	1184.06
638.77	1176.47
639.11	1168.92
639.45	1161.36
639.80	1153.67
640.14	1146.17
640.49	1138.58
640.83	1131.27
641.17	1124.04
641.52	1116.54
641.86	1108.91
642.20	1102.00
642.55	1094.66
642.89	1087.13
643.23	1079.42
643.58	1072.53
643.92	1065.36
644.26	1058.37
644.61	1051.38
644.95	1044.33
645.29	1036.65
645.64	1028.76
645.98	1021.43
646.32	1014.34
646.66	1007.35
647.01	1000.61
647.35	993.85
647.69	986.97
648.04	980.37
648.38	973.64
648.72	966.80
649.06	959.92
649.41	953.10
649.75	946.14
650.09	939.24
650.43	932.46
650.78	925.32
651.12	918.44
651.46	911.75
651.80	905.07
652.14	898.88
652.49	892.62
652.83	886.65
653.17	880.03
653.51	873.48
653.85	867.20
654.20	860.61
654.54	853.67
654.88	847.01
655.22	840.22
655.56	833.57
655.90	827.20
656.25	821.04
656.59	814.80
656.93	808.91
657.27	802.85
657.61	796.65
657.95	790.71
658.29	784.81
658.64	778.70
658.98	772.61
659.32	766.24
659.66	760.27
660.00	754.17
660.34	748.47
660.68	742.77
661.02	736.86
661.36	731.48
661.70	726.27
662.05	721.27
662.39	716.26
662.73	711.06
663.07	706.01
663.41	700.86
663.75	695.77
664.09	690.46
664.43	685.37
664.77	680.64
665.11	675.74
665.45	670.97
665.79	666.27
666.13	661.50
666.47	656.73
666.81	651.95
667.15	647.12
667.49	642.60
667.83	638.14
668.17	633.65
668.51	628.90
668.85	624.29
669.19	619.86
669.53	615.49
669.87	611.04
670.21	606.76
670.55	602.55
670.89	598.48
671.23	594.51
671.57	590.49
671.91	586.39
672.25	582.32
672.58	578.26
672.92	574.25
673.26	570.52
673.60	566.86
673.94	563.29
674.28	559.93
674.62	556.58
674.96	553.09
675.30	549.71
675.64	546.36
675.97	543.08
676.31	539.68
676.65	536.30
676.99	533.17
677.33	529.82
677.67	526.55
678.01	523.11
678.34	519.72
678.68	516.33
679.02	513.05
679.36	509.81
679.70	506.68
680.04	503.56
680.37	500.33
680.71	497.14
681.05	494.10
681.39	491.00
681.73	487.86
682.06	484.86
682.40	481.90
682.74	478.91
683.08	475.98
683.42	473.03
683.75	470.05
684.09	467.11
684.43	464.26
684.77	461.42
685.10	458.70
685.44	455.98
685.78	453.36
686.12	450.66
686.45	448.08
686.79	445.40
687.13	442.82
687.46	440.26
687.80	437.70
688.14	435.01
688.48	432.54
688.81	429.93
689.15	427.45
689.49	424.94
689.82	422.53
690.16	420.07
690.50	417.81
690.83	415.58
691.17	413.26
691.51	411.05
691.84	408.92
692.18	406.67
692.52	404.41
692.85	402.13
693.19	399.97
693.52	397.78
693.86	395.65
694.20	393.54
694.53	391.44
694.87	389.32
695.21	387.27
695.54	385.19
695.88	383.21
696.21	381.23
696.55	379.26
696.88	377.32
697.22	375.40
697.56	373.50
697.89	371.58
698.23	369.70
698.56	367.80
698.90	365.97
699.23	364.09
699.57	362.22
699.90	360.47
700.24	358.71
700.58	357.00
700.91	355.25
701.25	353.59
701.58	352.02
701.92	350.46
702.25	348.90
702.59	347.31
702.92	345.76
703.26	344.22
703.59	342.76
703.93	341.40
704.26	340.00
704.60	338.48
704.93	337.05
705.26	335.60
705.60	334.23
705.93	332.81
706.27	331.60
706.60	330.38
706.94	329.12
707.27	327.78
707.61	326.53
707.94	325.35
708.27	324.09
708.61	322.82
708.94	321.61
709.28	320.45
709.61	319.34
709.94	318.17
710.28	317.01
710.61	315.84
710.95	314.52
711.28	313.41
711.61	312.32
711.95	311.20
712.28	310.09
712.61	308.95
712.95	307.87
713.28	306.82
713.61	305.77
713.95	304.74
714.28	303.79
714.61	302.74
714.95	301.75
715.28	300.76
715.61	299.73
715.95	298.73
716.28	297.70
716.61	296.72
716.95	295.79
717.28	294.87
717.61	293.99
717.94	293.17
718.28	292.21
718.61	291.34
718.94	290.53
719.27	289.77
719.61	289.05
719.94	288.30
720.27	287.44
720.60	286.65
720.94	285.92
721.27	285.20
721.60	284.55
721.93	283.86
722.27	283.20
722.60	282.56
722.93	281.93
723.26	281.32
723.59	280.66
723.93	280.03
724.26	279.40
724.59	278.78
724.92	278.12
725.25	277.55
725.59	276.91
725.92	276.31
726.25	275.70
726.58	275.05
726.91	274.45
727.24	273.90
727.57	273.36
727.91	272.74
728.24	272.19
728.57	271.58
728.90	271.00
729.23	270.43
729.56	269.91
729.89	269.35
730.22	268.81
730.55	268.25
730.89	267.73
731.22	267.20
731.55	266.66
731.88	266.20
732.21	265.67
732.54	265.20
732.87	264.74
733.20	264.29
733.53	263.86
733.86	263.47
734.19	263.02
734.52	262.57
734.85	262.20
735.18	261.70
735.51	261.29
735.84	260.91
736.17	260.45
736.50	260.00
736.83	259.73
737.16	259.30
737.49	258.94
737.82	258.56
738.15	258.17
738.48	257.82
738.81	257.41
739.14	257.09
739.47	256.71
739.80	256.36
740.13	256.01
740.46	255.67
740.79	255.28
741.12	254.91
741.45	254.57
741.78	254.19
742.11	253.88
742.44	253.51
742.77	253.15
743.10	252.88
743.43	252.54
743.75	252.08
744.08	251.91
744.41	251.60
744.74	251.28
745.07	250.97
745.40	250.67
745.73	250.42
746.06	250.09
746.39	249.81
746.71	249.50
747.04	249.18
747.37	248.87
747.70	248.57
748.03	248.32
748.36	248.05
748.68	247.78
749.01	247.46
749.34	247.24
749.67	246.96
750.00	246.67
750.33	246.50
750.65	246.30
750.98	245.93
751.31	245.68
751.64	245.42
751.97	245.23
752.29	244.97
752.62	244.64
752.95	244.43
753.28	244.20
753.60	243.95
753.93	243.76
754.26	243.55
754.59	243.31
754.91	243.06
755.24	242.87
755.57	242.62
755.90	242.44
756.22	242.20
756.55	241.99
756.88	241.76
757.20	241.49
757.53	241.25
757.86	241.08
758.19	240.92
758.51	240.77
758.84	240.55
759.17	240.37
759.49	240.23
759.82	240.05
760.15	239.91
760.47	239.74
760.80	239.52
761.13	239.35
761.45	239.16
761.78	238.97
762.11	238.80
762.43	238.64
762.76	238.50
763.08	238.37
763.41	238.22
763.74	238.07
764.06	237.94
764.39	237.80
764.71	237.60
765.04	237.41
765.37	237.23
765.69	237.07
766.02	236.91
766.34	236.72
766.67	236.54
767.00	236.39
767.32	236.28
767.65	236.21
767.97	236.07
768.30	235.95
768.62	235.83
768.95	235.67
769.27	235.56
769.60	235.41
769.92	235.26
770.25	235.12
770.57	234.97
770.90	234.81
771.22	234.66
771.55	234.60
771.87	234.49
772.20	234.36
772.52	234.33
772.85	234.32
773.17	234.25
773.50	234.12
773.82	233.97
774.15	233.84
774.47	233.67
774.80	233.53
775.12	233.39
775.45	233.31
775.77	233.19
776.09	233.10
776.42	233.00
776.74	232.93
777.07	232.84
777.39	232.78
777.72	232.67
778.04	232.58
778.36	232.43
778.69	232.34
779.01	232.26
779.33	232.09
779.66	231.92
779.98	231.82
780.31	231.76
780.63	231.71
780.95	231.64
781.28	231.55
781.60	231.45
781.92	231.41
782.25	231.29
782.57	231.22
782.89	231.12
783.22	231.05
783.54	230.96
783.86	230.90
784.19	230.78
784.51	230.76
784.83	230.69
785.16	230.65
785.48	230.61
785.80	230.58
786.12	230.51
786.45	230.44
