SpectraSuite Data File
++++++++++++++++++++++++++++++++++++
Date: Fri Feb 01 17:44:15 EST 2013
User: group
Dark Spectrum Present: No
Reference Spectrum Present: No
Number of Sampled Component Spectra: 1
Spectrometers: USB2E7196
Integration Time (usec): 35000 (USB2E7196)
Spectra Averaged: 100 (USB2E7196)
Boxcar Smoothing: 10 (USB2E7196)
Correct for Electrical Dark: No (USB2E7196)
Strobe/Lamp Enabled: No (USB2E7196)
Correct for Detector Non-linearity: No (USB2E7196)
Correct for Stray Light: No (USB2E7196)
Number of Pixels in Processed Spectrum: 2048
>>>>>Begin Processed Spectral Data<<<<<
339.09	0.00
339.48	212.30
339.86	214.34
340.24	215.71
340.63	216.63
341.01	219.37
341.39	219.08
341.78	220.72
342.16	222.03
342.54	222.68
342.93	210.96
343.31	221.63
343.69	222.16
344.07	222.59
344.46	223.00
344.84	223.38
345.22	223.62
345.60	223.92
345.99	224.12
346.37	224.24
346.75	224.33
347.13	224.42
347.52	224.49
347.90	224.56
348.28	224.58
348.66	224.65
349.05	224.64
349.43	224.69
349.81	224.72
350.19	224.76
350.57	224.82
350.96	224.91
351.34	225.01
351.72	225.13
352.10	225.24
352.48	225.29
352.87	225.37
353.25	225.42
353.63	225.46
354.01	225.55
354.39	225.64
354.77	225.70
355.15	225.82
355.54	225.89
355.92	225.95
356.30	226.07
356.68	226.21
357.06	226.30
357.44	226.37
357.82	226.42
358.20	226.50
358.58	226.57
358.97	226.65
359.35	226.74
359.73	226.81
360.11	226.87
360.49	226.99
360.87	227.05
361.25	227.13
361.63	227.20
362.01	227.23
362.39	227.26
362.77	227.33
363.15	227.34
363.53	227.37
363.91	227.40
364.29	227.41
364.67	227.34
365.05	227.35
365.43	227.40
365.81	227.46
366.19	227.53
366.57	227.59
366.95	227.59
367.33	227.52
367.71	227.53
368.09	227.55
368.47	227.50
368.85	227.48
369.23	227.49
369.61	227.44
369.99	227.47
370.37	227.47
370.75	227.47
371.13	227.44
371.51	227.36
371.89	227.32
372.27	227.30
372.65	227.29
373.03	227.25
373.41	227.15
373.78	227.07
374.16	226.95
374.54	226.83
374.92	226.76
375.30	226.73
375.68	226.65
376.06	226.58
376.44	226.51
376.82	226.44
377.19	226.39
377.57	226.32
377.95	226.20
378.33	226.16
378.71	226.08
379.09	226.02
379.47	226.00
379.84	225.91
380.22	225.81
380.60	225.73
380.98	225.67
381.36	225.63
381.73	225.57
382.11	225.51
382.49	225.47
382.87	225.40
383.25	225.34
383.62	225.36
384.00	225.31
384.38	225.25
384.76	225.23
385.13	225.19
385.51	225.16
385.89	225.12
386.27	225.03
386.64	224.98
387.02	224.94
387.40	224.88
387.78	224.86
388.15	224.81
388.53	224.76
388.91	224.73
389.29	224.68
389.66	224.64
390.04	224.61
390.42	224.61
390.79	224.61
391.17	224.61
391.55	224.50
391.92	224.46
392.30	224.49
392.68	224.46
393.05	224.43
393.43	224.42
393.81	224.43
394.18	224.45
394.56	224.43
394.94	224.42
395.31	224.42
395.69	224.47
396.06	224.52
396.44	224.54
396.82	224.53
397.19	224.60
397.57	224.60
397.95	224.65
398.32	224.65
398.70	224.66
399.07	224.70
399.45	224.72
399.82	224.80
400.20	224.84
400.58	224.88
400.95	224.90
401.33	224.99
401.70	225.10
402.08	225.19
402.45	225.30
402.83	225.45
403.20	225.56
403.58	225.62
403.95	225.74
404.33	225.89
404.71	226.02
405.08	226.24
405.46	226.43
405.83	226.59
406.21	226.75
406.58	226.95
406.96	227.17
407.33	227.39
407.70	227.62
408.08	227.91
408.45	228.18
408.83	228.44
409.20	228.67
409.58	228.88
409.95	229.15
410.33	229.45
410.70	229.76
411.08	230.10
411.45	230.46
411.82	230.86
412.20	231.25
412.57	231.78
412.95	232.11
413.32	232.61
413.69	233.10
414.07	233.64
414.44	234.19
414.82	234.76
415.19	235.43
415.56	236.05
415.94	236.73
416.31	237.53
416.68	238.30
417.06	239.17
417.43	240.00
417.81	240.97
418.18	241.92
418.55	242.92
418.93	244.01
419.30	245.11
419.67	246.25
420.04	247.42
420.42	248.63
420.79	250.07
421.16	251.45
421.54	252.91
421.91	254.42
422.28	255.95
422.66	257.60
423.03	259.20
423.40	260.86
423.77	262.58
424.15	264.33
424.52	266.16
424.89	268.16
425.26	270.09
425.64	271.89
426.01	273.85
426.38	275.90
426.75	277.95
427.13	280.08
427.50	282.31
427.87	284.64
428.24	286.90
428.61	289.05
428.99	291.48
429.36	294.07
429.73	296.59
430.10	299.10
430.47	301.61
430.85	304.21
431.22	306.99
431.59	309.94
431.96	312.69
432.33	315.74
432.70	318.64
433.08	322.06
433.45	325.32
433.82	328.56
434.19	332.12
434.56	335.52
434.93	338.81
435.30	342.06
435.68	345.58
436.05	349.08
436.42	352.53
436.79	355.61
437.16	358.89
437.53	362.40
437.90	365.87
438.27	369.24
438.64	372.74
439.01	375.91
439.38	378.67
439.75	381.33
440.13	384.41
440.50	387.27
440.87	389.62
441.24	391.98
441.61	394.63
441.98	396.47
442.35	398.78
442.72	401.01
443.09	403.20
443.46	404.47
443.83	405.23
444.20	405.88
444.57	406.96
444.94	407.39
445.31	407.82
445.68	408.30
446.05	408.46
446.42	407.99
446.79	407.50
447.16	406.97
447.53	406.62
447.90	405.21
448.27	403.85
448.64	401.88
449.01	400.54
449.37	398.12
449.74	395.83
450.11	393.09
450.48	390.13
450.85	387.03
451.22	384.41
451.59	381.89
451.96	379.50
452.33	376.28
452.70	373.35
453.07	369.87
453.43	366.27
453.80	362.86
454.17	359.58
454.54	356.47
454.91	353.12
455.28	349.84
455.65	346.79
456.02	343.72
456.38	341.10
456.75	337.79
457.12	335.02
457.49	332.24
457.86	329.54
458.23	327.23
458.59	324.69
458.96	322.14
459.33	319.87
459.70	317.58
460.07	315.69
460.43	313.55
460.80	311.51
461.17	309.74
461.54	307.88
461.91	306.12
462.27	304.31
462.64	302.70
463.01	300.98
463.38	299.35
463.74	297.72
464.11	296.22
464.48	294.93
464.85	293.50
465.21	292.44
465.58	291.26
465.95	289.92
466.32	288.80
466.68	287.63
467.05	286.47
467.42	285.35
467.78	284.22
468.15	283.15
468.52	282.35
468.88	281.28
469.25	280.30
469.62	279.50
469.98	278.64
470.35	277.88
470.72	277.15
471.08	276.35
471.45	275.60
471.82	274.96
472.18	274.25
472.55	273.70
472.92	273.00
473.28	272.44
473.65	271.86
474.02	271.32
474.38	270.85
474.75	270.43
475.11	269.99
475.48	269.60
475.85	269.30
476.21	268.98
476.58	268.68
476.94	268.47
477.31	268.20
477.67	268.00
478.04	267.82
478.41	267.70
478.77	267.68
479.14	267.60
479.50	267.52
479.87	267.50
480.23	267.55
480.60	267.59
480.96	267.62
481.33	267.80
481.69	267.96
482.06	268.13
482.42	268.29
482.79	268.50
483.15	268.80
483.52	269.17
483.88	269.46
484.25	269.86
484.61	270.26
484.98	270.70
485.34	271.26
485.71	271.85
486.07	272.42
486.44	272.96
486.80	273.68
487.17	274.43
487.53	275.32
487.90	276.15
488.26	277.12
488.62	278.12
488.99	279.13
489.35	280.22
489.72	281.39
490.08	282.66
490.44	283.96
490.81	285.36
491.17	286.74
491.54	288.30
491.90	289.86
492.26	291.55
492.63	293.31
492.99	295.12
493.36	297.08
493.72	299.20
494.08	301.39
494.45	303.69
494.81	306.12
495.17	308.57
495.54	311.27
495.90	314.03
496.26	316.92
496.63	319.97
496.99	323.15
497.35	326.51
497.72	330.01
498.08	333.65
498.44	337.41
498.80	341.46
499.17	345.59
499.53	349.93
499.89	354.45
500.26	359.10
500.62	363.94
500.98	369.04
501.34	374.29
501.71	379.82
502.07	385.51
502.43	391.35
502.79	397.39
503.16	403.62
503.52	410.09
503.88	416.74
504.24	423.56
504.60	430.72
504.97	438.09
505.33	445.64
505.69	453.63
506.05	461.69
506.41	469.84
506.78	478.30
507.14	486.97
507.50	495.99
507.86	505.33
508.22	514.90
508.59	524.42
508.95	534.32
509.31	544.45
509.67	554.84
510.03	565.48
510.39	576.44
510.75	587.65
511.12	599.03
511.48	610.73
511.84	622.69
512.20	634.63
512.56	647.02
512.92	659.64
513.28	672.40
513.64	685.34
514.00	698.55
514.37	712.03
514.73	725.65
515.09	739.28
515.45	753.17
515.81	767.27
516.17	781.85
516.53	796.56
516.89	811.37
517.25	826.14
517.61	841.14
517.97	856.31
518.33	871.38
518.69	886.82
519.05	902.40
519.41	918.12
519.77	934.28
520.13	950.40
520.49	966.54
520.85	982.66
521.21	999.10
521.57	1016.10
521.93	1032.65
522.29	1049.87
522.65	1066.93
523.01	1083.86
523.37	1100.76
523.73	1117.79
524.09	1134.68
524.45	1151.78
524.81	1169.33
525.17	1187.01
525.53	1204.65
525.89	1222.44
526.25	1240.11
526.61	1257.43
526.97	1275.20
527.33	1292.71
527.68	1310.29
528.04	1327.77
528.40	1345.28
528.76	1363.32
529.12	1380.90
529.48	1398.82
529.84	1415.77
530.20	1433.41
530.56	1451.38
530.91	1469.84
531.27	1487.80
531.63	1505.43
531.99	1523.22
532.35	1540.38
532.71	1557.48
533.07	1575.03
533.42	1592.19
533.78	1609.55
534.14	1627.03
534.50	1643.53
534.86	1660.58
535.21	1677.06
535.57	1694.14
535.93	1710.94
536.29	1727.02
536.65	1743.44
537.00	1759.44
537.36	1776.13
537.72	1791.85
538.08	1807.75
538.44	1822.93
538.79	1837.97
539.15	1852.80
539.51	1867.71
539.87	1883.49
540.22	1898.46
540.58	1913.57
540.94	1928.20
541.29	1942.14
541.65	1956.17
542.01	1970.74
542.37	1984.56
542.72	1998.22
543.08	2011.64
543.44	2025.44
543.79	2038.10
544.15	2050.35
544.51	2063.31
544.87	2075.59
545.22	2088.01
545.58	2099.62
545.94	2110.71
546.29	2122.07
546.65	2133.45
547.01	2144.20
547.36	2154.14
547.72	2163.99
548.07	2173.20
548.43	2182.62
548.79	2191.93
549.14	2200.96
549.50	2209.63
549.86	2218.40
550.21	2227.08
550.57	2235.43
550.92	2243.41
551.28	2251.82
551.64	2260.18
551.99	2268.01
552.35	2275.54
552.70	2282.95
553.06	2290.27
553.41	2297.83
553.77	2304.96
554.13	2312.42
554.48	2319.82
554.84	2326.79
555.19	2333.22
555.55	2339.67
555.90	2345.46
556.26	2352.03
556.61	2357.82
556.97	2363.41
557.32	2368.86
557.68	2374.25
558.03	2379.65
558.39	2384.42
558.74	2390.15
559.10	2395.20
559.45	2399.91
559.81	2405.33
560.16	2410.10
560.52	2414.37
560.87	2418.94
561.23	2422.68
561.58	2426.28
561.94	2429.81
562.29	2432.85
562.64	2436.74
563.00	2440.23
563.35	2444.71
563.71	2448.49
564.06	2452.61
564.42	2456.59
564.77	2460.20
565.12	2463.56
565.48	2466.45
565.83	2469.35
566.19	2471.58
566.54	2473.19
566.89	2475.26
567.25	2476.70
567.60	2478.79
567.96	2481.33
568.31	2482.97
568.66	2484.91
569.02	2486.39
569.37	2487.42
569.72	2489.21
570.08	2490.02
570.43	2490.60
570.78	2490.76
571.14	2489.89
571.49	2489.08
571.84	2488.95
572.20	2488.19
572.55	2487.63
572.90	2486.33
573.26	2485.30
573.61	2483.67
573.96	2482.49
574.31	2479.88
574.67	2477.06
575.02	2473.70
575.37	2470.32
575.72	2466.70
576.08	2463.40
576.43	2460.07
576.78	2456.83
577.13	2453.61
577.49	2450.51
577.84	2447.22
578.19	2443.49
578.54	2440.11
578.90	2436.23
579.25	2430.83
579.60	2426.07
579.95	2420.96
580.30	2415.91
580.66	2410.70
581.01	2405.91
581.36	2400.74
581.71	2396.54
582.06	2392.25
582.42	2387.81
582.77	2382.54
583.12	2377.86
583.47	2373.41
583.82	2368.58
584.17	2362.95
584.53	2357.24
584.88	2351.45
585.23	2345.62
585.58	2339.75
585.93	2333.93
586.28	2328.66
586.63	2323.44
586.98	2317.79
587.34	2312.77
587.69	2307.68
588.04	2302.29
588.39	2296.46
588.74	2289.71
589.09	2283.08
589.44	2275.84
589.79	2269.18
590.14	2263.10
590.49	2256.06
590.84	2248.94
591.19	2242.58
591.54	2235.84
591.89	2228.32
592.25	2221.21
592.60	2213.36
592.95	2205.45
593.30	2197.55
593.65	2189.34
594.00	2181.63
594.35	2173.98
594.70	2165.11
595.05	2157.56
595.40	2149.57
595.75	2141.42
596.10	2134.78
596.45	2127.55
596.80	2120.79
597.15	2113.79
597.50	2106.46
597.85	2099.50
598.19	2092.35
598.54	2084.70
598.89	2077.49
599.24	2070.98
599.59	2063.89
599.94	2057.14
600.29	2050.23
600.64	2043.04
600.99	2035.10
601.34	2027.66
601.69	2019.92
602.04	2012.63
602.39	2004.52
602.74	1997.04
603.08	1989.69
603.43	1982.27
603.78	1974.38
604.13	1966.48
604.48	1958.70
604.83	1951.14
605.18	1943.75
605.53	1935.17
605.87	1926.39
606.22	1918.20
606.57	1909.36
606.92	1900.94
607.27	1893.07
607.62	1885.47
607.96	1877.39
608.31	1870.32
608.66	1862.21
609.01	1854.00
609.36	1845.80
609.70	1836.99
610.05	1828.21
610.40	1819.73
610.75	1810.73
611.10	1802.21
611.44	1792.90
611.79	1783.83
612.14	1774.16
612.49	1763.81
612.83	1754.29
613.18	1745.13
613.53	1736.12
613.88	1726.67
614.22	1717.62
614.57	1707.85
614.92	1698.84
615.27	1690.73
615.61	1681.39
615.96	1672.23
616.31	1663.59
616.65	1655.31
617.00	1646.82
617.35	1638.16
617.70	1628.94
618.04	1619.40
618.39	1610.06
618.74	1601.63
619.08	1592.48
619.43	1584.02
619.78	1576.20
620.12	1568.39
620.47	1560.08
620.82	1551.02
621.16	1542.53
621.51	1533.87
621.85	1525.44
622.20	1515.90
622.55	1506.44
622.89	1497.62
623.24	1489.05
623.59	1480.76
623.93	1472.29
624.28	1464.17
624.62	1455.79
624.97	1447.65
625.32	1439.92
625.66	1432.15
626.01	1424.15
626.35	1416.06
626.70	1407.28
627.04	1398.76
627.39	1389.95
627.73	1381.45
628.08	1373.72
628.43	1365.68
628.77	1357.66
629.12	1349.35
629.46	1341.48
629.81	1332.95
630.15	1324.84
630.50	1316.61
630.84	1307.62
631.19	1298.69
631.53	1290.27
631.88	1281.74
632.22	1273.31
632.57	1265.15
632.91	1256.63
633.26	1248.43
633.60	1239.98
633.95	1231.97
634.29	1223.96
634.64	1216.44
634.98	1208.40
635.32	1200.54
635.67	1193.14
636.01	1185.62
636.36	1178.21
636.70	1170.89
637.05	1163.69
637.39	1156.51
637.73	1149.26
638.08	1142.62
638.42	1136.02
638.77	1128.99
639.11	1121.80
639.45	1114.69
639.80	1107.37
640.14	1100.43
640.49	1093.17
640.83	1086.19
641.17	1079.46
641.52	1072.56
641.86	1065.44
642.20	1058.96
642.55	1051.81
642.89	1044.69
643.23	1037.36
643.58	1030.76
643.92	1023.80
644.26	1017.33
644.61	1010.53
644.95	1003.88
645.29	996.66
645.64	989.20
645.98	982.03
646.32	975.37
646.66	968.67
647.01	962.27
647.35	955.95
647.69	949.44
648.04	943.28
648.38	936.83
648.72	930.31
649.06	923.67
649.41	917.15
649.75	910.64
650.09	904.08
650.43	897.79
650.78	890.99
651.12	884.53
651.46	878.10
651.80	871.85
652.14	865.92
652.49	860.02
652.83	854.29
653.17	848.16
653.51	842.03
653.85	836.02
654.20	829.79
654.54	823.19
654.88	816.83
655.22	810.31
655.56	804.00
655.90	797.91
656.25	792.14
656.59	786.28
656.93	780.66
657.27	775.05
657.61	769.07
657.95	763.48
658.29	757.89
658.64	752.00
658.98	746.09
659.32	739.97
659.66	734.29
660.00	728.56
660.34	723.12
660.68	717.66
661.02	712.16
661.36	706.99
661.70	702.01
662.05	697.20
662.39	692.53
662.73	687.69
663.07	682.89
663.41	677.99
663.75	673.09
664.09	668.12
664.43	663.24
664.77	658.71
665.11	654.08
665.45	649.49
665.79	645.10
666.13	640.68
666.47	636.21
666.81	631.60
667.15	626.97
667.49	622.62
667.83	618.36
668.17	614.01
668.51	609.58
668.85	605.06
669.19	600.83
669.53	596.56
669.87	592.30
670.21	588.19
670.55	584.16
670.89	580.30
671.23	576.50
671.57	572.63
671.91	568.80
672.25	564.92
672.58	561.01
672.92	557.15
673.26	553.60
673.60	550.19
673.94	546.81
674.28	543.59
674.62	540.34
674.96	536.98
675.30	533.80
675.64	530.58
675.97	527.62
676.31	524.49
676.65	521.31
676.99	518.30
677.33	515.11
677.67	512.00
678.01	508.66
678.34	505.42
678.68	502.21
679.02	499.04
679.36	495.98
679.70	492.97
680.04	490.07
680.37	486.92
680.71	483.81
681.05	480.85
681.39	477.94
681.73	474.99
682.06	472.18
682.40	469.42
682.74	466.59
683.08	463.67
683.42	460.73
683.75	457.91
684.09	455.03
684.43	452.30
684.77	449.59
685.10	447.02
685.44	444.41
685.78	441.91
686.12	439.38
686.45	436.85
686.79	434.33
687.13	431.88
687.46	429.48
687.80	427.05
688.14	424.59
688.48	422.25
688.81	419.85
689.15	417.51
689.49	415.07
689.82	412.78
690.16	410.48
690.50	408.32
690.83	406.25
691.17	404.10
691.51	402.00
691.84	399.94
692.18	397.87
692.52	395.72
692.85	393.56
693.19	391.58
693.52	389.54
693.86	387.50
694.20	385.52
694.53	383.59
694.87	381.58
695.21	379.60
695.54	377.57
695.88	375.62
696.21	373.68
696.55	371.84
696.88	369.96
697.22	368.15
697.56	366.34
697.89	364.47
698.23	362.70
698.56	360.95
698.90	359.24
699.23	357.44
699.57	355.73
699.90	354.04
700.24	352.27
700.58	350.56
700.91	348.96
701.25	347.35
701.58	345.77
701.92	344.28
702.25	342.79
702.59	341.32
702.92	339.86
703.26	338.45
703.59	337.03
703.93	335.77
704.26	334.41
704.60	333.00
704.93	331.61
705.26	330.26
705.60	328.90
705.93	327.56
706.27	326.38
706.60	325.18
706.94	324.00
707.27	322.77
707.61	321.62
707.94	320.44
708.27	319.21
708.61	318.03
708.94	316.91
709.28	315.81
709.61	314.69
709.94	313.64
710.28	312.49
710.61	311.41
710.95	310.16
711.28	309.12
711.61	308.04
711.95	306.98
712.28	305.99
712.61	304.94
712.95	303.92
713.28	302.90
713.61	301.91
713.95	300.89
714.28	299.99
714.61	299.00
714.95	298.10
715.28	297.18
715.61	296.21
715.95	295.27
716.28	294.30
716.61	293.39
716.95	292.45
717.28	291.63
717.61	290.80
717.94	290.00
718.28	289.11
718.61	288.27
718.94	287.51
719.27	286.73
719.61	286.02
719.94	285.27
720.27	284.48
720.60	283.71
720.94	283.04
721.27	282.30
721.60	281.66
721.93	281.00
722.27	280.38
722.60	279.77
722.93	279.16
723.26	278.59
723.59	277.96
723.93	277.37
724.26	276.73
724.59	276.07
724.92	275.49
725.25	274.94
725.59	274.44
725.92	273.89
726.25	273.31
726.58	272.72
726.91	272.17
727.24	271.66
727.57	271.18
727.91	270.57
728.24	270.06
728.57	269.53
728.90	268.96
729.23	268.41
729.56	267.93
729.89	267.36
730.22	266.82
730.55	266.30
730.89	265.79
731.22	265.31
731.55	264.84
731.88	264.37
732.21	263.88
732.54	263.35
732.87	262.86
733.20	262.41
733.53	262.00
733.86	261.59
734.19	261.16
734.52	260.73
734.85	260.41
735.18	259.95
735.51	259.53
735.84	259.13
736.17	258.77
736.50	258.32
736.83	258.04
737.16	257.67
737.49	257.31
737.82	256.93
738.15	256.56
738.48	256.21
738.81	255.82
739.14	255.46
739.47	255.12
739.80	254.78
740.13	254.49
740.46	254.12
740.79	253.78
741.12	253.41
741.45	253.06
741.78	252.68
742.11	252.41
742.44	252.07
742.77	251.78
743.10	251.41
743.43	251.09
743.75	250.69
744.08	250.50
744.41	250.21
744.74	249.95
745.07	249.65
745.40	249.38
745.73	249.09
746.06	248.81
746.39	248.53
746.71	248.25
747.04	247.90
747.37	247.62
747.70	247.36
748.03	247.09
748.36	246.85
748.68	246.60
749.01	246.27
749.34	246.06
749.67	245.78
750.00	245.57
750.33	245.36
750.65	245.09
750.98	244.74
751.31	244.49
751.64	244.24
751.97	243.99
752.29	243.71
752.62	243.46
752.95	243.25
753.28	243.03
753.60	242.79
753.93	242.61
754.26	242.37
754.59	242.12
754.91	241.90
755.24	241.65
755.57	241.40
755.90	241.20
756.22	240.94
756.55	240.72
756.88	240.48
757.20	240.24
757.53	240.06
757.86	239.84
758.19	239.64
758.51	239.45
758.84	239.24
759.17	239.05
759.49	238.88
759.82	238.71
760.15	238.49
760.47	238.33
760.80	238.15
761.13	238.03
761.45	237.84
761.78	237.65
762.11	237.51
762.43	237.34
762.76	237.22
763.08	237.08
763.41	236.92
763.74	236.78
764.06	236.64
764.39	236.44
764.71	236.29
765.04	236.11
765.37	235.95
765.69	235.81
766.02	235.65
766.34	235.52
766.67	235.35
767.00	235.26
767.32	235.17
767.65	235.07
767.97	234.92
768.30	234.81
768.62	234.69
768.95	234.49
769.27	234.39
769.60	234.27
769.92	234.15
770.25	234.03
770.57	233.88
770.90	233.80
771.22	233.71
771.55	233.62
771.87	233.55
772.20	233.43
772.52	233.43
772.85	233.44
773.17	233.33
773.50	233.22
773.82	233.10
774.15	232.93
774.47	232.77
774.80	232.66
775.12	232.54
775.45	232.48
775.77	232.42
776.09	232.35
776.42	232.27
776.74	232.21
777.07	232.11
777.39	232.05
777.72	231.94
778.04	231.87
778.36	231.80
778.69	231.73
779.01	231.65
779.33	231.51
779.66	231.36
779.98	231.29
780.31	231.24
780.63	231.23
780.95	231.19
781.28	231.18
781.60	231.13
781.92	231.08
782.25	231.00
782.57	230.97
782.89	230.88
783.22	230.80
783.54	230.73
783.86	230.69
784.19	230.63
784.51	230.59
784.83	230.51
785.16	230.45
785.48	230.38
785.80	230.33
786.12	230.22
786.45	230.16
786.77	230.08
