SpectraSuite Data File
++++++++++++++++++++++++++++++++++++
Date: Fri Feb 01 16:10:16 EST 2013
User: group
Dark Spectrum Present: No
Reference Spectrum Present: No
Number of Sampled Component Spectra: 1
Spectrometers: USB2E7196
Integration Time (usec): 35000 (USB2E7196)
Spectra Averaged: 100 (USB2E7196)
Boxcar Smoothing: 10 (USB2E7196)
Correct for Electrical Dark: No (USB2E7196)
Strobe/Lamp Enabled: No (USB2E7196)
Correct for Detector Non-linearity: No (USB2E7196)
Correct for Stray Light: No (USB2E7196)
Number of Pixels in Processed Spectrum: 2048
>>>>>Begin Processed Spectral Data<<<<<
339.09	0.00
339.48	214.28
339.86	215.85
340.24	217.53
340.63	218.87
341.01	221.94
341.39	221.14
341.78	223.12
342.16	223.83
342.54	224.76
342.93	212.95
343.31	223.72
343.69	224.31
344.07	224.80
344.46	225.22
344.84	225.60
345.22	225.83
345.60	226.10
345.99	226.26
346.37	226.41
346.75	226.48
347.13	226.54
347.52	226.61
347.90	226.70
348.28	226.71
348.66	226.74
349.05	226.74
349.43	226.79
349.81	226.85
350.19	226.92
350.57	226.97
350.96	227.02
351.34	227.10
351.72	227.14
352.10	227.24
352.48	227.33
352.87	227.38
353.25	227.44
353.63	227.53
354.01	227.61
354.39	227.69
354.77	227.80
355.15	227.90
355.54	227.95
355.92	228.01
356.30	228.08
356.68	228.23
357.06	228.31
357.44	228.36
357.82	228.39
358.20	228.47
358.58	228.51
358.97	228.61
359.35	228.68
359.73	228.76
360.11	228.79
360.49	228.84
360.87	228.90
361.25	228.93
361.63	228.99
362.01	229.05
362.39	229.05
362.77	229.08
363.15	229.08
363.53	229.12
363.91	229.12
364.29	229.14
364.67	229.06
365.05	229.07
365.43	229.06
365.81	229.10
366.19	229.10
366.57	229.12
366.95	229.09
367.33	229.03
367.71	229.03
368.09	229.02
368.47	228.95
368.85	228.93
369.23	228.95
369.61	228.84
369.99	228.83
370.37	228.82
370.75	228.84
371.13	228.78
371.51	228.71
371.89	228.67
372.27	228.62
372.65	228.54
373.03	228.47
373.41	228.41
373.78	228.34
374.16	228.25
374.54	228.17
374.92	228.09
375.30	228.03
375.68	227.93
376.06	227.87
376.44	227.79
376.82	227.69
377.19	227.60
377.57	227.56
377.95	227.44
378.33	227.35
378.71	227.19
379.09	227.15
379.47	227.07
379.84	227.02
380.22	226.93
380.60	226.87
380.98	226.83
381.36	226.78
381.73	226.69
382.11	226.63
382.49	226.57
382.87	226.50
383.25	226.43
383.62	226.48
384.00	226.39
384.38	226.34
384.76	226.30
385.13	226.27
385.51	226.20
385.89	226.15
386.27	226.07
386.64	226.06
387.02	225.98
387.40	225.96
387.78	225.89
388.15	225.86
388.53	225.82
388.91	225.75
389.29	225.69
389.66	225.72
390.04	225.68
390.42	225.69
390.79	225.69
391.17	225.67
391.55	225.55
391.92	225.57
392.30	225.58
392.68	225.56
393.05	225.56
393.43	225.57
393.81	225.56
394.18	225.59
394.56	225.59
394.94	225.65
395.31	225.66
395.69	225.73
396.06	225.77
396.44	225.79
396.82	225.86
397.19	225.90
397.57	225.90
397.95	225.97
398.32	225.97
398.70	226.03
399.07	226.09
399.45	226.17
399.82	226.23
400.20	226.32
400.58	226.41
400.95	226.44
401.33	226.57
401.70	226.74
402.08	226.84
402.45	226.96
402.83	227.08
403.20	227.20
403.58	227.29
403.95	227.43
404.33	227.58
404.71	227.69
405.08	227.89
405.46	228.03
405.83	228.16
406.21	228.34
406.58	228.51
406.96	228.70
407.33	228.88
407.70	229.09
408.08	229.34
408.45	229.57
408.83	229.82
409.20	230.03
409.58	230.21
409.95	230.45
410.33	230.72
410.70	230.96
411.08	231.23
411.45	231.55
411.82	231.83
412.20	232.19
412.57	232.60
412.95	232.94
413.32	233.38
413.69	233.81
414.07	234.23
414.44	234.68
414.82	235.19
415.19	235.70
415.56	236.21
415.94	236.76
416.31	237.36
416.68	238.02
417.06	238.73
417.43	239.45
417.81	240.25
418.18	241.02
418.55	241.87
418.93	242.80
419.30	243.69
419.67	244.63
420.04	245.58
420.42	246.55
420.79	247.69
421.16	248.80
421.54	249.98
421.91	251.19
422.28	252.44
422.66	253.75
423.03	255.07
423.40	256.39
423.77	257.82
424.15	259.29
424.52	260.75
424.89	262.35
425.26	263.85
425.64	265.31
426.01	266.89
426.38	268.50
426.75	270.14
427.13	271.83
427.50	273.66
427.87	275.56
428.24	277.42
428.61	279.17
428.99	281.14
429.36	283.23
429.73	285.30
430.10	287.33
430.47	289.38
430.85	291.51
431.22	293.78
431.59	296.14
431.96	298.34
432.33	300.80
432.70	303.16
433.08	305.98
433.45	308.59
433.82	311.21
434.19	314.12
434.56	316.91
434.93	319.60
435.30	322.17
435.68	325.03
436.05	327.86
436.42	330.60
436.79	333.13
437.16	335.83
437.53	338.67
437.90	341.45
438.27	344.21
438.64	347.02
439.01	349.57
439.38	351.78
439.75	354.00
440.13	356.47
440.50	358.78
440.87	360.61
441.24	362.55
441.61	364.71
441.98	366.18
442.35	367.97
442.72	369.78
443.09	371.62
443.46	372.60
443.83	373.19
444.20	373.75
444.57	374.52
444.94	374.80
445.31	375.12
445.68	375.47
446.05	375.53
446.42	375.11
446.79	374.71
447.16	374.30
447.53	373.90
447.90	372.77
448.27	371.61
448.64	370.04
449.01	368.91
449.37	366.94
449.74	365.05
450.11	362.81
450.48	360.37
450.85	357.82
451.22	355.70
451.59	353.71
451.96	351.74
452.33	349.19
452.70	346.84
453.07	344.06
453.43	341.22
453.80	338.44
454.17	335.85
454.54	333.36
454.91	330.64
455.28	328.06
455.65	325.60
456.02	323.20
456.38	321.08
456.75	318.42
457.12	316.17
457.49	314.00
457.86	311.87
458.23	310.03
458.59	308.01
458.96	305.92
459.33	304.07
459.70	302.26
460.07	300.77
460.43	299.09
460.80	297.46
461.17	296.01
461.54	294.58
461.91	293.15
462.27	291.67
462.64	290.41
463.01	289.00
463.38	287.73
463.74	286.38
464.11	285.21
464.48	284.21
464.85	283.11
465.21	282.27
465.58	281.35
465.95	280.26
466.32	279.40
466.68	278.54
467.05	277.64
467.42	276.75
467.78	275.79
468.15	274.95
468.52	274.28
468.88	273.43
469.25	272.62
469.62	271.95
469.98	271.30
470.35	270.66
470.72	270.11
471.08	269.44
471.45	268.88
471.82	268.30
472.18	267.70
472.55	267.28
472.92	266.73
473.28	266.29
473.65	265.82
474.02	265.36
474.38	264.97
474.75	264.65
475.11	264.27
475.48	264.03
475.85	263.74
476.21	263.53
476.58	263.32
476.94	263.19
477.31	263.05
477.67	262.89
478.04	262.79
478.41	262.69
478.77	262.72
479.14	262.68
479.50	262.70
479.87	262.74
480.23	262.81
480.60	262.84
480.96	262.90
481.33	263.13
481.69	263.33
482.06	263.47
482.42	263.67
482.79	263.98
483.15	264.31
483.52	264.70
483.88	265.02
484.25	265.40
484.61	265.80
484.98	266.26
485.34	266.82
485.71	267.41
486.07	268.03
486.44	268.62
486.80	269.30
487.17	270.06
487.53	270.88
487.90	271.73
488.26	272.66
488.62	273.66
488.99	274.62
489.35	275.65
489.72	276.81
490.08	278.01
490.44	279.24
490.81	280.57
491.17	281.94
491.54	283.44
491.90	285.00
492.26	286.68
492.63	288.46
492.99	290.24
493.36	292.16
493.72	294.23
494.08	296.34
494.45	298.58
494.81	300.93
495.17	303.40
495.54	305.98
495.90	308.70
496.26	311.53
496.63	314.52
496.99	317.67
497.35	320.97
497.72	324.36
498.08	327.86
498.44	331.52
498.80	335.42
499.17	339.49
499.53	343.67
499.89	348.07
500.26	352.56
500.62	357.20
500.98	362.16
501.34	367.22
501.71	372.52
502.07	378.02
502.43	383.68
502.79	389.49
503.16	395.59
503.52	401.86
503.88	408.24
504.24	414.91
504.60	421.79
504.97	428.92
505.33	436.29
505.69	444.01
506.05	451.84
506.41	459.76
506.78	467.91
507.14	476.40
507.50	485.08
507.86	494.14
508.22	503.42
508.59	512.63
508.95	522.21
509.31	532.10
509.67	542.18
510.03	552.43
510.39	563.00
510.75	573.79
511.12	584.75
511.48	596.05
511.84	607.46
512.20	618.99
512.56	630.92
512.92	643.04
513.28	655.41
513.64	667.82
514.00	680.62
514.37	693.55
514.73	706.61
515.09	719.65
515.45	732.78
515.81	746.36
516.17	760.28
516.53	774.43
516.89	788.56
517.25	802.67
517.61	817.04
517.97	831.49
518.33	845.87
518.69	860.64
519.05	875.61
519.41	890.80
519.77	906.30
520.13	921.69
520.49	937.07
520.85	952.47
521.21	968.14
521.57	984.24
521.93	999.98
522.29	1016.27
522.65	1032.38
523.01	1048.76
523.37	1064.72
523.73	1080.90
524.09	1096.92
524.45	1113.12
524.81	1129.76
525.17	1146.54
525.53	1163.31
525.89	1180.18
526.25	1196.90
526.61	1213.17
526.97	1229.79
527.33	1246.18
527.68	1262.76
528.04	1279.20
528.40	1295.65
528.76	1312.69
529.12	1329.13
529.48	1345.99
529.84	1362.03
530.20	1378.74
530.56	1395.50
530.91	1412.84
531.27	1429.52
531.63	1445.86
531.99	1462.37
532.35	1478.31
532.71	1494.22
533.07	1510.50
533.42	1526.27
533.78	1542.34
534.14	1558.72
534.50	1574.09
534.86	1590.06
535.21	1605.25
535.57	1621.04
535.93	1636.44
536.29	1651.24
536.65	1666.29
537.00	1680.98
537.36	1696.16
537.72	1710.59
538.08	1725.02
538.44	1738.69
538.79	1752.46
539.15	1766.19
539.51	1780.02
539.87	1794.26
540.22	1807.86
540.58	1821.48
540.94	1834.73
541.29	1847.56
541.65	1860.10
542.01	1873.17
542.37	1885.35
542.72	1897.58
543.08	1909.38
543.44	1921.72
543.79	1932.84
544.15	1943.79
544.51	1955.24
544.87	1966.21
545.22	1976.97
545.58	1987.12
545.94	1996.93
546.29	2006.86
546.65	2016.66
547.01	2025.90
547.36	2034.65
547.72	2043.19
548.07	2051.07
548.43	2059.15
548.79	2066.92
549.14	2074.40
549.50	2081.70
549.86	2089.37
550.21	2096.70
550.57	2103.99
550.92	2110.62
551.28	2117.69
551.64	2124.75
551.99	2131.26
552.35	2137.25
552.70	2143.37
553.06	2149.34
553.41	2155.71
553.77	2161.75
554.13	2167.87
554.48	2173.88
554.84	2179.29
555.19	2184.35
555.55	2189.52
555.90	2194.14
556.26	2199.14
556.61	2203.89
556.97	2208.36
557.32	2212.31
557.68	2216.51
558.03	2220.66
558.39	2224.23
558.74	2228.77
559.10	2232.74
559.45	2236.45
559.81	2240.78
560.16	2244.66
560.52	2247.90
560.87	2251.21
561.23	2253.73
561.58	2256.55
561.94	2259.01
562.29	2261.36
562.64	2264.21
563.00	2266.84
563.35	2270.46
563.71	2273.47
564.06	2276.59
564.42	2279.29
564.77	2282.00
565.12	2284.24
565.48	2286.18
565.83	2288.26
566.19	2289.65
566.54	2290.45
566.89	2291.56
567.25	2292.20
567.60	2293.28
567.96	2294.93
568.31	2295.80
568.66	2297.01
569.02	2297.72
569.37	2298.03
569.72	2298.96
570.08	2299.10
570.43	2299.08
570.78	2298.33
571.14	2296.90
571.49	2295.64
571.84	2295.39
572.20	2294.23
572.55	2293.19
572.90	2291.64
573.26	2290.23
573.61	2288.47
573.96	2286.70
574.31	2283.82
574.67	2280.96
575.02	2277.56
575.37	2274.20
575.72	2270.46
576.08	2267.18
576.43	2263.75
576.78	2260.16
577.13	2256.87
577.49	2253.78
577.84	2250.35
578.19	2246.62
578.54	2243.09
578.90	2238.95
579.25	2233.46
579.60	2228.52
579.95	2223.61
580.30	2218.65
580.66	2213.59
581.01	2208.73
581.36	2203.99
581.71	2199.75
582.06	2195.41
582.42	2190.97
582.77	2185.83
583.12	2181.34
583.47	2176.66
583.82	2171.82
584.17	2166.78
584.53	2161.31
584.88	2155.64
585.23	2149.92
585.58	2144.57
585.93	2139.07
586.28	2134.37
586.63	2129.31
586.98	2124.22
587.34	2119.53
587.69	2114.70
588.04	2109.49
588.39	2103.90
588.74	2097.26
589.09	2091.23
589.44	2084.42
589.79	2078.38
590.14	2072.84
590.49	2066.30
590.84	2059.97
591.19	2054.07
591.54	2047.60
591.89	2040.41
592.25	2033.80
592.60	2026.57
592.95	2019.03
593.30	2011.80
593.65	2004.19
594.00	1997.23
594.35	1990.13
594.70	1982.05
595.05	1974.96
595.40	1967.73
595.75	1960.10
596.10	1954.03
596.45	1947.42
596.80	1941.08
597.15	1934.51
597.50	1927.44
597.85	1920.92
598.19	1914.18
598.54	1906.97
598.89	1900.32
599.24	1894.40
599.59	1887.68
599.94	1881.43
600.29	1874.97
600.64	1868.34
600.99	1860.95
601.34	1854.08
601.69	1847.14
602.04	1840.31
602.39	1832.88
602.74	1825.92
603.08	1819.41
603.43	1812.63
603.78	1805.28
604.13	1798.31
604.48	1791.15
604.83	1784.36
605.18	1777.53
605.53	1769.53
605.87	1761.53
606.22	1754.35
606.57	1746.41
606.92	1739.15
607.27	1732.07
607.62	1725.29
607.96	1718.09
608.31	1711.48
608.66	1703.81
609.01	1696.28
609.36	1688.71
609.70	1680.76
610.05	1672.81
610.40	1665.01
610.75	1656.80
611.10	1649.08
611.44	1640.55
611.79	1632.49
612.14	1623.83
612.49	1614.59
612.83	1606.24
613.18	1598.11
613.53	1589.89
613.88	1581.28
614.22	1572.94
614.57	1564.29
614.92	1556.24
615.27	1548.72
615.61	1540.32
615.96	1532.33
616.31	1524.58
616.65	1517.18
617.00	1509.53
617.35	1501.83
617.70	1493.54
618.04	1484.96
618.39	1476.79
618.74	1469.12
619.08	1460.80
619.43	1453.10
619.78	1446.23
620.12	1439.18
620.47	1431.74
620.82	1423.58
621.16	1416.23
621.51	1408.68
621.85	1401.08
622.20	1392.56
622.55	1384.24
622.89	1376.36
623.24	1368.63
623.59	1361.22
623.93	1353.72
624.28	1346.53
624.62	1339.02
624.97	1331.79
625.32	1325.08
625.66	1318.04
626.01	1310.94
626.35	1303.52
626.70	1295.78
627.04	1287.99
627.39	1280.12
627.73	1272.62
628.08	1265.77
628.43	1258.45
628.77	1250.96
629.12	1243.38
629.46	1236.25
629.81	1228.69
630.15	1221.45
630.50	1214.13
630.84	1206.05
631.19	1198.12
631.53	1190.60
631.88	1182.91
632.22	1175.34
632.57	1167.98
632.91	1160.44
633.26	1153.04
633.60	1145.56
633.95	1138.47
634.29	1131.42
634.64	1124.72
634.98	1117.35
635.32	1110.11
635.67	1103.50
636.01	1096.86
636.36	1090.11
636.70	1083.49
637.05	1077.03
637.39	1070.73
637.73	1064.24
638.08	1058.28
638.42	1052.22
638.77	1045.71
639.11	1039.19
639.45	1032.75
639.80	1026.11
640.14	1019.67
640.49	1013.11
640.83	1006.94
641.17	1000.70
641.52	994.36
641.86	987.95
642.20	982.05
642.55	975.76
642.89	969.29
643.23	962.81
643.58	957.05
643.92	950.91
644.26	944.77
644.61	938.69
644.95	932.66
645.29	926.12
645.64	919.38
645.98	913.12
646.32	907.22
646.66	901.14
647.01	895.35
647.35	889.65
647.69	883.80
648.04	878.17
648.38	872.36
648.72	866.46
649.06	860.35
649.41	854.47
649.75	848.48
650.09	842.62
650.43	836.89
650.78	830.78
651.12	824.79
651.46	819.11
651.80	813.32
652.14	807.94
652.49	802.56
652.83	797.51
653.17	791.84
653.51	786.08
653.85	780.69
654.20	775.01
654.54	768.91
654.88	763.17
655.22	757.26
655.56	751.58
655.90	746.04
656.25	740.78
656.59	735.44
656.93	730.35
657.27	725.08
657.61	719.56
657.95	714.38
658.29	709.34
658.64	704.06
658.98	698.80
659.32	693.28
659.66	688.03
660.00	682.62
660.34	677.59
660.68	672.76
661.02	667.76
661.36	663.08
661.70	658.70
662.05	654.34
662.39	650.07
662.73	645.62
663.07	641.27
663.41	636.81
663.75	632.31
664.09	627.77
664.43	623.44
664.77	619.36
665.11	615.11
665.45	610.96
665.79	606.79
666.13	602.59
666.47	598.55
666.81	594.42
667.15	590.29
667.49	586.43
667.83	582.59
668.17	578.63
668.51	574.59
668.85	570.52
669.19	566.67
669.53	562.81
669.87	558.94
670.21	555.19
670.55	551.56
670.89	548.14
671.23	544.65
671.57	541.12
671.91	537.56
672.25	534.07
672.58	530.55
672.92	527.18
673.26	524.00
673.60	520.84
673.94	517.67
674.28	514.77
674.62	511.83
674.96	508.75
675.30	505.87
675.64	502.88
675.97	500.11
676.31	497.26
676.65	494.32
676.99	491.66
677.33	488.78
677.67	485.97
678.01	482.94
678.34	480.01
678.68	477.14
679.02	474.34
679.36	471.58
679.70	468.83
680.04	466.07
680.37	463.24
680.71	460.40
681.05	457.81
681.39	455.09
681.73	452.39
682.06	449.87
682.40	447.30
682.74	444.77
683.08	442.17
683.42	439.58
683.75	437.05
684.09	434.43
684.43	432.00
684.77	429.55
685.10	427.19
685.44	424.85
685.78	422.57
686.12	420.27
686.45	417.96
686.79	415.69
687.13	413.55
687.46	411.35
687.80	409.23
688.14	406.97
688.48	404.96
688.81	402.78
689.15	400.62
689.49	398.50
689.82	396.42
690.16	394.39
690.50	392.39
690.83	390.51
691.17	388.60
691.51	386.72
691.84	384.84
692.18	382.93
692.52	380.95
692.85	379.01
693.19	377.19
693.52	375.39
693.86	373.58
694.20	371.78
694.53	370.05
694.87	368.19
695.21	366.46
695.54	364.54
695.88	362.80
696.21	361.04
696.55	359.36
696.88	357.67
697.22	355.98
697.56	354.36
697.89	352.72
698.23	351.07
698.56	349.40
698.90	347.80
699.23	346.15
699.57	344.61
699.90	343.03
700.24	341.49
700.58	339.98
700.91	338.46
701.25	336.95
701.58	335.57
701.92	334.19
702.25	332.78
702.59	331.49
702.92	330.14
703.26	328.79
703.59	327.50
703.93	326.33
704.26	325.10
704.60	323.81
704.93	322.49
705.26	321.22
705.60	320.02
705.93	318.88
706.27	317.87
706.60	316.77
706.94	315.72
707.27	314.55
707.61	313.49
707.94	312.44
708.27	311.38
708.61	310.22
708.94	309.22
709.28	308.27
709.61	307.28
709.94	306.30
710.28	305.33
710.61	304.33
710.95	303.22
711.28	302.27
711.61	301.31
711.95	300.39
712.28	299.46
712.61	298.49
712.95	297.58
713.28	296.67
713.61	295.79
713.95	294.92
714.28	294.12
714.61	293.20
714.95	292.38
715.28	291.51
715.61	290.64
715.95	289.79
716.28	288.90
716.61	288.04
716.95	287.22
717.28	286.44
717.61	285.69
717.94	284.96
718.28	284.19
718.61	283.46
718.94	282.78
719.27	282.12
719.61	281.50
719.94	280.83
720.27	280.10
720.60	279.45
720.94	278.79
721.27	278.14
721.60	277.56
721.93	276.96
722.27	276.41
722.60	275.92
722.93	275.35
723.26	274.79
723.59	274.26
723.93	273.74
724.26	273.22
724.59	272.62
724.92	272.12
725.25	271.64
725.59	271.14
725.92	270.63
726.25	270.10
726.58	269.58
726.91	269.11
727.24	268.68
727.57	268.22
727.91	267.72
728.24	267.30
728.57	266.81
728.90	266.36
729.23	265.90
729.56	265.45
729.89	264.98
730.22	264.52
730.55	264.05
730.89	263.60
731.22	263.16
731.55	262.78
731.88	262.34
732.21	261.87
732.54	261.45
732.87	261.03
733.20	260.65
733.53	260.27
733.86	259.87
734.19	259.44
734.52	259.03
734.85	258.74
735.18	258.33
735.51	258.00
735.84	257.63
736.17	257.26
736.50	256.87
736.83	256.66
737.16	256.35
737.49	256.03
737.82	255.66
738.15	255.28
738.48	254.92
738.81	254.59
739.14	254.29
739.47	254.00
739.80	253.66
740.13	253.33
740.46	253.00
740.79	252.69
741.12	252.38
741.45	252.10
741.78	251.71
742.11	251.41
742.44	251.07
742.77	250.79
743.10	250.51
743.43	250.18
743.75	249.79
744.08	249.63
744.41	249.35
744.74	249.12
745.07	248.89
745.40	248.66
745.73	248.38
746.06	248.12
746.39	247.86
746.71	247.58
747.04	247.32
747.37	247.08
747.70	246.81
748.03	246.58
748.36	246.34
748.68	246.12
749.01	245.87
749.34	245.61
749.67	245.38
750.00	245.15
750.33	245.00
750.65	244.79
750.98	244.45
751.31	244.22
751.64	244.00
751.97	243.81
752.29	243.57
752.62	243.37
752.95	243.13
753.28	242.91
753.60	242.74
753.93	242.58
754.26	242.39
754.59	242.18
754.91	241.98
755.24	241.79
755.57	241.61
755.90	241.42
756.22	241.24
756.55	241.02
756.88	240.82
757.20	240.58
757.53	240.39
757.86	240.22
758.19	240.08
758.51	239.91
758.84	239.70
759.17	239.54
759.49	239.39
759.82	239.30
760.15	239.13
760.47	238.96
760.80	238.78
761.13	238.66
761.45	238.47
761.78	238.29
762.11	238.13
762.43	237.97
762.76	237.86
763.08	237.74
763.41	237.64
763.74	237.48
764.06	237.37
764.39	237.21
764.71	237.10
765.04	236.97
765.37	236.84
765.69	236.73
766.02	236.59
766.34	236.44
766.67	236.29
767.00	236.25
767.32	236.20
767.65	236.15
767.97	236.01
768.30	235.94
768.62	235.88
768.95	235.78
769.27	235.66
769.60	235.57
769.92	235.44
770.25	235.33
770.57	235.22
770.90	235.10
771.22	234.98
771.55	234.88
771.87	234.80
772.20	234.72
772.52	234.72
772.85	234.75
773.17	234.68
773.50	234.58
773.82	234.44
774.15	234.27
774.47	234.14
774.80	234.05
775.12	233.97
775.45	233.86
775.77	233.78
776.09	233.75
776.42	233.64
776.74	233.59
777.07	233.51
777.39	233.47
777.72	233.41
778.04	233.38
778.36	233.32
778.69	233.23
779.01	233.12
779.33	232.94
779.66	232.78
779.98	232.71
780.31	232.62
780.63	232.59
780.95	232.57
781.28	232.50
781.60	232.43
781.92	232.35
782.25	232.30
782.57	232.22
782.89	232.12
783.22	232.06
783.54	232.01
783.86	231.93
784.19	231.88
784.51	231.81
784.83	231.74
785.16	231.65
785.48	231.57
785.80	231.53
786.12	231.46
786.45	231.40
786.77	231.36
787.09	231.30
