SpectraSuite Data File
++++++++++++++++++++++++++++++++++++
Date: Fri Feb 01 15:05:27 EST 2013
User: group
Dark Spectrum Present: No
Reference Spectrum Present: No
Number of Sampled Component Spectra: 1
Spectrometers: USB2E7196
Integration Time (usec): 35000 (USB2E7196)
Spectra Averaged: 100 (USB2E7196)
Boxcar Smoothing: 10 (USB2E7196)
Correct for Electrical Dark: No (USB2E7196)
Strobe/Lamp Enabled: No (USB2E7196)
Correct for Detector Non-linearity: No (USB2E7196)
Correct for Stray Light: No (USB2E7196)
Number of Pixels in Processed Spectrum: 2048
>>>>>Begin Processed Spectral Data<<<<<
339.09	0.00
339.48	215.60
339.86	216.40
340.24	217.66
340.63	219.05
341.01	221.89
341.39	222.46
341.78	223.25
342.16	225.09
342.54	225.27
342.93	213.46
343.31	224.24
343.69	224.76
344.07	225.24
344.46	225.69
344.84	226.07
345.22	226.34
345.60	226.59
345.99	226.78
346.37	226.89
346.75	226.99
347.13	227.06
347.52	227.11
347.90	227.17
348.28	227.21
348.66	227.29
349.05	227.32
349.43	227.37
349.81	227.40
350.19	227.44
350.57	227.49
350.96	227.56
351.34	227.65
351.72	227.75
352.10	227.83
352.48	227.90
352.87	227.97
353.25	228.03
353.63	228.05
354.01	228.13
354.39	228.20
354.77	228.27
355.15	228.36
355.54	228.43
355.92	228.49
356.30	228.60
356.68	228.69
357.06	228.77
357.44	228.83
357.82	228.91
358.20	229.00
358.58	229.07
358.97	229.12
359.35	229.20
359.73	229.25
360.11	229.33
360.49	229.33
360.87	229.40
361.25	229.43
361.63	229.53
362.01	229.59
362.39	229.63
362.77	229.66
363.15	229.69
363.53	229.71
363.91	229.74
364.29	229.72
364.67	229.64
365.05	229.62
365.43	229.61
365.81	229.62
366.19	229.62
366.57	229.64
366.95	229.63
367.33	229.58
367.71	229.55
368.09	229.50
368.47	229.50
368.85	229.44
369.23	229.42
369.61	229.37
369.99	229.29
370.37	229.26
370.75	229.27
371.13	229.19
371.51	229.11
371.89	229.04
372.27	229.00
372.65	228.97
373.03	228.90
373.41	228.82
373.78	228.73
374.16	228.64
374.54	228.53
374.92	228.46
375.30	228.38
375.68	228.32
376.06	228.29
376.44	228.18
376.82	228.13
377.19	228.04
377.57	227.95
377.95	227.89
378.33	227.82
378.71	227.69
379.09	227.65
379.47	227.60
379.84	227.54
380.22	227.43
380.60	227.32
380.98	227.23
381.36	227.18
381.73	227.05
382.11	226.98
382.49	226.94
382.87	226.85
383.25	226.80
383.62	226.85
384.00	226.78
384.38	226.72
384.76	226.67
385.13	226.65
385.51	226.59
385.89	226.51
386.27	226.46
386.64	226.41
387.02	226.31
387.40	226.29
387.78	226.23
388.15	226.21
388.53	226.17
388.91	226.16
389.29	226.11
389.66	226.13
390.04	226.14
390.42	226.13
390.79	226.11
391.17	226.08
391.55	225.97
391.92	225.96
392.30	226.00
392.68	225.95
393.05	225.96
393.43	225.97
393.81	226.00
394.18	226.00
394.56	226.02
394.94	226.08
395.31	226.10
395.69	226.18
396.06	226.26
396.44	226.33
396.82	226.39
397.19	226.49
397.57	226.58
397.95	226.62
398.32	226.64
398.70	226.75
399.07	226.85
399.45	226.91
399.82	226.96
400.20	227.03
400.58	227.17
400.95	227.25
401.33	227.33
401.70	227.50
402.08	227.64
402.45	227.76
402.83	227.92
403.20	228.06
403.58	228.17
403.95	228.26
404.33	228.39
404.71	228.53
405.08	228.73
405.46	228.83
405.83	229.03
406.21	229.19
406.58	229.34
406.96	229.52
407.33	229.69
407.70	229.92
408.08	230.22
408.45	230.46
408.83	230.71
409.20	230.95
409.58	231.12
409.95	231.36
410.33	231.66
410.70	231.91
411.08	232.20
411.45	232.53
411.82	232.87
412.20	233.21
412.57	233.64
412.95	233.93
413.32	234.37
413.69	234.75
414.07	235.19
414.44	235.68
414.82	236.15
415.19	236.72
415.56	237.24
415.94	237.74
416.31	238.36
416.68	238.96
417.06	239.69
417.43	240.39
417.81	241.17
418.18	241.94
418.55	242.73
418.93	243.58
419.30	244.46
419.67	245.41
420.04	246.39
420.42	247.37
420.79	248.55
421.16	249.72
421.54	250.91
421.91	252.14
422.28	253.39
422.66	254.73
423.03	256.03
423.40	257.38
423.77	258.84
424.15	260.26
424.52	261.76
424.89	263.38
425.26	264.96
425.64	266.39
426.01	267.99
426.38	269.68
426.75	271.36
427.13	273.07
427.50	274.86
427.87	276.68
428.24	278.52
428.61	280.29
428.99	282.22
429.36	284.34
429.73	286.40
430.10	288.40
430.47	290.43
430.85	292.59
431.22	294.82
431.59	297.19
431.96	299.43
432.33	301.89
432.70	304.25
433.08	307.05
433.45	309.69
433.82	312.28
434.19	315.17
434.56	318.00
434.93	320.65
435.30	323.27
435.68	326.22
436.05	329.11
436.42	331.93
436.79	334.45
437.16	337.12
437.53	339.97
437.90	342.84
438.27	345.61
438.64	348.42
439.01	351.03
439.38	353.25
439.75	355.41
440.13	357.91
440.50	360.22
440.87	362.08
441.24	364.00
441.61	366.20
441.98	367.67
442.35	369.48
442.72	371.33
443.09	373.12
443.46	374.13
443.83	374.70
444.20	375.16
444.57	376.01
444.94	376.33
445.31	376.64
445.68	376.95
446.05	376.99
446.42	376.59
446.79	376.15
447.16	375.72
447.53	375.43
447.90	374.30
448.27	373.15
448.64	371.55
449.01	370.42
449.37	368.43
449.74	366.54
450.11	364.26
450.48	361.82
450.85	359.32
451.22	357.18
451.59	355.13
451.96	353.16
452.33	350.56
452.70	348.19
453.07	345.34
453.43	342.47
453.80	339.72
454.17	337.03
454.54	334.50
454.91	331.78
455.28	329.10
455.65	326.60
456.02	324.18
456.38	322.04
456.75	319.41
457.12	317.13
457.49	314.88
457.86	312.75
458.23	310.85
458.59	308.82
458.96	306.70
459.33	304.86
459.70	303.05
460.07	301.52
460.43	299.79
460.80	298.17
461.17	296.72
461.54	295.26
461.91	293.84
462.27	292.37
462.64	291.13
463.01	289.78
463.38	288.50
463.74	287.10
464.11	285.91
464.48	284.88
464.85	283.79
465.21	282.94
465.58	281.99
465.95	280.92
466.32	279.99
466.68	279.09
467.05	278.22
467.42	277.32
467.78	276.40
468.15	275.55
468.52	274.88
468.88	274.02
469.25	273.25
469.62	272.63
469.98	271.93
470.35	271.30
470.72	270.68
471.08	269.97
471.45	269.46
471.82	268.90
472.18	268.28
472.55	267.84
472.92	267.30
473.28	266.83
473.65	266.34
474.02	265.86
474.38	265.47
474.75	265.09
475.11	264.73
475.48	264.45
475.85	264.16
476.21	263.91
476.58	263.69
476.94	263.48
477.31	263.28
477.67	263.15
478.04	263.00
478.41	262.90
478.77	262.94
479.14	262.85
479.50	262.84
479.87	262.90
480.23	262.98
480.60	263.01
480.96	263.14
481.33	263.36
481.69	263.56
482.06	263.76
482.42	263.97
482.79	264.23
483.15	264.53
483.52	264.93
483.88	265.28
484.25	265.69
484.61	266.13
484.98	266.58
485.34	267.16
485.71	267.73
486.07	268.34
486.44	268.92
486.80	269.62
487.17	270.36
487.53	271.17
487.90	271.97
488.26	272.94
488.62	273.91
488.99	274.86
489.35	275.92
489.72	277.06
490.08	278.23
490.44	279.45
490.81	280.74
491.17	282.08
491.54	283.57
491.90	285.09
492.26	286.75
492.63	288.48
492.99	290.22
493.36	292.13
493.72	294.21
494.08	296.28
494.45	298.48
494.81	300.82
495.17	303.22
495.54	305.79
495.90	308.46
496.26	311.19
496.63	314.11
496.99	317.20
497.35	320.42
497.72	323.82
498.08	327.29
498.44	330.97
498.80	334.89
499.17	338.88
499.53	342.99
499.89	347.30
500.26	351.78
500.62	356.45
500.98	361.38
501.34	366.39
501.71	371.76
502.07	377.19
502.43	382.76
502.79	388.60
503.16	394.65
503.52	400.95
503.88	407.36
504.24	413.95
504.60	420.78
504.97	427.89
505.33	435.17
505.69	442.90
506.05	450.67
506.41	458.53
506.78	466.71
507.14	475.18
507.50	483.91
507.86	492.84
508.22	502.02
508.59	511.25
508.95	520.85
509.31	530.60
509.67	540.76
510.03	551.11
510.39	561.63
510.75	572.44
511.12	583.33
511.48	594.63
511.84	606.10
512.20	617.62
512.56	629.53
512.92	641.75
513.28	653.99
513.64	666.54
514.00	679.19
514.37	692.14
514.73	705.20
515.09	718.31
515.45	731.67
515.81	745.25
516.17	759.27
516.53	773.29
516.89	787.52
517.25	801.66
517.61	816.07
517.97	830.54
518.33	845.00
518.69	859.80
519.05	874.81
519.41	890.12
519.77	905.69
520.13	921.21
520.49	936.54
520.85	952.04
521.21	967.79
521.57	984.07
521.93	999.92
522.29	1016.31
522.65	1032.56
523.01	1048.84
523.37	1065.05
523.73	1081.23
524.09	1097.47
524.45	1113.80
524.81	1130.51
525.17	1147.42
525.53	1164.36
525.89	1181.22
526.25	1198.18
526.61	1214.63
526.97	1231.34
527.33	1247.98
527.68	1264.63
528.04	1281.22
528.40	1297.87
528.76	1315.05
529.12	1331.83
529.48	1348.74
529.84	1364.86
530.20	1381.49
530.56	1398.59
530.91	1415.94
531.27	1432.78
531.63	1449.31
531.99	1466.01
532.35	1482.15
532.71	1498.07
533.07	1514.42
533.42	1530.40
533.78	1546.38
534.14	1562.76
534.50	1578.00
534.86	1593.90
535.21	1609.08
535.57	1625.18
535.93	1640.85
536.29	1655.69
536.65	1670.81
537.00	1685.69
537.36	1701.15
537.72	1715.91
538.08	1730.40
538.44	1744.28
538.79	1758.30
539.15	1772.18
539.51	1786.01
539.87	1800.38
540.22	1814.19
540.58	1828.05
540.94	1841.58
541.29	1854.76
541.65	1867.54
542.01	1881.13
542.37	1893.50
542.72	1905.95
543.08	1917.86
543.44	1930.38
543.79	1941.54
544.15	1952.46
544.51	1964.01
544.87	1975.06
545.22	1985.86
545.58	1996.07
545.94	2005.95
546.29	2015.87
546.65	2025.55
547.01	2034.74
547.36	2043.56
547.72	2052.08
548.07	2060.01
548.43	2068.27
548.79	2076.19
549.14	2083.67
549.50	2091.03
549.86	2098.90
550.21	2106.30
550.57	2113.40
550.92	2119.90
551.28	2126.98
551.64	2134.20
551.99	2140.87
552.35	2147.02
552.70	2153.14
553.06	2159.09
553.41	2165.34
553.77	2171.36
554.13	2177.65
554.48	2183.74
554.84	2189.09
555.19	2194.45
555.55	2199.51
555.90	2203.82
556.26	2208.54
556.61	2213.31
556.97	2217.40
557.32	2221.36
557.68	2225.54
558.03	2229.80
558.39	2233.51
558.74	2238.26
559.10	2241.97
559.45	2245.46
559.81	2249.59
560.16	2253.36
560.52	2256.65
560.87	2260.22
561.23	2262.61
561.58	2265.28
561.94	2267.80
562.29	2270.14
562.64	2272.59
563.00	2275.22
563.35	2278.70
563.71	2281.87
564.06	2285.05
564.42	2287.84
564.77	2290.21
565.12	2292.22
565.48	2294.00
565.83	2295.75
566.19	2296.87
566.54	2298.01
566.89	2299.04
567.25	2299.61
567.60	2300.84
567.96	2302.36
568.31	2302.95
568.66	2304.05
569.02	2304.68
569.37	2304.90
569.72	2305.56
570.08	2305.57
570.43	2305.49
570.78	2304.73
571.14	2303.22
571.49	2301.71
571.84	2301.33
572.20	2300.10
572.55	2299.07
572.90	2297.33
573.26	2295.61
573.61	2293.70
573.96	2291.55
574.31	2288.45
574.67	2285.10
575.02	2281.20
575.37	2277.73
575.72	2273.74
576.08	2270.40
576.43	2266.88
576.78	2263.07
577.13	2259.77
577.49	2256.73
577.84	2253.09
578.19	2249.27
578.54	2245.28
578.90	2240.84
579.25	2235.16
579.60	2230.09
579.95	2224.87
580.30	2219.75
580.66	2214.66
581.01	2209.65
581.36	2204.61
581.71	2200.36
582.06	2196.05
582.42	2191.63
582.77	2186.21
583.12	2181.50
583.47	2176.53
583.82	2171.36
584.17	2165.99
584.53	2160.41
584.88	2154.54
585.23	2148.55
585.58	2143.01
585.93	2137.54
586.28	2132.79
586.63	2127.57
586.98	2122.42
587.34	2117.72
587.69	2112.86
588.04	2107.62
588.39	2101.72
588.74	2095.09
589.09	2088.67
589.44	2081.57
589.79	2075.41
590.14	2069.67
590.49	2063.09
590.84	2056.58
591.19	2050.48
591.54	2043.97
591.89	2036.46
592.25	2029.59
592.60	2022.27
592.95	2014.44
593.30	2006.97
593.65	1999.24
594.00	1992.12
594.35	1984.72
594.70	1976.53
595.05	1968.97
595.40	1961.49
595.75	1954.05
596.10	1947.65
596.45	1940.94
596.80	1934.75
597.15	1927.97
597.50	1920.71
597.85	1914.31
598.19	1907.64
598.54	1900.46
598.89	1893.68
599.24	1887.78
599.59	1881.08
599.94	1874.88
600.29	1868.63
600.64	1861.99
600.99	1854.41
601.34	1847.59
601.69	1840.63
602.04	1833.74
602.39	1826.47
602.74	1819.68
603.08	1812.94
603.43	1806.36
603.78	1799.00
604.13	1791.86
604.48	1784.51
604.83	1777.77
605.18	1770.55
605.53	1762.51
605.87	1754.47
606.22	1747.35
606.57	1739.35
606.92	1732.02
607.27	1724.67
607.62	1717.74
607.96	1710.50
608.31	1703.93
608.66	1696.15
609.01	1688.62
609.36	1681.11
609.70	1673.12
610.05	1664.92
610.40	1657.13
610.75	1648.80
611.10	1641.16
611.44	1632.68
611.79	1624.76
612.14	1616.11
612.49	1607.05
612.83	1598.76
613.18	1590.70
613.53	1582.64
613.88	1574.04
614.22	1565.79
614.57	1557.41
614.92	1549.37
615.27	1541.78
615.61	1533.50
615.96	1525.60
616.31	1517.91
616.65	1510.48
617.00	1502.96
617.35	1495.35
617.70	1487.02
618.04	1478.45
618.39	1470.29
618.74	1462.83
619.08	1454.58
619.43	1447.03
619.78	1440.17
620.12	1432.91
620.47	1425.40
620.82	1417.18
621.16	1409.84
621.51	1402.23
621.85	1394.66
622.20	1386.08
622.55	1377.80
622.89	1369.98
623.24	1362.45
623.59	1355.22
623.93	1347.72
624.28	1340.49
624.62	1333.02
624.97	1325.81
625.32	1319.13
625.66	1312.13
626.01	1304.91
626.35	1297.41
626.70	1289.68
627.04	1281.86
627.39	1274.19
627.73	1266.77
628.08	1259.93
628.43	1252.73
628.77	1245.34
629.12	1237.77
629.46	1230.65
629.81	1223.33
630.15	1216.13
630.50	1208.68
630.84	1200.43
631.19	1192.49
631.53	1184.99
631.88	1177.46
632.22	1169.95
632.57	1162.76
632.91	1155.18
633.26	1147.84
633.60	1140.59
633.95	1133.67
634.29	1126.77
634.64	1120.08
634.98	1112.78
635.32	1105.63
635.67	1099.15
636.01	1092.59
636.36	1085.75
636.70	1079.35
637.05	1072.79
637.39	1066.36
637.73	1059.92
638.08	1054.18
638.42	1048.36
638.77	1041.99
639.11	1035.43
639.45	1029.14
639.80	1022.45
640.14	1016.07
640.49	1009.57
640.83	1003.31
641.17	996.97
641.52	990.76
641.86	984.48
642.20	978.75
642.55	972.55
642.89	966.00
643.23	959.50
643.58	953.78
643.92	947.55
644.26	941.38
644.61	935.39
644.95	929.41
645.29	922.75
645.64	915.95
645.98	909.63
646.32	903.89
646.66	897.86
647.01	892.19
647.35	886.56
647.69	880.72
648.04	875.21
648.38	869.39
648.72	863.24
649.06	857.09
649.41	851.18
649.75	845.14
650.09	839.13
650.43	833.35
650.78	827.28
651.12	821.41
651.46	815.75
651.80	809.99
652.14	804.55
652.49	799.25
652.83	794.16
653.17	788.43
653.51	782.67
653.85	777.34
654.20	771.65
654.54	765.65
654.88	759.97
655.22	754.12
655.56	748.52
655.90	743.15
656.25	737.93
656.59	732.65
656.93	727.60
657.27	722.54
657.61	717.15
657.95	712.04
658.29	706.94
658.64	701.71
658.98	696.45
659.32	691.06
659.66	685.85
660.00	680.49
660.34	675.65
660.68	670.71
661.02	665.69
661.36	660.96
661.70	656.51
662.05	652.17
662.39	647.77
662.73	643.30
663.07	638.91
663.41	634.52
663.75	630.00
664.09	625.43
664.43	621.08
664.77	616.95
665.11	612.66
665.45	608.62
665.79	604.64
666.13	600.51
666.47	596.44
666.81	592.28
667.15	588.24
667.49	584.32
667.83	580.56
668.17	576.59
668.51	572.53
668.85	568.56
669.19	564.75
669.53	560.96
669.87	557.09
670.21	553.49
670.55	549.90
670.89	546.46
671.23	543.02
671.57	539.52
671.91	535.97
672.25	532.54
672.58	529.03
672.92	525.58
673.26	522.42
673.60	519.32
673.94	516.22
674.28	513.37
674.62	510.50
674.96	507.39
675.30	504.51
675.64	501.63
675.97	498.88
676.31	495.97
676.65	493.13
676.99	490.50
677.33	487.66
677.67	484.80
678.01	481.81
678.34	478.90
678.68	476.04
679.02	473.31
679.36	470.60
679.70	467.81
680.04	465.12
680.37	462.24
680.71	459.51
681.05	456.92
681.39	454.21
681.73	451.55
682.06	449.09
682.40	446.56
682.74	444.13
683.08	441.53
683.42	438.97
683.75	436.47
684.09	433.95
684.43	431.44
684.77	429.00
685.10	426.72
685.44	424.44
685.78	422.18
686.12	419.92
686.45	417.65
686.79	415.44
687.13	413.30
687.46	411.18
687.80	408.96
688.14	406.79
688.48	404.72
688.81	402.51
689.15	400.34
689.49	398.28
689.82	396.17
690.16	394.11
690.50	392.19
690.83	390.24
691.17	388.26
691.51	386.39
691.84	384.58
692.18	382.63
692.52	380.65
692.85	378.74
693.19	376.84
693.52	375.02
693.86	373.22
694.20	371.41
694.53	369.62
694.87	367.81
695.21	366.06
695.54	364.22
695.88	362.50
696.21	360.82
696.55	359.08
696.88	357.40
697.22	355.82
697.56	354.17
697.89	352.56
698.23	350.94
698.56	349.40
698.90	347.81
699.23	346.15
699.57	344.60
699.90	343.05
700.24	341.56
700.58	340.01
700.91	338.49
701.25	337.05
701.58	335.70
701.92	334.36
702.25	332.98
702.59	331.62
702.92	330.30
703.26	328.97
703.59	327.71
703.93	326.54
704.26	325.26
704.60	323.99
704.93	322.64
705.26	321.45
705.60	320.23
705.93	319.10
706.27	318.06
706.60	317.07
706.94	315.99
707.27	314.87
707.61	313.82
707.94	312.79
708.27	311.71
708.61	310.65
708.94	309.62
709.28	308.64
709.61	307.74
709.94	306.81
710.28	305.77
710.61	304.82
710.95	303.73
711.28	302.85
711.61	301.93
711.95	301.08
712.28	300.10
712.61	299.13
712.95	298.21
713.28	297.30
713.61	296.37
713.95	295.48
714.28	294.60
714.61	293.76
714.95	292.96
715.28	292.07
715.61	291.20
715.95	290.33
716.28	289.48
716.61	288.65
716.95	287.79
717.28	287.06
717.61	286.30
717.94	285.57
718.28	284.75
718.61	284.00
718.94	283.32
719.27	282.64
719.61	282.00
719.94	281.30
720.27	280.63
720.60	280.01
720.94	279.42
721.27	278.85
721.60	278.29
721.93	277.67
722.27	277.18
722.60	276.61
722.93	276.06
723.26	275.56
723.59	275.00
723.93	274.47
724.26	273.96
724.59	273.40
724.92	272.88
725.25	272.39
725.59	271.92
725.92	271.40
726.25	270.94
726.58	270.45
726.91	269.97
727.24	269.47
727.57	269.00
727.91	268.50
728.24	268.05
728.57	267.55
728.90	267.12
729.23	266.63
729.56	266.21
729.89	265.76
730.22	265.26
730.55	264.78
730.89	264.37
731.22	263.91
731.55	263.49
731.88	263.09
732.21	262.67
732.54	262.21
732.87	261.80
733.20	261.40
733.53	260.99
733.86	260.62
734.19	260.24
734.52	259.85
734.85	259.56
735.18	259.14
735.51	258.77
735.84	258.36
736.17	258.02
736.50	257.60
736.83	257.35
737.16	257.02
737.49	256.68
737.82	256.35
738.15	256.00
738.48	255.64
738.81	255.28
739.14	254.96
739.47	254.65
739.80	254.32
740.13	253.97
740.46	253.62
740.79	253.30
741.12	253.00
741.45	252.67
741.78	252.31
742.11	252.03
742.44	251.73
742.77	251.45
743.10	251.13
743.43	250.85
743.75	250.47
744.08	250.30
744.41	249.99
744.74	249.67
745.07	249.38
745.40	249.13
745.73	248.89
746.06	248.57
746.39	248.30
746.71	248.06
747.04	247.79
747.37	247.59
747.70	247.32
748.03	247.02
748.36	246.80
748.68	246.54
749.01	246.25
749.34	246.00
749.67	245.76
750.00	245.50
750.33	245.32
750.65	245.11
750.98	244.77
751.31	244.58
751.64	244.38
751.97	244.20
752.29	243.99
752.62	243.74
752.95	243.53
753.28	243.30
753.60	243.06
753.93	242.91
754.26	242.67
754.59	242.47
754.91	242.29
755.24	242.10
755.57	241.87
755.90	241.70
756.22	241.50
756.55	241.33
756.88	241.15
757.20	240.95
757.53	240.79
757.86	240.61
758.19	240.46
758.51	240.28
758.84	240.07
759.17	239.90
759.49	239.75
759.82	239.67
760.15	239.51
760.47	239.38
760.80	239.19
761.13	239.08
761.45	238.93
761.78	238.79
762.11	238.65
762.43	238.55
762.76	238.42
763.08	238.31
763.41	238.17
763.74	238.07
764.06	237.90
764.39	237.77
764.71	237.65
765.04	237.55
765.37	237.46
765.69	237.38
766.02	237.25
766.34	237.13
766.67	236.98
767.00	236.90
767.32	236.85
767.65	236.80
767.97	236.69
768.30	236.57
768.62	236.49
768.95	236.35
769.27	236.25
769.60	236.14
769.92	236.01
770.25	235.93
770.57	235.83
770.90	235.71
771.22	235.58
771.55	235.51
771.87	235.38
772.20	235.26
772.52	235.22
772.85	235.24
773.17	235.14
773.50	235.05
773.82	234.96
774.15	234.82
774.47	234.69
774.80	234.59
775.12	234.51
775.45	234.39
775.77	234.34
776.09	234.25
776.42	234.19
776.74	234.14
777.07	234.06
777.39	233.99
777.72	233.92
778.04	233.88
778.36	233.80
778.69	233.78
779.01	233.71
779.33	233.57
779.66	233.42
779.98	233.33
780.31	233.29
780.63	233.28
780.95	233.20
781.28	233.13
781.60	233.06
781.92	233.01
782.25	232.94
782.57	232.88
782.89	232.79
783.22	232.71
783.54	232.63
783.86	232.55
784.19	232.46
784.51	232.44
784.83	232.39
785.16	232.33
785.48	232.25
785.80	232.18
786.12	232.12
786.45	232.05
786.77	232.01
787.09	231.93
