SpectraSuite Data File
++++++++++++++++++++++++++++++++++++
Date: Fri Feb 01 18:04:29 EST 2013
User: group
Dark Spectrum Present: No
Reference Spectrum Present: No
Number of Sampled Component Spectra: 1
Spectrometers: USB2E7196
Integration Time (usec): 35000 (USB2E7196)
Spectra Averaged: 100 (USB2E7196)
Boxcar Smoothing: 10 (USB2E7196)
Correct for Electrical Dark: No (USB2E7196)
Strobe/Lamp Enabled: No (USB2E7196)
Correct for Detector Non-linearity: No (USB2E7196)
Correct for Stray Light: No (USB2E7196)
Number of Pixels in Processed Spectrum: 2048
>>>>>Begin Processed Spectral Data<<<<<
339.09	0.00
339.48	212.89
339.86	214.54
340.24	215.36
340.63	216.95
341.01	219.95
341.39	219.65
341.78	221.27
342.16	222.22
342.54	223.23
342.93	211.23
343.31	221.90
343.69	222.45
344.07	222.90
344.46	223.34
344.84	223.73
345.22	223.97
345.60	224.23
345.99	224.40
346.37	224.53
346.75	224.61
347.13	224.68
347.52	224.72
347.90	224.80
348.28	224.84
348.66	224.89
349.05	224.90
349.43	224.97
349.81	225.02
350.19	225.10
350.57	225.18
350.96	225.26
351.34	225.37
351.72	225.41
352.10	225.49
352.48	225.56
352.87	225.64
353.25	225.71
353.63	225.77
354.01	225.84
354.39	225.90
354.77	226.02
355.15	226.13
355.54	226.23
355.92	226.28
356.30	226.35
356.68	226.50
357.06	226.56
357.44	226.61
357.82	226.67
358.20	226.75
358.58	226.80
358.97	226.89
359.35	226.98
359.73	227.12
360.11	227.19
360.49	227.26
360.87	227.28
361.25	227.38
361.63	227.47
362.01	227.53
362.39	227.60
362.77	227.65
363.15	227.65
363.53	227.69
363.91	227.71
364.29	227.76
364.67	227.65
365.05	227.64
365.43	227.65
365.81	227.63
366.19	227.71
366.57	227.78
366.95	227.79
367.33	227.76
367.71	227.74
368.09	227.75
368.47	227.77
368.85	227.75
369.23	227.73
369.61	227.69
369.99	227.69
370.37	227.68
370.75	227.68
371.13	227.63
371.51	227.59
371.89	227.57
372.27	227.56
372.65	227.53
373.03	227.48
373.41	227.46
373.78	227.45
374.16	227.33
374.54	227.20
374.92	227.15
375.30	227.11
375.68	227.04
376.06	226.98
376.44	226.93
376.82	226.86
377.19	226.81
377.57	226.75
377.95	226.65
378.33	226.60
378.71	226.48
379.09	226.44
379.47	226.38
379.84	226.29
380.22	226.20
380.60	226.15
380.98	226.07
381.36	225.97
381.73	225.88
382.11	225.88
382.49	225.85
382.87	225.76
383.25	225.67
383.62	225.70
384.00	225.62
384.38	225.54
384.76	225.54
385.13	225.50
385.51	225.43
385.89	225.36
386.27	225.29
386.64	225.25
387.02	225.20
387.40	225.16
387.78	225.16
388.15	225.12
388.53	225.10
388.91	225.11
389.29	225.11
389.66	225.10
390.04	225.04
390.42	225.06
390.79	225.06
391.17	225.05
391.55	224.97
391.92	224.99
392.30	225.00
392.68	224.96
393.05	224.93
393.43	224.94
393.81	224.97
394.18	225.00
394.56	225.04
394.94	225.07
395.31	225.08
395.69	225.11
396.06	225.16
396.44	225.19
396.82	225.19
397.19	225.26
397.57	225.26
397.95	225.30
398.32	225.30
398.70	225.34
399.07	225.39
399.45	225.42
399.82	225.47
400.20	225.51
400.58	225.58
400.95	225.61
401.33	225.70
401.70	225.83
402.08	225.88
402.45	225.98
402.83	226.11
403.20	226.21
403.58	226.29
403.95	226.42
404.33	226.56
404.71	226.69
405.08	226.90
405.46	227.07
405.83	227.26
406.21	227.43
406.58	227.60
406.96	227.81
407.33	228.01
407.70	228.26
408.08	228.57
408.45	228.83
408.83	229.14
409.20	229.39
409.58	229.61
409.95	229.95
410.33	230.26
410.70	230.57
411.08	230.93
411.45	231.33
411.82	231.69
412.20	232.14
412.57	232.67
412.95	233.04
413.32	233.57
413.69	234.10
414.07	234.71
414.44	235.33
414.82	235.96
415.19	236.71
415.56	237.40
415.94	238.12
416.31	239.00
416.68	239.84
417.06	240.83
417.43	241.76
417.81	242.76
418.18	243.80
418.55	244.94
418.93	246.14
419.30	247.38
419.67	248.69
420.04	249.98
420.42	251.36
420.79	252.94
421.16	254.53
421.54	256.09
421.91	257.72
422.28	259.46
422.66	261.27
423.03	263.02
423.40	264.88
423.77	266.83
424.15	268.75
424.52	270.77
424.89	272.95
425.26	275.07
425.64	277.06
426.01	279.23
426.38	281.49
426.75	283.77
427.13	286.13
427.50	288.62
427.87	291.16
428.24	293.68
428.61	296.09
428.99	298.70
429.36	301.61
429.73	304.46
430.10	307.17
430.47	309.96
430.85	312.84
431.22	315.87
431.59	319.08
431.96	322.13
432.33	325.53
432.70	328.75
433.08	332.60
433.45	336.18
433.82	339.72
434.19	343.62
434.56	347.40
434.93	350.99
435.30	354.52
435.68	358.44
436.05	362.24
436.42	366.09
436.79	369.47
437.16	373.11
437.53	376.95
437.90	380.79
438.27	384.52
438.64	388.36
439.01	391.88
439.38	394.91
439.75	397.84
440.13	401.23
440.50	404.42
440.87	406.89
441.24	409.54
441.61	412.50
441.98	414.61
442.35	417.07
442.72	419.63
443.09	422.12
443.46	423.50
443.83	424.34
444.20	425.03
444.57	426.24
444.94	426.69
445.31	427.17
445.68	427.65
446.05	427.75
446.42	427.24
446.79	426.69
447.16	426.14
447.53	425.71
447.90	424.16
448.27	422.60
448.64	420.46
449.01	418.95
449.37	416.27
449.74	413.65
450.11	410.59
450.48	407.19
450.85	403.74
451.22	400.88
451.59	398.12
451.96	395.48
452.33	391.94
452.70	388.66
453.07	384.78
453.43	380.82
453.80	377.08
454.17	373.42
454.54	369.98
454.91	366.22
455.28	362.61
455.65	359.18
456.02	355.80
456.38	352.88
456.75	349.23
457.12	346.14
457.49	343.09
457.86	340.16
458.23	337.61
458.59	334.81
458.96	331.90
459.33	329.35
459.70	326.80
460.07	324.76
460.43	322.40
460.80	320.18
461.17	318.18
461.54	316.12
461.91	314.17
462.27	312.16
462.64	310.45
463.01	308.58
463.38	306.80
463.74	304.98
464.11	303.38
464.48	301.95
464.85	300.42
465.21	299.19
465.58	297.90
465.95	296.39
466.32	295.10
466.68	293.89
467.05	292.64
467.42	291.40
467.78	290.07
468.15	288.90
468.52	288.01
468.88	286.86
469.25	285.78
469.62	284.91
469.98	283.99
470.35	283.10
470.72	282.25
471.08	281.35
471.45	280.53
471.82	279.74
472.18	278.93
472.55	278.37
472.92	277.66
473.28	277.05
473.65	276.43
474.02	275.87
474.38	275.31
474.75	274.84
475.11	274.33
475.48	273.92
475.85	273.55
476.21	273.16
476.58	272.85
476.94	272.61
477.31	272.33
477.67	272.05
478.04	271.84
478.41	271.74
478.77	271.71
479.14	271.58
479.50	271.53
479.87	271.52
480.23	271.50
480.60	271.49
480.96	271.50
481.33	271.68
481.69	271.76
482.06	271.91
482.42	272.04
482.79	272.25
483.15	272.55
483.52	272.92
483.88	273.28
484.25	273.66
484.61	274.07
484.98	274.53
485.34	275.09
485.71	275.69
486.07	276.24
486.44	276.81
486.80	277.49
487.17	278.23
487.53	279.06
487.90	279.93
488.26	280.90
488.62	281.90
488.99	282.89
489.35	283.98
489.72	285.16
490.08	286.45
490.44	287.75
490.81	289.15
491.17	290.54
491.54	292.06
491.90	293.65
492.26	295.36
492.63	297.15
492.99	299.06
493.36	301.02
493.72	303.19
494.08	305.40
494.45	307.84
494.81	310.38
495.17	312.91
495.54	315.63
495.90	318.50
496.26	321.45
496.63	324.62
496.99	327.92
497.35	331.37
497.72	335.01
498.08	338.75
498.44	342.61
498.80	346.79
499.17	351.07
499.53	355.54
499.89	360.16
500.26	364.94
500.62	369.84
500.98	375.17
501.34	380.62
501.71	386.23
502.07	391.99
502.43	397.95
502.79	404.19
503.16	410.66
503.52	417.30
503.88	424.16
504.24	431.17
504.60	438.49
504.97	446.01
505.33	453.76
505.69	461.94
506.05	470.27
506.41	478.69
506.78	487.43
507.14	496.47
507.50	505.83
507.86	515.42
508.22	525.22
508.59	535.07
508.95	545.21
509.31	555.74
509.67	566.54
510.03	577.52
510.39	588.80
510.75	600.32
511.12	612.06
511.48	624.16
511.84	636.47
512.20	648.88
512.56	661.76
512.92	674.79
513.28	688.10
513.64	701.55
514.00	715.21
514.37	729.13
514.73	743.14
515.09	757.19
515.45	771.49
515.81	786.19
516.17	801.26
516.53	816.66
516.89	832.06
517.25	847.33
517.61	862.93
517.97	878.64
518.33	894.30
518.69	910.31
519.05	926.51
519.41	943.00
519.77	959.90
520.13	976.71
520.49	993.52
520.85	1010.20
521.21	1027.25
521.57	1044.96
521.93	1062.12
522.29	1080.08
522.65	1097.83
523.01	1115.74
523.37	1133.47
523.73	1151.21
524.09	1168.86
524.45	1186.68
524.81	1205.09
525.17	1223.61
525.53	1242.28
525.89	1260.96
526.25	1279.64
526.61	1297.81
526.97	1316.46
527.33	1334.74
527.68	1353.22
528.04	1371.58
528.40	1390.14
528.76	1409.27
529.12	1427.72
529.48	1446.62
529.84	1464.52
530.20	1483.22
530.56	1502.10
530.91	1521.56
531.27	1540.48
531.63	1559.09
531.99	1577.78
532.35	1595.80
532.71	1613.91
533.07	1632.25
533.42	1650.34
533.78	1668.56
534.14	1687.11
534.50	1704.41
534.86	1722.48
535.21	1739.87
535.57	1758.03
535.93	1775.68
536.29	1792.63
536.65	1809.92
537.00	1826.93
537.36	1844.48
537.72	1861.12
538.08	1877.90
538.44	1893.76
538.79	1909.75
539.15	1925.52
539.51	1941.61
539.87	1958.21
540.22	1974.00
540.58	1990.06
540.94	2005.45
541.29	2020.53
541.65	2035.47
542.01	2051.06
542.37	2065.64
542.72	2080.29
543.08	2094.32
543.44	2109.18
543.79	2122.58
544.15	2135.85
544.51	2149.79
544.87	2163.08
545.22	2176.23
545.58	2188.69
545.94	2200.80
546.29	2212.92
546.65	2225.13
547.01	2236.58
547.36	2247.39
547.72	2258.08
548.07	2268.06
548.43	2278.53
548.79	2288.54
549.14	2298.05
549.50	2307.32
549.86	2317.03
550.21	2326.43
550.57	2335.71
550.92	2344.26
551.28	2353.40
551.64	2362.46
551.99	2370.87
552.35	2379.01
552.70	2387.13
553.06	2395.11
553.41	2403.35
553.77	2411.24
554.13	2419.01
554.48	2427.16
554.84	2434.68
555.19	2441.72
555.55	2448.70
555.90	2454.78
556.26	2461.69
556.61	2468.12
556.97	2474.51
557.32	2480.35
557.68	2486.05
558.03	2492.00
558.39	2497.23
558.74	2503.57
559.10	2509.05
559.45	2514.34
559.81	2520.07
560.16	2525.57
560.52	2530.33
560.87	2535.14
561.23	2539.12
561.58	2543.54
561.94	2547.30
562.29	2551.04
562.64	2555.31
563.00	2559.24
563.35	2564.25
563.71	2568.64
564.06	2573.32
564.42	2577.34
564.77	2581.17
565.12	2584.81
565.48	2587.87
565.83	2591.08
566.19	2593.55
566.54	2595.47
566.89	2597.80
567.25	2599.58
567.60	2601.73
567.96	2604.65
568.31	2606.69
568.66	2609.12
569.02	2610.56
569.37	2611.79
569.72	2613.50
570.08	2614.52
570.43	2615.33
570.78	2615.63
571.14	2614.66
571.49	2613.84
571.84	2614.25
572.20	2613.94
572.55	2613.34
572.90	2612.25
573.26	2611.32
573.61	2609.99
573.96	2608.87
574.31	2605.98
574.67	2603.17
575.02	2599.77
575.37	2596.28
575.72	2592.53
576.08	2589.12
576.43	2586.12
576.78	2582.59
577.13	2579.42
577.49	2576.12
577.84	2572.68
578.19	2568.58
578.54	2564.95
578.90	2560.75
579.25	2554.86
579.60	2549.49
579.95	2544.34
580.30	2539.05
580.66	2533.69
581.01	2528.36
581.36	2523.01
581.71	2518.71
582.06	2514.00
582.42	2509.36
582.77	2503.88
583.12	2499.02
583.47	2494.10
583.82	2488.79
584.17	2483.13
584.53	2477.07
584.88	2471.20
585.23	2465.04
585.58	2459.13
585.93	2453.12
586.28	2447.84
586.63	2442.38
586.98	2436.78
587.34	2431.54
587.69	2426.13
588.04	2420.24
588.39	2414.14
588.74	2406.89
589.09	2400.08
589.44	2392.62
589.79	2385.66
590.14	2379.23
590.49	2371.63
590.84	2364.32
591.19	2357.46
591.54	2350.13
591.89	2342.19
592.25	2334.47
592.60	2326.01
592.95	2317.75
593.30	2309.57
593.65	2300.98
594.00	2292.76
594.35	2284.47
594.70	2275.28
595.05	2267.28
595.40	2258.85
595.75	2250.09
596.10	2243.03
596.45	2235.27
596.80	2228.22
597.15	2220.79
597.50	2212.91
597.85	2205.53
598.19	2197.91
598.54	2189.72
598.89	2182.02
599.24	2175.08
599.59	2167.53
599.94	2160.52
600.29	2152.95
600.64	2145.16
600.99	2136.57
601.34	2128.83
601.69	2120.79
602.04	2113.00
602.39	2104.44
602.74	2096.67
603.08	2088.94
603.43	2081.22
603.78	2072.76
604.13	2064.22
604.48	2055.78
604.83	2047.49
605.18	2039.67
605.53	2030.53
605.87	2021.24
606.22	2012.72
606.57	2003.20
606.92	1994.30
607.27	1985.99
607.62	1977.95
607.96	1969.56
608.31	1961.84
608.66	1952.88
609.01	1943.97
609.36	1935.11
609.70	1925.63
610.05	1916.14
610.40	1907.13
610.75	1897.36
611.10	1888.38
611.44	1878.53
611.79	1869.07
612.14	1858.99
612.49	1848.06
612.83	1838.00
613.18	1828.35
613.53	1818.95
613.88	1808.98
614.22	1799.33
614.57	1789.07
614.92	1779.60
615.27	1770.77
615.61	1760.91
615.96	1751.31
616.31	1742.34
616.65	1733.59
617.00	1724.64
617.35	1715.57
617.70	1705.87
618.04	1695.74
618.39	1685.91
618.74	1677.04
619.08	1667.24
619.43	1658.36
619.78	1650.23
620.12	1641.91
620.47	1633.14
620.82	1623.48
621.16	1614.67
621.51	1605.47
621.85	1596.49
622.20	1586.51
622.55	1576.44
622.89	1567.23
623.24	1558.22
623.59	1549.38
623.93	1540.45
624.28	1531.88
624.62	1522.87
624.97	1514.14
625.32	1506.14
625.66	1497.88
626.01	1489.47
626.35	1480.69
626.70	1471.37
627.04	1462.28
627.39	1453.04
627.73	1444.17
628.08	1436.01
628.43	1427.47
628.77	1418.99
629.12	1410.06
629.46	1401.65
629.81	1392.80
630.15	1384.26
630.50	1375.59
630.84	1366.00
631.19	1356.59
631.53	1347.63
631.88	1338.79
632.22	1329.93
632.57	1321.19
632.91	1312.28
633.26	1303.38
633.60	1294.65
633.95	1286.33
634.29	1277.89
634.64	1269.97
634.98	1261.28
635.32	1252.76
635.67	1244.97
636.01	1237.16
636.36	1229.25
636.70	1221.39
637.05	1213.79
637.39	1206.14
637.73	1198.45
638.08	1191.47
638.42	1184.42
638.77	1177.02
639.11	1169.37
639.45	1161.86
639.80	1154.10
640.14	1146.65
640.49	1139.02
640.83	1131.64
641.17	1124.39
641.52	1117.04
641.86	1109.32
642.20	1102.51
642.55	1095.03
642.89	1087.48
643.23	1079.70
643.58	1072.93
643.92	1065.83
644.26	1058.84
644.61	1051.73
644.95	1044.73
645.29	1037.13
645.64	1029.22
645.98	1021.77
646.32	1014.80
646.66	1007.80
647.01	1001.14
647.35	994.38
647.69	987.53
648.04	981.07
648.38	974.26
648.72	967.40
649.06	960.55
649.41	953.67
649.75	946.94
650.09	940.07
650.43	933.43
650.78	926.29
651.12	919.27
651.46	912.52
651.80	905.92
652.14	899.59
652.49	893.39
652.83	887.50
653.17	880.93
653.51	874.38
653.85	868.06
654.20	861.52
654.54	854.58
654.88	847.92
655.22	841.02
655.56	834.44
655.90	828.02
656.25	821.99
656.59	815.86
656.93	809.81
657.27	803.84
657.61	797.55
657.95	791.62
658.29	785.73
658.64	779.62
658.98	773.48
659.32	767.15
659.66	761.18
660.00	755.03
660.34	749.32
660.68	743.60
661.02	737.82
661.36	732.31
661.70	727.11
662.05	722.12
662.39	717.15
662.73	711.92
663.07	706.82
663.41	701.57
663.75	696.31
664.09	691.07
664.43	685.89
664.77	681.20
665.11	676.21
665.45	671.42
665.79	666.72
666.13	661.95
666.47	657.25
666.81	652.40
667.15	647.62
667.49	643.09
667.83	638.63
668.17	633.97
668.51	629.33
668.85	624.63
669.19	620.08
669.53	615.73
669.87	611.30
670.21	607.01
670.55	602.85
670.89	598.84
671.23	594.89
671.57	590.89
671.91	586.69
672.25	582.62
672.58	578.56
672.92	574.56
673.26	570.87
673.60	567.23
673.94	563.61
674.28	560.21
674.62	556.83
674.96	553.25
675.30	549.93
675.64	546.49
675.97	543.29
676.31	539.99
676.65	536.54
676.99	533.42
677.33	530.11
677.67	526.83
678.01	523.36
678.34	519.91
678.68	516.55
679.02	513.31
679.36	510.12
679.70	507.01
680.04	503.84
680.37	500.50
680.71	497.24
681.05	494.19
681.39	491.03
681.73	487.88
682.06	484.97
682.40	481.97
682.74	479.05
683.08	476.11
683.42	473.06
683.75	470.12
684.09	467.06
684.43	464.16
684.77	461.27
685.10	458.49
685.44	455.80
685.78	453.17
686.12	450.53
686.45	447.90
686.79	445.23
687.13	442.69
687.46	440.19
687.80	437.67
688.14	435.04
688.48	432.64
688.81	430.06
689.15	427.51
689.49	425.05
689.82	422.60
690.16	420.17
690.50	417.90
690.83	415.66
691.17	413.44
691.51	411.26
691.84	409.13
692.18	406.92
692.52	404.66
692.85	402.37
693.19	400.23
693.52	398.06
693.86	395.92
694.20	393.84
694.53	391.79
694.87	389.68
695.21	387.69
695.54	385.56
695.88	383.51
696.21	381.52
696.55	379.55
696.88	377.64
697.22	375.71
697.56	373.80
697.89	371.90
698.23	370.02
698.56	368.16
698.90	366.32
699.23	364.45
699.57	362.65
699.90	360.90
700.24	359.09
700.58	357.32
700.91	355.54
701.25	353.85
701.58	352.23
701.92	350.63
702.25	349.01
702.59	347.47
702.92	346.00
703.26	344.52
703.59	343.09
703.93	341.69
704.26	340.27
704.60	338.82
704.93	337.37
705.26	335.93
705.60	334.54
705.93	333.17
706.27	331.96
706.60	330.69
706.94	329.42
707.27	328.12
707.61	326.87
707.94	325.73
708.27	324.48
708.61	323.23
708.94	322.05
709.28	320.91
709.61	319.76
709.94	318.65
710.28	317.45
710.61	316.25
710.95	314.99
711.28	313.89
711.61	312.74
711.95	311.65
712.28	310.55
712.61	309.37
712.95	308.24
713.28	307.18
713.61	306.12
713.95	305.11
714.28	304.13
714.61	303.10
714.95	302.10
715.28	301.08
715.61	300.06
715.95	299.05
716.28	298.05
716.61	297.02
716.95	296.02
717.28	295.14
717.61	294.26
717.94	293.38
718.28	292.43
718.61	291.58
718.94	290.76
719.27	289.98
719.61	289.26
719.94	288.51
720.27	287.67
720.60	286.90
720.94	286.14
721.27	285.43
721.60	284.76
721.93	284.07
722.27	283.42
722.60	282.74
722.93	282.09
723.26	281.43
723.59	280.83
723.93	280.22
724.26	279.57
724.59	278.88
724.92	278.29
725.25	277.73
725.59	277.11
725.92	276.51
726.25	275.90
726.58	275.29
726.91	274.67
727.24	274.13
727.57	273.55
727.91	272.96
728.24	272.44
728.57	271.85
728.90	271.30
729.23	270.73
729.56	270.25
729.89	269.68
730.22	269.11
730.55	268.56
730.89	268.02
731.22	267.48
731.55	266.99
731.88	266.48
732.21	265.97
732.54	265.51
732.87	264.99
733.20	264.52
733.53	264.08
733.86	263.68
734.19	263.21
734.52	262.79
734.85	262.41
735.18	261.89
735.51	261.47
735.84	261.00
736.17	260.55
736.50	260.09
736.83	259.81
737.16	259.43
737.49	259.05
737.82	258.63
738.15	258.27
738.48	257.88
738.81	257.48
739.14	257.11
739.47	256.74
739.80	256.36
740.13	256.02
740.46	255.65
740.79	255.25
741.12	254.90
741.45	254.51
741.78	254.11
742.11	253.79
742.44	253.42
742.77	253.14
743.10	252.83
743.43	252.50
743.75	252.06
744.08	251.90
744.41	251.58
744.74	251.32
745.07	250.99
745.40	250.75
745.73	250.49
746.06	250.16
746.39	249.83
746.71	249.57
747.04	249.25
747.37	248.93
747.70	248.64
748.03	248.33
748.36	248.08
748.68	247.83
749.01	247.54
749.34	247.27
749.67	246.96
750.00	246.69
750.33	246.45
750.65	246.23
750.98	245.86
751.31	245.58
751.64	245.30
751.97	245.12
752.29	244.81
752.62	244.54
752.95	244.33
753.28	244.11
753.60	243.87
753.93	243.69
754.26	243.47
754.59	243.22
754.91	242.99
755.24	242.78
755.57	242.50
755.90	242.28
756.22	242.07
756.55	241.82
756.88	241.59
757.20	241.34
757.53	241.09
757.86	240.87
758.19	240.69
758.51	240.50
758.84	240.25
759.17	240.06
759.49	239.88
759.82	239.69
760.15	239.53
760.47	239.31
760.80	239.07
761.13	238.91
761.45	238.75
761.78	238.58
762.11	238.36
762.43	238.18
762.76	238.01
763.08	237.83
763.41	237.72
763.74	237.59
764.06	237.44
764.39	237.25
764.71	237.09
765.04	236.95
765.37	236.77
765.69	236.62
766.02	236.48
766.34	236.30
766.67	236.13
767.00	235.96
767.32	235.89
767.65	235.84
767.97	235.68
768.30	235.55
768.62	235.41
768.95	235.29
769.27	235.21
769.60	235.08
769.92	234.95
770.25	234.78
770.57	234.61
770.90	234.49
771.22	234.39
771.55	234.22
771.87	234.08
772.20	233.97
772.52	233.92
772.85	233.91
773.17	233.79
773.50	233.67
773.82	233.57
774.15	233.41
774.47	233.24
774.80	233.14
775.12	233.03
775.45	232.94
775.77	232.84
776.09	232.73
776.42	232.64
776.74	232.59
777.07	232.51
777.39	232.43
777.72	232.35
778.04	232.28
778.36	232.20
778.69	232.11
779.01	232.07
779.33	231.93
779.66	231.76
779.98	231.69
780.31	231.65
780.63	231.58
780.95	231.52
781.28	231.43
781.60	231.35
781.92	231.27
782.25	231.20
782.57	231.14
782.89	231.07
783.22	231.01
783.54	230.91
783.86	230.86
784.19	230.82
784.51	230.78
784.83	230.74
785.16	230.72
785.48	230.69
785.80	230.59
786.12	230.53
786.45	230.46
