SpectraSuite Data File
++++++++++++++++++++++++++++++++++++
Date: Fri Feb 01 17:31:28 EST 2013
User: group
Dark Spectrum Present: No
Reference Spectrum Present: No
Number of Sampled Component Spectra: 1
Spectrometers: USB2E7196
Integration Time (usec): 35000 (USB2E7196)
Spectra Averaged: 100 (USB2E7196)
Boxcar Smoothing: 10 (USB2E7196)
Correct for Electrical Dark: No (USB2E7196)
Strobe/Lamp Enabled: No (USB2E7196)
Correct for Detector Non-linearity: No (USB2E7196)
Correct for Stray Light: No (USB2E7196)
Number of Pixels in Processed Spectrum: 2048
>>>>>Begin Processed Spectral Data<<<<<
339.09	0.00
339.48	212.80
339.86	214.57
340.24	215.41
340.63	217.03
341.01	219.64
341.39	219.86
341.78	220.98
342.16	221.81
342.54	223.04
342.93	211.24
343.31	221.91
343.69	222.44
344.07	222.90
344.46	223.35
344.84	223.74
345.22	223.97
345.60	224.21
345.99	224.40
346.37	224.53
346.75	224.60
347.13	224.66
347.52	224.73
347.90	224.80
348.28	224.86
348.66	224.89
349.05	224.89
349.43	224.92
349.81	224.94
350.19	225.02
350.57	225.06
350.96	225.10
351.34	225.19
351.72	225.28
352.10	225.36
352.48	225.38
352.87	225.42
353.25	225.52
353.63	225.58
354.01	225.67
354.39	225.76
354.77	225.86
355.15	225.98
355.54	226.05
355.92	226.09
356.30	226.14
356.68	226.27
357.06	226.33
357.44	226.39
357.82	226.47
358.20	226.51
358.58	226.57
358.97	226.64
359.35	226.74
359.73	226.83
360.11	226.90
360.49	226.97
360.87	227.04
361.25	227.08
361.63	227.14
362.01	227.17
362.39	227.21
362.77	227.24
363.15	227.26
363.53	227.29
363.91	227.32
364.29	227.36
364.67	227.30
365.05	227.32
365.43	227.33
365.81	227.35
366.19	227.40
366.57	227.43
366.95	227.42
367.33	227.37
367.71	227.32
368.09	227.31
368.47	227.31
368.85	227.29
369.23	227.32
369.61	227.27
369.99	227.28
370.37	227.25
370.75	227.27
371.13	227.22
371.51	227.19
371.89	227.17
372.27	227.09
372.65	227.02
373.03	226.99
373.41	226.99
373.78	226.94
374.16	226.84
374.54	226.74
374.92	226.68
375.30	226.63
375.68	226.58
376.06	226.56
376.44	226.48
376.82	226.42
377.19	226.31
377.57	226.24
377.95	226.13
378.33	226.05
378.71	225.95
379.09	225.88
379.47	225.83
379.84	225.75
380.22	225.71
380.60	225.65
380.98	225.58
381.36	225.47
381.73	225.41
382.11	225.39
382.49	225.34
382.87	225.26
383.25	225.22
383.62	225.27
384.00	225.20
384.38	225.15
384.76	225.10
385.13	225.09
385.51	225.05
385.89	225.01
386.27	224.99
386.64	224.94
387.02	224.89
387.40	224.85
387.78	224.80
388.15	224.73
388.53	224.69
388.91	224.69
389.29	224.70
389.66	224.68
390.04	224.63
390.42	224.65
390.79	224.67
391.17	224.65
391.55	224.50
391.92	224.48
392.30	224.47
392.68	224.46
393.05	224.45
393.43	224.47
393.81	224.47
394.18	224.42
394.56	224.44
394.94	224.48
395.31	224.45
395.69	224.54
396.06	224.60
396.44	224.63
396.82	224.64
397.19	224.67
397.57	224.67
397.95	224.72
398.32	224.71
398.70	224.72
399.07	224.77
399.45	224.85
399.82	224.90
400.20	224.99
400.58	225.05
400.95	225.08
401.33	225.14
401.70	225.30
402.08	225.43
402.45	225.52
402.83	225.62
403.20	225.74
403.58	225.80
403.95	225.92
404.33	226.06
404.71	226.18
405.08	226.36
405.46	226.50
405.83	226.64
406.21	226.80
406.58	226.96
406.96	227.14
407.33	227.33
407.70	227.54
408.08	227.77
408.45	228.00
408.83	228.27
409.20	228.49
409.58	228.63
409.95	228.90
410.33	229.19
410.70	229.46
411.08	229.77
411.45	230.09
411.82	230.40
412.20	230.78
412.57	231.19
412.95	231.53
413.32	231.95
413.69	232.38
414.07	232.83
414.44	233.31
414.82	233.81
415.19	234.34
415.56	234.90
415.94	235.48
416.31	236.14
416.68	236.76
417.06	237.50
417.43	238.23
417.81	239.00
418.18	239.80
418.55	240.70
418.93	241.62
419.30	242.52
419.67	243.51
420.04	244.48
420.42	245.49
420.79	246.69
421.16	247.96
421.54	249.19
421.91	250.43
422.28	251.76
422.66	253.14
423.03	254.51
423.40	255.85
423.77	257.31
424.15	258.80
424.52	260.37
424.89	262.05
425.26	263.67
425.64	265.18
426.01	266.84
426.38	268.54
426.75	270.29
427.13	272.09
427.50	273.97
427.87	275.96
428.24	277.92
428.61	279.71
428.99	281.68
429.36	283.85
429.73	286.04
430.10	288.14
430.47	290.23
430.85	292.43
431.22	294.80
431.59	297.25
431.96	299.59
432.33	302.17
432.70	304.61
433.08	307.55
433.45	310.29
433.82	313.02
434.19	316.01
434.56	318.88
434.93	321.67
435.30	324.37
435.68	327.35
436.05	330.32
436.42	333.24
436.79	335.90
437.16	338.73
437.53	341.68
437.90	344.61
438.27	347.53
438.64	350.46
439.01	353.15
439.38	355.48
439.75	357.72
440.13	360.33
440.50	362.80
440.87	364.72
441.24	366.80
441.61	368.99
441.98	370.59
442.35	372.52
442.72	374.40
443.09	376.33
443.46	377.42
443.83	378.05
444.20	378.61
444.57	379.50
444.94	379.83
445.31	380.23
445.68	380.59
446.05	380.67
446.42	380.34
446.79	379.96
447.16	379.54
447.53	379.28
447.90	378.04
448.27	376.87
448.64	375.20
449.01	374.03
449.37	372.04
449.74	370.07
450.11	367.72
450.48	365.23
450.85	362.63
451.22	360.37
451.59	358.26
451.96	356.25
452.33	353.51
452.70	351.07
453.07	348.12
453.43	345.14
453.80	342.28
454.17	339.49
454.54	336.79
454.91	333.99
455.28	331.20
455.65	328.66
456.02	326.13
456.38	323.97
456.75	321.20
457.12	318.84
457.49	316.52
457.86	314.27
458.23	312.33
458.59	310.15
458.96	307.97
459.33	306.04
459.70	304.12
460.07	302.54
460.43	300.73
460.80	299.03
461.17	297.51
461.54	295.95
461.91	294.46
462.27	293.02
462.64	291.70
463.01	290.24
463.38	288.88
463.74	287.46
464.11	286.23
464.48	285.11
464.85	283.96
465.21	283.06
465.58	282.09
465.95	280.97
466.32	280.01
466.68	279.08
467.05	278.13
467.42	277.17
467.78	276.17
468.15	275.24
468.52	274.55
468.88	273.68
469.25	272.85
469.62	272.19
469.98	271.44
470.35	270.76
470.72	270.16
471.08	269.48
471.45	268.90
471.82	268.29
472.18	267.67
472.55	267.24
472.92	266.69
473.28	266.19
473.65	265.72
474.02	265.31
474.38	264.92
474.75	264.60
475.11	264.24
475.48	263.99
475.85	263.76
476.21	263.45
476.58	263.22
476.94	263.05
477.31	262.87
477.67	262.74
478.04	262.65
478.41	262.60
478.77	262.58
479.14	262.51
479.50	262.53
479.87	262.62
480.23	262.66
480.60	262.70
480.96	262.80
481.33	263.02
481.69	263.19
482.06	263.35
482.42	263.56
482.79	263.81
483.15	264.12
483.52	264.53
483.88	264.87
484.25	265.27
484.61	265.69
484.98	266.13
485.34	266.67
485.71	267.20
486.07	267.79
486.44	268.37
486.80	269.07
487.17	269.79
487.53	270.60
487.90	271.42
488.26	272.36
488.62	273.31
488.99	274.24
489.35	275.27
489.72	276.43
490.08	277.62
490.44	278.86
490.81	280.16
491.17	281.51
491.54	283.04
491.90	284.55
492.26	286.24
492.63	287.96
492.99	289.70
493.36	291.64
493.72	293.66
494.08	295.74
494.45	297.99
494.81	300.36
495.17	302.79
495.54	305.39
495.90	308.05
496.26	310.85
496.63	313.83
496.99	316.89
497.35	320.14
497.72	323.57
498.08	327.04
498.44	330.67
498.80	334.54
499.17	338.56
499.53	342.69
499.89	347.00
500.26	351.51
500.62	356.16
500.98	361.07
501.34	366.08
501.71	371.36
502.07	376.75
502.43	382.28
502.79	388.02
503.16	394.01
503.52	400.20
503.88	406.51
504.24	413.00
504.60	419.78
504.97	426.81
505.33	433.95
505.69	441.55
506.05	449.24
506.41	456.97
506.78	464.99
507.14	473.29
507.50	481.87
507.86	490.72
508.22	499.79
508.59	508.80
508.95	518.24
509.31	527.93
509.67	537.82
510.03	547.97
510.39	558.28
510.75	568.83
511.12	579.55
511.48	590.59
511.84	601.78
512.20	613.06
512.56	624.73
512.92	636.62
513.28	648.61
513.64	660.76
514.00	673.10
514.37	685.69
514.73	698.46
515.09	711.13
515.45	723.99
515.81	737.12
516.17	750.67
516.53	764.43
516.89	778.15
517.25	791.88
517.61	805.74
517.97	819.78
518.33	833.81
518.69	848.08
519.05	862.61
519.41	877.39
519.77	892.43
520.13	907.35
520.49	922.27
520.85	937.21
521.21	952.38
521.57	968.16
521.93	983.47
522.29	999.27
522.65	1015.05
523.01	1030.80
523.37	1046.36
523.73	1062.01
524.09	1077.56
524.45	1093.27
524.81	1109.41
525.17	1125.73
525.53	1142.09
525.89	1158.56
526.25	1174.98
526.61	1190.91
526.97	1207.07
527.33	1223.17
527.68	1239.23
528.04	1255.20
528.40	1271.28
528.76	1287.94
529.12	1304.10
529.48	1320.57
529.84	1336.05
530.20	1352.17
530.56	1368.66
530.91	1385.58
531.27	1401.85
531.63	1417.72
531.99	1433.91
532.35	1449.45
532.71	1464.90
533.07	1480.76
533.42	1496.12
533.78	1511.85
534.14	1527.74
534.50	1542.81
534.86	1558.23
535.21	1573.14
535.57	1588.66
535.93	1603.85
536.29	1618.26
536.65	1632.94
537.00	1647.19
537.36	1662.32
537.72	1676.56
538.08	1690.75
538.44	1704.32
538.79	1718.08
539.15	1731.60
539.51	1745.15
539.87	1759.25
540.22	1772.86
540.58	1786.44
540.94	1799.48
541.29	1811.88
541.65	1824.35
542.01	1837.26
542.37	1849.37
542.72	1861.64
543.08	1873.49
543.44	1885.79
543.79	1897.06
544.15	1908.00
544.51	1919.58
544.87	1930.48
545.22	1941.28
545.58	1951.35
545.94	1961.29
546.29	1971.09
546.65	1981.11
547.01	1990.40
547.36	1999.23
547.72	2007.83
548.07	2015.90
548.43	2024.26
548.79	2032.51
549.14	2040.25
549.50	2047.79
549.86	2055.58
550.21	2063.08
550.57	2070.41
550.92	2077.33
551.28	2084.66
551.64	2092.04
551.99	2098.80
552.35	2105.21
552.70	2111.67
553.06	2118.08
553.41	2124.56
553.77	2130.89
554.13	2137.27
554.48	2143.76
554.84	2149.58
555.19	2155.03
555.55	2160.55
555.90	2165.49
556.26	2170.89
556.61	2175.86
556.97	2180.62
557.32	2185.19
557.68	2189.63
558.03	2194.24
558.39	2198.09
558.74	2202.97
559.10	2207.24
559.45	2211.34
559.81	2216.01
560.16	2220.18
560.52	2223.90
560.87	2227.69
561.23	2230.74
561.58	2233.86
561.94	2236.65
562.29	2239.44
562.64	2242.70
563.00	2245.47
563.35	2249.29
563.71	2252.60
564.06	2256.19
564.42	2259.40
564.77	2262.43
565.12	2265.28
565.48	2267.68
565.83	2270.14
566.19	2271.90
566.54	2273.01
566.89	2274.59
567.25	2275.75
567.60	2277.34
567.96	2279.47
568.31	2280.65
568.66	2282.20
569.02	2283.27
569.37	2284.02
569.72	2285.20
570.08	2285.76
570.43	2286.24
570.78	2286.10
571.14	2285.11
571.49	2284.16
571.84	2284.29
572.20	2283.50
572.55	2282.72
572.90	2281.32
573.26	2280.36
573.61	2278.84
573.96	2277.68
574.31	2275.13
574.67	2272.47
575.02	2269.39
575.37	2266.26
575.72	2263.02
576.08	2259.90
576.43	2256.90
576.78	2253.80
577.13	2250.97
577.49	2247.90
577.84	2244.87
578.19	2241.45
578.54	2238.34
578.90	2234.76
579.25	2229.52
579.60	2224.95
579.95	2220.32
580.30	2215.82
580.66	2210.88
581.01	2206.35
581.36	2201.72
581.71	2198.00
582.06	2193.84
582.42	2189.72
582.77	2184.97
583.12	2180.74
583.47	2176.60
583.82	2172.11
584.17	2167.19
584.53	2162.05
584.88	2157.04
585.23	2151.64
585.58	2146.39
585.93	2141.10
586.28	2136.46
586.63	2131.78
586.98	2127.03
587.34	2122.66
587.69	2117.91
588.04	2113.08
588.39	2107.85
588.74	2101.64
589.09	2095.61
589.44	2089.08
589.79	2083.23
590.14	2077.75
590.49	2071.31
590.84	2064.98
591.19	2059.07
591.54	2052.81
591.89	2045.80
592.25	2039.22
592.60	2032.06
592.95	2024.84
593.30	2017.77
593.65	2010.30
594.00	2003.35
594.35	1996.23
594.70	1988.36
595.05	1981.65
595.40	1974.46
595.75	1967.02
596.10	1961.12
596.45	1954.61
596.80	1948.62
597.15	1942.27
597.50	1935.51
597.85	1929.21
598.19	1922.87
598.54	1916.08
598.89	1909.59
599.24	1903.78
599.59	1897.32
599.94	1891.35
600.29	1885.12
600.64	1878.53
600.99	1871.35
601.34	1864.77
601.69	1857.84
602.04	1851.21
602.39	1843.85
602.74	1837.06
603.08	1830.49
603.43	1823.79
603.78	1816.50
604.13	1809.33
604.48	1802.19
604.83	1795.22
605.18	1788.55
605.53	1780.75
605.87	1772.73
606.22	1765.51
606.57	1757.45
606.92	1749.97
607.27	1743.07
607.62	1736.25
607.96	1729.17
608.31	1722.54
608.66	1714.92
609.01	1707.49
609.36	1699.84
609.70	1691.69
610.05	1683.75
610.40	1676.02
610.75	1667.61
611.10	1660.00
611.44	1651.55
611.79	1643.43
612.14	1634.69
612.49	1625.37
612.83	1616.79
613.18	1608.62
613.53	1600.50
613.88	1591.95
614.22	1583.64
614.57	1574.73
614.92	1566.62
615.27	1558.99
615.61	1550.59
615.96	1542.42
616.31	1534.67
616.65	1527.11
617.00	1519.57
617.35	1511.70
617.70	1503.40
618.04	1494.87
618.39	1486.41
618.74	1478.78
619.08	1470.34
619.43	1462.62
619.78	1455.46
620.12	1448.23
620.47	1440.51
620.82	1432.12
621.16	1424.70
621.51	1416.99
621.85	1409.17
622.20	1400.52
622.55	1392.00
622.89	1384.12
623.24	1376.32
623.59	1368.80
623.93	1361.22
624.28	1353.94
624.62	1346.42
624.97	1339.08
625.32	1332.06
625.66	1324.99
626.01	1317.72
626.35	1310.27
626.70	1302.53
627.04	1294.87
627.39	1286.92
627.73	1279.48
628.08	1272.48
628.43	1265.11
628.77	1257.69
629.12	1250.18
629.46	1242.96
629.81	1235.31
630.15	1227.86
630.50	1220.44
630.84	1212.27
631.19	1204.19
631.53	1196.48
631.88	1188.75
632.22	1181.05
632.57	1173.78
632.91	1166.09
633.26	1158.65
633.60	1151.12
633.95	1143.82
634.29	1136.62
634.64	1129.83
634.98	1122.53
635.32	1115.38
635.67	1108.63
636.01	1101.96
636.36	1095.11
636.70	1088.45
637.05	1081.93
637.39	1075.50
637.73	1068.91
638.08	1062.88
638.42	1056.92
638.77	1050.41
639.11	1043.89
639.45	1037.45
639.80	1030.72
640.14	1024.43
640.49	1017.85
640.83	1011.58
641.17	1005.43
641.52	999.07
641.86	992.60
642.20	986.62
642.55	980.29
642.89	973.87
643.23	967.24
643.58	961.42
643.92	955.26
644.26	949.24
644.61	943.06
644.95	937.08
645.29	930.56
645.64	923.82
645.98	917.45
646.32	911.54
646.66	905.43
647.01	899.60
647.35	893.87
647.69	888.02
648.04	882.40
648.38	876.57
648.72	870.65
649.06	864.63
649.41	858.69
649.75	852.70
650.09	846.64
650.43	840.83
650.78	834.72
651.12	828.77
651.46	823.02
651.80	817.34
652.14	811.91
652.49	806.52
652.83	801.36
653.17	795.84
653.51	790.10
653.85	784.73
654.20	779.08
654.54	772.99
654.88	767.14
655.22	761.23
655.56	755.44
655.90	749.93
656.25	744.62
656.59	739.24
656.93	734.09
657.27	728.98
657.61	723.53
657.95	718.32
658.29	713.17
658.64	707.84
658.98	702.46
659.32	696.93
659.66	691.59
660.00	686.30
660.34	681.21
660.68	676.22
661.02	671.08
661.36	666.36
661.70	661.81
662.05	657.47
662.39	653.18
662.73	648.70
663.07	644.28
663.41	639.77
663.75	635.27
664.09	630.65
664.43	626.25
664.77	622.14
665.11	617.87
665.45	613.66
665.79	609.59
666.13	605.43
666.47	601.31
666.81	597.19
667.15	593.01
667.49	589.11
667.83	585.31
668.17	581.47
668.51	577.44
668.85	573.43
669.19	569.55
669.53	565.66
669.87	561.82
670.21	558.08
670.55	554.46
670.89	550.91
671.23	547.49
671.57	543.88
671.91	540.31
672.25	536.78
672.58	533.20
672.92	529.74
673.26	526.59
673.60	523.42
673.94	520.24
674.28	517.29
674.62	514.30
674.96	511.17
675.30	508.22
675.64	505.24
675.97	502.34
676.31	499.46
676.65	496.51
676.99	493.82
677.33	490.84
677.67	488.02
678.01	485.01
678.34	482.01
678.68	479.14
679.02	476.30
679.36	473.44
679.70	470.76
680.04	467.99
680.37	465.13
680.71	462.28
681.05	459.73
681.39	456.98
681.73	454.27
682.06	451.72
682.40	449.17
682.74	446.63
683.08	444.10
683.42	441.48
683.75	438.97
684.09	436.29
684.43	433.88
684.77	431.41
685.10	429.01
685.44	426.71
685.78	424.34
686.12	422.07
686.45	419.83
686.79	417.48
687.13	415.26
687.46	413.07
687.80	410.93
688.14	408.67
688.48	406.62
688.81	404.40
689.15	402.17
689.49	399.94
689.82	397.79
690.16	395.65
690.50	393.67
690.83	391.70
691.17	389.72
691.51	387.78
691.84	385.93
692.18	384.03
692.52	382.04
692.85	380.10
693.19	378.21
693.52	376.32
693.86	374.48
694.20	372.66
694.53	370.84
694.87	368.95
695.21	367.12
695.54	365.23
695.88	363.47
696.21	361.73
696.55	360.05
696.88	358.33
697.22	356.66
697.56	354.96
697.89	353.28
698.23	351.67
698.56	350.05
698.90	348.42
699.23	346.77
699.57	345.16
699.90	343.65
700.24	342.06
700.58	340.56
700.91	339.09
701.25	337.62
701.58	336.26
701.92	334.91
702.25	333.50
702.59	332.13
702.92	330.77
703.26	329.45
703.59	328.19
703.93	327.00
704.26	325.72
704.60	324.46
704.93	323.16
705.26	321.83
705.60	320.61
705.93	319.42
706.27	318.34
706.60	317.25
706.94	316.12
707.27	314.97
707.61	313.87
707.94	312.79
708.27	311.64
708.61	310.48
708.94	309.40
709.28	308.43
709.61	307.45
709.94	306.48
710.28	305.45
710.61	304.42
710.95	303.29
711.28	302.40
711.61	301.43
711.95	300.46
712.28	299.54
712.61	298.56
712.95	297.56
713.28	296.66
713.61	295.76
713.95	294.87
714.28	293.96
714.61	293.05
714.95	292.20
715.28	291.35
715.61	290.45
715.95	289.60
716.28	288.66
716.61	287.79
716.95	286.95
717.28	286.17
717.61	285.38
717.94	284.63
718.28	283.80
718.61	283.03
718.94	282.33
719.27	281.68
719.61	280.99
719.94	280.33
720.27	279.61
720.60	278.92
720.94	278.27
721.27	277.73
721.60	277.14
721.93	276.50
722.27	275.93
722.60	275.40
722.93	274.82
723.26	274.30
723.59	273.75
723.93	273.17
724.26	272.60
724.59	272.02
724.92	271.46
725.25	270.95
725.59	270.43
725.92	269.88
726.25	269.35
726.58	268.83
726.91	268.33
727.24	267.86
727.57	267.40
727.91	266.88
728.24	266.37
728.57	265.87
728.90	265.42
729.23	264.94
729.56	264.50
729.89	264.05
730.22	263.56
730.55	263.07
730.89	262.64
731.22	262.21
731.55	261.78
731.88	261.36
732.21	260.93
732.54	260.52
732.87	260.09
733.20	259.70
733.53	259.32
733.86	258.97
734.19	258.59
734.52	258.21
734.85	257.93
735.18	257.54
735.51	257.18
735.84	256.84
736.17	256.50
736.50	256.10
736.83	255.84
737.16	255.50
737.49	255.18
737.82	254.80
738.15	254.48
738.48	254.14
738.81	253.83
739.14	253.51
739.47	253.19
739.80	252.89
740.13	252.59
740.46	252.26
740.79	251.91
741.12	251.58
741.45	251.28
741.78	250.91
742.11	250.63
742.44	250.32
742.77	250.03
743.10	249.70
743.43	249.36
743.75	248.95
744.08	248.81
744.41	248.55
744.74	248.27
745.07	247.99
745.40	247.74
745.73	247.50
746.06	247.22
746.39	246.93
746.71	246.67
747.04	246.37
747.37	246.11
747.70	245.87
748.03	245.60
748.36	245.36
748.68	245.12
749.01	244.88
749.34	244.66
749.67	244.37
750.00	244.13
750.33	243.95
750.65	243.72
750.98	243.38
751.31	243.10
751.64	242.87
751.97	242.71
752.29	242.47
752.62	242.18
752.95	241.95
753.28	241.75
753.60	241.53
753.93	241.34
754.26	241.13
754.59	240.86
754.91	240.61
755.24	240.40
755.57	240.17
755.90	239.93
756.22	239.70
756.55	239.50
756.88	239.32
757.20	239.09
757.53	238.91
757.86	238.70
758.19	238.55
758.51	238.40
758.84	238.16
759.17	238.01
759.49	237.86
759.82	237.73
760.15	237.58
760.47	237.42
760.80	237.25
761.13	237.11
761.45	236.98
761.78	236.83
762.11	236.70
762.43	236.56
762.76	236.41
763.08	236.26
763.41	236.14
763.74	236.00
764.06	235.88
764.39	235.71
764.71	235.59
765.04	235.42
765.37	235.26
765.69	235.12
766.02	234.96
766.34	234.80
766.67	234.65
767.00	234.53
767.32	234.43
767.65	234.39
767.97	234.31
768.30	234.19
768.62	234.11
768.95	233.96
769.27	233.84
769.60	233.75
769.92	233.63
770.25	233.52
770.57	233.41
770.90	233.31
771.22	233.22
771.55	233.12
771.87	233.03
772.20	232.97
772.52	232.97
772.85	233.01
773.17	232.94
773.50	232.86
773.82	232.75
774.15	232.69
774.47	232.54
774.80	232.41
775.12	232.34
775.45	232.27
775.77	232.24
776.09	232.18
776.42	232.16
776.74	232.12
777.07	232.04
777.39	231.95
777.72	231.88
778.04	231.83
778.36	231.79
778.69	231.78
779.01	231.69
779.33	231.53
779.66	231.34
779.98	231.28
780.31	231.22
780.63	231.22
780.95	231.15
781.28	231.09
781.60	231.03
781.92	230.99
782.25	230.93
782.57	230.83
782.89	230.75
783.22	230.65
783.54	230.57
783.86	230.53
784.19	230.50
784.51	230.47
784.83	230.39
785.16	230.33
785.48	230.26
785.80	230.20
786.12	230.14
786.45	230.11
786.77	230.07
787.09	230.01
