SpectraSuite Data File
++++++++++++++++++++++++++++++++++++
Date: Fri Feb 01 14:49:19 EST 2013
User: group
Dark Spectrum Present: No
Reference Spectrum Present: No
Number of Sampled Component Spectra: 1
Spectrometers: USB2E7196
Integration Time (usec): 35000 (USB2E7196)
Spectra Averaged: 100 (USB2E7196)
Boxcar Smoothing: 10 (USB2E7196)
Correct for Electrical Dark: No (USB2E7196)
Strobe/Lamp Enabled: No (USB2E7196)
Correct for Detector Non-linearity: No (USB2E7196)
Correct for Stray Light: No (USB2E7196)
Number of Pixels in Processed Spectrum: 2048
>>>>>Begin Processed Spectral Data<<<<<
339.09	0.00
339.48	215.84
339.86	216.86
340.24	218.62
340.63	220.19
341.01	222.92
341.39	222.07
341.78	224.51
342.16	224.51
342.54	225.14
342.93	213.96
343.31	224.79
343.69	225.35
344.07	225.83
344.46	226.29
344.84	226.68
345.22	226.91
345.60	227.18
345.99	227.35
346.37	227.51
346.75	227.62
347.13	227.71
347.52	227.76
347.90	227.83
348.28	227.87
348.66	227.91
349.05	227.91
349.43	227.93
349.81	227.98
350.19	228.04
350.57	228.09
350.96	228.16
351.34	228.23
351.72	228.30
352.10	228.37
352.48	228.45
352.87	228.51
353.25	228.57
353.63	228.63
354.01	228.67
354.39	228.73
354.77	228.84
355.15	228.90
355.54	228.96
355.92	229.00
356.30	229.07
356.68	229.20
357.06	229.27
357.44	229.34
357.82	229.42
358.20	229.50
358.58	229.54
358.97	229.62
359.35	229.67
359.73	229.72
360.11	229.78
360.49	229.81
360.87	229.80
361.25	229.87
361.63	229.95
362.01	230.01
362.39	230.04
362.77	230.06
363.15	230.07
363.53	230.07
363.91	230.07
364.29	230.10
364.67	229.99
365.05	229.99
365.43	230.00
365.81	230.00
366.19	229.99
366.57	230.04
366.95	230.02
367.33	229.98
367.71	229.98
368.09	229.98
368.47	229.92
368.85	229.90
369.23	229.87
369.61	229.78
369.99	229.78
370.37	229.75
370.75	229.74
371.13	229.67
371.51	229.61
371.89	229.57
372.27	229.51
372.65	229.44
373.03	229.38
373.41	229.28
373.78	229.14
374.16	229.04
374.54	228.96
374.92	228.85
375.30	228.78
375.68	228.66
376.06	228.59
376.44	228.52
376.82	228.40
377.19	228.32
377.57	228.24
377.95	228.11
378.33	227.98
378.71	227.84
379.09	227.77
379.47	227.69
379.84	227.60
380.22	227.50
380.60	227.43
380.98	227.36
381.36	227.31
381.73	227.25
382.11	227.18
382.49	227.10
382.87	227.03
383.25	226.96
383.62	227.03
384.00	226.92
384.38	226.84
384.76	226.83
385.13	226.80
385.51	226.76
385.89	226.69
386.27	226.68
386.64	226.70
387.02	226.66
387.40	226.62
387.78	226.60
388.15	226.61
388.53	226.61
388.91	226.59
389.29	226.57
389.66	226.58
390.04	226.55
390.42	226.56
390.79	226.53
391.17	226.52
391.55	226.39
391.92	226.41
392.30	226.48
392.68	226.48
393.05	226.48
393.43	226.50
393.81	226.53
394.18	226.54
394.56	226.53
394.94	226.57
395.31	226.63
395.69	226.71
396.06	226.73
396.44	226.77
396.82	226.85
397.19	226.96
397.57	227.03
397.95	227.13
398.32	227.16
398.70	227.29
399.07	227.44
399.45	227.54
399.82	227.63
400.20	227.68
400.58	227.80
400.95	227.87
401.33	227.99
401.70	228.19
402.08	228.32
402.45	228.44
402.83	228.61
403.20	228.71
403.58	228.80
403.95	228.96
404.33	229.11
404.71	229.25
405.08	229.41
405.46	229.52
405.83	229.68
406.21	229.86
406.58	230.03
406.96	230.18
407.33	230.39
407.70	230.60
408.08	230.89
408.45	231.11
408.83	231.37
409.20	231.58
409.58	231.76
409.95	231.99
410.33	232.26
410.70	232.49
411.08	232.79
411.45	233.14
411.82	233.42
412.20	233.77
412.57	234.17
412.95	234.47
413.32	234.89
413.69	235.29
414.07	235.73
414.44	236.20
414.82	236.66
415.19	237.18
415.56	237.70
415.94	238.24
416.31	238.85
416.68	239.47
417.06	240.16
417.43	240.81
417.81	241.56
418.18	242.34
418.55	243.16
418.93	244.04
419.30	244.88
419.67	245.82
420.04	246.74
420.42	247.74
420.79	248.94
421.16	250.11
421.54	251.28
421.91	252.46
422.28	253.68
422.66	254.96
423.03	256.23
423.40	257.57
423.77	258.98
424.15	260.38
424.52	261.87
424.89	263.47
425.26	265.03
425.64	266.48
426.01	268.05
426.38	269.70
426.75	271.35
427.13	273.06
427.50	274.84
427.87	276.72
428.24	278.54
428.61	280.27
428.99	282.17
429.36	284.28
429.73	286.32
430.10	288.37
430.47	290.42
430.85	292.57
431.22	294.77
431.59	297.13
431.96	299.40
432.33	301.85
432.70	304.22
433.08	307.04
433.45	309.64
433.82	312.23
434.19	315.14
434.56	317.97
434.93	320.63
435.30	323.24
435.68	326.15
436.05	328.98
436.42	331.73
436.79	334.26
437.16	336.94
437.53	339.80
437.90	342.58
438.27	345.37
438.64	348.17
439.01	350.75
439.38	352.97
439.75	355.13
440.13	357.63
440.50	359.94
440.87	361.74
441.24	363.73
441.61	365.90
441.98	367.38
442.35	369.22
442.72	371.09
443.09	372.95
443.46	373.92
443.83	374.51
444.20	375.00
444.57	375.88
444.94	376.18
445.31	376.53
445.68	376.86
446.05	376.94
446.42	376.54
446.79	376.16
447.16	375.75
447.53	375.40
447.90	374.25
448.27	373.16
448.64	371.64
449.01	370.52
449.37	368.54
449.74	366.67
450.11	364.37
450.48	361.90
450.85	359.34
451.22	357.22
451.59	355.25
451.96	353.35
452.33	350.73
452.70	348.36
453.07	345.51
453.43	342.63
453.80	339.86
454.17	337.22
454.54	334.66
454.91	331.90
455.28	329.27
455.65	326.79
456.02	324.28
456.38	322.15
456.75	319.50
457.12	317.30
457.49	315.04
457.86	312.88
458.23	311.03
458.59	308.99
458.96	306.91
459.33	305.00
459.70	303.14
460.07	301.61
460.43	299.94
460.80	298.35
461.17	296.94
461.54	295.41
461.91	294.00
462.27	292.57
462.64	291.34
463.01	289.98
463.38	288.68
463.74	287.32
464.11	286.12
464.48	285.08
464.85	283.95
465.21	283.06
465.58	282.14
465.95	281.07
466.32	280.15
466.68	279.25
467.05	278.36
467.42	277.42
467.78	276.48
468.15	275.58
468.52	274.87
468.88	273.98
469.25	273.21
469.62	272.53
469.98	271.83
470.35	271.19
470.72	270.54
471.08	269.85
471.45	269.31
471.82	268.72
472.18	268.07
472.55	267.59
472.92	267.10
473.28	266.60
473.65	266.08
474.02	265.62
474.38	265.20
474.75	264.88
475.11	264.55
475.48	264.27
475.85	263.98
476.21	263.73
476.58	263.53
476.94	263.38
477.31	263.22
477.67	263.08
478.04	262.96
478.41	262.93
478.77	262.94
479.14	262.87
479.50	262.88
479.87	262.95
480.23	263.04
480.60	263.09
480.96	263.18
481.33	263.40
481.69	263.59
482.06	263.76
482.42	263.94
482.79	264.21
483.15	264.53
483.52	264.94
483.88	265.27
484.25	265.67
484.61	266.10
484.98	266.55
485.34	267.09
485.71	267.66
486.07	268.23
486.44	268.81
486.80	269.54
487.17	270.27
487.53	271.09
487.90	271.92
488.26	272.83
488.62	273.82
488.99	274.76
489.35	275.82
489.72	276.99
490.08	278.20
490.44	279.42
490.81	280.74
491.17	282.09
491.54	283.61
491.90	285.15
492.26	286.77
492.63	288.50
492.99	290.26
493.36	292.15
493.72	294.24
494.08	296.33
494.45	298.55
494.81	300.92
495.17	303.32
495.54	305.86
495.90	308.53
496.26	311.29
496.63	314.21
496.99	317.27
497.35	320.48
497.72	323.84
498.08	327.33
498.44	330.97
498.80	334.87
499.17	338.84
499.53	342.97
499.89	347.29
500.26	351.80
500.62	356.46
500.98	361.39
501.34	366.43
501.71	371.67
502.07	377.02
502.43	382.57
502.79	388.33
503.16	394.36
503.52	400.61
503.88	406.95
504.24	413.57
504.60	420.41
504.97	427.48
505.33	434.72
505.69	442.38
506.05	450.09
506.41	457.90
506.78	466.03
507.14	474.39
507.50	483.08
507.86	492.01
508.22	501.11
508.59	510.21
508.95	519.71
509.31	529.48
509.67	539.49
510.03	549.74
510.39	560.26
510.75	571.03
511.12	581.92
511.48	593.17
511.84	604.51
512.20	615.97
512.56	627.85
512.92	639.99
513.28	652.21
513.64	664.62
514.00	677.29
514.37	690.09
514.73	703.10
515.09	716.05
515.45	729.34
515.81	742.89
516.17	756.83
516.53	770.95
516.89	785.12
517.25	799.24
517.61	813.68
517.97	828.07
518.33	842.45
518.69	857.19
519.05	872.25
519.41	887.48
519.77	903.04
520.13	918.60
520.49	933.95
520.85	949.43
521.21	965.21
521.57	981.41
521.93	997.33
522.29	1013.77
522.65	1030.05
523.01	1046.30
523.37	1062.42
523.73	1078.65
524.09	1094.79
524.45	1111.15
524.81	1127.87
525.17	1144.63
525.53	1161.64
525.89	1178.51
526.25	1195.41
526.61	1211.87
526.97	1228.58
527.33	1245.19
527.68	1261.84
528.04	1278.48
528.40	1295.07
528.76	1312.19
529.12	1328.89
529.48	1345.73
529.84	1361.87
530.20	1378.62
530.56	1395.67
530.91	1413.06
531.27	1429.88
531.63	1446.40
531.99	1463.04
532.35	1479.15
532.71	1495.13
533.07	1511.54
533.42	1527.63
533.78	1543.70
534.14	1559.95
534.50	1575.36
534.86	1591.18
535.21	1606.34
535.57	1622.34
535.93	1637.83
536.29	1652.53
536.65	1667.72
537.00	1682.60
537.36	1697.93
537.72	1712.57
538.08	1727.01
538.44	1740.97
538.79	1754.92
539.15	1768.63
539.51	1782.45
539.87	1796.99
540.22	1810.74
540.58	1824.42
540.94	1837.67
541.29	1850.59
541.65	1863.29
542.01	1876.64
542.37	1888.98
542.72	1901.36
543.08	1913.20
543.44	1925.65
543.79	1937.00
544.15	1947.91
544.51	1959.30
544.87	1970.20
545.22	1981.08
545.58	1991.34
545.94	2001.07
546.29	2011.07
546.65	2020.93
547.01	2029.98
547.36	2038.57
547.72	2047.09
548.07	2054.90
548.43	2063.17
548.79	2071.15
549.14	2078.78
549.50	2086.13
549.86	2093.77
550.21	2101.03
550.57	2108.14
550.92	2114.75
551.28	2121.81
551.64	2128.89
551.99	2135.38
552.35	2141.45
552.70	2147.40
553.06	2153.27
553.41	2159.48
553.77	2165.29
554.13	2171.08
554.48	2177.07
554.84	2182.39
555.19	2187.55
555.55	2192.52
555.90	2196.76
556.26	2201.63
556.61	2206.15
556.97	2210.20
557.32	2214.17
557.68	2218.28
558.03	2222.44
558.39	2226.01
558.74	2230.43
559.10	2234.04
559.45	2237.60
559.81	2241.85
560.16	2245.39
560.52	2248.39
560.87	2251.66
561.23	2254.11
561.58	2257.05
561.94	2259.65
562.29	2261.84
562.64	2264.33
563.00	2266.89
563.35	2270.30
563.71	2273.11
564.06	2276.06
564.42	2278.70
564.77	2281.13
565.12	2283.24
565.48	2284.77
565.83	2286.33
566.19	2287.46
566.54	2288.29
566.89	2289.37
567.25	2289.72
567.60	2290.90
567.96	2292.40
568.31	2292.99
568.66	2293.84
569.02	2294.17
569.37	2294.17
569.72	2294.78
570.08	2294.71
570.43	2294.48
570.78	2293.47
571.14	2291.67
571.49	2290.12
571.84	2289.62
572.20	2288.05
572.55	2286.72
572.90	2284.82
573.26	2283.08
573.61	2281.25
573.96	2279.18
574.31	2276.00
574.67	2272.67
575.02	2268.70
575.37	2264.81
575.72	2260.85
576.08	2257.19
576.43	2253.50
576.78	2249.70
577.13	2246.10
577.49	2242.68
577.84	2238.99
578.19	2235.08
578.54	2231.15
578.90	2226.64
579.25	2220.80
579.60	2215.78
579.95	2210.53
580.30	2205.54
580.66	2200.36
581.01	2195.19
581.36	2190.10
581.71	2185.65
582.06	2181.19
582.42	2176.72
582.77	2171.48
583.12	2166.57
583.47	2161.76
583.82	2156.75
584.17	2151.33
584.53	2145.79
584.88	2139.93
585.23	2133.89
585.58	2128.28
585.93	2122.68
586.28	2117.85
586.63	2112.64
586.98	2107.36
587.34	2102.47
587.69	2097.29
588.04	2091.94
588.39	2086.06
588.74	2079.37
589.09	2073.09
589.44	2066.09
589.79	2059.82
590.14	2053.98
590.49	2047.29
590.84	2040.66
591.19	2034.34
591.54	2027.69
591.89	2020.14
592.25	2013.31
592.60	2006.01
592.95	1998.22
593.30	1990.74
593.65	1982.92
594.00	1975.72
594.35	1968.40
594.70	1960.24
595.05	1953.12
595.40	1945.65
595.75	1938.02
596.10	1931.73
596.45	1924.75
596.80	1918.30
597.15	1911.67
597.50	1904.60
597.85	1898.04
598.19	1891.52
598.54	1884.59
598.89	1877.99
599.24	1872.07
599.59	1865.34
599.94	1859.11
600.29	1852.93
600.64	1846.42
600.99	1838.99
601.34	1832.14
601.69	1825.09
602.04	1818.00
602.39	1810.51
602.74	1803.80
603.08	1797.12
603.43	1790.58
603.78	1783.44
604.13	1776.37
604.48	1769.16
604.83	1762.26
605.18	1755.40
605.53	1747.41
605.87	1739.32
606.22	1731.98
606.57	1724.23
606.92	1716.96
607.27	1709.77
607.62	1702.88
607.96	1695.66
608.31	1689.20
608.66	1681.60
609.01	1674.29
609.36	1667.11
609.70	1659.28
610.05	1651.31
610.40	1643.64
610.75	1635.16
611.10	1627.53
611.44	1619.32
611.79	1611.30
612.14	1602.85
612.49	1593.84
612.83	1585.66
613.18	1577.52
613.53	1569.56
613.88	1561.06
614.22	1553.01
614.57	1544.60
614.92	1536.71
615.27	1529.35
615.61	1521.16
615.96	1513.36
616.31	1505.64
616.65	1498.25
617.00	1490.66
617.35	1483.01
617.70	1474.78
618.04	1466.39
618.39	1458.35
618.74	1450.82
619.08	1442.67
619.43	1435.13
619.78	1428.37
620.12	1421.22
620.47	1413.95
620.82	1405.94
621.16	1398.66
621.51	1391.06
621.85	1383.53
622.20	1375.14
622.55	1366.76
622.89	1359.00
623.24	1351.49
623.59	1344.27
623.93	1336.91
624.28	1329.76
624.62	1322.30
624.97	1315.27
625.32	1308.60
625.66	1301.58
626.01	1294.50
626.35	1287.16
626.70	1279.57
627.04	1272.06
627.39	1264.41
627.73	1257.11
628.08	1250.32
628.43	1243.15
628.77	1235.96
629.12	1228.49
629.46	1221.33
629.81	1214.12
630.15	1206.98
630.50	1199.72
630.84	1191.68
631.19	1183.84
631.53	1176.50
631.88	1169.09
632.22	1161.55
632.57	1154.51
632.91	1147.10
633.26	1139.74
633.60	1132.48
633.95	1125.47
634.29	1118.34
634.64	1111.76
634.98	1104.51
635.32	1097.47
635.67	1090.92
636.01	1084.32
636.36	1077.70
636.70	1071.29
637.05	1064.82
637.39	1058.45
637.73	1052.09
638.08	1046.37
638.42	1040.53
638.77	1034.17
639.11	1027.74
639.45	1021.48
639.80	1014.81
640.14	1008.50
640.49	1002.10
640.83	995.86
641.17	989.81
641.52	983.68
641.86	977.41
642.20	971.70
642.55	965.48
642.89	959.09
643.23	952.67
643.58	947.01
643.92	940.95
644.26	935.02
644.61	929.08
644.95	923.09
645.29	916.54
645.64	909.88
645.98	903.65
646.32	897.91
646.66	891.95
647.01	886.24
647.35	880.64
647.69	874.92
648.04	869.56
648.38	863.83
648.72	857.87
649.06	851.82
649.41	845.98
649.75	840.06
650.09	834.09
650.43	828.28
650.78	822.16
651.12	816.29
651.46	810.55
651.80	804.88
652.14	799.63
652.49	794.31
652.83	789.20
653.17	783.66
653.51	777.96
653.85	772.60
654.20	767.04
654.54	761.12
654.88	755.43
655.22	749.58
655.56	743.93
655.90	738.52
656.25	733.40
656.59	728.07
656.93	723.11
657.27	718.05
657.61	712.75
657.95	707.73
658.29	702.72
658.64	697.54
658.98	692.41
659.32	686.92
659.66	681.86
660.00	676.68
660.34	671.80
660.68	666.97
661.02	662.06
661.36	657.48
661.70	653.07
662.05	648.77
662.39	644.48
662.73	640.05
663.07	635.77
663.41	631.34
663.75	626.89
664.09	622.34
664.43	618.10
664.77	614.09
665.11	609.85
665.45	605.74
665.79	601.75
666.13	597.58
666.47	593.58
666.81	589.46
667.15	585.35
667.49	581.49
667.83	577.70
668.17	573.84
668.51	569.85
668.85	565.91
669.19	562.13
669.53	558.36
669.87	554.61
670.21	550.97
670.55	547.45
670.89	544.07
671.23	540.70
671.57	537.33
671.91	533.82
672.25	530.48
672.58	527.12
672.92	523.79
673.26	520.71
673.60	517.61
673.94	514.59
674.28	511.72
674.62	508.77
674.96	505.79
675.30	502.97
675.64	500.09
675.97	497.37
676.31	494.59
676.65	491.76
676.99	489.07
677.33	486.24
677.67	483.40
678.01	480.46
678.34	477.48
678.68	474.59
679.02	471.84
679.36	469.06
679.70	466.36
680.04	463.64
680.37	460.81
680.71	458.06
681.05	455.44
681.39	452.79
681.73	450.22
682.06	447.70
682.40	445.16
682.74	442.64
683.08	440.15
683.42	437.57
683.75	435.05
684.09	432.55
684.43	430.17
684.77	427.76
685.10	425.47
685.44	423.31
685.78	421.04
686.12	418.82
686.45	416.57
686.79	414.28
687.13	412.09
687.46	410.00
687.80	407.90
688.14	405.68
688.48	403.72
688.81	401.51
689.15	399.39
689.49	397.30
689.82	395.25
690.16	393.15
690.50	391.21
690.83	389.35
691.17	387.36
691.51	385.44
691.84	383.58
692.18	381.66
692.52	379.62
692.85	377.75
693.19	375.90
693.52	374.12
693.86	372.36
694.20	370.64
694.53	368.87
694.87	367.02
695.21	365.34
695.54	363.51
695.88	361.81
696.21	360.05
696.55	358.40
696.88	356.73
697.22	355.07
697.56	353.47
697.89	351.80
698.23	350.22
698.56	348.69
698.90	347.18
699.23	345.56
699.57	344.04
699.90	342.53
700.24	340.99
700.58	339.48
700.91	337.96
701.25	336.54
701.58	335.15
701.92	333.79
702.25	332.41
702.59	331.04
702.92	329.74
703.26	328.53
703.59	327.22
703.93	326.04
704.26	324.87
704.60	323.61
704.93	322.35
705.26	321.14
705.60	319.93
705.93	318.77
706.27	317.75
706.60	316.72
706.94	315.66
707.27	314.59
707.61	313.55
707.94	312.57
708.27	311.48
708.61	310.44
708.94	309.41
709.28	308.45
709.61	307.48
709.94	306.56
710.28	305.53
710.61	304.55
710.95	303.48
711.28	302.54
711.61	301.58
711.95	300.69
712.28	299.79
712.61	298.85
712.95	297.92
713.28	297.05
713.61	296.15
713.95	295.27
714.28	294.39
714.61	293.52
714.95	292.68
715.28	291.86
715.61	290.98
715.95	290.17
716.28	289.34
716.61	288.54
716.95	287.76
717.28	287.01
717.61	286.27
717.94	285.55
718.28	284.71
718.61	284.02
718.94	283.34
719.27	282.68
719.61	282.04
719.94	281.42
720.27	280.73
720.60	280.10
720.94	279.46
721.27	278.89
721.60	278.31
721.93	277.70
722.27	277.13
722.60	276.59
722.93	276.06
723.26	275.50
723.59	274.92
723.93	274.35
724.26	273.83
724.59	273.27
724.92	272.78
725.25	272.35
725.59	271.85
725.92	271.34
726.25	270.82
726.58	270.32
726.91	269.82
727.24	269.34
727.57	268.87
727.91	268.41
728.24	267.96
728.57	267.49
728.90	267.05
729.23	266.53
729.56	266.12
729.89	265.66
730.22	265.19
730.55	264.75
730.89	264.32
731.22	263.90
731.55	263.48
731.88	263.05
732.21	262.59
732.54	262.16
732.87	261.73
733.20	261.37
733.53	260.99
733.86	260.59
734.19	260.20
734.52	259.86
734.85	259.53
735.18	259.12
735.51	258.81
735.84	258.47
736.17	258.15
736.50	257.73
736.83	257.50
737.16	257.14
737.49	256.84
737.82	256.46
738.15	256.15
738.48	255.79
738.81	255.48
739.14	255.18
739.47	254.85
739.80	254.55
740.13	254.23
740.46	253.90
740.79	253.59
741.12	253.28
741.45	252.95
741.78	252.58
742.11	252.32
742.44	251.97
742.77	251.66
743.10	251.38
743.43	251.10
743.75	250.73
744.08	250.58
744.41	250.27
744.74	250.04
745.07	249.75
745.40	249.58
745.73	249.35
746.06	249.06
746.39	248.81
746.71	248.53
747.04	248.26
747.37	248.02
747.70	247.77
748.03	247.51
748.36	247.32
748.68	247.12
749.01	246.85
749.34	246.62
749.67	246.41
750.00	246.19
750.33	246.03
750.65	245.84
750.98	245.54
751.31	245.34
751.64	245.13
751.97	244.96
752.29	244.70
752.62	244.43
752.95	244.25
753.28	244.04
753.60	243.85
753.93	243.68
754.26	243.47
754.59	243.29
754.91	243.08
755.24	242.88
755.57	242.66
755.90	242.51
756.22	242.29
756.55	242.10
756.88	241.89
757.20	241.66
757.53	241.43
757.86	241.25
758.19	241.09
758.51	240.92
758.84	240.71
759.17	240.54
759.49	240.42
759.82	240.30
760.15	240.15
760.47	239.99
760.80	239.82
761.13	239.70
761.45	239.52
761.78	239.41
762.11	239.27
762.43	239.11
762.76	238.95
763.08	238.86
763.41	238.72
763.74	238.61
764.06	238.48
764.39	238.31
764.71	238.19
765.04	238.06
765.37	237.88
765.69	237.72
766.02	237.60
766.34	237.47
766.67	237.32
767.00	237.22
767.32	237.15
767.65	237.11
767.97	236.98
768.30	236.88
768.62	236.74
768.95	236.62
769.27	236.54
769.60	236.45
769.92	236.32
770.25	236.21
770.57	236.11
770.90	236.00
771.22	235.93
771.55	235.83
771.87	235.74
772.20	235.69
772.52	235.73
772.85	235.75
773.17	235.66
773.50	235.55
773.82	235.47
774.15	235.35
774.47	235.21
774.80	235.13
775.12	235.07
775.45	235.01
775.77	234.92
776.09	234.80
776.42	234.74
776.74	234.69
777.07	234.60
777.39	234.53
777.72	234.46
778.04	234.41
778.36	234.31
778.69	234.22
779.01	234.16
779.33	233.99
779.66	233.83
779.98	233.77
780.31	233.72
780.63	233.69
780.95	233.67
781.28	233.61
781.60	233.55
781.92	233.50
782.25	233.43
782.57	233.36
782.89	233.34
783.22	233.26
783.54	233.18
783.86	233.14
784.19	233.07
784.51	233.03
784.83	232.96
785.16	232.91
785.48	232.90
785.80	232.83
786.12	232.78
786.45	232.69
786.77	232.63
787.09	232.55
