SpectraSuite Data File
++++++++++++++++++++++++++++++++++++
Date: Fri Feb 01 18:12:49 EST 2013
User: group
Dark Spectrum Present: No
Reference Spectrum Present: No
Number of Sampled Component Spectra: 1
Spectrometers: USB2E7196
Integration Time (usec): 35000 (USB2E7196)
Spectra Averaged: 100 (USB2E7196)
Boxcar Smoothing: 10 (USB2E7196)
Correct for Electrical Dark: No (USB2E7196)
Strobe/Lamp Enabled: No (USB2E7196)
Correct for Detector Non-linearity: No (USB2E7196)
Correct for Stray Light: No (USB2E7196)
Number of Pixels in Processed Spectrum: 2048
>>>>>Begin Processed Spectral Data<<<<<
339.09	0.00
339.48	213.52
339.86	214.63
340.24	216.24
340.63	217.52
341.01	220.07
341.39	220.49
341.78	221.94
342.16	222.69
342.54	223.49
342.93	211.69
343.31	222.40
343.69	222.93
344.07	223.38
344.46	223.77
344.84	224.18
345.22	224.42
345.60	224.68
345.99	224.85
346.37	224.96
346.75	225.03
347.13	225.10
347.52	225.12
347.90	225.21
348.28	225.22
348.66	225.25
349.05	225.22
349.43	225.28
349.81	225.32
350.19	225.33
350.57	225.42
350.96	225.51
351.34	225.59
351.72	225.63
352.10	225.77
352.48	225.86
352.87	225.88
353.25	225.94
353.63	225.97
354.01	226.01
354.39	226.08
354.77	226.16
355.15	226.23
355.54	226.32
355.92	226.35
356.30	226.41
356.68	226.55
357.06	226.64
357.44	226.67
357.82	226.72
358.20	226.79
358.58	226.83
358.97	226.88
359.35	226.94
359.73	227.06
360.11	227.07
360.49	227.10
360.87	227.17
361.25	227.24
361.63	227.30
362.01	227.37
362.39	227.43
362.77	227.48
363.15	227.51
363.53	227.53
363.91	227.56
364.29	227.59
364.67	227.54
365.05	227.54
365.43	227.60
365.81	227.64
366.19	227.70
366.57	227.75
366.95	227.77
367.33	227.74
367.71	227.74
368.09	227.74
368.47	227.76
368.85	227.74
369.23	227.75
369.61	227.70
369.99	227.69
370.37	227.67
370.75	227.70
371.13	227.67
371.51	227.64
371.89	227.64
372.27	227.63
372.65	227.62
373.03	227.58
373.41	227.51
373.78	227.44
374.16	227.34
374.54	227.27
374.92	227.21
375.30	227.20
375.68	227.13
376.06	227.11
376.44	227.08
376.82	227.08
377.19	227.02
377.57	226.99
377.95	226.94
378.33	226.87
378.71	226.80
379.09	226.74
379.47	226.70
379.84	226.63
380.22	226.56
380.60	226.49
380.98	226.43
381.36	226.36
381.73	226.32
382.11	226.27
382.49	226.26
382.87	226.22
383.25	226.12
383.62	226.17
384.00	226.10
384.38	226.02
384.76	225.97
385.13	225.94
385.51	225.89
385.89	225.83
386.27	225.83
386.64	225.78
387.02	225.73
387.40	225.66
387.78	225.64
388.15	225.62
388.53	225.55
388.91	225.52
389.29	225.52
389.66	225.48
390.04	225.47
390.42	225.45
390.79	225.43
391.17	225.43
391.55	225.27
391.92	225.26
392.30	225.27
392.68	225.23
393.05	225.24
393.43	225.24
393.81	225.22
394.18	225.17
394.56	225.18
394.94	225.21
395.31	225.22
395.69	225.24
396.06	225.26
396.44	225.29
396.82	225.30
397.19	225.37
397.57	225.40
397.95	225.43
398.32	225.39
398.70	225.44
399.07	225.50
399.45	225.57
399.82	225.59
400.20	225.64
400.58	225.74
400.95	225.73
401.33	225.81
401.70	225.98
402.08	226.09
402.45	226.15
402.83	226.27
403.20	226.41
403.58	226.49
403.95	226.62
404.33	226.78
404.71	226.95
405.08	227.14
405.46	227.29
405.83	227.44
406.21	227.64
406.58	227.87
406.96	228.04
407.33	228.26
407.70	228.50
408.08	228.79
408.45	229.01
408.83	229.31
409.20	229.61
409.58	229.87
409.95	230.19
410.33	230.57
410.70	230.88
411.08	231.25
411.45	231.69
411.82	232.15
412.20	232.60
412.57	233.14
412.95	233.60
413.32	234.12
413.69	234.73
414.07	235.34
414.44	235.97
414.82	236.64
415.19	237.42
415.56	238.22
415.94	239.01
416.31	239.93
416.68	240.81
417.06	241.80
417.43	242.74
417.81	243.81
418.18	244.87
418.55	246.08
418.93	247.31
419.30	248.56
419.67	249.85
420.04	251.17
420.42	252.55
420.79	254.15
421.16	255.82
421.54	257.48
421.91	259.21
422.28	260.98
422.66	262.87
423.03	264.67
423.40	266.57
423.77	268.53
424.15	270.55
424.52	272.64
424.89	274.90
425.26	277.10
425.64	279.17
426.01	281.45
426.38	283.76
426.75	286.09
427.13	288.55
427.50	291.11
427.87	293.82
428.24	296.43
428.61	298.95
428.99	301.63
429.36	304.64
429.73	307.55
430.10	310.39
430.47	313.31
430.85	316.38
431.22	319.52
431.59	322.90
431.96	326.03
432.33	329.53
432.70	332.88
433.08	336.85
433.45	340.54
433.82	344.17
434.19	348.27
434.56	352.19
434.93	355.85
435.30	359.51
435.68	363.50
436.05	367.50
436.42	371.41
436.79	374.99
437.16	378.76
437.53	382.73
437.90	386.66
438.27	390.49
438.64	394.40
439.01	398.02
439.38	401.21
439.75	404.26
440.13	407.73
440.50	410.98
440.87	413.59
441.24	416.29
441.61	419.36
441.98	421.48
442.35	424.07
442.72	426.73
443.09	429.30
443.46	430.73
443.83	431.54
444.20	432.26
444.57	433.48
444.94	433.84
445.31	434.34
445.68	434.87
446.05	434.98
446.42	434.44
446.79	433.82
447.16	433.15
447.53	432.69
447.90	431.10
448.27	429.52
448.64	427.28
449.01	425.76
449.37	422.95
449.74	420.26
450.11	417.06
450.48	413.62
450.85	410.00
451.22	407.00
451.59	404.16
451.96	401.42
452.33	397.66
452.70	394.37
453.07	390.33
453.43	386.23
453.80	382.33
454.17	378.62
454.54	375.02
454.91	371.18
455.28	367.44
455.65	363.93
456.02	360.34
456.38	357.28
456.75	353.50
457.12	350.38
457.49	347.21
457.86	344.19
458.23	341.47
458.59	338.61
458.96	335.67
459.33	333.06
459.70	330.40
460.07	328.30
460.43	325.86
460.80	323.59
461.17	321.50
461.54	319.35
461.91	317.26
462.27	315.27
462.64	313.50
463.01	311.57
463.38	309.71
463.74	307.85
464.11	306.20
464.48	304.68
464.85	303.03
465.21	301.76
465.58	300.43
465.95	298.92
466.32	297.61
466.68	296.30
467.05	295.00
467.42	293.74
467.78	292.41
468.15	291.17
468.52	290.20
468.88	289.03
469.25	287.93
469.62	287.07
469.98	286.06
470.35	285.14
470.72	284.26
471.08	283.33
471.45	282.58
471.82	281.80
472.18	281.00
472.55	280.38
472.92	279.63
473.28	278.95
473.65	278.31
474.02	277.70
474.38	277.14
474.75	276.67
475.11	276.12
475.48	275.73
475.85	275.38
476.21	275.02
476.58	274.71
476.94	274.45
477.31	274.15
477.67	273.90
478.04	273.64
478.41	273.50
478.77	273.46
479.14	273.27
479.50	273.20
479.87	273.17
480.23	273.19
480.60	273.20
480.96	273.22
481.33	273.37
481.69	273.49
482.06	273.64
482.42	273.77
482.79	273.99
483.15	274.29
483.52	274.60
483.88	274.90
484.25	275.25
484.61	275.66
484.98	276.09
485.34	276.64
485.71	277.26
486.07	277.88
486.44	278.46
486.80	279.20
487.17	279.92
487.53	280.77
487.90	281.64
488.26	282.62
488.62	283.62
488.99	284.65
489.35	285.74
489.72	286.94
490.08	288.21
490.44	289.51
490.81	290.86
491.17	292.30
491.54	293.87
491.90	295.46
492.26	297.22
492.63	299.07
492.99	300.92
493.36	302.92
493.72	305.06
494.08	307.34
494.45	309.75
494.81	312.25
495.17	314.82
495.54	317.57
495.90	320.43
496.26	323.43
496.63	326.56
496.99	329.86
497.35	333.33
497.72	336.95
498.08	340.66
498.44	344.62
498.80	348.84
499.17	353.17
499.53	357.68
499.89	362.37
500.26	367.15
500.62	372.18
500.98	377.50
501.34	382.95
501.71	388.60
502.07	394.47
502.43	400.53
502.79	406.80
503.16	413.29
503.52	420.08
503.88	426.96
504.24	434.11
504.60	441.58
504.97	449.29
505.33	457.24
505.69	465.67
506.05	474.08
506.41	482.58
506.78	491.36
507.14	500.44
507.50	509.88
507.86	519.64
508.22	529.64
508.59	539.68
508.95	550.02
509.31	560.67
509.67	571.58
510.03	582.69
510.39	594.17
510.75	605.92
511.12	617.73
511.48	630.08
511.84	642.60
512.20	655.13
512.56	668.09
512.92	681.31
513.28	694.71
513.64	708.35
514.00	722.23
514.37	736.42
514.73	750.79
515.09	764.92
515.45	779.53
515.81	794.45
516.17	809.75
516.53	825.42
516.89	841.01
517.25	856.61
517.61	872.45
517.97	888.39
518.33	904.21
518.69	920.55
519.05	937.00
519.41	953.77
519.77	970.95
520.13	988.08
520.49	1005.18
520.85	1022.27
521.21	1039.65
521.57	1057.67
521.93	1075.10
522.29	1093.26
522.65	1111.47
523.01	1129.49
523.37	1147.45
523.73	1165.56
524.09	1183.52
524.45	1201.71
524.81	1220.35
525.17	1239.20
525.53	1258.17
525.89	1277.13
526.25	1296.01
526.61	1314.54
526.97	1333.33
527.33	1351.86
527.68	1370.51
528.04	1389.07
528.40	1407.79
528.76	1427.09
529.12	1446.00
529.48	1465.21
529.84	1483.51
530.20	1502.42
530.56	1521.78
530.91	1541.46
531.27	1560.57
531.63	1579.33
531.99	1598.45
532.35	1616.77
532.71	1635.08
533.07	1653.76
533.42	1672.16
533.78	1690.90
534.14	1709.66
534.50	1727.61
534.86	1746.04
535.21	1763.81
535.57	1782.31
535.93	1800.42
536.29	1817.75
536.65	1835.26
537.00	1852.59
537.36	1870.37
537.72	1887.50
538.08	1904.62
538.44	1921.01
538.79	1937.37
539.15	1953.48
539.51	1969.70
539.87	1986.67
540.22	2002.92
540.58	2019.33
540.94	2035.19
541.29	2050.41
541.65	2065.69
542.01	2081.40
542.37	2096.31
542.72	2111.20
543.08	2125.54
543.44	2140.72
543.79	2154.45
544.15	2167.96
544.51	2182.16
544.87	2195.74
545.22	2209.03
545.58	2221.58
545.94	2233.83
546.29	2246.32
546.65	2258.69
547.01	2270.45
547.36	2281.72
547.72	2292.73
548.07	2302.95
548.43	2313.59
548.79	2323.92
549.14	2333.80
549.50	2343.43
549.86	2353.28
550.21	2363.01
550.57	2372.53
550.92	2381.27
551.28	2390.67
551.64	2400.07
551.99	2408.68
552.35	2417.04
552.70	2425.43
553.06	2433.66
553.41	2442.02
553.77	2450.14
554.13	2458.54
554.48	2466.84
554.84	2474.40
555.19	2481.58
555.55	2488.67
555.90	2495.10
556.26	2502.18
556.61	2508.83
556.97	2515.13
557.32	2521.17
557.68	2527.19
558.03	2533.32
558.39	2538.77
558.74	2545.35
559.10	2551.02
559.45	2556.45
559.81	2562.41
560.16	2568.04
560.52	2572.97
560.87	2578.02
561.23	2582.06
561.58	2586.46
561.94	2590.52
562.29	2594.18
562.64	2598.55
563.00	2602.70
563.35	2607.76
563.71	2612.40
564.06	2617.11
564.42	2621.54
564.77	2625.50
565.12	2629.31
565.48	2632.66
565.83	2635.79
566.19	2638.28
566.54	2640.26
566.89	2642.53
567.25	2644.34
567.60	2646.67
567.96	2649.65
568.31	2651.70
568.66	2654.07
569.02	2655.66
569.37	2656.82
569.72	2658.82
570.08	2659.78
570.43	2660.52
570.78	2660.82
571.14	2659.79
571.49	2658.95
571.84	2659.14
572.20	2658.77
572.55	2658.10
572.90	2656.83
573.26	2655.84
573.61	2654.57
573.96	2653.33
574.31	2650.69
574.67	2647.96
575.02	2644.51
575.37	2641.09
575.72	2637.27
576.08	2633.83
576.43	2630.43
576.78	2626.87
577.13	2623.64
577.49	2620.53
577.84	2617.18
578.19	2613.18
578.54	2609.56
578.90	2605.41
579.25	2599.48
579.60	2594.13
579.95	2588.93
580.30	2583.62
580.66	2578.14
581.01	2572.74
581.36	2567.42
581.71	2563.06
582.06	2558.35
582.42	2553.51
582.77	2547.92
583.12	2543.03
583.47	2538.11
583.82	2532.87
584.17	2527.16
584.53	2520.97
584.88	2514.71
585.23	2508.39
585.58	2502.34
585.93	2496.22
586.28	2490.78
586.63	2485.35
586.98	2479.74
587.34	2474.33
587.69	2468.67
588.04	2462.93
588.39	2456.55
588.74	2449.12
589.09	2442.19
589.44	2434.41
589.79	2427.39
590.14	2420.94
590.49	2413.36
590.84	2405.94
591.19	2398.92
591.54	2391.46
591.89	2383.31
592.25	2375.71
592.60	2367.34
592.95	2358.73
593.30	2350.27
593.65	2341.39
594.00	2332.97
594.35	2324.62
594.70	2315.24
595.05	2307.18
595.40	2298.59
595.75	2289.86
596.10	2282.68
596.45	2274.80
596.80	2267.67
597.15	2260.08
597.50	2251.82
597.85	2244.17
598.19	2236.34
598.54	2228.16
598.89	2220.25
599.24	2213.19
599.59	2205.29
599.94	2197.83
600.29	2190.19
600.64	2182.25
600.99	2173.60
601.34	2165.54
601.69	2157.08
602.04	2149.06
602.39	2140.33
602.74	2132.13
603.08	2124.19
603.43	2116.05
603.78	2107.14
604.13	2098.45
604.48	2089.88
604.83	2081.68
605.18	2073.63
605.53	2064.25
605.87	2054.61
606.22	2045.96
606.57	2036.34
606.92	2027.31
607.27	2018.95
607.62	2010.72
607.96	2002.10
608.31	1994.19
608.66	1985.19
609.01	1976.33
609.36	1967.12
609.70	1957.44
610.05	1947.83
610.40	1938.48
610.75	1928.50
611.10	1919.55
611.44	1909.35
611.79	1899.53
612.14	1889.09
612.49	1877.91
612.83	1867.75
613.18	1857.90
613.53	1848.16
613.88	1837.91
614.22	1828.08
614.57	1817.60
614.92	1808.01
615.27	1798.94
615.61	1788.96
615.96	1779.30
616.31	1770.07
616.65	1761.23
617.00	1752.14
617.35	1742.91
617.70	1733.03
618.04	1722.96
618.39	1712.88
618.74	1703.76
619.08	1693.88
619.43	1684.67
619.78	1676.45
620.12	1667.79
620.47	1658.76
620.82	1648.95
621.16	1640.02
621.51	1630.76
621.85	1621.53
622.20	1611.25
622.55	1601.15
622.89	1591.67
623.24	1582.38
623.59	1573.30
623.93	1564.19
624.28	1555.52
624.62	1546.52
624.97	1537.79
625.32	1529.56
625.66	1521.16
626.01	1512.55
626.35	1503.69
626.70	1494.40
627.04	1485.00
627.39	1475.60
627.73	1466.77
628.08	1458.44
628.43	1449.83
628.77	1441.14
629.12	1432.07
629.46	1423.46
629.81	1414.43
630.15	1405.70
630.50	1396.79
630.84	1387.06
631.19	1377.65
631.53	1368.62
631.88	1359.47
632.22	1350.39
632.57	1341.58
632.91	1332.45
633.26	1323.60
633.60	1314.61
633.95	1305.98
634.29	1297.49
634.64	1289.55
634.98	1280.67
635.32	1272.04
635.67	1264.03
636.01	1255.98
636.36	1247.95
636.70	1240.03
637.05	1232.26
637.39	1224.54
637.73	1216.70
638.08	1209.51
638.42	1202.28
638.77	1194.47
639.11	1186.66
639.45	1178.95
639.80	1171.01
640.14	1163.42
640.49	1155.64
640.83	1148.19
641.17	1140.83
641.52	1133.33
641.86	1125.52
642.20	1118.56
642.55	1110.98
642.89	1103.26
643.23	1095.49
643.58	1088.55
643.92	1081.24
644.26	1074.10
644.61	1066.79
644.95	1059.79
645.29	1052.18
645.64	1044.18
645.98	1036.72
646.32	1029.69
646.66	1022.63
647.01	1015.79
647.35	1009.01
647.69	1001.99
648.04	995.36
648.38	988.48
648.72	981.44
649.06	974.33
649.41	967.37
649.75	960.49
650.09	953.41
650.43	946.53
650.78	939.23
651.12	932.19
651.46	925.39
651.80	918.70
652.14	912.15
652.49	905.78
652.83	899.65
653.17	892.99
653.51	886.20
653.85	879.66
654.20	873.03
654.54	865.90
654.88	859.11
655.22	852.17
655.56	845.49
655.90	838.97
656.25	832.83
656.59	826.40
656.93	820.31
657.27	814.24
657.61	807.86
657.95	801.81
658.29	795.71
658.64	789.47
658.98	783.21
659.32	776.85
659.66	770.62
660.00	764.42
660.34	758.55
660.68	752.80
661.02	746.96
661.36	741.33
661.70	736.02
662.05	730.84
662.39	725.75
662.73	720.46
663.07	715.30
663.41	709.96
663.75	704.70
664.09	699.25
664.43	694.06
664.77	689.15
665.11	684.16
665.45	679.33
665.79	674.53
666.13	669.60
666.47	664.80
666.81	659.98
667.15	655.06
667.49	650.39
667.83	645.90
668.17	641.19
668.51	636.42
668.85	631.65
669.19	627.14
669.53	622.66
669.87	618.08
670.21	613.65
670.55	609.37
670.89	605.32
671.23	601.31
671.57	597.16
671.91	592.98
672.25	588.79
672.58	584.63
672.92	580.61
673.26	576.91
673.60	573.15
673.94	569.45
674.28	566.02
674.62	562.55
674.96	558.90
675.30	555.54
675.64	552.08
675.97	548.80
676.31	545.41
676.65	541.92
676.99	538.77
677.33	535.47
677.67	532.18
678.01	528.67
678.34	525.25
678.68	521.88
679.02	518.63
679.36	515.40
679.70	512.21
680.04	508.98
680.37	505.60
680.71	502.29
681.05	499.20
681.39	495.97
681.73	492.87
682.06	489.89
682.40	486.87
682.74	483.84
683.08	480.83
683.42	477.86
683.75	474.92
684.09	471.91
684.43	469.00
684.77	466.09
685.10	463.27
685.44	460.49
685.78	457.74
686.12	455.07
686.45	452.37
686.79	449.67
687.13	447.05
687.46	444.49
687.80	441.95
688.14	439.30
688.48	436.89
688.81	434.22
689.15	431.62
689.49	429.05
689.82	426.61
690.16	424.17
690.50	421.80
690.83	419.48
691.17	417.09
691.51	414.87
691.84	412.68
692.18	410.40
692.52	408.09
692.85	405.82
693.19	403.52
693.52	401.34
693.86	399.17
694.20	397.00
694.53	394.85
694.87	392.66
695.21	390.51
695.54	388.35
695.88	386.36
696.21	384.37
696.55	382.41
696.88	380.44
697.22	378.46
697.56	376.48
697.89	374.56
698.23	372.70
698.56	370.75
698.90	368.90
699.23	366.97
699.57	365.12
699.90	363.26
700.24	361.46
700.58	359.67
700.91	357.90
701.25	356.18
701.58	354.58
701.92	352.99
702.25	351.39
702.59	349.75
702.92	348.17
703.26	346.61
703.59	345.07
703.93	343.62
704.26	342.14
704.60	340.69
704.93	339.13
705.26	337.61
705.60	336.22
705.93	334.82
706.27	333.60
706.60	332.32
706.94	331.12
707.27	329.80
707.61	328.48
707.94	327.24
708.27	325.99
708.61	324.67
708.94	323.46
709.28	322.25
709.61	321.07
709.94	319.93
710.28	318.72
710.61	317.56
710.95	316.30
711.28	315.22
711.61	314.06
711.95	312.94
712.28	311.80
712.61	310.64
712.95	309.48
713.28	308.37
713.61	307.32
713.95	306.24
714.28	305.27
714.61	304.27
714.95	303.25
715.28	302.22
715.61	301.17
715.95	300.12
716.28	299.10
716.61	298.15
716.95	297.16
717.28	296.28
717.61	295.33
717.94	294.49
718.28	293.56
718.61	292.66
718.94	291.89
719.27	291.13
719.61	290.35
719.94	289.56
720.27	288.72
720.60	287.94
720.94	287.17
721.27	286.45
721.60	285.80
721.93	285.12
722.27	284.46
722.60	283.83
722.93	283.16
723.26	282.53
723.59	281.87
723.93	281.22
724.26	280.50
724.59	279.86
724.92	279.18
725.25	278.56
725.59	277.95
725.92	277.33
726.25	276.77
726.58	276.17
726.91	275.61
727.24	275.07
727.57	274.46
727.91	273.86
728.24	273.29
728.57	272.66
728.90	272.13
729.23	271.54
729.56	271.03
729.89	270.46
730.22	269.91
730.55	269.35
730.89	268.80
731.22	268.30
731.55	267.77
731.88	267.27
732.21	266.76
732.54	266.23
732.87	265.71
733.20	265.20
733.53	264.74
733.86	264.32
734.19	263.84
734.52	263.42
734.85	263.02
735.18	262.50
735.51	262.09
735.84	261.61
736.17	261.19
736.50	260.73
736.83	260.47
737.16	260.10
737.49	259.73
737.82	259.35
738.15	258.98
738.48	258.60
738.81	258.21
739.14	257.84
739.47	257.48
739.80	257.14
740.13	256.76
740.46	256.38
740.79	255.97
741.12	255.62
741.45	255.27
741.78	254.89
742.11	254.58
742.44	254.18
742.77	253.88
743.10	253.54
743.43	253.16
743.75	252.69
744.08	252.46
744.41	252.11
744.74	251.76
745.07	251.39
745.40	251.08
745.73	250.80
746.06	250.49
746.39	250.20
746.71	249.86
747.04	249.55
747.37	249.23
747.70	248.94
748.03	248.62
748.36	248.32
748.68	248.03
749.01	247.72
749.34	247.47
749.67	247.19
750.00	246.94
750.33	246.72
750.65	246.50
750.98	246.12
751.31	245.86
751.64	245.67
751.97	245.47
752.29	245.22
752.62	244.92
752.95	244.66
753.28	244.42
753.60	244.18
753.93	243.97
754.26	243.74
754.59	243.48
754.91	243.25
755.24	243.05
755.57	242.79
755.90	242.57
756.22	242.35
756.55	242.12
756.88	241.84
757.20	241.60
757.53	241.35
757.86	241.13
758.19	240.93
758.51	240.72
758.84	240.47
759.17	240.24
759.49	240.07
759.82	239.93
760.15	239.73
760.47	239.53
760.80	239.30
761.13	239.12
761.45	238.92
761.78	238.68
762.11	238.47
762.43	238.33
762.76	238.16
763.08	237.97
763.41	237.82
763.74	237.69
764.06	237.54
764.39	237.41
764.71	237.23
765.04	237.06
765.37	236.86
765.69	236.72
766.02	236.56
766.34	236.40
766.67	236.23
767.00	236.09
767.32	236.03
767.65	235.98
767.97	235.84
768.30	235.74
768.62	235.67
768.95	235.54
769.27	235.45
769.60	235.30
769.92	235.17
770.25	234.99
770.57	234.83
770.90	234.70
771.22	234.55
771.55	234.42
771.87	234.35
772.20	234.24
772.52	234.22
772.85	234.23
773.17	234.14
773.50	234.02
773.82	233.89
774.15	233.74
774.47	233.55
774.80	233.47
775.12	233.36
775.45	233.27
775.77	233.18
776.09	233.07
776.42	233.01
776.74	232.94
777.07	232.87
777.39	232.80
777.72	232.68
778.04	232.64
778.36	232.60
778.69	232.52
779.01	232.45
779.33	232.29
779.66	232.14
779.98	232.07
780.31	232.01
780.63	231.98
780.95	231.91
781.28	231.90
781.60	231.81
781.92	231.77
782.25	231.69
782.57	231.63
782.89	231.57
783.22	231.50
783.54	231.43
783.86	231.37
784.19	231.29
784.51	231.29
784.83	231.16
785.16	231.09
785.48	231.04
785.80	231.00
786.12	230.94
786.45	230.89
