SpectraSuite Data File
++++++++++++++++++++++++++++++++++++
Date: Fri Feb 01 15:40:07 EST 2013
User: group
Dark Spectrum Present: No
Reference Spectrum Present: No
Number of Sampled Component Spectra: 1
Spectrometers: USB2E7196
Integration Time (usec): 35000 (USB2E7196)
Spectra Averaged: 100 (USB2E7196)
Boxcar Smoothing: 10 (USB2E7196)
Correct for Electrical Dark: No (USB2E7196)
Strobe/Lamp Enabled: No (USB2E7196)
Correct for Detector Non-linearity: No (USB2E7196)
Correct for Stray Light: No (USB2E7196)
Number of Pixels in Processed Spectrum: 2048
>>>>>Begin Processed Spectral Data<<<<<
339.09	0.00
339.48	214.96
339.86	216.25
340.24	217.78
340.63	219.12
341.01	221.86
341.39	221.94
341.78	223.39
342.16	224.20
342.54	224.98
342.93	213.17
343.31	223.99
343.69	224.52
344.07	225.01
344.46	225.44
344.84	225.82
345.22	226.07
345.60	226.32
345.99	226.50
346.37	226.60
346.75	226.69
347.13	226.77
347.52	226.86
347.90	226.95
348.28	227.02
348.66	227.08
349.05	227.08
349.43	227.09
349.81	227.10
350.19	227.14
350.57	227.20
350.96	227.31
351.34	227.35
351.72	227.43
352.10	227.48
352.48	227.52
352.87	227.57
353.25	227.64
353.63	227.69
354.01	227.75
354.39	227.86
354.77	227.95
355.15	228.06
355.54	228.09
355.92	228.14
356.30	228.21
356.68	228.31
357.06	228.39
357.44	228.46
357.82	228.57
358.20	228.64
358.58	228.71
358.97	228.75
359.35	228.84
359.73	228.93
360.11	229.01
360.49	229.07
360.87	229.11
361.25	229.14
361.63	229.23
362.01	229.30
362.39	229.33
362.77	229.37
363.15	229.39
363.53	229.38
363.91	229.40
364.29	229.41
364.67	229.34
365.05	229.34
365.43	229.35
365.81	229.39
366.19	229.42
366.57	229.42
366.95	229.37
367.33	229.32
367.71	229.29
368.09	229.30
368.47	229.30
368.85	229.30
369.23	229.29
369.61	229.23
369.99	229.19
370.37	229.19
370.75	229.22
371.13	229.15
371.51	229.13
371.89	229.07
372.27	229.02
372.65	229.00
373.03	228.95
373.41	228.91
373.78	228.82
374.16	228.71
374.54	228.63
374.92	228.59
375.30	228.54
375.68	228.47
376.06	228.39
376.44	228.33
376.82	228.26
377.19	228.18
377.57	228.12
377.95	228.04
378.33	227.91
378.71	227.76
379.09	227.75
379.47	227.70
379.84	227.63
380.22	227.56
380.60	227.46
380.98	227.40
381.36	227.34
381.73	227.22
382.11	227.19
382.49	227.14
382.87	227.10
383.25	227.02
383.62	227.07
384.00	227.01
384.38	226.93
384.76	226.89
385.13	226.90
385.51	226.84
385.89	226.76
386.27	226.73
386.64	226.72
387.02	226.64
387.40	226.58
387.78	226.54
388.15	226.49
388.53	226.48
388.91	226.46
389.29	226.42
389.66	226.43
390.04	226.40
390.42	226.43
390.79	226.38
391.17	226.42
391.55	226.29
391.92	226.30
392.30	226.33
392.68	226.33
393.05	226.32
393.43	226.31
393.81	226.32
394.18	226.32
394.56	226.29
394.94	226.35
395.31	226.37
395.69	226.44
396.06	226.51
396.44	226.54
396.82	226.56
397.19	226.66
397.57	226.69
397.95	226.75
398.32	226.76
398.70	226.87
399.07	226.93
399.45	227.01
399.82	227.07
400.20	227.15
400.58	227.21
400.95	227.23
401.33	227.32
401.70	227.50
402.08	227.60
402.45	227.73
402.83	227.84
403.20	227.96
403.58	228.06
403.95	228.18
404.33	228.31
404.71	228.44
405.08	228.60
405.46	228.74
405.83	228.89
406.21	229.05
406.58	229.19
406.96	229.32
407.33	229.51
407.70	229.69
408.08	229.96
408.45	230.23
408.83	230.45
409.20	230.66
409.58	230.82
409.95	231.11
410.33	231.37
410.70	231.60
411.08	231.91
411.45	232.22
411.82	232.52
412.20	232.89
412.57	233.31
412.95	233.59
413.32	233.99
413.69	234.40
414.07	234.81
414.44	235.26
414.82	235.76
415.19	236.34
415.56	236.85
415.94	237.37
416.31	237.96
416.68	238.62
417.06	239.34
417.43	240.05
417.81	240.79
418.18	241.59
418.55	242.43
418.93	243.27
419.30	244.16
419.67	245.09
420.04	246.03
420.42	246.98
420.79	248.17
421.16	249.33
421.54	250.50
421.91	251.74
422.28	252.98
422.66	254.30
423.03	255.55
423.40	256.93
423.77	258.35
424.15	259.76
424.52	261.22
424.89	262.81
425.26	264.34
425.64	265.80
426.01	267.40
426.38	269.05
426.75	270.75
427.13	272.49
427.50	274.26
427.87	276.14
428.24	278.04
428.61	279.77
428.99	281.71
429.36	283.81
429.73	285.86
430.10	287.89
430.47	289.95
430.85	292.09
431.22	294.30
431.59	296.67
431.96	298.90
432.33	301.39
432.70	303.76
433.08	306.60
433.45	309.24
433.82	311.84
434.19	314.76
434.56	317.56
434.93	320.24
435.30	322.90
435.68	325.81
436.05	328.62
436.42	331.41
436.79	333.96
437.16	336.62
437.53	339.46
437.90	342.30
438.27	344.99
438.64	347.80
439.01	350.41
439.38	352.62
439.75	354.81
440.13	357.27
440.50	359.64
440.87	361.50
441.24	363.43
441.61	365.58
441.98	367.05
442.35	368.86
442.72	370.68
443.09	372.49
443.46	373.45
443.83	374.05
444.20	374.59
444.57	375.38
444.94	375.69
445.31	376.01
445.68	376.35
446.05	376.51
446.42	376.17
446.79	375.72
447.16	375.25
447.53	374.93
447.90	373.78
448.27	372.60
448.64	370.95
449.01	369.80
449.37	367.77
449.74	365.84
450.11	363.58
450.48	361.10
450.85	358.52
451.22	356.39
451.59	354.35
451.96	352.39
452.33	349.83
452.70	347.53
453.07	344.71
453.43	341.82
453.80	339.01
454.17	336.31
454.54	333.80
454.91	331.10
455.28	328.44
455.65	325.97
456.02	323.52
456.38	321.41
456.75	318.73
457.12	316.52
457.49	314.32
457.86	312.13
458.23	310.24
458.59	308.18
458.96	306.11
459.33	304.25
459.70	302.40
460.07	300.87
460.43	299.11
460.80	297.49
461.17	296.02
461.54	294.52
461.91	293.06
462.27	291.58
462.64	290.32
463.01	288.97
463.38	287.68
463.74	286.34
464.11	285.16
464.48	284.20
464.85	283.11
465.21	282.24
465.58	281.31
465.95	280.29
466.32	279.44
466.68	278.54
467.05	277.67
467.42	276.77
467.78	275.85
468.15	274.93
468.52	274.26
468.88	273.42
469.25	272.66
469.62	272.07
469.98	271.44
470.35	270.82
470.72	270.22
471.08	269.54
471.45	269.00
471.82	268.48
472.18	267.85
472.55	267.44
472.92	266.94
473.28	266.49
473.65	266.02
474.02	265.58
474.38	265.19
474.75	264.82
475.11	264.49
475.48	264.24
475.85	264.04
476.21	263.83
476.58	263.66
476.94	263.51
477.31	263.30
477.67	263.19
478.04	263.08
478.41	263.02
478.77	263.08
479.14	263.00
479.50	263.04
479.87	263.12
480.23	263.17
480.60	263.24
480.96	263.35
481.33	263.55
481.69	263.77
482.06	263.97
482.42	264.21
482.79	264.47
483.15	264.77
483.52	265.17
483.88	265.53
484.25	265.92
484.61	266.35
484.98	266.85
485.34	267.33
485.71	267.89
486.07	268.47
486.44	269.04
486.80	269.76
487.17	270.45
487.53	271.24
487.90	272.06
488.26	272.99
488.62	273.99
488.99	274.96
489.35	275.99
489.72	277.07
490.08	278.28
490.44	279.49
490.81	280.82
491.17	282.17
491.54	283.64
491.90	285.12
492.26	286.79
492.63	288.53
492.99	290.30
493.36	292.22
493.72	294.29
494.08	296.41
494.45	298.62
494.81	300.96
495.17	303.37
495.54	305.92
495.90	308.62
496.26	311.40
496.63	314.34
496.99	317.46
497.35	320.80
497.72	324.21
498.08	327.75
498.44	331.44
498.80	335.34
499.17	339.39
499.53	343.55
499.89	347.94
500.26	352.40
500.62	357.09
500.98	362.06
501.34	367.13
501.71	372.45
502.07	377.89
502.43	383.52
502.79	389.32
503.16	395.47
503.52	401.67
503.88	408.07
504.24	414.71
504.60	421.60
504.97	428.69
505.33	435.99
505.69	443.66
506.05	451.43
506.41	459.33
506.78	467.49
507.14	475.93
507.50	484.63
507.86	493.65
508.22	502.86
508.59	512.04
508.95	521.64
509.31	531.39
509.67	541.45
510.03	551.75
510.39	562.37
510.75	573.09
511.12	584.04
511.48	595.37
511.84	606.76
512.20	618.27
512.56	630.16
512.92	642.42
513.28	654.76
513.64	667.25
514.00	679.92
514.37	692.88
514.73	705.99
515.09	719.02
515.45	732.29
515.81	745.78
516.17	759.84
516.53	773.92
516.89	788.11
517.25	802.33
517.61	816.72
517.97	831.15
518.33	845.67
518.69	860.46
519.05	875.41
519.41	890.61
519.77	906.25
520.13	921.78
520.49	937.16
520.85	952.54
521.21	968.29
521.57	984.53
521.93	1000.37
522.29	1016.74
522.65	1033.00
523.01	1049.37
523.37	1065.56
523.73	1081.70
524.09	1097.75
524.45	1114.04
524.81	1130.74
525.17	1147.74
525.53	1164.65
525.89	1181.54
526.25	1198.42
526.61	1214.89
526.97	1231.67
527.33	1248.13
527.68	1264.71
528.04	1281.22
528.40	1297.88
528.76	1314.96
529.12	1331.60
529.48	1348.36
529.84	1364.46
530.20	1381.12
530.56	1398.13
530.91	1415.54
531.27	1432.32
531.63	1448.90
531.99	1465.57
532.35	1481.47
532.71	1497.29
533.07	1513.56
533.42	1529.48
533.78	1545.47
534.14	1561.81
534.50	1577.30
534.86	1593.13
535.21	1608.29
535.57	1624.20
535.93	1639.88
536.29	1654.65
536.65	1669.69
537.00	1684.59
537.36	1699.75
537.72	1714.40
538.08	1728.81
538.44	1742.62
538.79	1756.58
539.15	1770.38
539.51	1784.18
539.87	1798.57
540.22	1812.18
540.58	1825.93
540.94	1839.40
541.29	1852.43
541.65	1865.08
542.01	1878.17
542.37	1890.46
542.72	1903.10
543.08	1914.84
543.44	1927.07
543.79	1938.38
544.15	1949.49
544.51	1961.06
544.87	1972.22
545.22	1982.90
545.58	1993.20
545.94	2002.91
546.29	2012.68
546.65	2022.45
547.01	2031.65
547.36	2040.43
547.72	2049.10
548.07	2056.96
548.43	2065.02
548.79	2073.07
549.14	2080.59
549.50	2087.91
549.86	2095.68
550.21	2102.80
550.57	2110.04
550.92	2116.70
551.28	2123.87
551.64	2130.88
551.99	2137.33
552.35	2143.33
552.70	2149.52
553.06	2155.40
553.41	2161.76
553.77	2167.84
554.13	2173.95
554.48	2180.06
554.84	2185.43
555.19	2190.67
555.55	2195.90
555.90	2200.30
556.26	2205.22
556.61	2209.95
556.97	2214.21
557.32	2218.32
557.68	2222.54
558.03	2226.82
558.39	2230.42
558.74	2234.99
559.10	2238.86
559.45	2242.60
559.81	2247.02
560.16	2250.96
560.52	2254.32
560.87	2257.86
561.23	2260.56
561.58	2263.44
561.94	2265.96
562.29	2268.58
562.64	2271.26
563.00	2273.79
563.35	2277.32
563.71	2280.33
564.06	2283.53
564.42	2286.38
564.77	2288.77
565.12	2291.08
565.48	2292.90
565.83	2294.79
566.19	2295.91
566.54	2296.80
566.89	2297.81
567.25	2298.37
567.60	2299.49
567.96	2301.00
568.31	2301.71
568.66	2302.77
569.02	2303.33
569.37	2303.73
569.72	2304.47
570.08	2304.48
570.43	2304.64
570.78	2304.08
571.14	2302.49
571.49	2301.17
571.84	2300.89
572.20	2299.88
572.55	2298.75
572.90	2297.30
573.26	2295.93
573.61	2294.22
573.96	2292.46
574.31	2289.38
574.67	2286.35
575.02	2282.78
575.37	2279.40
575.72	2275.54
576.08	2272.17
576.43	2268.80
576.78	2265.06
577.13	2261.74
577.49	2258.70
577.84	2255.06
578.19	2251.22
578.54	2247.42
578.90	2243.12
579.25	2237.55
579.60	2232.40
579.95	2227.31
580.30	2222.16
580.66	2216.99
581.01	2212.18
581.36	2207.12
581.71	2202.94
582.06	2198.45
582.42	2193.88
582.77	2188.60
583.12	2184.06
583.47	2179.31
583.82	2174.13
584.17	2168.78
584.53	2163.19
584.88	2157.47
585.23	2151.60
585.58	2146.13
585.93	2140.73
586.28	2135.85
586.63	2130.83
586.98	2125.82
587.34	2121.04
587.69	2116.11
588.04	2110.75
588.39	2104.93
588.74	2098.40
589.09	2092.28
589.44	2085.45
589.79	2079.57
590.14	2074.03
590.49	2067.47
590.84	2061.01
591.19	2055.22
591.54	2048.81
591.89	2041.46
592.25	2034.64
592.60	2027.56
592.95	2019.93
593.30	2012.64
593.65	2004.94
594.00	1997.87
594.35	1990.67
594.70	1982.71
595.05	1975.36
595.40	1968.13
595.75	1960.61
596.10	1954.41
596.45	1947.60
596.80	1941.38
597.15	1934.52
597.50	1927.31
597.85	1920.89
598.19	1914.17
598.54	1906.86
598.89	1900.17
599.24	1894.29
599.59	1887.57
599.94	1881.28
600.29	1874.88
600.64	1868.31
600.99	1860.99
601.34	1854.09
601.69	1847.07
602.04	1840.04
602.39	1832.76
602.74	1825.77
603.08	1818.97
603.43	1812.29
603.78	1805.11
604.13	1797.90
604.48	1790.56
604.83	1783.59
605.18	1776.37
605.53	1768.35
605.87	1760.40
606.22	1753.18
606.57	1745.11
606.92	1737.77
607.27	1730.49
607.62	1723.62
607.96	1716.24
608.31	1709.45
608.66	1701.85
609.01	1694.28
609.36	1686.79
609.70	1678.78
610.05	1670.74
610.40	1663.04
610.75	1654.68
611.10	1647.02
611.44	1638.61
611.79	1630.77
612.14	1622.09
612.49	1613.07
612.83	1604.75
613.18	1596.63
613.53	1588.52
613.88	1580.06
614.22	1571.75
614.57	1563.30
614.92	1555.28
615.27	1547.73
615.61	1539.50
615.96	1531.47
616.31	1523.82
616.65	1516.51
617.00	1509.00
617.35	1501.26
617.70	1492.91
618.04	1484.40
618.39	1476.12
618.74	1468.51
619.08	1460.22
619.43	1452.73
619.78	1445.87
620.12	1438.63
620.47	1431.06
620.82	1422.86
621.16	1415.56
621.51	1408.03
621.85	1400.37
622.20	1391.73
622.55	1383.34
622.89	1375.50
623.24	1367.76
623.59	1360.32
623.93	1352.69
624.28	1345.50
624.62	1338.09
624.97	1330.95
625.32	1324.29
625.66	1317.28
626.01	1310.01
626.35	1302.50
626.70	1294.66
627.04	1286.78
627.39	1279.11
627.73	1271.80
628.08	1264.89
628.43	1257.46
628.77	1250.04
629.12	1242.46
629.46	1235.43
629.81	1228.19
630.15	1221.02
630.50	1213.68
630.84	1205.50
631.19	1197.63
631.53	1190.05
631.88	1182.50
632.22	1174.82
632.57	1167.40
632.91	1159.77
633.26	1152.44
633.60	1145.10
633.95	1138.07
634.29	1131.13
634.64	1124.41
634.98	1116.96
635.32	1109.90
635.67	1103.36
636.01	1096.74
636.36	1089.88
636.70	1083.34
637.05	1076.57
637.39	1070.12
637.73	1063.70
638.08	1057.87
638.42	1051.79
638.77	1045.35
639.11	1038.63
639.45	1032.30
639.80	1025.64
640.14	1019.16
640.49	1012.60
640.83	1006.24
641.17	999.94
641.52	993.67
641.86	987.21
642.20	981.36
642.55	974.98
642.89	968.47
643.23	961.92
643.58	956.23
643.92	950.02
644.26	943.94
644.61	937.92
644.95	931.79
645.29	925.13
645.64	918.47
645.98	912.12
646.32	906.42
646.66	900.42
647.01	894.65
647.35	889.02
647.69	883.20
648.04	877.71
648.38	871.94
648.72	865.81
649.06	859.72
649.41	853.87
649.75	847.84
650.09	841.86
650.43	836.09
650.78	829.90
651.12	823.93
651.46	818.23
651.80	812.43
652.14	807.08
652.49	801.80
652.83	796.58
653.17	790.93
653.51	785.19
653.85	779.81
654.20	774.17
654.54	768.15
654.88	762.42
655.22	756.52
655.56	750.89
655.90	745.48
656.25	740.29
656.59	734.94
656.93	729.91
657.27	724.78
657.61	719.32
657.95	714.23
658.29	709.14
658.64	703.97
658.98	698.66
659.32	693.11
659.66	687.84
660.00	682.48
660.34	677.49
660.68	672.60
661.02	667.50
661.36	662.82
661.70	658.37
662.05	653.99
662.39	649.70
662.73	645.20
663.07	640.80
663.41	636.32
663.75	631.76
664.09	627.18
664.43	622.85
664.77	618.70
665.11	614.45
665.45	610.32
665.79	606.21
666.13	602.15
666.47	598.11
666.81	593.90
667.15	589.86
667.49	586.01
667.83	582.18
668.17	578.27
668.51	574.20
668.85	570.17
669.19	566.35
669.53	562.45
669.87	558.51
670.21	554.84
670.55	551.16
670.89	547.76
671.23	544.32
671.57	540.77
671.91	537.30
672.25	533.81
672.58	530.38
672.92	527.00
673.26	523.79
673.60	520.66
673.94	517.66
674.28	514.81
674.62	511.79
674.96	508.61
675.30	505.73
675.64	502.77
675.97	500.04
676.31	497.18
676.65	494.30
676.99	491.67
677.33	488.83
677.67	486.04
678.01	483.04
678.34	480.11
678.68	477.23
679.02	474.39
679.36	471.61
679.70	468.87
680.04	466.09
680.37	463.21
680.71	460.41
681.05	457.72
681.39	454.92
681.73	452.30
682.06	449.81
682.40	447.24
682.74	444.68
683.08	442.14
683.42	439.60
683.75	437.08
684.09	434.53
684.43	432.07
684.77	429.61
685.10	427.30
685.44	424.99
685.78	422.75
686.12	420.52
686.45	418.22
686.79	415.90
687.13	413.70
687.46	411.55
687.80	409.39
688.14	407.24
688.48	405.24
688.81	403.02
689.15	400.93
689.49	398.79
689.82	396.76
690.16	394.67
690.50	392.65
690.83	390.76
691.17	388.78
691.51	386.89
691.84	385.02
692.18	383.11
692.52	381.08
692.85	379.16
693.19	377.26
693.52	375.49
693.86	373.70
694.20	371.89
694.53	370.06
694.87	368.24
695.21	366.45
695.54	364.62
695.88	362.90
696.21	361.16
696.55	359.48
696.88	357.79
697.22	356.14
697.56	354.57
697.89	352.89
698.23	351.30
698.56	349.63
698.90	348.04
699.23	346.37
699.57	344.90
699.90	343.31
700.24	341.76
700.58	340.17
700.91	338.62
701.25	337.20
701.58	335.85
701.92	334.52
702.25	333.13
702.59	331.76
702.92	330.42
703.26	329.07
703.59	327.82
703.93	326.60
704.26	325.34
704.60	324.03
704.93	322.74
705.26	321.48
705.60	320.33
705.93	319.20
706.27	318.17
706.60	317.10
706.94	316.05
707.27	314.93
707.61	313.90
707.94	312.91
708.27	311.80
708.61	310.72
708.94	309.70
709.28	308.67
709.61	307.69
709.94	306.77
710.28	305.76
710.61	304.75
710.95	303.70
711.28	302.80
711.61	301.81
711.95	300.93
712.28	299.98
712.61	299.01
712.95	298.04
713.28	297.14
713.61	296.21
713.95	295.28
714.28	294.43
714.61	293.56
714.95	292.67
715.28	291.83
715.61	290.97
715.95	290.11
716.28	289.27
716.61	288.50
716.95	287.66
717.28	286.97
717.61	286.22
717.94	285.47
718.28	284.64
718.61	283.95
718.94	283.25
719.27	282.59
719.61	281.97
719.94	281.33
720.27	280.61
720.60	279.95
720.94	279.35
721.27	278.75
721.60	278.17
721.93	277.59
722.27	277.09
722.60	276.55
722.93	275.98
723.26	275.46
723.59	274.86
723.93	274.30
724.26	273.72
724.59	273.18
724.92	272.70
725.25	272.22
725.59	271.68
725.92	271.17
726.25	270.68
726.58	270.20
726.91	269.73
727.24	269.28
727.57	268.84
727.91	268.31
728.24	267.87
728.57	267.43
728.90	266.99
729.23	266.46
729.56	266.05
729.89	265.61
730.22	265.12
730.55	264.71
730.89	264.29
731.22	263.86
731.55	263.43
731.88	262.96
732.21	262.50
732.54	262.08
732.87	261.61
733.20	261.20
733.53	260.78
733.86	260.38
734.19	259.98
734.52	259.59
734.85	259.34
735.18	258.90
735.51	258.51
735.84	258.16
736.17	257.80
736.50	257.38
736.83	257.14
737.16	256.80
737.49	256.48
737.82	256.12
738.15	255.77
738.48	255.42
738.81	255.14
739.14	254.84
739.47	254.54
739.80	254.27
740.13	253.97
740.46	253.62
740.79	253.29
741.12	252.97
741.45	252.65
741.78	252.27
742.11	251.98
742.44	251.67
742.77	251.37
743.10	251.04
743.43	250.78
743.75	250.38
744.08	250.24
744.41	249.94
744.74	249.63
745.07	249.36
745.40	249.13
745.73	248.85
746.06	248.56
746.39	248.29
746.71	248.03
747.04	247.70
747.37	247.49
747.70	247.24
748.03	247.01
748.36	246.78
748.68	246.50
749.01	246.28
749.34	246.04
749.67	245.79
750.00	245.59
750.33	245.42
750.65	245.21
750.98	244.88
751.31	244.65
751.64	244.45
751.97	244.27
752.29	244.03
752.62	243.81
752.95	243.58
753.28	243.37
753.60	243.14
753.93	242.99
754.26	242.76
754.59	242.54
754.91	242.31
755.24	242.10
755.57	241.93
755.90	241.70
756.22	241.49
756.55	241.29
756.88	241.09
757.20	240.84
757.53	240.62
757.86	240.44
758.19	240.28
758.51	240.13
758.84	239.93
759.17	239.76
759.49	239.58
759.82	239.49
760.15	239.30
760.47	239.16
760.80	239.00
761.13	238.86
761.45	238.71
761.78	238.57
762.11	238.47
762.43	238.32
762.76	238.20
763.08	238.10
763.41	237.98
763.74	237.87
764.06	237.73
764.39	237.63
764.71	237.49
765.04	237.38
765.37	237.22
765.69	237.10
766.02	236.99
766.34	236.88
766.67	236.71
767.00	236.63
767.32	236.57
767.65	236.49
767.97	236.38
768.30	236.26
768.62	236.16
768.95	236.05
769.27	235.95
769.60	235.87
769.92	235.73
770.25	235.62
770.57	235.49
770.90	235.37
771.22	235.22
771.55	235.14
771.87	235.04
772.20	234.97
772.52	234.94
772.85	234.97
773.17	234.85
773.50	234.75
773.82	234.65
774.15	234.49
774.47	234.37
774.80	234.29
775.12	234.22
775.45	234.14
775.77	234.06
776.09	233.98
776.42	233.89
776.74	233.86
777.07	233.76
777.39	233.67
777.72	233.60
778.04	233.56
778.36	233.46
778.69	233.37
779.01	233.28
779.33	233.17
779.66	232.99
779.98	232.91
780.31	232.85
780.63	232.81
780.95	232.80
781.28	232.74
781.60	232.63
781.92	232.54
782.25	232.49
782.57	232.42
782.89	232.38
783.22	232.29
783.54	232.22
783.86	232.17
784.19	232.13
784.51	232.12
784.83	232.07
785.16	232.03
785.48	232.02
785.80	231.98
786.12	231.92
786.45	231.86
786.77	231.85
787.09	231.86
