SpectraSuite Data File
++++++++++++++++++++++++++++++++++++
Date: Fri Feb 01 16:40:22 EST 2013
User: group
Dark Spectrum Present: No
Reference Spectrum Present: No
Number of Sampled Component Spectra: 1
Spectrometers: USB2E7196
Integration Time (usec): 35000 (USB2E7196)
Spectra Averaged: 100 (USB2E7196)
Boxcar Smoothing: 10 (USB2E7196)
Correct for Electrical Dark: No (USB2E7196)
Strobe/Lamp Enabled: No (USB2E7196)
Correct for Detector Non-linearity: No (USB2E7196)
Correct for Stray Light: No (USB2E7196)
Number of Pixels in Processed Spectrum: 2048
>>>>>Begin Processed Spectral Data<<<<<
339.09	0.00
339.48	213.67
339.86	215.30
340.24	216.23
340.63	217.83
341.01	220.89
341.39	220.63
341.78	222.21
342.16	222.96
342.54	223.81
342.93	212.04
343.31	222.78
343.69	223.29
344.07	223.72
344.46	224.15
344.84	224.51
345.22	224.73
345.60	224.98
345.99	225.15
346.37	225.26
346.75	225.34
347.13	225.38
347.52	225.42
347.90	225.49
348.28	225.52
348.66	225.56
349.05	225.54
349.43	225.59
349.81	225.63
350.19	225.67
350.57	225.74
350.96	225.80
351.34	225.83
351.72	225.93
352.10	226.03
352.48	226.09
352.87	226.15
353.25	226.23
353.63	226.29
354.01	226.35
354.39	226.44
354.77	226.51
355.15	226.64
355.54	226.70
355.92	226.72
356.30	226.77
356.68	226.87
357.06	226.96
357.44	227.00
357.82	227.07
358.20	227.16
358.58	227.21
358.97	227.27
359.35	227.38
359.73	227.48
360.11	227.56
360.49	227.63
360.87	227.67
361.25	227.73
361.63	227.81
362.01	227.85
362.39	227.90
362.77	227.97
363.15	227.99
363.53	228.04
363.91	228.08
364.29	228.13
364.67	228.07
365.05	228.10
365.43	228.11
365.81	228.14
366.19	228.17
366.57	228.22
366.95	228.22
367.33	228.22
367.71	228.18
368.09	228.17
368.47	228.17
368.85	228.19
369.23	228.19
369.61	228.14
369.99	228.18
370.37	228.15
370.75	228.14
371.13	228.13
371.51	228.08
371.89	228.09
372.27	228.08
372.65	228.08
373.03	228.04
373.41	228.00
373.78	227.93
374.16	227.86
374.54	227.76
374.92	227.70
375.30	227.62
375.68	227.56
376.06	227.52
376.44	227.46
376.82	227.38
377.19	227.32
377.57	227.23
377.95	227.13
378.33	227.07
378.71	226.95
379.09	226.86
379.47	226.81
379.84	226.72
380.22	226.61
380.60	226.50
380.98	226.44
381.36	226.39
381.73	226.33
382.11	226.30
382.49	226.22
382.87	226.15
383.25	226.12
383.62	226.17
384.00	226.08
384.38	226.02
384.76	225.98
385.13	225.94
385.51	225.90
385.89	225.82
386.27	225.79
386.64	225.77
387.02	225.72
387.40	225.66
387.78	225.61
388.15	225.57
388.53	225.55
388.91	225.50
389.29	225.45
389.66	225.43
390.04	225.41
390.42	225.44
390.79	225.42
391.17	225.39
391.55	225.28
391.92	225.27
392.30	225.28
392.68	225.23
393.05	225.24
393.43	225.24
393.81	225.26
394.18	225.23
394.56	225.23
394.94	225.27
395.31	225.28
395.69	225.33
396.06	225.40
396.44	225.42
396.82	225.47
397.19	225.55
397.57	225.58
397.95	225.61
398.32	225.62
398.70	225.67
399.07	225.76
399.45	225.85
399.82	225.88
400.20	225.94
400.58	226.04
400.95	226.10
401.33	226.20
401.70	226.32
402.08	226.44
402.45	226.55
402.83	226.65
403.20	226.75
403.58	226.84
403.95	226.94
404.33	227.02
404.71	227.14
405.08	227.32
405.46	227.46
405.83	227.62
406.21	227.73
406.58	227.88
406.96	228.02
407.33	228.16
407.70	228.37
408.08	228.64
408.45	228.86
408.83	229.09
409.20	229.29
409.58	229.48
409.95	229.70
410.33	229.98
410.70	230.24
411.08	230.56
411.45	230.86
411.82	231.18
412.20	231.58
412.57	231.99
412.95	232.26
413.32	232.67
413.69	233.06
414.07	233.53
414.44	234.00
414.82	234.51
415.19	235.04
415.56	235.61
415.94	236.13
416.31	236.79
416.68	237.39
417.06	238.12
417.43	238.82
417.81	239.61
418.18	240.37
418.55	241.19
418.93	242.02
419.30	242.95
419.67	243.85
420.04	244.82
420.42	245.82
420.79	247.03
421.16	248.19
421.54	249.37
421.91	250.61
422.28	251.87
422.66	253.16
423.03	254.47
423.40	255.77
423.77	257.19
424.15	258.56
424.52	260.03
424.89	261.58
425.26	263.11
425.64	264.58
426.01	266.15
426.38	267.81
426.75	269.51
427.13	271.19
427.50	273.00
427.87	274.84
428.24	276.67
428.61	278.37
428.99	280.29
429.36	282.34
429.73	284.33
430.10	286.32
430.47	288.36
430.85	290.46
431.22	292.68
431.59	295.04
431.96	297.29
432.33	299.77
432.70	302.14
433.08	304.95
433.45	307.52
433.82	310.09
434.19	312.94
434.56	315.69
434.93	318.31
435.30	320.88
435.68	323.75
436.05	326.54
436.42	329.31
436.79	331.81
437.16	334.53
437.53	337.35
437.90	340.13
438.27	342.85
438.64	345.65
439.01	348.22
439.38	350.43
439.75	352.53
440.13	354.98
440.50	357.25
440.87	359.07
441.24	360.98
441.61	363.13
441.98	364.62
442.35	366.42
442.72	368.27
443.09	370.12
443.46	371.10
443.83	371.70
444.20	372.21
444.57	373.02
444.94	373.26
445.31	373.66
445.68	373.99
446.05	374.10
446.42	373.74
446.79	373.32
447.16	372.86
447.53	372.54
447.90	371.41
448.27	370.31
448.64	368.73
449.01	367.62
449.37	365.66
449.74	363.74
450.11	361.52
450.48	359.01
450.85	356.48
451.22	354.37
451.59	352.33
451.96	350.39
452.33	347.78
452.70	345.44
453.07	342.57
453.43	339.69
453.80	336.91
454.17	334.22
454.54	331.69
454.91	329.02
455.28	326.41
455.65	323.95
456.02	321.52
456.38	319.36
456.75	316.69
457.12	314.46
457.49	312.27
457.86	310.14
458.23	308.33
458.59	306.28
458.96	304.19
459.33	302.37
459.70	300.52
460.07	299.06
460.43	297.35
460.80	295.75
461.17	294.36
461.54	292.85
461.91	291.45
462.27	290.01
462.64	288.76
463.01	287.41
463.38	286.11
463.74	284.75
464.11	283.63
464.48	282.65
464.85	281.55
465.21	280.71
465.58	279.78
465.95	278.71
466.32	277.83
466.68	276.96
467.05	276.09
467.42	275.23
467.78	274.30
468.15	273.47
468.52	272.80
468.88	271.96
469.25	271.21
469.62	270.61
469.98	269.96
470.35	269.34
470.72	268.74
471.08	268.11
471.45	267.56
471.82	267.00
472.18	266.40
472.55	265.97
472.92	265.49
473.28	265.06
473.65	264.63
474.02	264.21
474.38	263.87
474.75	263.53
475.11	263.20
475.48	262.96
475.85	262.74
476.21	262.53
476.58	262.37
476.94	262.27
477.31	262.09
477.67	261.97
478.04	261.87
478.41	261.83
478.77	261.88
479.14	261.87
479.50	261.92
479.87	261.99
480.23	262.09
480.60	262.16
480.96	262.26
481.33	262.47
481.69	262.70
482.06	262.86
482.42	263.07
482.79	263.32
483.15	263.63
483.52	264.01
483.88	264.36
484.25	264.72
484.61	265.16
484.98	265.62
485.34	266.16
485.71	266.73
486.07	267.32
486.44	267.87
486.80	268.58
487.17	269.32
487.53	270.17
487.90	271.00
488.26	271.93
488.62	272.94
488.99	273.89
489.35	274.87
489.72	276.03
490.08	277.27
490.44	278.51
490.81	279.81
491.17	281.12
491.54	282.61
491.90	284.17
492.26	285.78
492.63	287.48
492.99	289.28
493.36	291.20
493.72	293.28
494.08	295.37
494.45	297.62
494.81	299.95
495.17	302.34
495.54	304.92
495.90	307.58
496.26	310.34
496.63	313.31
496.99	316.45
497.35	319.71
497.72	323.08
498.08	326.60
498.44	330.30
498.80	334.32
499.17	338.35
499.53	342.53
499.89	346.91
500.26	351.44
500.62	356.06
500.98	360.96
501.34	366.00
501.71	371.32
502.07	376.72
502.43	382.38
502.79	388.24
503.16	394.29
503.52	400.57
503.88	406.96
504.24	413.60
504.60	420.46
504.97	427.54
505.33	434.85
505.69	442.58
506.05	450.30
506.41	458.15
506.78	466.28
507.14	474.73
507.50	483.42
507.86	492.44
508.22	501.63
508.59	510.94
508.95	520.53
509.31	530.36
509.67	540.49
510.03	550.75
510.39	561.29
510.75	572.09
511.12	582.99
511.48	594.25
511.84	605.69
512.20	617.13
512.56	629.09
512.92	641.22
513.28	653.56
513.64	666.03
514.00	678.66
514.37	691.52
514.73	704.42
515.09	717.45
515.45	730.73
515.81	744.31
516.17	758.16
516.53	772.23
516.89	786.26
517.25	800.33
517.61	814.73
517.97	829.09
518.33	843.43
518.69	858.08
519.05	873.00
519.41	888.06
519.77	903.55
520.13	918.84
520.49	934.12
520.85	949.34
521.21	964.95
521.57	981.08
521.93	996.84
522.29	1013.18
522.65	1029.37
523.01	1045.35
523.37	1061.32
523.73	1077.41
524.09	1093.46
524.45	1109.71
524.81	1126.29
525.17	1142.89
525.53	1159.66
525.89	1176.42
526.25	1193.25
526.61	1209.64
526.97	1226.21
527.33	1242.63
527.68	1259.10
528.04	1275.50
528.40	1292.02
528.76	1308.87
529.12	1325.42
529.48	1342.13
529.84	1358.00
530.20	1374.49
530.56	1391.29
530.91	1408.56
531.27	1425.22
531.63	1441.44
531.99	1458.00
532.35	1473.89
532.71	1489.68
533.07	1505.74
533.42	1521.57
533.78	1537.41
534.14	1553.49
534.50	1568.69
534.86	1584.36
535.21	1599.44
535.57	1615.19
535.93	1630.51
536.29	1645.27
536.65	1660.18
537.00	1674.79
537.36	1689.93
537.72	1704.24
538.08	1718.54
538.44	1732.09
538.79	1745.78
539.15	1759.18
539.51	1772.61
539.87	1786.79
540.22	1800.28
540.58	1813.78
540.94	1826.82
541.29	1839.46
541.65	1851.91
542.01	1864.99
542.37	1877.09
542.72	1889.33
543.08	1900.94
543.44	1913.12
543.79	1924.25
544.15	1934.92
544.51	1946.37
544.87	1957.39
545.22	1968.19
545.58	1978.40
545.94	1988.08
546.29	1997.91
546.65	2007.72
547.01	2016.99
547.36	2025.54
547.72	2033.96
548.07	2042.01
548.43	2050.16
548.79	2058.11
549.14	2065.74
549.50	2072.93
549.86	2080.50
550.21	2087.78
550.57	2095.08
550.92	2101.72
551.28	2108.83
551.64	2115.92
551.99	2122.32
552.35	2128.36
552.70	2134.35
553.06	2140.32
553.41	2146.63
553.77	2152.45
554.13	2158.56
554.48	2164.66
554.84	2170.25
555.19	2175.46
555.55	2180.49
555.90	2184.94
556.26	2189.91
556.61	2194.40
556.97	2198.92
557.32	2203.20
557.68	2207.23
558.03	2211.34
558.39	2214.90
558.74	2219.28
559.10	2223.17
559.45	2226.91
559.81	2231.07
560.16	2234.96
560.52	2238.23
560.87	2241.62
561.23	2244.29
561.58	2247.14
561.94	2249.55
562.29	2251.59
562.64	2254.45
563.00	2256.91
563.35	2260.30
563.71	2263.40
564.06	2266.63
564.42	2269.44
564.77	2272.01
565.12	2274.54
565.48	2276.58
565.83	2278.55
566.19	2279.99
566.54	2280.91
566.89	2282.07
567.25	2282.86
567.60	2284.05
567.96	2285.79
568.31	2286.77
568.66	2288.07
569.02	2288.82
569.37	2289.20
569.72	2290.31
570.08	2290.52
570.43	2290.80
570.78	2290.46
571.14	2289.07
571.49	2287.78
571.84	2287.47
572.20	2286.50
572.55	2285.44
572.90	2283.84
573.26	2282.57
573.61	2280.76
573.96	2279.08
574.31	2276.26
574.67	2273.25
575.02	2269.72
575.37	2266.37
575.72	2262.69
576.08	2259.27
576.43	2255.83
576.78	2252.40
577.13	2249.19
577.49	2246.04
577.84	2242.58
578.19	2238.96
578.54	2235.46
578.90	2231.46
579.25	2226.00
579.60	2221.05
579.95	2216.22
580.30	2211.35
580.66	2206.14
581.01	2201.34
581.36	2196.51
581.71	2192.38
582.06	2188.16
582.42	2183.93
582.77	2178.83
583.12	2174.28
583.47	2169.78
583.82	2165.17
584.17	2159.96
584.53	2154.65
584.88	2149.14
585.23	2143.60
585.58	2138.07
585.93	2132.66
586.28	2127.80
586.63	2122.85
586.98	2117.84
587.34	2113.11
587.69	2108.22
588.04	2103.20
588.39	2097.70
588.74	2091.37
589.09	2085.23
589.44	2078.54
589.79	2072.45
590.14	2066.89
590.49	2060.43
590.84	2053.97
591.19	2047.99
591.54	2041.59
591.89	2034.50
592.25	2027.94
592.60	2020.74
592.95	2013.45
593.30	2006.06
593.65	1998.51
594.00	1991.46
594.35	1984.16
594.70	1976.14
595.05	1969.12
595.40	1961.83
595.75	1954.38
596.10	1948.30
596.45	1941.77
596.80	1935.70
597.15	1929.25
597.50	1922.25
597.85	1915.75
598.19	1909.22
598.54	1902.25
598.89	1895.73
599.24	1889.76
599.59	1883.22
599.94	1876.98
600.29	1870.49
600.64	1863.87
600.99	1856.62
601.34	1850.02
601.69	1843.19
602.04	1836.40
602.39	1828.99
602.74	1822.32
603.08	1815.74
603.43	1809.13
603.78	1801.83
604.13	1794.66
604.48	1787.53
604.83	1780.64
605.18	1773.94
605.53	1766.07
605.87	1758.08
606.22	1750.76
606.57	1742.63
606.92	1735.02
607.27	1727.86
607.62	1721.08
607.96	1714.05
608.31	1707.54
608.66	1700.03
609.01	1692.61
609.36	1685.16
609.70	1677.18
610.05	1669.09
610.40	1661.44
610.75	1653.03
611.10	1645.37
611.44	1636.72
611.79	1628.63
612.14	1620.04
612.49	1610.76
612.83	1602.34
613.18	1594.06
613.53	1586.01
613.88	1577.62
614.22	1569.49
614.57	1560.91
614.92	1552.93
615.27	1545.52
615.61	1537.30
615.96	1529.12
616.31	1521.45
616.65	1514.05
617.00	1506.61
617.35	1499.01
617.70	1490.82
618.04	1482.36
618.39	1474.15
618.74	1466.81
619.08	1458.57
619.43	1451.00
619.78	1444.17
620.12	1437.11
620.47	1429.73
620.82	1421.58
621.16	1414.13
621.51	1406.55
621.85	1398.94
622.20	1390.45
622.55	1381.94
622.89	1374.08
623.24	1366.42
623.59	1358.91
623.93	1351.46
624.28	1344.23
624.62	1336.87
624.97	1329.63
625.32	1322.87
625.66	1315.89
626.01	1308.57
626.35	1301.27
626.70	1293.54
627.04	1285.82
627.39	1278.00
627.73	1270.52
628.08	1263.73
628.43	1256.55
628.77	1249.30
629.12	1241.83
629.46	1234.73
629.81	1227.20
630.15	1219.94
630.50	1212.62
630.84	1204.60
631.19	1196.70
631.53	1189.21
631.88	1181.62
632.22	1173.93
632.57	1166.65
632.91	1159.14
633.26	1151.88
633.60	1144.39
633.95	1137.25
634.29	1130.11
634.64	1123.46
634.98	1116.26
635.32	1109.05
635.67	1102.34
636.01	1095.67
636.36	1089.00
636.70	1082.43
637.05	1075.96
637.39	1069.55
637.73	1063.07
638.08	1057.13
638.42	1051.14
638.77	1044.76
639.11	1038.18
639.45	1031.93
639.80	1025.13
640.14	1018.76
640.49	1012.27
640.83	1005.95
641.17	999.83
641.52	993.66
641.86	987.08
642.20	981.13
642.55	974.72
642.89	968.39
643.23	961.71
643.58	955.92
643.92	949.74
644.26	943.75
644.61	937.64
644.95	931.61
645.29	925.06
645.64	918.39
645.98	912.01
646.32	906.06
646.66	899.96
647.01	894.33
647.35	888.61
647.69	882.68
648.04	877.10
648.38	871.23
648.72	865.24
649.06	859.31
649.41	853.50
649.75	847.67
650.09	841.71
650.43	836.02
650.78	829.84
651.12	823.89
651.46	818.21
651.80	812.51
652.14	807.11
652.49	801.78
652.83	796.48
653.17	790.90
653.51	785.21
653.85	779.84
654.20	774.15
654.54	768.14
654.88	762.41
655.22	756.56
655.56	750.84
655.90	745.34
656.25	740.13
656.59	734.68
656.93	729.50
657.27	724.36
657.61	718.88
657.95	713.72
658.29	708.62
658.64	703.27
658.98	697.95
659.32	692.44
659.66	687.23
660.00	681.98
660.34	676.93
660.68	672.01
661.02	666.92
661.36	662.26
661.70	657.80
662.05	653.44
662.39	649.17
662.73	644.72
663.07	640.30
663.41	635.83
663.75	631.40
664.09	626.86
664.43	622.43
664.77	618.38
665.11	614.16
665.45	610.02
665.79	605.94
666.13	601.86
666.47	597.76
666.81	593.55
667.15	589.36
667.49	585.42
667.83	581.60
668.17	577.67
668.51	573.57
668.85	569.45
669.19	565.59
669.53	561.78
669.87	557.93
670.21	554.22
670.55	550.55
670.89	547.14
671.23	543.73
671.57	540.20
671.91	536.69
672.25	533.17
672.58	529.69
672.92	526.27
673.26	523.02
673.60	519.91
673.94	516.85
674.28	513.94
674.62	511.05
674.96	507.93
675.30	505.06
675.64	502.17
675.97	499.41
676.31	496.56
676.65	493.51
676.99	490.79
677.33	487.99
677.67	485.24
678.01	482.19
678.34	479.24
678.68	476.43
679.02	473.56
679.36	470.79
679.70	468.05
680.04	465.33
680.37	462.55
680.71	459.69
681.05	457.07
681.39	454.36
681.73	451.68
682.06	449.16
682.40	446.64
682.74	444.08
683.08	441.52
683.42	438.90
683.75	436.47
684.09	433.88
684.43	431.34
684.77	428.84
685.10	426.51
685.44	424.24
685.78	421.91
686.12	419.69
686.45	417.44
686.79	415.10
687.13	412.89
687.46	410.72
687.80	408.56
688.14	406.27
688.48	404.20
688.81	401.99
689.15	399.85
689.49	397.63
689.82	395.51
690.16	393.40
690.50	391.44
690.83	389.51
691.17	387.55
691.51	385.71
691.84	383.85
692.18	381.93
692.52	379.93
692.85	377.96
693.19	376.07
693.52	374.21
693.86	372.46
694.20	370.66
694.53	368.87
694.87	367.05
695.21	365.27
695.54	363.44
695.88	361.70
696.21	359.99
696.55	358.33
696.88	356.69
697.22	355.03
697.56	353.39
697.89	351.73
698.23	350.13
698.56	348.47
698.90	346.92
699.23	345.30
699.57	343.74
699.90	342.24
700.24	340.65
700.58	339.14
700.91	337.60
701.25	336.18
701.58	334.79
701.92	333.45
702.25	332.09
702.59	330.77
702.92	329.47
703.26	328.12
703.59	326.84
703.93	325.60
704.26	324.39
704.60	323.10
704.93	321.80
705.26	320.55
705.60	319.33
705.93	318.11
706.27	317.06
706.60	315.98
706.94	314.88
707.27	313.78
707.61	312.69
707.94	311.66
708.27	310.53
708.61	309.42
708.94	308.39
709.28	307.41
709.61	306.41
709.94	305.40
710.28	304.42
710.61	303.42
710.95	302.41
711.28	301.48
711.61	300.59
711.95	299.68
712.28	298.77
712.61	297.80
712.95	296.88
713.28	295.95
713.61	295.04
713.95	294.19
714.28	293.36
714.61	292.49
714.95	291.63
715.28	290.78
715.61	289.93
715.95	289.07
716.28	288.20
716.61	287.37
716.95	286.57
717.28	285.82
717.61	285.06
717.94	284.32
718.28	283.54
718.61	282.78
718.94	282.10
719.27	281.42
719.61	280.82
719.94	280.17
720.27	279.49
720.60	278.86
720.94	278.25
721.27	277.67
721.60	277.13
721.93	276.57
722.27	276.04
722.60	275.50
722.93	274.94
723.26	274.41
723.59	273.88
723.93	273.32
724.26	272.76
724.59	272.21
724.92	271.69
725.25	271.19
725.59	270.66
725.92	270.15
726.25	269.66
726.58	269.16
726.91	268.69
727.24	268.27
727.57	267.79
727.91	267.24
728.24	266.75
728.57	266.27
728.90	265.77
729.23	265.29
729.56	264.86
729.89	264.37
730.22	263.93
730.55	263.48
730.89	263.04
731.22	262.63
731.55	262.21
731.88	261.76
732.21	261.33
732.54	260.89
732.87	260.44
733.20	259.99
733.53	259.62
733.86	259.21
734.19	258.79
734.52	258.40
734.85	258.09
735.18	257.67
735.51	257.31
735.84	256.98
736.17	256.62
736.50	256.20
736.83	255.97
737.16	255.61
737.49	255.25
737.82	254.91
738.15	254.56
738.48	254.21
738.81	253.89
739.14	253.55
739.47	253.24
739.80	252.94
740.13	252.67
740.46	252.34
740.79	252.02
741.12	251.69
741.45	251.39
741.78	251.05
742.11	250.80
742.44	250.47
742.77	250.15
743.10	249.81
743.43	249.54
743.75	249.20
744.08	249.01
744.41	248.74
744.74	248.48
745.07	248.21
745.40	247.97
745.73	247.73
746.06	247.45
746.39	247.18
746.71	246.92
747.04	246.61
747.37	246.35
747.70	246.10
748.03	245.83
748.36	245.56
748.68	245.32
749.01	245.06
749.34	244.82
749.67	244.60
750.00	244.41
750.33	244.26
750.65	244.01
750.98	243.73
751.31	243.46
751.64	243.26
751.97	243.08
752.29	242.88
752.62	242.64
752.95	242.46
753.28	242.28
753.60	242.09
753.93	241.94
754.26	241.74
754.59	241.51
754.91	241.31
755.24	241.13
755.57	240.90
755.90	240.70
756.22	240.51
756.55	240.32
756.88	240.14
757.20	239.94
757.53	239.73
757.86	239.52
758.19	239.40
758.51	239.24
758.84	239.05
759.17	238.87
759.49	238.72
759.82	238.58
760.15	238.39
760.47	238.24
760.80	238.06
761.13	237.93
761.45	237.79
761.78	237.66
762.11	237.57
762.43	237.47
762.76	237.34
763.08	237.20
763.41	237.07
763.74	236.93
764.06	236.73
764.39	236.63
764.71	236.50
765.04	236.34
765.37	236.18
765.69	236.05
766.02	235.90
766.34	235.75
766.67	235.62
767.00	235.54
767.32	235.49
767.65	235.42
767.97	235.31
768.30	235.23
768.62	235.13
768.95	234.99
769.27	234.88
769.60	234.78
769.92	234.64
770.25	234.55
770.57	234.42
770.90	234.36
771.22	234.23
771.55	234.13
771.87	234.06
772.20	233.96
772.52	233.91
772.85	233.93
773.17	233.83
773.50	233.73
773.82	233.61
774.15	233.45
774.47	233.27
774.80	233.16
775.12	233.08
775.45	232.98
775.77	232.89
776.09	232.80
776.42	232.75
776.74	232.73
777.07	232.62
777.39	232.54
777.72	232.44
778.04	232.38
778.36	232.30
778.69	232.22
779.01	232.15
779.33	232.04
779.66	231.88
779.98	231.82
780.31	231.76
780.63	231.72
780.95	231.70
781.28	231.63
781.60	231.55
781.92	231.40
782.25	231.32
782.57	231.24
782.89	231.17
783.22	231.08
783.54	231.00
783.86	230.97
784.19	230.90
784.51	230.87
784.83	230.81
785.16	230.74
785.48	230.69
785.80	230.66
786.12	230.60
786.45	230.54
786.77	230.49
787.09	230.42
