SpectraSuite Data File
++++++++++++++++++++++++++++++++++++
Date: Fri Feb 01 15:03:38 EST 2013
User: group
Dark Spectrum Present: No
Reference Spectrum Present: No
Number of Sampled Component Spectra: 1
Spectrometers: USB2E7196
Integration Time (usec): 35000 (USB2E7196)
Spectra Averaged: 100 (USB2E7196)
Boxcar Smoothing: 10 (USB2E7196)
Correct for Electrical Dark: No (USB2E7196)
Strobe/Lamp Enabled: No (USB2E7196)
Correct for Detector Non-linearity: No (USB2E7196)
Correct for Stray Light: No (USB2E7196)
Number of Pixels in Processed Spectrum: 2048
>>>>>Begin Processed Spectral Data<<<<<
339.09	0.00
339.48	215.18
339.86	216.34
340.24	217.59
340.63	219.45
341.01	222.00
341.39	221.35
341.78	223.18
342.16	224.30
342.54	224.75
342.93	213.22
343.31	223.99
343.69	224.53
344.07	225.02
344.46	225.45
344.84	225.82
345.22	226.03
345.60	226.30
345.99	226.51
346.37	226.64
346.75	226.74
347.13	226.80
347.52	226.83
347.90	226.92
348.28	226.94
348.66	226.99
349.05	227.00
349.43	227.05
349.81	227.04
350.19	227.07
350.57	227.14
350.96	227.17
351.34	227.28
351.72	227.32
352.10	227.39
352.48	227.45
352.87	227.50
353.25	227.57
353.63	227.64
354.01	227.69
354.39	227.76
354.77	227.85
355.15	227.91
355.54	227.97
355.92	228.03
356.30	228.10
356.68	228.26
357.06	228.30
357.44	228.35
357.82	228.44
358.20	228.50
358.58	228.58
358.97	228.67
359.35	228.76
359.73	228.87
360.11	228.93
360.49	229.00
360.87	229.03
361.25	229.10
361.63	229.17
362.01	229.22
362.39	229.25
362.77	229.29
363.15	229.35
363.53	229.40
363.91	229.40
364.29	229.46
364.67	229.38
365.05	229.42
365.43	229.44
365.81	229.49
366.19	229.56
366.57	229.58
366.95	229.55
367.33	229.50
367.71	229.50
368.09	229.50
368.47	229.47
368.85	229.47
369.23	229.44
369.61	229.36
369.99	229.37
370.37	229.37
370.75	229.36
371.13	229.28
371.51	229.24
371.89	229.22
372.27	229.17
372.65	229.09
373.03	229.05
373.41	229.00
373.78	228.92
374.16	228.81
374.54	228.70
374.92	228.64
375.30	228.58
375.68	228.47
376.06	228.41
376.44	228.33
376.82	228.30
377.19	228.23
377.57	228.19
377.95	228.06
378.33	227.96
378.71	227.87
379.09	227.82
379.47	227.75
379.84	227.67
380.22	227.58
380.60	227.53
380.98	227.44
381.36	227.35
381.73	227.28
382.11	227.25
382.49	227.21
382.87	227.16
383.25	227.08
383.62	227.10
384.00	227.04
384.38	226.96
384.76	226.89
385.13	226.84
385.51	226.78
385.89	226.72
386.27	226.70
386.64	226.64
387.02	226.59
387.40	226.53
387.78	226.48
388.15	226.46
388.53	226.39
388.91	226.37
389.29	226.34
389.66	226.31
390.04	226.24
390.42	226.24
390.79	226.19
391.17	226.20
391.55	226.11
391.92	226.06
392.30	226.10
392.68	226.05
393.05	226.10
393.43	226.09
393.81	226.09
394.18	226.07
394.56	226.13
394.94	226.16
395.31	226.18
395.69	226.25
396.06	226.28
396.44	226.31
396.82	226.34
397.19	226.42
397.57	226.47
397.95	226.56
398.32	226.57
398.70	226.63
399.07	226.71
399.45	226.76
399.82	226.87
400.20	226.90
400.58	227.04
400.95	227.06
401.33	227.20
401.70	227.36
402.08	227.47
402.45	227.52
402.83	227.60
403.20	227.71
403.58	227.80
403.95	227.93
404.33	228.10
404.71	228.23
405.08	228.41
405.46	228.58
405.83	228.71
406.21	228.90
406.58	229.07
406.96	229.23
407.33	229.43
407.70	229.60
408.08	229.91
408.45	230.14
408.83	230.37
409.20	230.56
409.58	230.75
409.95	231.02
410.33	231.30
410.70	231.58
411.08	231.89
411.45	232.20
411.82	232.51
412.20	232.86
412.57	233.30
412.95	233.60
413.32	233.99
413.69	234.40
414.07	234.80
414.44	235.29
414.82	235.79
415.19	236.35
415.56	236.92
415.94	237.46
416.31	238.10
416.68	238.77
417.06	239.53
417.43	240.20
417.81	240.99
418.18	241.76
418.55	242.61
418.93	243.51
419.30	244.45
419.67	245.37
420.04	246.34
420.42	247.32
420.79	248.45
421.16	249.60
421.54	250.80
421.91	252.04
422.28	253.27
422.66	254.58
423.03	255.89
423.40	257.21
423.77	258.60
424.15	259.98
424.52	261.45
424.89	263.03
425.26	264.59
425.64	266.05
426.01	267.69
426.38	269.35
426.75	271.01
427.13	272.71
427.50	274.57
427.87	276.45
428.24	278.34
428.61	280.16
428.99	282.14
429.36	284.24
429.73	286.32
430.10	288.39
430.47	290.47
430.85	292.58
431.22	294.87
431.59	297.28
431.96	299.56
432.33	302.07
432.70	304.44
433.08	307.27
433.45	309.93
433.82	312.52
434.19	315.43
434.56	318.25
434.93	320.92
435.30	323.53
435.68	326.41
436.05	329.20
436.42	331.95
436.79	334.45
437.16	337.18
437.53	340.01
437.90	342.82
438.27	345.52
438.64	348.38
439.01	350.94
439.38	353.13
439.75	355.29
440.13	357.76
440.50	360.11
440.87	361.96
441.24	363.86
441.61	366.00
441.98	367.48
442.35	369.30
442.72	371.18
443.09	372.94
443.46	373.94
443.83	374.55
444.20	375.07
444.57	375.93
444.94	376.22
445.31	376.56
445.68	376.93
446.05	377.04
446.42	376.61
446.79	376.19
447.16	375.76
447.53	375.39
447.90	374.23
448.27	373.02
448.64	371.43
449.01	370.27
449.37	368.32
449.74	366.38
450.11	364.10
450.48	361.60
450.85	359.08
451.22	356.93
451.59	354.87
451.96	352.90
452.33	350.26
452.70	347.86
453.07	345.02
453.43	342.05
453.80	339.23
454.17	336.57
454.54	334.05
454.91	331.31
455.28	328.71
455.65	326.24
456.02	323.79
456.38	321.65
456.75	319.00
457.12	316.74
457.49	314.54
457.86	312.35
458.23	310.47
458.59	308.40
458.96	306.34
459.33	304.50
459.70	302.69
460.07	301.17
460.43	299.43
460.80	297.83
461.17	296.41
461.54	294.93
461.91	293.54
462.27	292.07
462.64	290.85
463.01	289.46
463.38	288.13
463.74	286.79
464.11	285.63
464.48	284.66
464.85	283.52
465.21	282.65
465.58	281.75
465.95	280.65
466.32	279.79
466.68	278.86
467.05	277.98
467.42	277.10
467.78	276.19
468.15	275.34
468.52	274.67
468.88	273.84
469.25	273.07
469.62	272.41
469.98	271.73
470.35	271.09
470.72	270.51
471.08	269.84
471.45	269.29
471.82	268.72
472.18	268.09
472.55	267.66
472.92	267.13
473.28	266.65
473.65	266.19
474.02	265.71
474.38	265.33
474.75	264.97
475.11	264.62
475.48	264.30
475.85	264.05
476.21	263.75
476.58	263.55
476.94	263.39
477.31	263.17
477.67	262.98
478.04	262.87
478.41	262.80
478.77	262.83
479.14	262.75
479.50	262.75
479.87	262.83
480.23	262.92
480.60	262.98
480.96	263.07
481.33	263.29
481.69	263.47
482.06	263.64
482.42	263.83
482.79	264.06
483.15	264.40
483.52	264.77
483.88	265.16
484.25	265.54
484.61	265.98
484.98	266.50
485.34	267.09
485.71	267.65
486.07	268.22
486.44	268.80
486.80	269.50
487.17	270.22
487.53	270.99
487.90	271.80
488.26	272.73
488.62	273.74
488.99	274.74
489.35	275.79
489.72	276.93
490.08	278.16
490.44	279.37
490.81	280.70
491.17	282.06
491.54	283.50
491.90	285.00
492.26	286.65
492.63	288.31
492.99	290.07
493.36	291.94
493.72	293.98
494.08	296.07
494.45	298.31
494.81	300.64
495.17	303.06
495.54	305.61
495.90	308.26
496.26	310.97
496.63	313.84
496.99	316.91
497.35	320.17
497.72	323.55
498.08	327.07
498.44	330.71
498.80	334.62
499.17	338.65
499.53	342.83
499.89	347.20
500.26	351.73
500.62	356.41
500.98	361.33
501.34	366.36
501.71	371.68
502.07	377.12
502.43	382.72
502.79	388.50
503.16	394.55
503.52	400.79
503.88	407.24
504.24	413.95
504.60	420.82
504.97	427.92
505.33	435.21
505.69	442.92
506.05	450.63
506.41	458.44
506.78	466.59
507.14	475.00
507.50	483.65
507.86	492.62
508.22	501.77
508.59	511.04
508.95	520.67
509.31	530.45
509.67	540.53
510.03	550.79
510.39	561.36
510.75	572.12
511.12	583.11
511.48	594.42
511.84	605.79
512.20	617.36
512.56	629.32
512.92	641.54
513.28	653.79
513.64	666.28
514.00	679.03
514.37	692.01
514.73	705.04
515.09	718.07
515.45	731.43
515.81	745.05
516.17	759.02
516.53	773.12
516.89	787.32
517.25	801.49
517.61	816.05
517.97	830.48
518.33	844.97
518.69	859.77
519.05	874.79
519.41	890.04
519.77	905.55
520.13	921.00
520.49	936.47
520.85	952.04
521.21	967.89
521.57	984.27
521.93	1000.05
522.29	1016.47
522.65	1032.84
523.01	1049.07
523.37	1065.19
523.73	1081.43
524.09	1097.57
524.45	1113.93
524.81	1130.69
525.17	1147.59
525.53	1164.66
525.89	1181.66
526.25	1198.57
526.61	1214.98
526.97	1231.79
527.33	1248.46
527.68	1265.18
528.04	1281.67
528.40	1298.40
528.76	1315.50
529.12	1332.09
529.48	1349.12
529.84	1365.22
530.20	1381.99
530.56	1399.10
530.91	1416.60
531.27	1433.47
531.63	1450.06
531.99	1466.73
532.35	1482.67
532.71	1498.52
533.07	1514.78
533.42	1530.70
533.78	1546.80
534.14	1563.23
534.50	1578.66
534.86	1594.55
535.21	1609.81
535.57	1625.81
535.93	1641.27
536.29	1656.16
536.65	1671.28
537.00	1686.09
537.36	1701.48
537.72	1715.99
538.08	1730.45
538.44	1744.24
538.79	1758.16
539.15	1771.95
539.51	1785.86
539.87	1800.33
540.22	1814.27
540.58	1828.16
540.94	1841.68
541.29	1854.74
541.65	1867.44
542.01	1880.66
542.37	1892.93
542.72	1905.46
543.08	1917.28
543.44	1929.75
543.79	1940.89
544.15	1951.91
544.51	1963.62
544.87	1974.74
545.22	1985.57
545.58	1995.80
545.94	2005.69
546.29	2015.74
546.65	2025.57
547.01	2034.60
547.36	2043.42
547.72	2052.00
548.07	2059.83
548.43	2067.87
548.79	2075.80
549.14	2083.33
549.50	2090.76
549.86	2098.61
550.21	2105.78
550.57	2112.98
550.92	2119.52
551.28	2126.80
551.64	2133.94
551.99	2140.47
552.35	2146.56
552.70	2152.78
553.06	2158.74
553.41	2165.09
553.77	2170.86
554.13	2176.97
554.48	2183.21
554.84	2188.65
555.19	2193.71
555.55	2198.79
555.90	2203.30
556.26	2208.15
556.61	2212.93
556.97	2216.98
557.32	2221.07
557.68	2225.31
558.03	2229.63
558.39	2233.45
558.74	2237.85
559.10	2241.65
559.45	2245.21
559.81	2249.44
560.16	2253.09
560.52	2256.31
560.87	2259.61
561.23	2262.17
561.58	2264.89
561.94	2267.29
562.29	2269.54
562.64	2272.28
563.00	2274.95
563.35	2278.44
563.71	2281.47
564.06	2284.45
564.42	2287.37
564.77	2289.80
565.12	2291.94
565.48	2293.70
565.83	2295.33
566.19	2296.64
566.54	2297.48
566.89	2298.50
567.25	2298.99
567.60	2300.45
567.96	2301.97
568.31	2302.74
568.66	2303.74
569.02	2304.37
569.37	2304.63
569.72	2305.46
570.08	2305.31
570.43	2305.08
570.78	2304.16
571.14	2302.59
571.49	2301.32
571.84	2300.99
572.20	2299.58
572.55	2298.45
572.90	2296.82
573.26	2295.43
573.61	2293.56
573.96	2291.52
574.31	2288.41
574.67	2285.22
575.02	2281.37
575.37	2278.00
575.72	2274.05
576.08	2270.84
576.43	2267.47
576.78	2263.64
577.13	2260.29
577.49	2257.18
577.84	2253.66
578.19	2249.94
578.54	2246.12
578.90	2241.60
579.25	2235.78
579.60	2230.70
579.95	2225.51
580.30	2220.31
580.66	2214.93
581.01	2209.93
581.36	2205.09
581.71	2200.66
582.06	2196.15
582.42	2191.49
582.77	2186.07
583.12	2181.20
583.47	2176.19
583.82	2170.89
584.17	2165.64
584.53	2159.89
584.88	2154.06
585.23	2148.09
585.58	2142.47
585.93	2136.92
586.28	2132.10
586.63	2127.06
586.98	2121.81
587.34	2117.09
587.69	2112.14
588.04	2106.83
588.39	2100.99
588.74	2094.43
589.09	2088.15
589.44	2081.16
589.79	2074.97
590.14	2069.15
590.49	2062.61
590.84	2056.12
591.19	2050.06
591.54	2043.49
591.89	2036.02
592.25	2029.14
592.60	2021.87
592.95	2014.35
593.30	2006.82
593.65	1999.11
594.00	1991.86
594.35	1984.64
594.70	1976.54
595.05	1969.14
595.40	1961.81
595.75	1954.20
596.10	1947.64
596.45	1940.89
596.80	1934.68
597.15	1927.92
597.50	1920.72
597.85	1914.22
598.19	1907.47
598.54	1900.31
598.89	1893.60
599.24	1887.76
599.59	1881.05
599.94	1874.74
600.29	1868.25
600.64	1861.59
600.99	1854.07
601.34	1847.15
601.69	1840.15
602.04	1833.03
602.39	1825.64
602.74	1818.67
603.08	1811.94
603.43	1805.36
603.78	1798.18
604.13	1791.02
604.48	1783.76
604.83	1776.91
605.18	1769.82
605.53	1761.87
605.87	1753.80
606.22	1746.65
606.57	1738.67
606.92	1731.33
607.27	1724.11
607.62	1717.20
607.96	1710.01
608.31	1703.37
608.66	1695.80
609.01	1688.22
609.36	1680.73
609.70	1672.80
610.05	1664.80
610.40	1657.03
610.75	1648.70
611.10	1640.91
611.44	1632.52
611.79	1624.61
612.14	1615.96
612.49	1606.92
612.83	1598.58
613.18	1590.48
613.53	1582.29
613.88	1573.80
614.22	1565.56
614.57	1557.11
614.92	1549.09
615.27	1541.63
615.61	1533.44
615.96	1525.47
616.31	1517.97
616.65	1510.63
617.00	1503.10
617.35	1495.33
617.70	1487.00
618.04	1478.48
618.39	1470.29
618.74	1462.79
619.08	1454.50
619.43	1447.07
619.78	1440.24
620.12	1432.99
620.47	1425.50
620.82	1417.30
621.16	1409.90
621.51	1402.31
621.85	1394.71
622.20	1386.19
622.55	1377.83
622.89	1369.95
623.24	1362.34
623.59	1355.01
623.93	1347.53
624.28	1340.27
624.62	1332.84
624.97	1325.80
625.32	1319.07
625.66	1312.04
626.01	1304.78
626.35	1297.33
626.70	1289.59
627.04	1281.84
627.39	1274.18
627.73	1266.86
628.08	1259.96
628.43	1252.56
628.77	1245.21
629.12	1237.64
629.46	1230.44
629.81	1223.12
630.15	1215.88
630.50	1208.58
630.84	1200.32
631.19	1192.44
631.53	1184.98
631.88	1177.44
632.22	1169.82
632.57	1162.60
632.91	1155.16
633.26	1147.80
633.60	1140.46
633.95	1133.35
634.29	1126.38
634.64	1119.79
634.98	1112.42
635.32	1105.35
635.67	1098.96
636.01	1092.42
636.36	1085.71
636.70	1079.30
637.05	1072.63
637.39	1066.24
637.73	1059.67
638.08	1053.83
638.42	1047.84
638.77	1041.38
639.11	1034.84
639.45	1028.53
639.80	1021.88
640.14	1015.42
640.49	1008.96
640.83	1002.78
641.17	996.53
641.52	990.21
641.86	983.76
642.20	978.05
642.55	971.87
642.89	965.37
643.23	958.81
643.58	953.02
643.92	946.78
644.26	940.72
644.61	934.86
644.95	928.91
645.29	922.33
645.64	915.58
645.98	909.33
646.32	903.55
646.66	897.60
647.01	891.83
647.35	886.20
647.69	880.39
648.04	874.88
648.38	869.16
648.72	863.17
649.06	857.06
649.41	851.08
649.75	845.08
650.09	839.17
650.43	833.43
650.78	827.22
651.12	821.34
651.46	815.63
651.80	809.71
652.14	804.28
652.49	798.92
652.83	793.81
653.17	788.12
653.51	782.38
653.85	776.90
654.20	771.24
654.54	765.18
654.88	759.44
655.22	753.62
655.56	747.95
655.90	742.58
656.25	737.45
656.59	732.15
656.93	727.04
657.27	721.88
657.61	716.43
657.95	711.44
658.29	706.38
658.64	701.20
658.98	696.02
659.32	690.65
659.66	685.53
660.00	680.23
660.34	675.31
660.68	670.44
661.02	665.50
661.36	660.87
661.70	656.48
662.05	652.19
662.39	647.80
662.73	643.39
663.07	638.99
663.41	634.56
663.75	630.06
664.09	625.58
664.43	621.23
664.77	617.15
665.11	612.92
665.45	608.86
665.79	604.86
666.13	600.72
666.47	596.67
666.81	592.49
667.15	588.31
667.49	584.49
667.83	580.72
668.17	576.78
668.51	572.69
668.85	568.69
669.19	564.81
669.53	560.99
669.87	557.10
670.21	553.43
670.55	549.81
670.89	546.42
671.23	542.94
671.57	539.46
671.91	535.95
672.25	532.46
672.58	528.99
672.92	525.56
673.26	522.45
673.60	519.32
673.94	516.19
674.28	513.39
674.62	510.39
674.96	507.25
675.30	504.39
675.64	501.49
675.97	498.70
676.31	495.89
676.65	492.96
676.99	490.20
677.33	487.30
677.67	484.45
678.01	481.39
678.34	478.41
678.68	475.57
679.02	472.76
679.36	470.02
679.70	467.23
680.04	464.50
680.37	461.59
680.71	458.78
681.05	456.21
681.39	453.55
681.73	450.91
682.06	448.40
682.40	445.84
682.74	443.33
683.08	440.85
683.42	438.23
683.75	435.79
684.09	433.34
684.43	430.96
684.77	428.52
685.10	426.24
685.44	423.99
685.78	421.66
686.12	419.44
686.45	417.16
686.79	414.92
687.13	412.69
687.46	410.57
687.80	408.43
688.14	406.27
688.48	404.21
688.81	401.99
689.15	399.85
689.49	397.72
689.82	395.69
690.16	393.59
690.50	391.65
690.83	389.70
691.17	387.71
691.51	385.84
691.84	383.99
692.18	382.04
692.52	380.07
692.85	378.19
693.19	376.34
693.52	374.54
693.86	372.75
694.20	371.00
694.53	369.24
694.87	367.46
695.21	365.68
695.54	363.88
695.88	362.22
696.21	360.54
696.55	358.92
696.88	357.25
697.22	355.61
697.56	353.98
697.89	352.30
698.23	350.72
698.56	349.09
698.90	347.50
699.23	345.89
699.57	344.35
699.90	342.84
700.24	341.30
700.58	339.78
700.91	338.27
701.25	336.86
701.58	335.49
701.92	334.15
702.25	332.79
702.59	331.41
702.92	330.07
703.26	328.78
703.59	327.47
703.93	326.28
704.26	325.10
704.60	323.83
704.93	322.61
705.26	321.39
705.60	320.22
705.93	319.10
706.27	318.09
706.60	317.09
706.94	316.01
707.27	314.90
707.61	313.89
707.94	312.87
708.27	311.83
708.61	310.77
708.94	309.75
709.28	308.74
709.61	307.78
709.94	306.85
710.28	305.80
710.61	304.85
710.95	303.77
711.28	302.85
711.61	301.93
711.95	301.04
712.28	300.09
712.61	299.16
712.95	298.22
713.28	297.32
713.61	296.40
713.95	295.54
714.28	294.72
714.61	293.82
714.95	292.98
715.28	292.10
715.61	291.16
715.95	290.28
716.28	289.43
716.61	288.63
716.95	287.79
717.28	287.04
717.61	286.31
717.94	285.57
718.28	284.76
718.61	284.03
718.94	283.35
719.27	282.69
719.61	282.02
719.94	281.34
720.27	280.61
720.60	279.91
720.94	279.27
721.27	278.66
721.60	278.07
721.93	277.47
722.27	276.95
722.60	276.41
722.93	275.88
723.26	275.36
723.59	274.78
723.93	274.24
724.26	273.71
724.59	273.12
724.92	272.62
725.25	272.09
725.59	271.60
725.92	271.08
726.25	270.58
726.58	270.05
726.91	269.55
727.24	269.08
727.57	268.64
727.91	268.12
728.24	267.61
728.57	267.14
728.90	266.69
729.23	266.16
729.56	265.73
729.89	265.24
730.22	264.77
730.55	264.29
730.89	263.83
731.22	263.36
731.55	262.93
731.88	262.47
732.21	262.08
732.54	261.63
732.87	261.19
733.20	260.80
733.53	260.42
733.86	260.05
734.19	259.69
734.52	259.31
734.85	259.00
735.18	258.59
735.51	258.22
735.84	257.82
736.17	257.47
736.50	257.10
736.83	256.83
737.16	256.51
737.49	256.19
737.82	255.83
738.15	255.53
738.48	255.22
738.81	254.91
739.14	254.57
739.47	254.25
739.80	253.94
740.13	253.63
740.46	253.33
740.79	253.02
741.12	252.68
741.45	252.37
741.78	252.02
742.11	251.76
742.44	251.45
742.77	251.23
743.10	250.93
743.43	250.63
743.75	250.28
744.08	250.14
744.41	249.91
744.74	249.65
745.07	249.38
745.40	249.17
745.73	248.93
746.06	248.65
746.39	248.41
746.71	248.12
747.04	247.84
747.37	247.60
747.70	247.35
748.03	247.10
748.36	246.89
748.68	246.66
749.01	246.44
749.34	246.24
749.67	246.00
750.00	245.83
750.33	245.68
750.65	245.48
750.98	245.13
751.31	244.90
751.64	244.68
751.97	244.52
752.29	244.26
752.62	244.01
752.95	243.84
753.28	243.64
753.60	243.44
753.93	243.30
754.26	243.11
754.59	242.86
754.91	242.71
755.24	242.48
755.57	242.31
755.90	242.14
756.22	241.93
756.55	241.68
756.88	241.48
757.20	241.23
757.53	241.04
757.86	240.88
758.19	240.71
758.51	240.57
758.84	240.34
759.17	240.20
759.49	240.06
759.82	239.92
760.15	239.78
760.47	239.65
760.80	239.47
761.13	239.37
761.45	239.25
761.78	239.10
762.11	238.96
762.43	238.80
762.76	238.62
763.08	238.50
763.41	238.41
763.74	238.27
764.06	238.13
764.39	237.99
764.71	237.84
765.04	237.70
765.37	237.53
765.69	237.41
766.02	237.26
766.34	237.14
766.67	236.98
767.00	236.85
767.32	236.77
767.65	236.72
767.97	236.57
768.30	236.46
768.62	236.35
768.95	236.24
769.27	236.10
769.60	236.01
769.92	235.88
770.25	235.73
770.57	235.62
770.90	235.51
771.22	235.39
771.55	235.29
771.87	235.20
772.20	235.12
772.52	235.11
772.85	235.14
773.17	235.04
773.50	234.94
773.82	234.82
774.15	234.67
774.47	234.50
774.80	234.38
775.12	234.28
775.45	234.14
775.77	234.07
776.09	233.98
776.42	233.88
776.74	233.84
777.07	233.76
777.39	233.67
777.72	233.56
778.04	233.52
778.36	233.44
778.69	233.36
779.01	233.26
779.33	233.13
779.66	232.95
779.98	232.87
780.31	232.80
780.63	232.78
780.95	232.75
781.28	232.67
781.60	232.61
781.92	232.54
782.25	232.50
782.57	232.43
782.89	232.38
783.22	232.31
783.54	232.21
783.86	232.18
784.19	232.14
784.51	232.14
784.83	232.06
785.16	232.01
785.48	231.94
785.80	231.93
786.12	231.87
786.45	231.83
786.77	231.81
787.09	231.76
