SpectraSuite Data File
++++++++++++++++++++++++++++++++++++
Date: Fri Feb 01 15:21:43 EST 2013
User: group
Dark Spectrum Present: No
Reference Spectrum Present: No
Number of Sampled Component Spectra: 1
Spectrometers: USB2E7196
Integration Time (usec): 35000 (USB2E7196)
Spectra Averaged: 100 (USB2E7196)
Boxcar Smoothing: 10 (USB2E7196)
Correct for Electrical Dark: No (USB2E7196)
Strobe/Lamp Enabled: No (USB2E7196)
Correct for Detector Non-linearity: No (USB2E7196)
Correct for Stray Light: No (USB2E7196)
Number of Pixels in Processed Spectrum: 2048
>>>>>Begin Processed Spectral Data<<<<<
339.09	0.00
339.48	215.45
339.86	216.43
340.24	218.22
340.63	218.70
341.01	221.71
341.39	222.06
341.78	223.31
342.16	224.62
342.54	225.49
342.93	213.50
343.31	224.30
343.69	224.80
344.07	225.28
344.46	225.70
344.84	226.09
345.22	226.34
345.60	226.56
345.99	226.74
346.37	226.86
346.75	226.93
347.13	226.99
347.52	227.01
347.90	227.08
348.28	227.11
348.66	227.15
349.05	227.12
349.43	227.17
349.81	227.21
350.19	227.23
350.57	227.30
350.96	227.37
351.34	227.43
351.72	227.55
352.10	227.65
352.48	227.71
352.87	227.78
353.25	227.85
353.63	227.93
354.01	228.02
354.39	228.11
354.77	228.18
355.15	228.30
355.54	228.39
355.92	228.40
356.30	228.49
356.68	228.62
357.06	228.67
357.44	228.74
357.82	228.81
358.20	228.90
358.58	228.93
358.97	228.94
359.35	229.02
359.73	229.11
360.11	229.16
360.49	229.19
360.87	229.24
361.25	229.29
361.63	229.37
362.01	229.40
362.39	229.43
362.77	229.48
363.15	229.46
363.53	229.48
363.91	229.53
364.29	229.53
364.67	229.45
365.05	229.52
365.43	229.54
365.81	229.53
366.19	229.55
366.57	229.61
366.95	229.60
367.33	229.57
367.71	229.52
368.09	229.52
368.47	229.52
368.85	229.52
369.23	229.51
369.61	229.44
369.99	229.43
370.37	229.37
370.75	229.38
371.13	229.34
371.51	229.28
371.89	229.22
372.27	229.17
372.65	229.13
373.03	229.05
373.41	228.96
373.78	228.90
374.16	228.80
374.54	228.68
374.92	228.63
375.30	228.59
375.68	228.51
376.06	228.44
376.44	228.39
376.82	228.32
377.19	228.24
377.57	228.18
377.95	228.09
378.33	228.03
378.71	227.94
379.09	227.87
379.47	227.83
379.84	227.76
380.22	227.69
380.60	227.58
380.98	227.50
381.36	227.47
381.73	227.40
382.11	227.35
382.49	227.31
382.87	227.25
383.25	227.21
383.62	227.25
384.00	227.16
384.38	227.10
384.76	227.03
385.13	227.02
385.51	226.95
385.89	226.87
386.27	226.84
386.64	226.79
387.02	226.75
387.40	226.67
387.78	226.62
388.15	226.62
388.53	226.62
388.91	226.59
389.29	226.51
389.66	226.50
390.04	226.46
390.42	226.42
390.79	226.45
391.17	226.38
391.55	226.29
391.92	226.28
392.30	226.26
392.68	226.30
393.05	226.30
393.43	226.33
393.81	226.35
394.18	226.33
394.56	226.34
394.94	226.39
395.31	226.44
395.69	226.51
396.06	226.57
396.44	226.59
396.82	226.63
397.19	226.75
397.57	226.79
397.95	226.87
398.32	226.90
398.70	226.91
399.07	227.00
399.45	227.06
399.82	227.12
400.20	227.20
400.58	227.24
400.95	227.28
401.33	227.36
401.70	227.51
402.08	227.63
402.45	227.70
402.83	227.81
403.20	227.88
403.58	227.97
403.95	228.09
404.33	228.22
404.71	228.36
405.08	228.52
405.46	228.66
405.83	228.83
406.21	229.00
406.58	229.18
406.96	229.36
407.33	229.55
407.70	229.76
408.08	230.04
408.45	230.24
408.83	230.48
409.20	230.70
409.58	230.89
409.95	231.17
410.33	231.45
410.70	231.70
411.08	232.03
411.45	232.33
411.82	232.62
412.20	232.99
412.57	233.41
412.95	233.71
413.32	234.14
413.69	234.52
414.07	234.96
414.44	235.44
414.82	235.92
415.19	236.47
415.56	237.02
415.94	237.58
416.31	238.21
416.68	238.85
417.06	239.58
417.43	240.29
417.81	241.02
418.18	241.79
418.55	242.64
418.93	243.51
419.30	244.45
419.67	245.37
420.04	246.35
420.42	247.32
420.79	248.54
421.16	249.66
421.54	250.86
421.91	252.08
422.28	253.32
422.66	254.65
423.03	255.95
423.40	257.30
423.77	258.72
424.15	260.15
424.52	261.62
424.89	263.20
425.26	264.77
425.64	266.22
426.01	267.85
426.38	269.51
426.75	271.19
427.13	272.89
427.50	274.73
427.87	276.59
428.24	278.47
428.61	280.20
428.99	282.16
429.36	284.29
429.73	286.36
430.10	288.41
430.47	290.47
430.85	292.60
431.22	294.81
431.59	297.18
431.96	299.46
432.33	301.94
432.70	304.35
433.08	307.16
433.45	309.83
433.82	312.43
434.19	315.36
434.56	318.15
434.93	320.79
435.30	323.40
435.68	326.32
436.05	329.16
436.42	331.96
436.79	334.53
437.16	337.18
437.53	340.02
437.90	342.84
438.27	345.62
438.64	348.47
439.01	351.13
439.38	353.37
439.75	355.56
440.13	358.11
440.50	360.37
440.87	362.17
441.24	364.14
441.61	366.30
441.98	367.74
442.35	369.58
442.72	371.52
443.09	373.36
443.46	374.31
443.83	374.88
444.20	375.36
444.57	376.16
444.94	376.46
445.31	376.78
445.68	377.08
446.05	377.10
446.42	376.66
446.79	376.22
447.16	375.81
447.53	375.45
447.90	374.26
448.27	373.13
448.64	371.60
449.01	370.43
449.37	368.46
449.74	366.55
450.11	364.30
450.48	361.76
450.85	359.21
451.22	357.07
451.59	355.07
451.96	353.16
452.33	350.52
452.70	348.11
453.07	345.31
453.43	342.42
453.80	339.69
454.17	336.98
454.54	334.41
454.91	331.63
455.28	328.94
455.65	326.46
456.02	324.02
456.38	321.81
456.75	319.11
457.12	316.85
457.49	314.62
457.86	312.43
458.23	310.61
458.59	308.55
458.96	306.44
459.33	304.55
459.70	302.63
460.07	301.15
460.43	299.49
460.80	297.81
461.17	296.40
461.54	294.87
461.91	293.49
462.27	292.06
462.64	290.80
463.01	289.44
463.38	288.14
463.74	286.80
464.11	285.64
464.48	284.65
464.85	283.53
465.21	282.66
465.58	281.71
465.95	280.55
466.32	279.63
466.68	278.74
467.05	277.84
467.42	277.00
467.78	276.08
468.15	275.20
468.52	274.55
468.88	273.65
469.25	272.90
469.62	272.27
469.98	271.59
470.35	270.97
470.72	270.36
471.08	269.69
471.45	269.11
471.82	268.54
472.18	267.94
472.55	267.46
472.92	266.92
473.28	266.45
473.65	266.04
474.02	265.60
474.38	265.23
474.75	264.88
475.11	264.53
475.48	264.21
475.85	263.95
476.21	263.67
476.58	263.52
476.94	263.35
477.31	263.13
477.67	262.95
478.04	262.83
478.41	262.79
478.77	262.82
479.14	262.78
479.50	262.81
479.87	262.88
480.23	262.99
480.60	263.07
480.96	263.17
481.33	263.39
481.69	263.57
482.06	263.80
482.42	264.05
482.79	264.29
483.15	264.62
483.52	264.97
483.88	265.35
484.25	265.72
484.61	266.14
484.98	266.63
485.34	267.18
485.71	267.75
486.07	268.36
486.44	268.96
486.80	269.65
487.17	270.38
487.53	271.20
487.90	272.08
488.26	273.04
488.62	274.00
488.99	274.97
489.35	276.00
489.72	277.10
490.08	278.31
490.44	279.56
490.81	280.91
491.17	282.29
491.54	283.78
491.90	285.35
492.26	286.99
492.63	288.72
492.99	290.52
493.36	292.41
493.72	294.43
494.08	296.52
494.45	298.79
494.81	301.14
495.17	303.59
495.54	306.15
495.90	308.84
496.26	311.67
496.63	314.62
496.99	317.75
497.35	321.02
497.72	324.36
498.08	327.86
498.44	331.54
498.80	335.46
499.17	339.46
499.53	343.59
499.89	347.96
500.26	352.48
500.62	357.15
500.98	362.10
501.34	367.18
501.71	372.50
502.07	377.91
502.43	383.55
502.79	389.36
503.16	395.40
503.52	401.64
503.88	408.02
504.24	414.61
504.60	421.51
504.97	428.63
505.33	435.98
505.69	443.71
506.05	451.47
506.41	459.33
506.78	467.53
507.14	476.01
507.50	484.73
507.86	493.69
508.22	502.90
508.59	512.05
508.95	521.64
509.31	531.45
509.67	541.58
510.03	551.83
510.39	562.37
510.75	573.19
511.12	584.18
511.48	595.55
511.84	607.05
512.20	618.56
512.56	630.49
512.92	642.65
513.28	655.02
513.64	667.51
514.00	680.22
514.37	693.21
514.73	706.24
515.09	719.21
515.45	732.50
515.81	746.10
516.17	760.19
516.53	774.36
516.89	788.55
517.25	802.76
517.61	817.20
517.97	831.71
518.33	846.14
518.69	860.89
519.05	875.88
519.41	891.05
519.77	906.65
520.13	922.21
520.49	937.68
520.85	953.08
521.21	968.85
521.57	985.17
521.93	1000.93
522.29	1017.40
522.65	1033.73
523.01	1050.07
523.37	1066.16
523.73	1082.39
524.09	1098.44
524.45	1114.88
524.81	1131.62
525.17	1148.48
525.53	1165.47
525.89	1182.37
526.25	1199.31
526.61	1215.70
526.97	1232.52
527.33	1248.99
527.68	1265.64
528.04	1282.19
528.40	1298.86
528.76	1315.96
529.12	1332.59
529.48	1349.55
529.84	1365.56
530.20	1382.25
530.56	1399.36
530.91	1416.81
531.27	1433.54
531.63	1450.18
531.99	1466.75
532.35	1482.62
532.71	1498.65
533.07	1514.92
533.42	1530.84
533.78	1546.96
534.14	1563.37
534.50	1578.84
534.86	1594.94
535.21	1610.05
535.57	1626.06
535.93	1641.73
536.29	1656.59
536.65	1671.76
537.00	1686.67
537.36	1702.14
537.72	1716.90
538.08	1731.35
538.44	1745.21
538.79	1759.20
539.15	1773.04
539.51	1786.85
539.87	1801.37
540.22	1815.18
540.58	1829.12
540.94	1842.64
541.29	1855.65
541.65	1868.56
542.01	1881.82
542.37	1893.98
542.72	1906.50
543.08	1918.30
543.44	1930.75
543.79	1942.08
544.15	1953.12
544.51	1964.65
544.87	1975.62
545.22	1986.40
545.58	1996.64
545.94	2006.52
546.29	2016.45
546.65	2026.26
547.01	2035.50
547.36	2044.30
547.72	2052.65
548.07	2060.43
548.43	2068.63
548.79	2076.56
549.14	2083.95
549.50	2091.37
549.86	2099.28
550.21	2106.67
550.57	2113.89
550.92	2120.46
551.28	2127.51
551.64	2134.54
551.99	2141.18
552.35	2147.38
552.70	2153.41
553.06	2159.42
553.41	2165.81
553.77	2171.87
554.13	2177.93
554.48	2184.26
554.84	2189.58
555.19	2194.96
555.55	2200.13
555.90	2204.61
556.26	2209.54
556.61	2214.34
556.97	2218.47
557.32	2222.50
557.68	2226.60
558.03	2230.84
558.39	2234.56
558.74	2239.27
559.10	2243.19
559.45	2246.81
559.81	2251.22
560.16	2255.17
560.52	2258.45
560.87	2261.73
561.23	2264.42
561.58	2267.29
561.94	2269.58
562.29	2272.04
562.64	2274.80
563.00	2277.35
563.35	2281.00
563.71	2284.05
564.06	2287.13
564.42	2289.98
564.77	2292.57
565.12	2294.87
565.48	2296.73
565.83	2298.42
566.19	2299.55
566.54	2300.47
566.89	2301.41
567.25	2301.90
567.60	2303.17
567.96	2304.70
568.31	2305.63
568.66	2306.62
569.02	2307.17
569.37	2307.49
569.72	2308.39
570.08	2308.40
570.43	2308.32
570.78	2307.50
571.14	2305.93
571.49	2304.60
571.84	2304.19
572.20	2302.76
572.55	2301.50
572.90	2299.94
573.26	2298.52
573.61	2296.76
573.96	2294.92
574.31	2291.94
574.67	2288.84
575.02	2285.13
575.37	2281.73
575.72	2277.61
576.08	2274.30
576.43	2271.06
576.78	2267.24
577.13	2263.87
577.49	2260.74
577.84	2257.33
578.19	2253.49
578.54	2249.77
578.90	2245.44
579.25	2239.97
579.60	2235.02
579.95	2230.11
580.30	2225.07
580.66	2219.86
581.01	2214.86
581.36	2209.82
581.71	2205.63
582.06	2201.02
582.42	2196.41
582.77	2191.02
583.12	2186.40
583.47	2181.49
583.82	2176.28
584.17	2170.99
584.53	2165.33
584.88	2159.65
585.23	2153.67
585.58	2148.14
585.93	2142.57
586.28	2137.78
586.63	2132.44
586.98	2127.32
587.34	2122.48
587.69	2117.45
588.04	2112.16
588.39	2106.45
588.74	2099.89
589.09	2093.63
589.44	2086.79
589.79	2080.80
590.14	2075.03
590.49	2068.43
590.84	2061.98
591.19	2055.92
591.54	2049.40
591.89	2041.83
592.25	2034.82
592.60	2027.55
592.95	2019.72
593.30	2012.36
593.65	2004.66
594.00	1997.65
594.35	1990.32
594.70	1982.16
595.05	1974.74
595.40	1967.37
595.75	1959.72
596.10	1953.30
596.45	1946.29
596.80	1939.98
597.15	1933.17
597.50	1926.10
597.85	1919.70
598.19	1912.88
598.54	1905.63
598.89	1898.99
599.24	1893.29
599.59	1886.57
599.94	1880.35
600.29	1874.24
600.64	1867.65
600.99	1860.04
601.34	1853.11
601.69	1846.11
602.04	1839.20
602.39	1831.88
602.74	1824.96
603.08	1818.20
603.43	1811.54
603.78	1804.33
604.13	1797.19
604.48	1789.91
604.83	1782.99
605.18	1775.92
605.53	1767.94
605.87	1759.90
606.22	1752.65
606.57	1744.48
606.92	1737.17
607.27	1729.88
607.62	1722.81
607.96	1715.39
608.31	1708.76
608.66	1701.15
609.01	1693.57
609.36	1685.96
609.70	1677.91
610.05	1669.77
610.40	1662.12
610.75	1653.76
611.10	1646.16
611.44	1637.77
611.79	1629.73
612.14	1620.94
612.49	1611.83
612.83	1603.55
613.18	1595.43
613.53	1587.27
613.88	1578.89
614.22	1570.57
614.57	1562.01
614.92	1553.96
615.27	1546.44
615.61	1538.20
615.96	1530.13
616.31	1522.40
616.65	1514.98
617.00	1507.37
617.35	1499.70
617.70	1491.31
618.04	1482.77
618.39	1474.48
618.74	1466.87
619.08	1458.56
619.43	1451.15
619.78	1444.18
620.12	1436.93
620.47	1429.44
620.82	1421.35
621.16	1414.02
621.51	1406.41
621.85	1398.77
622.20	1390.23
622.55	1381.83
622.89	1373.98
623.24	1366.37
623.59	1358.98
623.93	1351.47
624.28	1344.28
624.62	1336.79
624.97	1329.66
625.32	1323.07
625.66	1316.01
626.01	1308.71
626.35	1301.22
626.70	1293.45
627.04	1285.61
627.39	1277.92
627.73	1270.48
628.08	1263.48
628.43	1256.03
628.77	1248.64
629.12	1241.11
629.46	1233.86
629.81	1226.58
630.15	1219.33
630.50	1211.90
630.84	1203.85
631.19	1196.07
631.53	1188.60
631.88	1181.06
632.22	1173.46
632.57	1166.09
632.91	1158.67
633.26	1151.29
633.60	1144.10
633.95	1137.03
634.29	1130.09
634.64	1123.39
634.98	1115.99
635.32	1108.93
635.67	1102.45
636.01	1095.83
636.36	1089.10
636.70	1082.67
637.05	1076.07
637.39	1069.65
637.73	1063.21
638.08	1057.30
638.42	1051.32
638.77	1044.85
639.11	1038.18
639.45	1031.84
639.80	1025.13
640.14	1018.64
640.49	1012.17
640.83	1005.78
641.17	999.60
641.52	993.37
641.86	986.95
642.20	981.16
642.55	974.95
642.89	968.38
643.23	961.87
643.58	956.05
643.92	949.78
644.26	943.62
644.61	937.60
644.95	931.63
645.29	924.98
645.64	918.19
645.98	912.00
646.32	906.26
646.66	900.19
647.01	894.46
647.35	888.82
647.69	883.00
648.04	877.52
648.38	871.61
648.72	865.53
649.06	859.44
649.41	853.57
649.75	847.51
650.09	841.62
650.43	835.80
650.78	829.63
651.12	823.75
651.46	818.04
651.80	812.21
652.14	806.74
652.49	801.44
652.83	796.24
653.17	790.39
653.51	784.61
653.85	779.19
654.20	773.52
654.54	767.45
654.88	761.69
655.22	755.77
655.56	750.09
655.90	744.65
656.25	739.37
656.59	734.02
656.93	728.85
657.27	723.66
657.61	718.23
657.95	713.17
658.29	708.09
658.64	702.83
658.98	697.62
659.32	692.19
659.66	686.97
660.00	681.69
660.34	676.83
660.68	672.03
661.02	666.98
661.36	662.26
661.70	657.84
662.05	653.45
662.39	649.16
662.73	644.75
663.07	640.47
663.41	636.07
663.75	631.55
664.09	627.06
664.43	622.71
664.77	618.62
665.11	614.38
665.45	610.27
665.79	606.21
666.13	601.99
666.47	597.91
666.81	593.71
667.15	589.62
667.49	585.75
667.83	581.83
668.17	577.92
668.51	573.81
668.85	569.74
669.19	565.95
669.53	562.06
669.87	558.16
670.21	554.33
670.55	550.65
670.89	547.24
671.23	543.76
671.57	540.23
671.91	536.67
672.25	533.18
672.58	529.69
672.92	526.36
673.26	523.27
673.60	520.12
673.94	517.05
674.28	514.14
674.62	511.17
674.96	508.14
675.30	505.24
675.64	502.35
675.97	499.63
676.31	496.70
676.65	493.79
676.99	491.12
677.33	488.33
677.67	485.58
678.01	482.57
678.34	479.62
678.68	476.78
679.02	474.00
679.36	471.24
679.70	468.55
680.04	465.75
680.37	462.88
680.71	460.09
681.05	457.52
681.39	454.82
681.73	452.17
682.06	449.63
682.40	447.09
682.74	444.58
683.08	442.06
683.42	439.48
683.75	436.98
684.09	434.46
684.43	432.02
684.77	429.55
685.10	427.21
685.44	424.92
685.78	422.62
686.12	420.35
686.45	418.11
686.79	415.76
687.13	413.56
687.46	411.40
687.80	409.28
688.14	407.02
688.48	404.92
688.81	402.67
689.15	400.57
689.49	398.43
689.82	396.35
690.16	394.26
690.50	392.35
690.83	390.46
691.17	388.46
691.51	386.48
691.84	384.66
692.18	382.69
692.52	380.68
692.85	378.79
693.19	376.92
693.52	375.09
693.86	373.32
694.20	371.61
694.53	369.80
694.87	367.95
695.21	366.21
695.54	364.41
695.88	362.69
696.21	360.94
696.55	359.25
696.88	357.56
697.22	355.88
697.56	354.28
697.89	352.60
698.23	351.02
698.56	349.45
698.90	347.81
699.23	346.19
699.57	344.68
699.90	343.15
700.24	341.60
700.58	340.05
700.91	338.56
701.25	337.12
701.58	335.73
701.92	334.35
702.25	332.94
702.59	331.58
702.92	330.28
703.26	328.93
703.59	327.69
703.93	326.54
704.26	325.31
704.60	323.97
704.93	322.71
705.26	321.45
705.60	320.28
705.93	319.10
706.27	318.06
706.60	316.99
706.94	315.89
707.27	314.77
707.61	313.74
707.94	312.72
708.27	311.57
708.61	310.54
708.94	309.56
709.28	308.60
709.61	307.65
709.94	306.67
710.28	305.69
710.61	304.69
710.95	303.60
711.28	302.71
711.61	301.77
711.95	300.83
712.28	299.86
712.61	298.88
712.95	297.99
713.28	297.12
713.61	296.23
713.95	295.34
714.28	294.52
714.61	293.62
714.95	292.73
715.28	291.92
715.61	290.99
715.95	290.15
716.28	289.30
716.61	288.45
716.95	287.64
717.28	286.88
717.61	286.12
717.94	285.40
718.28	284.55
718.61	283.82
718.94	283.12
719.27	282.48
719.61	281.83
719.94	281.15
720.27	280.40
720.60	279.76
720.94	279.16
721.27	278.56
721.60	278.02
721.93	277.42
722.27	276.84
722.60	276.28
722.93	275.70
723.26	275.18
723.59	274.63
723.93	274.07
724.26	273.55
724.59	273.00
724.92	272.48
725.25	272.02
725.59	271.54
725.92	271.03
726.25	270.53
726.58	270.06
726.91	269.57
727.24	269.12
727.57	268.64
727.91	268.08
728.24	267.62
728.57	267.12
728.90	266.70
729.23	266.23
729.56	265.86
729.89	265.39
730.22	264.90
730.55	264.44
730.89	263.98
731.22	263.53
731.55	263.12
731.88	262.72
732.21	262.27
732.54	261.81
732.87	261.41
733.20	261.03
733.53	260.67
733.86	260.31
734.19	259.94
734.52	259.58
734.85	259.29
735.18	258.87
735.51	258.50
735.84	258.14
736.17	257.81
736.50	257.39
736.83	257.16
737.16	256.85
737.49	256.52
737.82	256.17
738.15	255.83
738.48	255.50
738.81	255.14
739.14	254.84
739.47	254.56
739.80	254.28
740.13	253.94
740.46	253.57
740.79	253.24
741.12	252.91
741.45	252.59
741.78	252.23
742.11	251.94
742.44	251.60
742.77	251.29
743.10	251.00
743.43	250.73
743.75	250.35
744.08	250.19
744.41	249.92
744.74	249.70
745.07	249.45
745.40	249.19
745.73	248.97
746.06	248.69
746.39	248.44
746.71	248.16
747.04	247.89
747.37	247.65
747.70	247.42
748.03	247.16
748.36	246.94
748.68	246.70
749.01	246.45
749.34	246.27
749.67	246.06
750.00	245.84
750.33	245.63
750.65	245.41
750.98	245.07
751.31	244.84
751.64	244.62
751.97	244.41
752.29	244.16
752.62	243.92
752.95	243.66
753.28	243.41
753.60	243.20
753.93	243.04
754.26	242.84
754.59	242.60
754.91	242.39
755.24	242.16
755.57	241.98
755.90	241.79
756.22	241.57
756.55	241.36
756.88	241.14
757.20	240.94
757.53	240.74
757.86	240.56
758.19	240.41
758.51	240.27
758.84	240.07
759.17	239.94
759.49	239.78
759.82	239.71
760.15	239.58
760.47	239.45
760.80	239.27
761.13	239.13
761.45	239.01
761.78	238.87
762.11	238.75
762.43	238.62
762.76	238.48
763.08	238.36
763.41	238.23
763.74	238.09
764.06	237.93
764.39	237.84
764.71	237.72
765.04	237.58
765.37	237.44
765.69	237.30
766.02	237.16
766.34	237.03
766.67	236.87
767.00	236.78
767.32	236.68
767.65	236.64
767.97	236.52
768.30	236.40
768.62	236.32
768.95	236.19
769.27	236.09
769.60	235.99
769.92	235.89
770.25	235.76
770.57	235.66
770.90	235.56
771.22	235.42
771.55	235.32
771.87	235.22
772.20	235.14
772.52	235.14
772.85	235.14
773.17	235.07
773.50	234.98
773.82	234.85
774.15	234.73
774.47	234.57
774.80	234.49
775.12	234.40
775.45	234.32
775.77	234.25
776.09	234.18
776.42	234.10
776.74	234.06
777.07	234.02
777.39	233.95
777.72	233.90
778.04	233.86
778.36	233.79
778.69	233.73
779.01	233.62
779.33	233.49
779.66	233.35
779.98	233.26
780.31	233.20
780.63	233.17
780.95	233.12
781.28	233.07
781.60	233.01
781.92	232.93
782.25	232.89
782.57	232.81
782.89	232.73
783.22	232.66
783.54	232.59
783.86	232.54
784.19	232.50
784.51	232.47
784.83	232.37
785.16	232.32
785.48	232.27
785.80	232.27
786.12	232.20
786.45	232.14
786.77	232.11
787.09	232.06
