SpectraSuite Data File
++++++++++++++++++++++++++++++++++++
Date: Fri Feb 01 15:08:22 EST 2013
User: group
Dark Spectrum Present: No
Reference Spectrum Present: No
Number of Sampled Component Spectra: 1
Spectrometers: USB2E7196
Integration Time (usec): 35000 (USB2E7196)
Spectra Averaged: 100 (USB2E7196)
Boxcar Smoothing: 10 (USB2E7196)
Correct for Electrical Dark: No (USB2E7196)
Strobe/Lamp Enabled: No (USB2E7196)
Correct for Detector Non-linearity: No (USB2E7196)
Correct for Stray Light: No (USB2E7196)
Number of Pixels in Processed Spectrum: 2048
>>>>>Begin Processed Spectral Data<<<<<
339.09	0.00
339.48	214.89
339.86	216.85
340.24	218.53
340.63	219.02
341.01	222.16
341.39	222.07
341.78	222.97
342.16	224.83
342.54	225.04
342.93	213.56
343.31	224.35
343.69	224.92
344.07	225.38
344.46	225.79
344.84	226.20
345.22	226.43
345.60	226.69
345.99	226.92
346.37	227.02
346.75	227.12
347.13	227.18
347.52	227.23
347.90	227.32
348.28	227.36
348.66	227.40
349.05	227.38
349.43	227.42
349.81	227.42
350.19	227.47
350.57	227.56
350.96	227.62
351.34	227.73
351.72	227.80
352.10	227.90
352.48	227.98
352.87	228.04
353.25	228.10
353.63	228.16
354.01	228.23
354.39	228.32
354.77	228.40
355.15	228.48
355.54	228.54
355.92	228.55
356.30	228.64
356.68	228.76
357.06	228.85
357.44	228.89
357.82	228.95
358.20	229.05
358.58	229.06
358.97	229.11
359.35	229.18
359.73	229.26
360.11	229.30
360.49	229.34
360.87	229.38
361.25	229.46
361.63	229.55
362.01	229.57
362.39	229.60
362.77	229.65
363.15	229.67
363.53	229.69
363.91	229.74
364.29	229.72
364.67	229.66
365.05	229.65
365.43	229.64
365.81	229.68
366.19	229.69
366.57	229.73
366.95	229.72
367.33	229.65
367.71	229.61
368.09	229.62
368.47	229.58
368.85	229.52
369.23	229.47
369.61	229.38
369.99	229.36
370.37	229.34
370.75	229.30
371.13	229.23
371.51	229.13
371.89	229.09
372.27	229.05
372.65	228.98
373.03	228.89
373.41	228.82
373.78	228.74
374.16	228.62
374.54	228.52
374.92	228.43
375.30	228.36
375.68	228.27
376.06	228.21
376.44	228.13
376.82	228.07
377.19	228.00
377.57	227.92
377.95	227.82
378.33	227.69
378.71	227.57
379.09	227.55
379.47	227.51
379.84	227.41
380.22	227.34
380.60	227.27
380.98	227.25
381.36	227.18
381.73	227.07
382.11	227.01
382.49	226.95
382.87	226.87
383.25	226.81
383.62	226.85
384.00	226.75
384.38	226.67
384.76	226.64
385.13	226.61
385.51	226.55
385.89	226.51
386.27	226.48
386.64	226.44
387.02	226.37
387.40	226.33
387.78	226.30
388.15	226.26
388.53	226.24
388.91	226.18
389.29	226.16
389.66	226.16
390.04	226.16
390.42	226.16
390.79	226.15
391.17	226.15
391.55	226.04
391.92	226.04
392.30	226.06
392.68	226.01
393.05	226.03
393.43	226.08
393.81	226.10
394.18	226.12
394.56	226.19
394.94	226.23
395.31	226.27
395.69	226.32
396.06	226.37
396.44	226.38
396.82	226.44
397.19	226.55
397.57	226.63
397.95	226.69
398.32	226.72
398.70	226.78
399.07	226.89
399.45	227.00
399.82	227.09
400.20	227.19
400.58	227.27
400.95	227.32
401.33	227.40
401.70	227.58
402.08	227.69
402.45	227.77
402.83	227.93
403.20	228.06
403.58	228.16
403.95	228.31
404.33	228.47
404.71	228.62
405.08	228.78
405.46	228.91
405.83	229.04
406.21	229.21
406.58	229.44
406.96	229.58
407.33	229.78
407.70	230.00
408.08	230.28
408.45	230.57
408.83	230.82
409.20	231.06
409.58	231.24
409.95	231.53
410.33	231.81
410.70	232.03
411.08	232.31
411.45	232.67
411.82	232.97
412.20	233.32
412.57	233.73
412.95	234.04
413.32	234.43
413.69	234.89
414.07	235.36
414.44	235.81
414.82	236.30
415.19	236.82
415.56	237.35
415.94	237.87
416.31	238.48
416.68	239.10
417.06	239.81
417.43	240.47
417.81	241.21
418.18	241.99
418.55	242.83
418.93	243.71
419.30	244.55
419.67	245.50
420.04	246.46
420.42	247.43
420.79	248.64
421.16	249.82
421.54	250.97
421.91	252.16
422.28	253.43
422.66	254.76
423.03	256.06
423.40	257.35
423.77	258.75
424.15	260.17
424.52	261.67
424.89	263.28
425.26	264.82
425.64	266.24
426.01	267.85
426.38	269.51
426.75	271.16
427.13	272.92
427.50	274.70
427.87	276.55
428.24	278.39
428.61	280.12
428.99	282.08
429.36	284.17
429.73	286.19
430.10	288.18
430.47	290.23
430.85	292.34
431.22	294.64
431.59	297.03
431.96	299.31
432.33	301.80
432.70	304.16
433.08	307.01
433.45	309.67
433.82	312.26
434.19	315.14
434.56	317.94
434.93	320.61
435.30	323.22
435.68	326.15
436.05	328.99
436.42	331.78
436.79	334.25
437.16	336.98
437.53	339.86
437.90	342.70
438.27	345.48
438.64	348.30
439.01	350.88
439.38	353.13
439.75	355.27
440.13	357.74
440.50	360.12
440.87	361.96
441.24	363.88
441.61	366.06
441.98	367.54
442.35	369.41
442.72	371.23
443.09	373.06
443.46	374.06
443.83	374.68
444.20	375.20
444.57	376.04
444.94	376.36
445.31	376.69
445.68	377.04
446.05	377.10
446.42	376.75
446.79	376.30
447.16	375.81
447.53	375.47
447.90	374.31
448.27	373.13
448.64	371.57
449.01	370.45
449.37	368.47
449.74	366.60
450.11	364.32
450.48	361.91
450.85	359.38
451.22	357.24
451.59	355.24
451.96	353.31
452.33	350.75
452.70	348.34
453.07	345.51
453.43	342.61
453.80	339.83
454.17	337.13
454.54	334.60
454.91	331.91
455.28	329.25
455.65	326.76
456.02	324.31
456.38	322.14
456.75	319.45
457.12	317.21
457.49	314.96
457.86	312.81
458.23	310.92
458.59	308.89
458.96	306.81
459.33	304.89
459.70	303.04
460.07	301.46
460.43	299.78
460.80	298.17
461.17	296.68
461.54	295.19
461.91	293.79
462.27	292.38
462.64	291.14
463.01	289.80
463.38	288.53
463.74	287.15
464.11	286.01
464.48	284.99
464.85	283.86
465.21	282.98
465.58	282.01
465.95	280.88
466.32	279.98
466.68	279.02
467.05	278.12
467.42	277.18
467.78	276.25
468.15	275.33
468.52	274.64
468.88	273.78
469.25	272.97
469.62	272.33
469.98	271.59
470.35	270.95
470.72	270.31
471.08	269.57
471.45	269.02
471.82	268.44
472.18	267.83
472.55	267.42
472.92	266.87
473.28	266.42
473.65	265.97
474.02	265.43
474.38	265.02
474.75	264.69
475.11	264.34
475.48	264.05
475.85	263.84
476.21	263.62
476.58	263.41
476.94	263.29
477.31	263.13
477.67	262.98
478.04	262.85
478.41	262.78
478.77	262.83
479.14	262.76
479.50	262.75
479.87	262.79
480.23	262.87
480.60	262.92
480.96	263.00
481.33	263.19
481.69	263.44
482.06	263.67
482.42	263.85
482.79	264.12
483.15	264.43
483.52	264.81
483.88	265.13
484.25	265.55
484.61	265.96
484.98	266.38
485.34	266.95
485.71	267.54
486.07	268.16
486.44	268.71
486.80	269.40
487.17	270.12
487.53	270.95
487.90	271.76
488.26	272.73
488.62	273.75
488.99	274.73
489.35	275.76
489.72	276.90
490.08	278.16
490.44	279.36
490.81	280.69
491.17	282.02
491.54	283.51
491.90	285.00
492.26	286.63
492.63	288.37
492.99	290.13
493.36	292.00
493.72	294.03
494.08	296.20
494.45	298.47
494.81	300.86
495.17	303.31
495.54	305.87
495.90	308.56
496.26	311.28
496.63	314.27
496.99	317.40
497.35	320.65
497.72	324.07
498.08	327.64
498.44	331.32
498.80	335.24
499.17	339.25
499.53	343.44
499.89	347.81
500.26	352.35
500.62	357.05
500.98	361.99
501.34	367.01
501.71	372.28
502.07	377.74
502.43	383.30
502.79	389.09
503.16	395.14
503.52	401.35
503.88	407.80
504.24	414.42
504.60	421.25
504.97	428.37
505.33	435.59
505.69	443.28
506.05	451.05
506.41	458.91
506.78	467.12
507.14	475.56
507.50	484.28
507.86	493.27
508.22	502.39
508.59	511.58
508.95	521.19
509.31	530.92
509.67	540.93
510.03	551.19
510.39	561.76
510.75	572.58
511.12	583.56
511.48	594.81
511.84	606.21
512.20	617.73
512.56	629.63
512.92	641.86
513.28	654.14
513.64	666.59
514.00	679.29
514.37	692.11
514.73	705.15
515.09	718.06
515.45	731.38
515.81	745.00
516.17	758.89
516.53	773.07
516.89	787.25
517.25	801.47
517.61	815.92
517.97	830.37
518.33	844.80
518.69	859.62
519.05	874.68
519.41	889.93
519.77	905.45
520.13	920.90
520.49	936.28
520.85	951.82
521.21	967.67
521.57	984.07
521.93	999.93
522.29	1016.41
522.65	1032.79
523.01	1049.08
523.37	1065.23
523.73	1081.60
524.09	1097.63
524.45	1114.06
524.81	1130.80
525.17	1147.74
525.53	1164.69
525.89	1181.67
526.25	1198.44
526.61	1214.92
526.97	1231.68
527.33	1248.33
527.68	1265.12
528.04	1281.70
528.40	1298.26
528.76	1315.26
529.12	1331.80
529.48	1348.67
529.84	1364.74
530.20	1381.47
530.56	1398.53
530.91	1415.96
531.27	1432.75
531.63	1449.34
531.99	1466.03
532.35	1482.01
532.71	1497.90
533.07	1514.26
533.42	1530.21
533.78	1546.30
534.14	1562.67
534.50	1578.09
534.86	1594.04
535.21	1609.31
535.57	1625.35
535.93	1640.91
536.29	1655.94
536.65	1671.06
537.00	1686.10
537.36	1701.55
537.72	1716.07
538.08	1730.63
538.44	1744.54
538.79	1758.50
539.15	1772.38
539.51	1786.11
539.87	1800.53
540.22	1814.42
540.58	1828.40
540.94	1841.84
541.29	1854.92
541.65	1867.61
542.01	1880.99
542.37	1893.32
542.72	1905.71
543.08	1917.64
543.44	1930.28
543.79	1941.49
544.15	1952.62
544.51	1964.10
544.87	1975.14
545.22	1986.03
545.58	1996.25
545.94	2006.06
546.29	2016.05
546.65	2025.73
547.01	2035.05
547.36	2043.96
547.72	2052.36
548.07	2060.10
548.43	2068.42
548.79	2076.58
549.14	2084.14
549.50	2091.51
549.86	2099.44
550.21	2106.77
550.57	2113.78
550.92	2120.31
551.28	2127.33
551.64	2134.40
551.99	2141.07
552.35	2147.13
552.70	2153.36
553.06	2159.37
553.41	2165.61
553.77	2171.63
554.13	2177.89
554.48	2184.01
554.84	2189.33
555.19	2194.74
555.55	2199.84
555.90	2204.13
556.26	2208.80
556.61	2213.49
556.97	2217.45
557.32	2221.44
557.68	2225.55
558.03	2229.95
558.39	2233.65
558.74	2238.28
559.10	2242.16
559.45	2245.67
559.81	2250.10
560.16	2253.87
560.52	2256.86
560.87	2260.37
561.23	2262.89
561.58	2265.73
561.94	2268.31
562.29	2270.73
562.64	2273.34
563.00	2275.88
563.35	2279.34
563.71	2282.51
564.06	2285.64
564.42	2288.65
564.77	2290.90
565.12	2293.18
565.48	2294.85
565.83	2296.52
566.19	2297.64
566.54	2298.44
566.89	2299.50
567.25	2299.78
567.60	2301.01
567.96	2302.62
568.31	2303.38
568.66	2304.32
569.02	2304.83
569.37	2304.93
569.72	2305.43
570.08	2305.42
570.43	2305.35
570.78	2304.60
571.14	2303.08
571.49	2301.75
571.84	2301.33
572.20	2300.16
572.55	2298.97
572.90	2297.46
573.26	2295.94
573.61	2294.26
573.96	2292.34
574.31	2289.26
574.67	2286.22
575.02	2282.51
575.37	2279.08
575.72	2275.03
576.08	2271.79
576.43	2268.37
576.78	2264.58
577.13	2261.43
577.49	2258.26
577.84	2254.64
578.19	2250.92
578.54	2246.88
578.90	2242.43
579.25	2236.72
579.60	2231.61
579.95	2226.57
580.30	2221.34
580.66	2216.16
581.01	2211.15
581.36	2206.01
581.71	2201.76
582.06	2197.08
582.42	2192.45
582.77	2187.10
583.12	2182.42
583.47	2177.41
583.82	2172.24
584.17	2167.04
584.53	2161.44
584.88	2155.81
585.23	2149.98
585.58	2144.37
585.93	2139.05
586.28	2134.30
586.63	2129.20
586.98	2123.90
587.34	2118.95
587.69	2114.07
588.04	2108.65
588.39	2102.82
588.74	2096.40
589.09	2090.07
589.44	2083.33
589.79	2077.35
590.14	2071.76
590.49	2065.12
590.84	2058.60
591.19	2052.39
591.54	2045.77
591.89	2038.27
592.25	2031.35
592.60	2023.94
592.95	2016.24
593.30	2008.68
593.65	2001.01
594.00	1993.92
594.35	1986.80
594.70	1978.84
595.05	1971.41
595.40	1964.09
595.75	1956.56
596.10	1950.20
596.45	1943.31
596.80	1936.95
597.15	1930.13
597.50	1922.82
597.85	1916.44
598.19	1909.81
598.54	1902.74
598.89	1896.06
599.24	1890.14
599.59	1883.25
599.94	1877.13
600.29	1870.70
600.64	1864.15
600.99	1856.40
601.34	1849.41
601.69	1842.36
602.04	1835.28
602.39	1828.05
602.74	1821.16
603.08	1814.46
603.43	1807.66
603.78	1800.47
604.13	1793.38
604.48	1786.00
604.83	1779.20
605.18	1772.03
605.53	1763.98
605.87	1755.87
606.22	1748.58
606.57	1740.62
606.92	1733.32
607.27	1726.13
607.62	1719.25
607.96	1711.81
608.31	1705.30
608.66	1697.62
609.01	1690.07
609.36	1682.54
609.70	1674.38
610.05	1666.35
610.40	1658.52
610.75	1650.22
611.10	1642.54
611.44	1634.20
611.79	1626.22
612.14	1617.43
612.49	1608.42
612.83	1600.13
613.18	1592.16
613.53	1583.99
613.88	1575.54
614.22	1567.16
614.57	1558.54
614.92	1550.39
615.27	1542.90
615.61	1534.57
615.96	1526.62
616.31	1518.95
616.65	1511.67
617.00	1504.16
617.35	1496.52
617.70	1488.12
618.04	1479.65
618.39	1471.32
618.74	1463.60
619.08	1455.43
619.43	1447.91
619.78	1440.96
620.12	1433.72
620.47	1426.10
620.82	1417.93
621.16	1410.53
621.51	1403.08
621.85	1395.51
622.20	1387.10
622.55	1378.82
622.89	1371.07
623.24	1363.54
623.59	1356.32
623.93	1348.73
624.28	1341.57
624.62	1334.06
624.97	1326.99
625.32	1320.25
625.66	1313.31
626.01	1306.10
626.35	1298.52
626.70	1290.80
627.04	1283.04
627.39	1275.34
627.73	1267.94
628.08	1261.21
628.43	1253.82
628.77	1246.48
629.12	1238.89
629.46	1231.72
629.81	1224.38
630.15	1217.14
630.50	1209.81
630.84	1201.60
631.19	1193.74
631.53	1186.19
631.88	1178.61
632.22	1170.94
632.57	1163.68
632.91	1156.22
633.26	1148.91
633.60	1141.67
633.95	1134.66
634.29	1127.74
634.64	1121.07
634.98	1113.86
635.32	1106.71
635.67	1100.29
636.01	1093.65
636.36	1086.87
636.70	1080.54
637.05	1073.89
637.39	1067.54
637.73	1061.00
638.08	1055.20
638.42	1049.27
638.77	1042.90
639.11	1036.28
639.45	1030.06
639.80	1023.40
640.14	1016.99
640.49	1010.46
640.83	1004.19
641.17	997.93
641.52	991.62
641.86	985.28
642.20	979.40
642.55	973.16
642.89	966.69
643.23	960.28
643.58	954.54
643.92	948.23
644.26	942.18
644.61	936.12
644.95	930.06
645.29	923.40
645.64	916.62
645.98	910.28
646.32	904.51
646.66	898.43
647.01	892.69
647.35	887.05
647.69	881.20
648.04	875.74
648.38	869.99
648.72	863.90
649.06	857.82
649.41	851.94
649.75	845.84
650.09	839.85
650.43	833.88
650.78	827.72
651.12	821.74
651.46	816.05
651.80	810.23
652.14	804.79
652.49	799.40
652.83	794.21
653.17	788.55
653.51	782.79
653.85	777.43
654.20	771.73
654.54	765.72
654.88	760.02
655.22	754.12
655.56	748.46
655.90	743.05
656.25	737.81
656.59	732.52
656.93	727.47
657.27	722.32
657.61	716.97
657.95	711.89
658.29	706.88
658.64	701.71
658.98	696.45
659.32	691.02
659.66	685.83
660.00	680.54
660.34	675.59
660.68	670.77
661.02	665.77
661.36	661.10
661.70	656.60
662.05	652.25
662.39	647.94
662.73	643.45
663.07	639.14
663.41	634.71
663.75	630.13
664.09	625.65
664.43	621.29
664.77	617.26
665.11	613.01
665.45	608.86
665.79	604.80
666.13	600.72
666.47	596.71
666.81	592.55
667.15	588.45
667.49	584.58
667.83	580.78
668.17	576.86
668.51	572.84
668.85	568.89
669.19	565.13
669.53	561.31
669.87	557.43
670.21	553.79
670.55	550.21
670.89	546.83
671.23	543.41
671.57	539.93
671.91	536.36
672.25	532.92
672.58	529.48
672.92	526.08
673.26	522.95
673.60	519.85
673.94	516.80
674.28	514.00
674.62	511.12
674.96	508.00
675.30	505.11
675.64	502.23
675.97	499.47
676.31	496.55
676.65	493.62
676.99	491.02
677.33	488.12
677.67	485.29
678.01	482.27
678.34	479.32
678.68	476.46
679.02	473.62
679.36	470.84
679.70	468.15
680.04	465.37
680.37	462.47
680.71	459.66
681.05	457.06
681.39	454.30
681.73	451.62
682.06	449.17
682.40	446.66
682.74	444.10
683.08	441.59
683.42	439.07
683.75	436.61
684.09	434.07
684.43	431.60
684.77	429.17
685.10	426.88
685.44	424.58
685.78	422.32
686.12	420.12
686.45	417.89
686.79	415.58
687.13	413.40
687.46	411.23
687.80	409.10
688.14	406.87
688.48	404.84
688.81	402.59
689.15	400.40
689.49	398.22
689.82	396.16
690.16	394.05
690.50	392.07
690.83	390.10
691.17	388.08
691.51	386.22
691.84	384.33
692.18	382.39
692.52	380.34
692.85	378.39
693.19	376.48
693.52	374.64
693.86	372.87
694.20	371.13
694.53	369.37
694.87	367.51
695.21	365.75
695.54	363.92
695.88	362.17
696.21	360.45
696.55	358.80
696.88	357.12
697.22	355.44
697.56	353.84
697.89	352.20
698.23	350.59
698.56	348.93
698.90	347.32
699.23	345.72
699.57	344.26
699.90	342.75
700.24	341.21
700.58	339.66
700.91	338.15
701.25	336.71
701.58	335.32
701.92	333.98
702.25	332.63
702.59	331.30
702.92	330.00
703.26	328.72
703.59	327.45
703.93	326.28
704.26	325.06
704.60	323.76
704.93	322.51
705.26	321.29
705.60	320.19
705.93	319.10
706.27	318.09
706.60	317.02
706.94	315.96
707.27	314.89
707.61	313.86
707.94	312.84
708.27	311.75
708.61	310.71
708.94	309.76
709.28	308.75
709.61	307.78
709.94	306.86
710.28	305.85
710.61	304.88
710.95	303.84
711.28	302.97
711.61	302.07
711.95	301.18
712.28	300.22
712.61	299.22
712.95	298.28
713.28	297.41
713.61	296.51
713.95	295.64
714.28	294.79
714.61	293.95
714.95	293.12
715.28	292.25
715.61	291.36
715.95	290.51
716.28	289.71
716.61	288.84
716.95	288.03
717.28	287.28
717.61	286.52
717.94	285.72
718.28	284.92
718.61	284.16
718.94	283.47
719.27	282.86
719.61	282.22
719.94	281.56
720.27	280.83
720.60	280.19
720.94	279.54
721.27	278.94
721.60	278.38
721.93	277.76
722.27	277.26
722.60	276.76
722.93	276.15
723.26	275.61
723.59	275.09
723.93	274.54
724.26	274.02
724.59	273.45
724.92	272.96
725.25	272.44
725.59	271.92
725.92	271.39
726.25	270.85
726.58	270.31
726.91	269.81
727.24	269.31
727.57	268.82
727.91	268.33
728.24	267.88
728.57	267.39
728.90	266.95
729.23	266.40
729.56	265.95
729.89	265.50
730.22	264.99
730.55	264.52
730.89	264.08
731.22	263.60
731.55	263.16
731.88	262.74
732.21	262.33
732.54	261.85
732.87	261.40
733.20	261.03
733.53	260.67
733.86	260.26
734.19	259.86
734.52	259.47
734.85	259.13
735.18	258.72
735.51	258.34
735.84	257.93
736.17	257.60
736.50	257.16
736.83	256.89
737.16	256.59
737.49	256.25
737.82	255.88
738.15	255.54
738.48	255.19
738.81	254.85
739.14	254.48
739.47	254.19
739.80	253.90
740.13	253.57
740.46	253.22
740.79	252.92
741.12	252.64
741.45	252.34
741.78	252.00
742.11	251.70
742.44	251.40
742.77	251.12
743.10	250.86
743.43	250.57
743.75	250.18
744.08	250.00
744.41	249.72
744.74	249.49
745.07	249.23
745.40	248.99
745.73	248.73
746.06	248.47
746.39	248.21
746.71	247.95
747.04	247.66
747.37	247.45
747.70	247.21
748.03	246.94
748.36	246.71
748.68	246.50
749.01	246.23
749.34	245.97
749.67	245.76
750.00	245.52
750.33	245.41
750.65	245.23
750.98	244.93
751.31	244.70
751.64	244.49
751.97	244.36
752.29	244.16
752.62	243.95
752.95	243.80
753.28	243.63
753.60	243.41
753.93	243.26
754.26	243.05
754.59	242.84
754.91	242.65
755.24	242.47
755.57	242.27
755.90	242.14
756.22	241.96
756.55	241.76
756.88	241.60
757.20	241.35
757.53	241.16
757.86	240.97
758.19	240.82
758.51	240.65
758.84	240.42
759.17	240.26
759.49	240.11
759.82	239.98
760.15	239.81
760.47	239.68
760.80	239.49
761.13	239.39
761.45	239.24
761.78	239.12
762.11	238.97
762.43	238.85
762.76	238.69
763.08	238.61
763.41	238.50
763.74	238.33
764.06	238.24
764.39	238.10
764.71	237.93
765.04	237.83
765.37	237.72
765.69	237.61
766.02	237.46
766.34	237.33
766.67	237.15
767.00	237.05
767.32	236.98
767.65	236.91
767.97	236.76
768.30	236.67
768.62	236.55
768.95	236.39
769.27	236.24
769.60	236.13
769.92	235.98
770.25	235.86
770.57	235.73
770.90	235.60
771.22	235.49
771.55	235.40
771.87	235.30
772.20	235.16
772.52	235.11
772.85	235.14
773.17	235.03
773.50	234.92
773.82	234.81
774.15	234.68
774.47	234.56
774.80	234.46
775.12	234.35
775.45	234.24
775.77	234.16
776.09	234.08
776.42	234.00
776.74	233.92
777.07	233.83
777.39	233.74
777.72	233.62
778.04	233.53
778.36	233.47
778.69	233.34
779.01	233.30
779.33	233.17
779.66	233.00
779.98	232.91
780.31	232.82
780.63	232.79
780.95	232.74
781.28	232.66
781.60	232.59
781.92	232.54
782.25	232.48
782.57	232.45
782.89	232.40
783.22	232.34
783.54	232.29
783.86	232.23
784.19	232.20
784.51	232.17
784.83	232.13
785.16	232.03
785.48	232.02
785.80	231.97
786.12	231.90
786.45	231.87
786.77	231.85
787.09	231.86
