SpectraSuite Data File
++++++++++++++++++++++++++++++++++++
Date: Fri Feb 01 17:03:59 EST 2013
User: group
Dark Spectrum Present: No
Reference Spectrum Present: No
Number of Sampled Component Spectra: 1
Spectrometers: USB2E7196
Integration Time (usec): 35000 (USB2E7196)
Spectra Averaged: 100 (USB2E7196)
Boxcar Smoothing: 10 (USB2E7196)
Correct for Electrical Dark: No (USB2E7196)
Strobe/Lamp Enabled: No (USB2E7196)
Correct for Detector Non-linearity: No (USB2E7196)
Correct for Stray Light: No (USB2E7196)
Number of Pixels in Processed Spectrum: 2048
>>>>>Begin Processed Spectral Data<<<<<
339.09	0.00
339.48	213.41
339.86	214.15
340.24	215.95
340.63	217.74
341.01	220.62
341.39	220.60
341.78	221.50
342.16	223.01
342.54	223.78
342.93	211.74
343.31	222.44
343.69	222.96
344.07	223.44
344.46	223.86
344.84	224.21
345.22	224.43
345.60	224.63
345.99	224.83
346.37	224.94
346.75	225.02
347.13	225.08
347.52	225.16
347.90	225.21
348.28	225.24
348.66	225.26
349.05	225.25
349.43	225.30
349.81	225.34
350.19	225.38
350.57	225.46
350.96	225.52
351.34	225.59
351.72	225.69
352.10	225.78
352.48	225.87
352.87	225.95
353.25	226.03
353.63	226.11
354.01	226.17
354.39	226.24
354.77	226.32
355.15	226.43
355.54	226.47
355.92	226.50
356.30	226.60
356.68	226.76
357.06	226.82
357.44	226.88
357.82	226.94
358.20	226.99
358.58	227.05
358.97	227.11
359.35	227.23
359.73	227.29
360.11	227.34
360.49	227.39
360.87	227.44
361.25	227.48
361.63	227.55
362.01	227.62
362.39	227.66
362.77	227.69
363.15	227.67
363.53	227.70
363.91	227.75
364.29	227.76
364.67	227.66
365.05	227.67
365.43	227.69
365.81	227.71
366.19	227.77
366.57	227.81
366.95	227.81
367.33	227.76
367.71	227.75
368.09	227.75
368.47	227.72
368.85	227.69
369.23	227.68
369.61	227.62
369.99	227.61
370.37	227.56
370.75	227.58
371.13	227.55
371.51	227.50
371.89	227.49
372.27	227.44
372.65	227.43
373.03	227.38
373.41	227.31
373.78	227.24
374.16	227.13
374.54	227.06
374.92	226.99
375.30	226.93
375.68	226.86
376.06	226.83
376.44	226.79
376.82	226.77
377.19	226.70
377.57	226.64
377.95	226.53
378.33	226.51
378.71	226.39
379.09	226.34
379.47	226.30
379.84	226.21
380.22	226.14
380.60	226.04
380.98	225.99
381.36	225.94
381.73	225.86
382.11	225.83
382.49	225.80
382.87	225.75
383.25	225.71
383.62	225.78
384.00	225.68
384.38	225.63
384.76	225.59
385.13	225.56
385.51	225.54
385.89	225.47
386.27	225.42
386.64	225.38
387.02	225.29
387.40	225.23
387.78	225.19
388.15	225.14
388.53	225.09
388.91	225.06
389.29	225.03
389.66	225.03
390.04	224.96
390.42	224.93
390.79	224.90
391.17	224.87
391.55	224.75
391.92	224.73
392.30	224.74
392.68	224.69
393.05	224.69
393.43	224.69
393.81	224.70
394.18	224.68
394.56	224.72
394.94	224.79
395.31	224.80
395.69	224.84
396.06	224.88
396.44	224.93
396.82	224.95
397.19	225.03
397.57	225.04
397.95	225.14
398.32	225.14
398.70	225.20
399.07	225.24
399.45	225.27
399.82	225.34
400.20	225.36
400.58	225.44
400.95	225.47
401.33	225.55
401.70	225.75
402.08	225.82
402.45	225.90
402.83	226.00
403.20	226.13
403.58	226.22
403.95	226.34
404.33	226.49
404.71	226.63
405.08	226.79
405.46	226.95
405.83	227.05
406.21	227.21
406.58	227.35
406.96	227.53
407.33	227.73
407.70	227.95
408.08	228.21
408.45	228.40
408.83	228.66
409.20	228.87
409.58	229.00
409.95	229.30
410.33	229.54
410.70	229.79
411.08	230.06
411.45	230.39
411.82	230.67
412.20	231.00
412.57	231.41
412.95	231.69
413.32	232.12
413.69	232.56
414.07	232.99
414.44	233.43
414.82	233.90
415.19	234.43
415.56	234.93
415.94	235.47
416.31	236.12
416.68	236.69
417.06	237.41
417.43	238.03
417.81	238.78
418.18	239.53
418.55	240.37
418.93	241.24
419.30	242.07
419.67	243.01
420.04	243.94
420.42	244.89
420.79	246.08
421.16	247.18
421.54	248.36
421.91	249.56
422.28	250.83
422.66	252.14
423.03	253.44
423.40	254.76
423.77	256.17
424.15	257.60
424.52	259.08
424.89	260.65
425.26	262.24
425.64	263.65
426.01	265.23
426.38	266.84
426.75	268.48
427.13	270.23
427.50	272.02
427.87	273.91
428.24	275.75
428.61	277.48
428.99	279.43
429.36	281.49
429.73	283.51
430.10	285.51
430.47	287.57
430.85	289.63
431.22	291.83
431.59	294.21
431.96	296.42
432.33	298.90
432.70	301.32
433.08	304.10
433.45	306.74
433.82	309.38
434.19	312.26
434.56	315.07
434.93	317.70
435.30	320.32
435.68	323.16
436.05	326.04
436.42	328.82
436.79	331.30
437.16	333.97
437.53	336.81
437.90	339.62
438.27	342.35
438.64	345.19
439.01	347.78
439.38	349.95
439.75	352.09
440.13	354.58
440.50	356.85
440.87	358.72
441.24	360.60
441.61	362.69
441.98	364.16
442.35	365.93
442.72	367.79
443.09	369.60
443.46	370.61
443.83	371.11
444.20	371.59
444.57	372.45
444.94	372.77
445.31	373.13
445.68	373.47
446.05	373.58
446.42	373.21
446.79	372.80
447.16	372.41
447.53	372.12
447.90	370.95
448.27	369.84
448.64	368.25
449.01	367.19
449.37	365.24
449.74	363.37
450.11	361.20
450.48	358.75
450.85	356.23
451.22	354.14
451.59	352.19
451.96	350.29
452.33	347.69
452.70	345.33
453.07	342.50
453.43	339.65
453.80	336.90
454.17	334.28
454.54	331.83
454.91	329.07
455.28	326.43
455.65	323.95
456.02	321.49
456.38	319.39
456.75	316.76
457.12	314.56
457.49	312.38
457.86	310.18
458.23	308.34
458.59	306.30
458.96	304.22
459.33	302.35
459.70	300.49
460.07	299.04
460.43	297.38
460.80	295.79
461.17	294.33
461.54	292.82
461.91	291.40
462.27	289.91
462.64	288.70
463.01	287.37
463.38	286.09
463.74	284.74
464.11	283.55
464.48	282.52
464.85	281.43
465.21	280.57
465.58	279.66
465.95	278.56
466.32	277.66
466.68	276.74
467.05	275.91
467.42	275.02
467.78	274.07
468.15	273.17
468.52	272.55
468.88	271.71
469.25	270.94
469.62	270.30
469.98	269.63
470.35	269.05
470.72	268.47
471.08	267.84
471.45	267.28
471.82	266.75
472.18	266.18
472.55	265.73
472.92	265.22
473.28	264.76
473.65	264.36
474.02	263.91
474.38	263.57
474.75	263.19
475.11	262.91
475.48	262.67
475.85	262.47
476.21	262.24
476.58	262.08
476.94	261.97
477.31	261.84
477.67	261.71
478.04	261.61
478.41	261.56
478.77	261.63
479.14	261.63
479.50	261.67
479.87	261.76
480.23	261.88
480.60	261.96
480.96	262.05
481.33	262.26
481.69	262.50
482.06	262.72
482.42	262.98
482.79	263.23
483.15	263.56
483.52	263.96
483.88	264.29
484.25	264.70
484.61	265.13
484.98	265.60
485.34	266.15
485.71	266.74
486.07	267.33
486.44	267.90
486.80	268.64
487.17	269.41
487.53	270.21
487.90	271.07
488.26	272.05
488.62	273.04
488.99	274.01
489.35	275.06
489.72	276.18
490.08	277.38
490.44	278.64
490.81	279.95
491.17	281.28
491.54	282.75
491.90	284.29
492.26	285.93
492.63	287.65
492.99	289.40
493.36	291.27
493.72	293.33
494.08	295.42
494.45	297.62
494.81	299.91
495.17	302.36
495.54	304.91
495.90	307.54
496.26	310.35
496.63	313.31
496.99	316.40
497.35	319.66
497.72	323.08
498.08	326.55
498.44	330.18
498.80	334.10
499.17	338.12
499.53	342.22
499.89	346.56
500.26	351.04
500.62	355.74
500.98	360.66
501.34	365.72
501.71	371.01
502.07	376.47
502.43	382.06
502.79	387.84
503.16	393.84
503.52	400.12
503.88	406.49
504.24	413.05
504.60	419.85
504.97	426.87
505.33	434.05
505.69	441.67
506.05	449.46
506.41	457.27
506.78	465.30
507.14	473.67
507.50	482.30
507.86	491.18
508.22	500.22
508.59	509.32
508.95	518.70
509.31	528.39
509.67	538.35
510.03	548.49
510.39	558.89
510.75	569.50
511.12	580.23
511.48	591.35
511.84	602.68
512.20	614.04
512.56	625.86
512.92	637.88
513.28	650.07
513.64	662.32
514.00	674.78
514.37	687.58
514.73	700.41
515.09	713.24
515.45	726.31
515.81	739.78
516.17	753.53
516.53	767.42
516.89	781.28
517.25	795.14
517.61	809.31
517.97	823.48
518.33	837.72
518.69	852.17
519.05	866.94
519.41	881.69
519.77	896.97
520.13	912.05
520.49	927.12
520.85	942.13
521.21	957.51
521.57	973.46
521.93	988.79
522.29	1004.85
522.65	1020.80
523.01	1036.69
523.37	1052.22
523.73	1068.05
524.09	1083.88
524.45	1099.88
524.81	1116.22
525.17	1132.70
525.53	1149.24
525.89	1165.72
526.25	1182.28
526.61	1198.23
526.97	1214.71
527.33	1230.84
527.68	1247.00
528.04	1263.15
528.40	1279.33
528.76	1295.95
529.12	1312.21
529.48	1328.82
529.84	1344.50
530.20	1360.72
530.56	1377.24
530.91	1394.45
531.27	1410.86
531.63	1426.91
531.99	1443.05
532.35	1458.64
532.71	1474.12
533.07	1490.07
533.42	1505.61
533.78	1521.27
534.14	1537.23
534.50	1552.30
534.86	1567.67
535.21	1582.64
535.57	1598.22
535.93	1613.40
536.29	1627.95
536.65	1642.61
537.00	1657.00
537.36	1671.97
537.72	1686.20
538.08	1700.44
538.44	1713.81
538.79	1727.38
539.15	1740.63
539.51	1754.05
539.87	1767.99
540.22	1781.31
540.58	1794.63
540.94	1807.51
541.29	1819.87
541.65	1832.13
542.01	1844.98
542.37	1856.99
542.72	1869.06
543.08	1880.44
543.44	1892.56
543.79	1903.60
544.15	1914.23
544.51	1925.62
544.87	1936.37
545.22	1946.88
545.58	1956.90
545.94	1966.45
546.29	1976.12
546.65	1986.01
547.01	1995.22
547.36	2003.85
547.72	2012.28
548.07	2020.18
548.43	2028.28
548.79	2036.21
549.14	2043.74
549.50	2050.80
549.86	2058.32
550.21	2065.51
550.57	2072.65
550.92	2079.19
551.28	2086.11
551.64	2093.28
551.99	2099.65
552.35	2105.79
552.70	2111.91
553.06	2117.96
553.41	2124.31
553.77	2130.23
554.13	2136.07
554.48	2142.02
554.84	2147.48
555.19	2152.59
555.55	2157.70
555.90	2162.21
556.26	2167.23
556.61	2171.94
556.97	2176.58
557.32	2180.92
557.68	2185.20
558.03	2189.52
558.39	2193.22
558.74	2197.85
559.10	2201.66
559.45	2205.37
559.81	2209.58
560.16	2213.54
560.52	2216.67
560.87	2220.01
561.23	2222.82
561.58	2225.89
561.94	2228.59
562.29	2231.02
562.64	2234.01
563.00	2236.57
563.35	2240.07
563.71	2243.32
564.06	2246.61
564.42	2249.44
564.77	2252.10
565.12	2254.61
565.48	2256.63
565.83	2258.69
566.19	2260.27
566.54	2261.15
566.89	2262.44
567.25	2263.32
567.60	2264.77
567.96	2266.68
568.31	2267.66
568.66	2268.98
569.02	2269.66
569.37	2270.21
569.72	2271.29
570.08	2271.63
570.43	2271.86
570.78	2271.67
571.14	2270.44
571.49	2269.26
571.84	2269.11
572.20	2268.32
572.55	2267.26
572.90	2265.92
573.26	2264.71
573.61	2262.99
573.96	2261.64
574.31	2259.13
574.67	2256.22
575.02	2252.74
575.37	2249.55
575.72	2246.10
576.08	2242.83
576.43	2239.71
576.78	2236.24
577.13	2233.12
577.49	2230.13
577.84	2226.92
578.19	2223.18
578.54	2219.64
578.90	2215.76
579.25	2210.46
579.60	2205.55
579.95	2200.91
580.30	2196.07
580.66	2191.23
581.01	2186.56
581.36	2181.83
581.71	2177.80
582.06	2173.69
582.42	2169.54
582.77	2164.67
583.12	2160.38
583.47	2156.02
583.82	2151.35
584.17	2146.47
584.53	2141.35
584.88	2135.93
585.23	2130.43
585.58	2125.31
585.93	2120.12
586.28	2115.45
586.63	2110.68
586.98	2105.81
587.34	2101.27
587.69	2096.65
588.04	2091.48
588.39	2086.08
588.74	2079.81
589.09	2073.79
589.44	2067.19
589.79	2061.28
590.14	2055.67
590.49	2049.25
590.84	2042.89
591.19	2037.11
591.54	2030.78
591.89	2023.66
592.25	2017.16
592.60	2010.09
592.95	2002.80
593.30	1995.68
593.65	1988.15
594.00	1981.20
594.35	1974.10
594.70	1966.20
595.05	1959.36
595.40	1952.35
595.75	1945.10
596.10	1939.20
596.45	1932.66
596.80	1926.81
597.15	1920.44
597.50	1913.58
597.85	1907.17
598.19	1900.73
598.54	1893.85
598.89	1887.17
599.24	1881.36
599.59	1874.85
599.94	1868.78
600.29	1862.46
600.64	1855.77
600.99	1848.62
601.34	1841.97
601.69	1835.10
602.04	1828.36
602.39	1821.12
602.74	1814.48
603.08	1807.83
603.43	1801.06
603.78	1793.83
604.13	1786.56
604.48	1779.46
604.83	1772.82
605.18	1766.22
605.53	1758.42
605.87	1750.52
606.22	1743.44
606.57	1735.64
606.92	1728.22
607.27	1721.26
607.62	1714.57
607.96	1707.69
608.31	1701.39
608.66	1693.95
609.01	1686.64
609.36	1679.24
609.70	1671.25
610.05	1663.19
610.40	1655.56
610.75	1647.40
611.10	1639.89
611.44	1631.59
611.79	1623.62
612.14	1614.83
612.49	1605.63
612.83	1597.22
613.18	1589.11
613.53	1581.08
613.88	1572.55
614.22	1564.52
614.57	1555.86
614.92	1547.97
615.27	1540.51
615.61	1532.18
615.96	1524.13
616.31	1516.46
616.65	1509.15
617.00	1501.57
617.35	1493.97
617.70	1485.79
618.04	1477.39
618.39	1469.16
618.74	1461.64
619.08	1453.29
619.43	1445.77
619.78	1438.94
620.12	1431.89
620.47	1424.51
620.82	1416.48
621.16	1409.11
621.51	1401.43
621.85	1393.98
622.20	1385.41
622.55	1377.00
622.89	1369.05
623.24	1361.43
623.59	1354.05
623.93	1346.64
624.28	1339.50
624.62	1332.10
624.97	1324.93
625.32	1318.15
625.66	1311.18
626.01	1304.05
626.35	1296.81
626.70	1289.09
627.04	1281.38
627.39	1273.65
627.73	1266.20
628.08	1259.26
628.43	1252.08
628.77	1244.91
629.12	1237.32
629.46	1230.15
629.81	1222.71
630.15	1215.61
630.50	1208.23
630.84	1200.09
631.19	1192.18
631.53	1184.67
631.88	1177.13
632.22	1169.49
632.57	1162.24
632.91	1154.79
633.26	1147.45
633.60	1139.98
633.95	1132.96
634.29	1125.92
634.64	1119.25
634.98	1111.99
635.32	1104.94
635.67	1098.28
636.01	1091.54
636.36	1084.80
636.70	1078.45
637.05	1072.01
637.39	1065.57
637.73	1059.18
638.08	1053.32
638.42	1047.21
638.77	1040.92
639.11	1034.46
639.45	1028.14
639.80	1021.50
640.14	1015.14
640.49	1008.69
640.83	1002.43
641.17	996.30
641.52	990.11
641.86	983.66
642.20	977.86
642.55	971.51
642.89	965.15
643.23	958.66
643.58	952.92
643.92	946.73
644.26	940.71
644.61	934.58
644.95	928.63
645.29	922.15
645.64	915.51
645.98	909.14
646.32	903.22
646.66	897.21
647.01	891.50
647.35	885.79
647.69	879.89
648.04	874.37
648.38	868.52
648.72	862.56
649.06	856.59
649.41	850.63
649.75	844.79
650.09	838.84
650.43	833.08
650.78	827.05
651.12	821.04
651.46	815.30
651.80	809.68
652.14	804.23
652.49	798.87
652.83	793.73
653.17	788.12
653.51	782.42
653.85	777.08
654.20	771.47
654.54	765.45
654.88	759.74
655.22	753.83
655.56	748.22
655.90	742.77
656.25	737.60
656.59	732.32
656.93	727.23
657.27	722.14
657.61	716.81
657.95	711.62
658.29	706.55
658.64	701.37
658.98	696.09
659.32	690.63
659.66	685.47
660.00	680.24
660.34	675.27
660.68	670.35
661.02	665.31
661.36	660.58
661.70	656.11
662.05	651.80
662.39	647.52
662.73	643.11
663.07	638.75
663.41	634.30
663.75	629.84
664.09	625.34
664.43	620.86
664.77	616.72
665.11	612.51
665.45	608.37
665.79	604.34
666.13	600.24
666.47	596.16
666.81	592.03
667.15	587.85
667.49	583.92
667.83	580.09
668.17	576.21
668.51	572.16
668.85	568.13
669.19	564.26
669.53	560.48
669.87	556.61
670.21	552.89
670.55	549.23
670.89	545.81
671.23	542.34
671.57	538.95
671.91	535.47
672.25	531.96
672.58	528.47
672.92	524.96
673.26	521.78
673.60	518.70
673.94	515.58
674.28	512.70
674.62	509.79
674.96	506.65
675.30	503.70
675.64	500.81
675.97	498.04
676.31	495.16
676.65	492.23
676.99	489.50
677.33	486.70
677.67	483.91
678.01	480.88
678.34	477.93
678.68	475.07
679.02	472.20
679.36	469.49
679.70	466.82
680.04	464.12
680.37	461.27
680.71	458.47
681.05	455.91
681.39	453.21
681.73	450.53
682.06	448.09
682.40	445.61
682.74	443.08
683.08	440.57
683.42	437.97
683.75	435.50
684.09	432.91
684.43	430.43
684.77	427.97
685.10	425.60
685.44	423.29
685.78	420.97
686.12	418.72
686.45	416.35
686.79	414.05
687.13	411.85
687.46	409.68
687.80	407.51
688.14	405.25
688.48	403.21
688.81	401.02
689.15	398.86
689.49	396.63
689.82	394.60
690.16	392.46
690.50	390.51
690.83	388.54
691.17	386.60
691.51	384.63
691.84	382.79
692.18	380.92
692.52	378.96
692.85	376.99
693.19	375.14
693.52	373.34
693.86	371.49
694.20	369.70
694.53	367.90
694.87	366.09
695.21	364.28
695.54	362.44
695.88	360.69
696.21	358.99
696.55	357.38
696.88	355.67
697.22	353.98
697.56	352.34
697.89	350.71
698.23	349.13
698.56	347.57
698.90	345.96
699.23	344.36
699.57	342.79
699.90	341.26
700.24	339.73
700.58	338.23
700.91	336.79
701.25	335.35
701.58	334.04
701.92	332.72
702.25	331.35
702.59	330.03
702.92	328.71
703.26	327.40
703.59	326.11
703.93	324.93
704.26	323.76
704.60	322.47
704.93	321.23
705.26	320.00
705.60	318.78
705.93	317.61
706.27	316.54
706.60	315.51
706.94	314.47
707.27	313.33
707.61	312.22
707.94	311.18
708.27	310.11
708.61	308.97
708.94	307.91
709.28	306.96
709.61	305.99
709.94	305.05
710.28	304.06
710.61	303.11
710.95	302.01
711.28	301.08
711.61	300.19
711.95	299.29
712.28	298.35
712.61	297.42
712.95	296.53
713.28	295.63
713.61	294.72
713.95	293.80
714.28	292.97
714.61	292.18
714.95	291.34
715.28	290.48
715.61	289.62
715.95	288.75
716.28	287.88
716.61	287.04
716.95	286.21
717.28	285.45
717.61	284.70
717.94	283.98
718.28	283.19
718.61	282.47
718.94	281.75
719.27	281.07
719.61	280.40
719.94	279.74
720.27	279.01
720.60	278.39
720.94	277.78
721.27	277.20
721.60	276.60
721.93	275.99
722.27	275.41
722.60	274.88
722.93	274.33
723.26	273.82
723.59	273.25
723.93	272.66
724.26	272.10
724.59	271.51
724.92	271.00
725.25	270.53
725.59	270.03
725.92	269.51
726.25	269.01
726.58	268.53
726.91	268.04
727.24	267.58
727.57	267.09
727.91	266.57
728.24	266.10
728.57	265.61
728.90	265.18
729.23	264.74
729.56	264.29
729.89	263.80
730.22	263.30
730.55	262.86
730.89	262.44
731.22	262.01
731.55	261.60
731.88	261.17
732.21	260.71
732.54	260.25
732.87	259.83
733.20	259.47
733.53	259.10
733.86	258.73
734.19	258.34
734.52	257.98
734.85	257.72
735.18	257.32
735.51	256.95
735.84	256.56
736.17	256.22
736.50	255.85
736.83	255.66
737.16	255.33
737.49	255.01
737.82	254.67
738.15	254.33
738.48	253.99
738.81	253.70
739.14	253.38
739.47	253.08
739.80	252.77
740.13	252.43
740.46	252.08
740.79	251.73
741.12	251.42
741.45	251.08
741.78	250.70
742.11	250.40
742.44	250.06
742.77	249.78
743.10	249.46
743.43	249.16
743.75	248.76
744.08	248.62
744.41	248.33
744.74	248.06
745.07	247.77
745.40	247.55
745.73	247.25
746.06	246.98
746.39	246.68
746.71	246.40
747.04	246.12
747.37	245.84
747.70	245.60
748.03	245.35
748.36	245.14
748.68	244.90
749.01	244.65
749.34	244.45
749.67	244.20
750.00	243.98
750.33	243.81
750.65	243.58
750.98	243.24
751.31	243.02
751.64	242.80
751.97	242.63
752.29	242.39
752.62	242.15
752.95	241.92
753.28	241.75
753.60	241.54
753.93	241.36
754.26	241.15
754.59	240.96
754.91	240.76
755.24	240.54
755.57	240.36
755.90	240.20
756.22	239.98
756.55	239.77
756.88	239.57
757.20	239.33
757.53	239.14
757.86	238.96
758.19	238.79
758.51	238.64
758.84	238.44
759.17	238.27
759.49	238.12
759.82	238.05
760.15	237.91
760.47	237.80
760.80	237.62
761.13	237.51
761.45	237.33
761.78	237.19
762.11	237.05
762.43	236.89
762.76	236.73
763.08	236.65
763.41	236.52
763.74	236.39
764.06	236.25
764.39	236.09
764.71	235.95
765.04	235.83
765.37	235.71
765.69	235.54
766.02	235.45
766.34	235.35
766.67	235.19
767.00	235.10
767.32	235.02
767.65	234.98
767.97	234.87
768.30	234.77
768.62	234.69
768.95	234.57
769.27	234.46
769.60	234.37
769.92	234.22
770.25	234.12
770.57	234.03
770.90	233.95
771.22	233.83
771.55	233.77
771.87	233.68
772.20	233.56
772.52	233.58
772.85	233.59
773.17	233.48
773.50	233.34
773.82	233.22
774.15	233.05
774.47	232.89
774.80	232.78
775.12	232.71
775.45	232.59
775.77	232.51
776.09	232.42
776.42	232.33
776.74	232.28
777.07	232.19
777.39	232.10
777.72	232.01
778.04	231.95
778.36	231.87
778.69	231.81
779.01	231.77
779.33	231.61
779.66	231.40
779.98	231.31
780.31	231.23
780.63	231.19
780.95	231.18
781.28	231.11
781.60	231.04
781.92	230.97
782.25	230.90
782.57	230.84
782.89	230.81
783.22	230.73
783.54	230.66
783.86	230.61
784.19	230.55
784.51	230.49
784.83	230.43
785.16	230.32
785.48	230.24
785.80	230.17
786.12	230.13
786.45	230.12
786.77	230.05
787.09	230.06
