SpectraSuite Data File
++++++++++++++++++++++++++++++++++++
Date: Fri Feb 01 17:41:41 EST 2013
User: group
Dark Spectrum Present: No
Reference Spectrum Present: No
Number of Sampled Component Spectra: 1
Spectrometers: USB2E7196
Integration Time (usec): 35000 (USB2E7196)
Spectra Averaged: 100 (USB2E7196)
Boxcar Smoothing: 10 (USB2E7196)
Correct for Electrical Dark: No (USB2E7196)
Strobe/Lamp Enabled: No (USB2E7196)
Correct for Detector Non-linearity: No (USB2E7196)
Correct for Stray Light: No (USB2E7196)
Number of Pixels in Processed Spectrum: 2048
>>>>>Begin Processed Spectral Data<<<<<
339.09	0.00
339.48	212.48
339.86	214.27
340.24	216.23
340.63	217.09
341.01	219.54
341.39	219.77
341.78	220.99
342.16	221.87
342.54	222.82
342.93	211.21
343.31	221.87
343.69	222.42
344.07	222.89
344.46	223.29
344.84	223.65
345.22	223.89
345.60	224.11
345.99	224.32
346.37	224.49
346.75	224.58
347.13	224.65
347.52	224.71
347.90	224.78
348.28	224.80
348.66	224.87
349.05	224.88
349.43	224.93
349.81	224.99
350.19	225.05
350.57	225.14
350.96	225.20
351.34	225.30
351.72	225.40
352.10	225.48
352.48	225.57
352.87	225.63
353.25	225.71
353.63	225.79
354.01	225.82
354.39	225.87
354.77	225.97
355.15	226.10
355.54	226.12
355.92	226.15
356.30	226.24
356.68	226.34
357.06	226.43
357.44	226.49
357.82	226.55
358.20	226.63
358.58	226.70
358.97	226.76
359.35	226.84
359.73	226.90
360.11	226.97
360.49	227.02
360.87	227.07
361.25	227.12
361.63	227.22
362.01	227.30
362.39	227.32
362.77	227.36
363.15	227.37
363.53	227.44
363.91	227.48
364.29	227.49
364.67	227.39
365.05	227.39
365.43	227.38
365.81	227.42
366.19	227.46
366.57	227.48
366.95	227.48
367.33	227.43
367.71	227.43
368.09	227.43
368.47	227.40
368.85	227.40
369.23	227.41
369.61	227.33
369.99	227.33
370.37	227.36
370.75	227.39
371.13	227.31
371.51	227.24
371.89	227.22
372.27	227.17
372.65	227.12
373.03	227.07
373.41	227.05
373.78	226.99
374.16	226.87
374.54	226.79
374.92	226.74
375.30	226.70
375.68	226.59
376.06	226.53
376.44	226.50
376.82	226.44
377.19	226.38
377.57	226.32
377.95	226.22
378.33	226.12
378.71	226.00
379.09	225.96
379.47	225.91
379.84	225.82
380.22	225.77
380.60	225.70
380.98	225.65
381.36	225.60
381.73	225.52
382.11	225.48
382.49	225.43
382.87	225.33
383.25	225.24
383.62	225.31
384.00	225.22
384.38	225.14
384.76	225.09
385.13	225.08
385.51	225.02
385.89	224.95
386.27	224.91
386.64	224.86
387.02	224.83
387.40	224.77
387.78	224.74
388.15	224.73
388.53	224.71
388.91	224.67
389.29	224.63
389.66	224.62
390.04	224.60
390.42	224.61
390.79	224.63
391.17	224.65
391.55	224.54
391.92	224.53
392.30	224.54
392.68	224.55
393.05	224.51
393.43	224.52
393.81	224.56
394.18	224.56
394.56	224.60
394.94	224.63
395.31	224.64
395.69	224.70
396.06	224.70
396.44	224.73
396.82	224.77
397.19	224.84
397.57	224.85
397.95	224.91
398.32	224.89
398.70	224.95
399.07	225.01
399.45	225.07
399.82	225.12
400.20	225.18
400.58	225.21
400.95	225.25
401.33	225.32
401.70	225.44
402.08	225.50
402.45	225.57
402.83	225.67
403.20	225.80
403.58	225.86
403.95	226.00
404.33	226.14
404.71	226.28
405.08	226.45
405.46	226.59
405.83	226.74
406.21	226.90
406.58	227.09
406.96	227.27
407.33	227.49
407.70	227.71
408.08	227.98
408.45	228.23
408.83	228.48
409.20	228.73
409.58	228.91
409.95	229.16
410.33	229.45
410.70	229.75
411.08	230.07
411.45	230.40
411.82	230.74
412.20	231.09
412.57	231.54
412.95	231.88
413.32	232.31
413.69	232.77
414.07	233.28
414.44	233.80
414.82	234.33
415.19	234.90
415.56	235.48
415.94	236.10
416.31	236.77
416.68	237.50
417.06	238.32
417.43	239.14
417.81	240.05
418.18	240.93
418.55	241.87
418.93	242.88
419.30	243.91
419.67	244.95
420.04	246.03
420.42	247.14
420.79	248.44
421.16	249.77
421.54	251.11
421.91	252.46
422.28	253.86
422.66	255.38
423.03	256.87
423.40	258.44
423.77	260.05
424.15	261.71
424.52	263.40
424.89	265.23
425.26	267.01
425.64	268.66
426.01	270.52
426.38	272.43
426.75	274.30
427.13	276.28
427.50	278.39
427.87	280.56
428.24	282.74
428.61	284.81
428.99	287.02
429.36	289.44
429.73	291.87
430.10	294.18
430.47	296.55
430.85	298.98
431.22	301.54
431.59	304.26
431.96	306.88
432.33	309.75
432.70	312.50
433.08	315.70
433.45	318.71
433.82	321.69
434.19	325.01
434.56	328.26
434.93	331.29
435.30	334.29
435.68	337.65
436.05	340.86
436.42	344.08
436.79	346.99
437.16	350.03
437.53	353.26
437.90	356.52
438.27	359.65
438.64	362.95
439.01	365.95
439.38	368.52
439.75	371.01
440.13	373.85
440.50	376.50
440.87	378.66
441.24	380.92
441.61	383.40
441.98	385.11
442.35	387.22
442.72	389.37
443.09	391.48
443.46	392.64
443.83	393.32
444.20	393.87
444.57	394.82
444.94	395.24
445.31	395.66
445.68	396.03
446.05	396.16
446.42	395.69
446.79	395.24
447.16	394.80
447.53	394.44
447.90	393.11
448.27	391.87
448.64	390.06
449.01	388.77
449.37	386.53
449.74	384.38
450.11	381.79
450.48	379.01
450.85	376.10
451.22	373.65
451.59	371.36
451.96	369.18
452.33	366.21
452.70	363.50
453.07	360.27
453.43	357.00
453.80	353.83
454.17	350.80
454.54	347.84
454.91	344.68
455.28	341.61
455.65	338.73
456.02	335.81
456.38	333.31
456.75	330.25
457.12	327.64
457.49	325.10
457.86	322.61
458.23	320.42
458.59	318.02
458.96	315.63
459.33	313.47
459.70	311.32
460.07	309.60
460.43	307.63
460.80	305.75
461.17	304.11
461.54	302.34
461.91	300.66
462.27	299.00
462.64	297.57
463.01	296.04
463.38	294.57
463.74	293.04
464.11	291.70
464.48	290.51
464.85	289.20
465.21	288.17
465.58	287.08
465.95	285.84
466.32	284.82
466.68	283.77
467.05	282.72
467.42	281.69
467.78	280.59
468.15	279.54
468.52	278.76
468.88	277.72
469.25	276.84
469.62	276.11
469.98	275.34
470.35	274.64
470.72	273.94
471.08	273.19
471.45	272.59
471.82	271.98
472.18	271.30
472.55	270.84
472.92	270.23
473.28	269.71
473.65	269.19
474.02	268.67
474.38	268.24
474.75	267.89
475.11	267.45
475.48	267.16
475.85	266.91
476.21	266.64
476.58	266.45
476.94	266.25
477.31	266.04
477.67	265.84
478.04	265.67
478.41	265.59
478.77	265.62
479.14	265.53
479.50	265.53
479.87	265.57
480.23	265.62
480.60	265.69
480.96	265.77
481.33	265.99
481.69	266.19
482.06	266.38
482.42	266.59
482.79	266.85
483.15	267.14
483.52	267.49
483.88	267.83
484.25	268.22
484.61	268.69
484.98	269.18
485.34	269.76
485.71	270.37
486.07	270.95
486.44	271.50
486.80	272.20
487.17	272.89
487.53	273.73
487.90	274.58
488.26	275.52
488.62	276.49
488.99	277.48
489.35	278.56
489.72	279.67
490.08	280.88
490.44	282.09
490.81	283.46
491.17	284.85
491.54	286.33
491.90	287.87
492.26	289.52
492.63	291.25
492.99	293.02
493.36	294.90
493.72	296.98
494.08	299.10
494.45	301.35
494.81	303.76
495.17	306.21
495.54	308.80
495.90	311.49
496.26	314.31
496.63	317.26
496.99	320.37
497.35	323.62
497.72	327.05
498.08	330.63
498.44	334.34
498.80	338.30
499.17	342.36
499.53	346.53
499.89	350.94
500.26	355.48
500.62	360.19
500.98	365.15
501.34	370.26
501.71	375.60
502.07	381.10
502.43	386.73
502.79	392.56
503.16	398.68
503.52	405.00
503.88	411.42
504.24	418.10
504.60	425.05
504.97	432.25
505.33	439.58
505.69	447.36
506.05	455.21
506.41	463.12
506.78	471.37
507.14	479.92
507.50	488.68
507.86	497.71
508.22	506.97
508.59	516.28
508.95	525.87
509.31	535.78
509.67	545.99
510.03	556.37
510.39	567.02
510.75	577.80
511.12	588.77
511.48	600.20
511.84	611.76
512.20	623.31
512.56	635.34
512.92	647.56
513.28	659.97
513.64	672.54
514.00	685.35
514.37	698.34
514.73	711.48
515.09	724.63
515.45	738.10
515.81	751.83
516.17	765.93
516.53	780.23
516.89	794.58
517.25	808.91
517.61	823.39
517.97	838.05
518.33	852.78
518.69	867.78
519.05	882.81
519.41	898.15
519.77	913.79
520.13	929.39
520.49	945.03
520.85	960.55
521.21	976.40
521.57	992.80
521.93	1008.81
522.29	1025.38
522.65	1041.83
523.01	1058.18
523.37	1074.53
523.73	1090.90
524.09	1107.25
524.45	1123.61
524.81	1140.41
525.17	1157.49
525.53	1174.59
525.89	1191.60
526.25	1208.78
526.61	1225.51
526.97	1242.39
527.33	1259.34
527.68	1276.28
528.04	1293.11
528.40	1310.02
528.76	1327.44
529.12	1344.33
529.48	1361.57
529.84	1378.00
530.20	1395.07
530.56	1412.31
530.91	1430.03
531.27	1447.45
531.63	1464.26
531.99	1481.40
532.35	1497.97
532.71	1514.46
533.07	1531.11
533.42	1547.56
533.78	1564.14
534.14	1580.88
534.50	1596.85
534.86	1613.07
535.21	1628.76
535.57	1645.20
535.93	1661.27
536.29	1676.53
536.65	1692.19
537.00	1707.50
537.36	1723.48
537.72	1738.60
538.08	1753.73
538.44	1768.10
538.79	1782.49
539.15	1796.76
539.51	1811.06
539.87	1825.93
540.22	1840.15
540.58	1854.53
540.94	1868.34
541.29	1881.57
541.65	1894.96
542.01	1908.80
542.37	1921.91
542.72	1935.06
543.08	1947.56
543.44	1960.68
543.79	1972.77
544.15	1984.48
544.51	1996.77
544.87	2008.37
545.22	2019.94
545.58	2030.96
545.94	2041.51
546.29	2052.03
546.65	2062.84
547.01	2072.97
547.36	2082.45
547.72	2091.73
548.07	2100.54
548.43	2109.63
548.79	2118.38
549.14	2126.83
549.50	2134.83
549.86	2143.14
550.21	2151.19
550.57	2159.23
550.92	2166.61
551.28	2174.48
551.64	2182.42
551.99	2189.80
552.35	2196.87
552.70	2203.76
553.06	2210.58
553.41	2217.65
553.77	2224.35
554.13	2231.00
554.48	2237.77
554.84	2244.32
555.19	2250.45
555.55	2256.43
555.90	2261.64
556.26	2267.66
556.61	2273.11
556.97	2278.53
557.32	2283.74
557.68	2288.68
558.03	2293.63
558.39	2298.13
558.74	2303.52
559.10	2308.10
559.45	2312.34
559.81	2317.16
560.16	2321.78
560.52	2325.80
560.87	2329.99
561.23	2333.44
561.58	2336.99
561.94	2340.42
562.29	2343.28
562.64	2346.87
563.00	2350.13
563.35	2354.37
563.71	2358.12
564.06	2361.91
564.42	2365.47
564.77	2368.78
565.12	2372.06
565.48	2374.90
565.83	2377.72
566.19	2380.03
566.54	2381.59
566.89	2383.60
567.25	2385.12
567.60	2387.00
567.96	2389.33
568.31	2390.83
568.66	2392.66
569.02	2394.04
569.37	2395.05
569.72	2396.51
570.08	2397.14
570.43	2397.70
570.78	2397.80
571.14	2396.80
571.49	2395.90
571.84	2395.88
572.20	2395.24
572.55	2394.40
572.90	2393.00
573.26	2391.94
573.61	2390.15
573.96	2389.06
574.31	2386.47
574.67	2383.84
575.02	2380.54
575.37	2377.46
575.72	2374.25
576.08	2371.16
576.43	2367.96
576.78	2364.73
577.13	2361.59
577.49	2358.65
577.84	2355.62
578.19	2352.20
578.54	2348.99
578.90	2345.37
579.25	2340.18
579.60	2335.46
579.95	2330.77
580.30	2326.02
580.66	2321.00
581.01	2316.33
581.36	2311.22
581.71	2307.41
582.06	2303.18
582.42	2299.03
582.77	2294.11
583.12	2289.59
583.47	2285.07
583.82	2280.50
584.17	2275.18
584.53	2270.07
584.88	2264.60
585.23	2258.80
585.58	2253.28
585.93	2247.58
586.28	2242.45
586.63	2237.44
586.98	2232.24
587.34	2227.45
587.69	2222.44
588.04	2217.32
588.39	2211.63
588.74	2205.31
589.09	2198.85
589.44	2191.90
589.79	2185.40
590.14	2179.36
590.49	2172.49
590.84	2165.81
591.19	2159.47
591.54	2152.81
591.89	2145.32
592.25	2138.56
592.60	2131.16
592.95	2123.42
593.30	2116.02
593.65	2108.28
594.00	2100.87
594.35	2093.46
594.70	2084.99
595.05	2077.82
595.40	2070.10
595.75	2062.36
596.10	2055.95
596.45	2049.18
596.80	2042.83
597.15	2036.17
597.50	2029.29
597.85	2022.68
598.19	2016.03
598.54	2008.97
598.89	2002.29
599.24	1996.12
599.59	1989.35
599.94	1982.82
600.29	1976.21
600.64	1969.34
600.99	1961.61
601.34	1954.60
601.69	1947.11
602.04	1940.18
602.39	1932.46
602.74	1925.48
603.08	1918.60
603.43	1911.46
603.78	1903.83
604.13	1896.23
604.48	1888.86
604.83	1881.52
605.18	1874.43
605.53	1866.03
605.87	1857.48
606.22	1849.73
606.57	1841.30
606.92	1833.16
607.27	1825.71
607.62	1818.52
607.96	1811.08
608.31	1804.46
608.66	1796.50
609.01	1788.66
609.36	1780.86
609.70	1772.45
610.05	1763.71
610.40	1755.57
610.75	1746.88
611.10	1738.69
611.44	1729.72
611.79	1720.98
612.14	1711.73
612.49	1701.94
612.83	1692.92
613.18	1684.15
613.53	1675.49
613.88	1666.54
614.22	1657.75
614.57	1648.57
614.92	1640.01
615.27	1631.83
615.61	1622.92
615.96	1614.35
616.31	1606.05
616.65	1598.01
617.00	1589.87
617.35	1581.83
617.70	1573.09
618.04	1564.00
618.39	1555.10
618.74	1547.09
619.08	1538.36
619.43	1530.22
619.78	1522.67
620.12	1515.16
620.47	1507.21
620.82	1498.34
621.16	1490.21
621.51	1482.11
621.85	1473.82
622.20	1464.73
622.55	1455.82
622.89	1447.30
623.24	1438.96
623.59	1431.00
623.93	1422.96
624.28	1415.27
624.62	1407.15
624.97	1399.32
625.32	1391.90
625.66	1384.46
626.01	1376.80
626.35	1368.95
626.70	1360.76
627.04	1352.48
627.39	1344.17
627.73	1336.18
628.08	1328.86
628.43	1321.17
628.77	1313.43
629.12	1305.45
629.46	1297.73
629.81	1289.63
630.15	1281.80
630.50	1273.96
630.84	1265.39
631.19	1256.75
631.53	1248.54
631.88	1240.48
632.22	1232.31
632.57	1224.47
632.91	1216.46
633.26	1208.57
633.60	1200.56
633.95	1192.73
634.29	1185.23
634.64	1178.00
634.98	1170.26
635.32	1162.71
635.67	1155.60
636.01	1148.34
636.36	1141.13
636.70	1134.07
637.05	1127.01
637.39	1120.28
637.73	1113.43
638.08	1107.08
638.42	1100.83
638.77	1094.11
639.11	1087.17
639.45	1080.35
639.80	1073.45
640.14	1066.55
640.49	1059.58
640.83	1052.92
641.17	1046.53
641.52	1039.90
641.86	1032.99
642.20	1026.83
642.55	1020.08
642.89	1013.20
643.23	1006.14
643.58	999.96
643.92	993.51
644.26	987.26
644.61	980.62
644.95	974.28
645.29	967.41
645.64	960.20
645.98	953.39
646.32	946.97
646.66	940.60
647.01	934.42
647.35	928.45
647.69	922.14
648.04	916.23
648.38	910.09
648.72	903.83
649.06	897.50
649.41	891.13
649.75	884.88
650.09	878.67
650.43	872.67
650.78	866.22
651.12	859.87
651.46	853.75
651.80	847.89
652.14	842.06
652.49	836.42
652.83	830.99
653.17	825.11
653.51	819.30
653.85	813.48
654.20	807.50
654.54	801.15
654.88	795.07
655.22	788.83
655.56	782.69
655.90	776.81
656.25	771.25
656.59	765.55
656.93	760.09
657.27	754.64
657.61	748.82
657.95	743.32
658.29	737.92
658.64	732.26
658.98	726.47
659.32	720.65
659.66	715.05
660.00	709.48
660.34	704.18
660.68	698.89
661.02	693.59
661.36	688.61
661.70	683.86
662.05	679.33
662.39	674.74
662.73	670.01
663.07	665.34
663.41	660.62
663.75	655.97
664.09	651.08
664.43	646.37
664.77	642.10
665.11	637.67
665.45	633.25
665.79	629.05
666.13	624.82
666.47	620.53
666.81	616.16
667.15	611.68
667.49	607.48
667.83	603.42
668.17	599.23
668.51	594.98
668.85	590.65
669.19	586.48
669.53	582.43
669.87	578.40
670.21	574.46
670.55	570.57
670.89	566.87
671.23	563.30
671.57	559.55
671.91	555.89
672.25	552.17
672.58	548.49
672.92	544.84
673.26	541.43
673.60	538.10
673.94	534.88
674.28	531.85
674.62	528.75
674.96	525.46
675.30	522.48
675.64	519.39
675.97	516.43
676.31	513.44
676.65	510.37
676.99	507.49
677.33	504.43
677.67	501.46
678.01	498.37
678.34	495.27
678.68	492.27
679.02	489.25
679.36	486.35
679.70	483.45
680.04	480.56
680.37	477.64
680.71	474.69
681.05	471.91
681.39	468.98
681.73	466.20
682.06	463.58
682.40	460.87
682.74	458.18
683.08	455.43
683.42	452.66
683.75	449.96
684.09	447.17
684.43	444.59
684.77	441.98
685.10	439.40
685.44	436.87
685.78	434.42
686.12	431.97
686.45	429.51
686.79	427.08
687.13	424.70
687.46	422.35
687.80	420.00
688.14	417.59
688.48	415.43
688.81	413.04
689.15	410.71
689.49	408.41
689.82	406.18
690.16	403.95
690.50	401.84
690.83	399.81
691.17	397.73
691.51	395.70
691.84	393.75
692.18	391.78
692.52	389.76
692.85	387.69
693.19	385.67
693.52	383.75
693.86	381.80
694.20	379.93
694.53	378.05
694.87	376.10
695.21	374.15
695.54	372.17
695.88	370.34
696.21	368.51
696.55	366.72
696.88	364.91
697.22	363.12
697.56	361.37
697.89	359.63
698.23	357.94
698.56	356.22
698.90	354.52
699.23	352.77
699.57	351.10
699.90	349.43
700.24	347.83
700.58	346.18
700.91	344.61
701.25	343.04
701.58	341.58
701.92	340.13
702.25	338.69
702.59	337.28
702.92	335.87
703.26	334.49
703.59	333.15
703.93	331.93
704.26	330.67
704.60	329.33
704.93	327.97
705.26	326.65
705.60	325.40
705.93	324.15
706.27	323.01
706.60	321.85
706.94	320.68
707.27	319.46
707.61	318.27
707.94	317.14
708.27	315.98
708.61	314.77
708.94	313.70
709.28	312.65
709.61	311.62
709.94	310.56
710.28	309.47
710.61	308.36
710.95	307.16
711.28	306.16
711.61	305.12
711.95	304.14
712.28	303.12
712.61	302.08
712.95	301.05
713.28	300.09
713.61	299.12
713.95	298.18
714.28	297.30
714.61	296.42
714.95	295.49
715.28	294.57
715.61	293.63
715.95	292.71
716.28	291.79
716.61	290.86
716.95	289.98
717.28	289.16
717.61	288.36
717.94	287.60
718.28	286.72
718.61	285.94
718.94	285.18
719.27	284.48
719.61	283.74
719.94	283.02
720.27	282.26
720.60	281.57
720.94	280.85
721.27	280.21
721.60	279.58
721.93	278.97
722.27	278.39
722.60	277.84
722.93	277.24
723.26	276.67
723.59	276.11
723.93	275.52
724.26	274.92
724.59	274.29
724.92	273.70
725.25	273.16
725.59	272.62
725.92	272.08
726.25	271.53
726.58	270.99
726.91	270.47
727.24	270.00
727.57	269.46
727.91	268.94
728.24	268.40
728.57	267.85
728.90	267.36
729.23	266.78
729.56	266.26
729.89	265.75
730.22	265.23
730.55	264.70
730.89	264.22
731.22	263.75
731.55	263.33
731.88	262.86
732.21	262.43
732.54	261.96
732.87	261.48
733.20	261.01
733.53	260.57
733.86	260.21
734.19	259.77
734.52	259.39
734.85	259.09
735.18	258.65
735.51	258.27
735.84	257.88
736.17	257.52
736.50	257.08
736.83	256.83
737.16	256.46
737.49	256.12
737.82	255.78
738.15	255.43
738.48	255.03
738.81	254.71
739.14	254.35
739.47	254.03
739.80	253.72
740.13	253.42
740.46	253.10
740.79	252.74
741.12	252.40
741.45	252.06
741.78	251.68
742.11	251.38
742.44	251.05
742.77	250.74
743.10	250.41
743.43	250.12
743.75	249.70
744.08	249.58
744.41	249.27
744.74	248.98
745.07	248.66
745.40	248.43
745.73	248.17
746.06	247.88
746.39	247.58
746.71	247.31
747.04	247.04
747.37	246.78
747.70	246.54
748.03	246.29
748.36	246.05
748.68	245.80
749.01	245.57
749.34	245.35
749.67	245.14
750.00	244.93
750.33	244.75
750.65	244.53
750.98	244.14
751.31	243.90
751.64	243.67
751.97	243.51
752.29	243.30
752.62	243.02
752.95	242.76
753.28	242.55
753.60	242.31
753.93	242.10
754.26	241.92
754.59	241.68
754.91	241.47
755.24	241.26
755.57	241.02
755.90	240.81
756.22	240.62
756.55	240.42
756.88	240.21
757.20	239.94
757.53	239.73
757.86	239.55
758.19	239.40
758.51	239.24
758.84	238.99
759.17	238.78
759.49	238.66
759.82	238.55
760.15	238.38
760.47	238.24
760.80	238.07
761.13	237.89
761.45	237.72
761.78	237.55
762.11	237.40
762.43	237.24
762.76	237.10
763.08	236.96
763.41	236.76
763.74	236.59
764.06	236.45
764.39	236.32
764.71	236.19
765.04	235.98
765.37	235.84
765.69	235.70
766.02	235.59
766.34	235.46
766.67	235.28
767.00	235.17
767.32	235.08
767.65	235.05
767.97	234.92
768.30	234.84
768.62	234.74
768.95	234.57
769.27	234.49
769.60	234.37
769.92	234.23
770.25	234.11
770.57	234.03
770.90	233.91
771.22	233.79
771.55	233.71
771.87	233.67
772.20	233.54
772.52	233.50
772.85	233.48
773.17	233.37
773.50	233.28
773.82	233.18
774.15	233.04
774.47	232.85
774.80	232.74
775.12	232.61
775.45	232.51
775.77	232.46
776.09	232.36
776.42	232.28
776.74	232.21
777.07	232.14
777.39	232.04
777.72	231.97
778.04	231.93
778.36	231.85
778.69	231.76
779.01	231.71
779.33	231.61
779.66	231.43
779.98	231.33
780.31	231.25
780.63	231.25
780.95	231.18
781.28	231.10
781.60	231.02
781.92	230.96
782.25	230.91
782.57	230.83
782.89	230.75
783.22	230.70
783.54	230.62
783.86	230.57
784.19	230.47
784.51	230.45
784.83	230.38
785.16	230.26
785.48	230.22
785.80	230.15
786.12	230.08
786.45	230.02
786.77	229.99
