SpectraSuite Data File
++++++++++++++++++++++++++++++++++++
Date: Fri Feb 01 17:42:19 EST 2013
User: group
Dark Spectrum Present: No
Reference Spectrum Present: No
Number of Sampled Component Spectra: 1
Spectrometers: USB2E7196
Integration Time (usec): 35000 (USB2E7196)
Spectra Averaged: 100 (USB2E7196)
Boxcar Smoothing: 10 (USB2E7196)
Correct for Electrical Dark: No (USB2E7196)
Strobe/Lamp Enabled: No (USB2E7196)
Correct for Detector Non-linearity: No (USB2E7196)
Correct for Stray Light: No (USB2E7196)
Number of Pixels in Processed Spectrum: 2048
>>>>>Begin Processed Spectral Data<<<<<
339.09	0.00
339.48	212.30
339.86	214.37
340.24	215.52
340.63	217.61
341.01	219.95
341.39	219.46
341.78	221.29
342.16	222.22
342.54	223.19
342.93	211.28
343.31	221.92
343.69	222.48
344.07	222.92
344.46	223.37
344.84	223.69
345.22	223.92
345.60	224.20
345.99	224.35
346.37	224.48
346.75	224.56
347.13	224.63
347.52	224.69
347.90	224.75
348.28	224.76
348.66	224.78
349.05	224.80
349.43	224.86
349.81	224.89
350.19	224.96
350.57	225.00
350.96	225.09
351.34	225.24
351.72	225.33
352.10	225.44
352.48	225.52
352.87	225.59
353.25	225.66
353.63	225.69
354.01	225.77
354.39	225.85
354.77	225.91
355.15	226.03
355.54	226.09
355.92	226.10
356.30	226.16
356.68	226.30
357.06	226.34
357.44	226.40
357.82	226.47
358.20	226.55
358.58	226.60
358.97	226.65
359.35	226.66
359.73	226.72
360.11	226.76
360.49	226.80
360.87	226.82
361.25	226.87
361.63	226.96
362.01	227.03
362.39	227.04
362.77	227.09
363.15	227.10
363.53	227.11
363.91	227.13
364.29	227.14
364.67	227.04
365.05	227.03
365.43	227.01
365.81	227.02
366.19	227.06
366.57	227.13
366.95	227.16
367.33	227.15
367.71	227.15
368.09	227.18
368.47	227.14
368.85	227.10
369.23	227.13
369.61	227.07
369.99	227.05
370.37	227.00
370.75	227.00
371.13	226.94
371.51	226.87
371.89	226.87
372.27	226.84
372.65	226.80
373.03	226.78
373.41	226.77
373.78	226.69
374.16	226.56
374.54	226.43
374.92	226.33
375.30	226.30
375.68	226.22
376.06	226.16
376.44	226.09
376.82	226.08
377.19	226.00
377.57	225.92
377.95	225.86
378.33	225.83
378.71	225.71
379.09	225.67
379.47	225.65
379.84	225.59
380.22	225.51
380.60	225.46
380.98	225.41
381.36	225.34
381.73	225.27
382.11	225.23
382.49	225.20
382.87	225.15
383.25	225.10
383.62	225.16
384.00	225.08
384.38	225.06
384.76	225.04
385.13	225.03
385.51	225.00
385.89	224.95
386.27	224.92
386.64	224.92
387.02	224.89
387.40	224.85
387.78	224.84
388.15	224.89
388.53	224.83
388.91	224.82
389.29	224.78
389.66	224.78
390.04	224.75
390.42	224.73
390.79	224.70
391.17	224.66
391.55	224.52
391.92	224.53
392.30	224.53
392.68	224.52
393.05	224.50
393.43	224.49
393.81	224.51
394.18	224.50
394.56	224.51
394.94	224.55
395.31	224.56
395.69	224.61
396.06	224.59
396.44	224.65
396.82	224.66
397.19	224.76
397.57	224.81
397.95	224.88
398.32	224.89
398.70	225.00
399.07	225.07
399.45	225.08
399.82	225.12
400.20	225.15
400.58	225.18
400.95	225.18
401.33	225.28
401.70	225.41
402.08	225.50
402.45	225.56
402.83	225.65
403.20	225.78
403.58	225.83
403.95	225.95
404.33	226.05
404.71	226.18
405.08	226.37
405.46	226.50
405.83	226.63
406.21	226.77
406.58	226.89
406.96	227.07
407.33	227.33
407.70	227.54
408.08	227.82
408.45	228.10
408.83	228.37
409.20	228.57
409.58	228.75
409.95	229.01
410.33	229.32
410.70	229.59
411.08	229.89
411.45	230.25
411.82	230.60
412.20	230.98
412.57	231.44
412.95	231.75
413.32	232.19
413.69	232.66
414.07	233.19
414.44	233.76
414.82	234.32
415.19	234.91
415.56	235.57
415.94	236.22
416.31	236.92
416.68	237.66
417.06	238.52
417.43	239.31
417.81	240.20
418.18	241.12
418.55	242.09
418.93	243.11
419.30	244.15
419.67	245.22
420.04	246.35
420.42	247.49
420.79	248.86
421.16	250.20
421.54	251.55
421.91	252.98
422.28	254.45
422.66	255.99
423.03	257.52
423.40	259.12
423.77	260.80
424.15	262.49
424.52	264.23
424.89	266.13
425.26	267.96
425.64	269.72
426.01	271.61
426.38	273.55
426.75	275.51
427.13	277.52
427.50	279.65
427.87	281.90
428.24	284.10
428.61	286.16
428.99	288.46
429.36	290.95
429.73	293.39
430.10	295.78
430.47	298.21
430.85	300.73
431.22	303.31
431.59	306.08
431.96	308.74
432.33	311.67
432.70	314.44
433.08	317.73
433.45	320.80
433.82	323.86
434.19	327.22
434.56	330.51
434.93	333.63
435.30	336.72
435.68	340.11
436.05	343.45
436.42	346.77
436.79	349.74
437.16	352.93
437.53	356.27
437.90	359.52
438.27	362.78
438.64	366.15
439.01	369.17
439.38	371.79
439.75	374.33
440.13	377.28
440.50	380.09
440.87	382.29
441.24	384.60
441.61	387.12
441.98	388.92
442.35	391.05
442.72	393.25
443.09	395.38
443.46	396.53
443.83	397.21
444.20	397.78
444.57	398.82
444.94	399.15
445.31	399.51
445.68	399.91
446.05	399.93
446.42	399.47
446.79	398.98
447.16	398.48
447.53	398.16
447.90	396.74
448.27	395.31
448.64	393.43
449.01	392.08
449.37	389.80
449.74	387.53
450.11	384.89
450.48	381.97
450.85	378.97
451.22	376.48
451.59	374.12
451.96	371.87
452.33	368.76
452.70	365.99
453.07	362.63
453.43	359.33
453.80	356.16
454.17	352.98
454.54	350.04
454.91	346.82
455.28	343.63
455.65	340.72
456.02	337.84
456.38	335.32
456.75	332.21
457.12	329.56
457.49	326.98
457.86	324.45
458.23	322.28
458.59	319.92
458.96	317.49
459.33	315.31
459.70	313.06
460.07	311.25
460.43	309.25
460.80	307.35
461.17	305.62
461.54	303.79
461.91	302.14
462.27	300.42
462.64	298.97
463.01	297.37
463.38	295.85
463.74	294.26
464.11	292.88
464.48	291.67
464.85	290.33
465.21	289.25
465.58	288.17
465.95	286.88
466.32	285.79
466.68	284.71
467.05	283.62
467.42	282.60
467.78	281.54
468.15	280.50
468.52	279.72
468.88	278.71
469.25	277.83
469.62	277.10
469.98	276.29
470.35	275.56
470.72	274.88
471.08	274.12
471.45	273.49
471.82	272.85
472.18	272.14
472.55	271.63
472.92	271.08
473.28	270.53
473.65	269.96
474.02	269.44
474.38	269.02
474.75	268.68
475.11	268.27
475.48	267.98
475.85	267.72
476.21	267.45
476.58	267.23
476.94	267.09
477.31	266.83
477.67	266.64
478.04	266.48
478.41	266.36
478.77	266.35
479.14	266.24
479.50	266.24
479.87	266.28
480.23	266.32
480.60	266.34
480.96	266.44
481.33	266.63
481.69	266.83
482.06	266.97
482.42	267.08
482.79	267.33
483.15	267.61
483.52	267.96
483.88	268.28
484.25	268.66
484.61	269.02
484.98	269.49
485.34	270.03
485.71	270.59
486.07	271.19
486.44	271.79
486.80	272.49
487.17	273.19
487.53	274.01
487.90	274.86
488.26	275.83
488.62	276.78
488.99	277.80
489.35	278.82
489.72	279.97
490.08	281.21
490.44	282.40
490.81	283.71
491.17	285.07
491.54	286.55
491.90	288.04
492.26	289.67
492.63	291.45
492.99	293.27
493.36	295.19
493.72	297.26
494.08	299.33
494.45	301.59
494.81	304.00
495.17	306.46
495.54	309.08
495.90	311.75
496.26	314.55
496.63	317.55
496.99	320.72
497.35	324.00
497.72	327.45
498.08	331.03
498.44	334.72
498.80	338.74
499.17	342.86
499.53	347.11
499.89	351.53
500.26	356.04
500.62	360.76
500.98	365.77
501.34	370.95
501.71	376.32
502.07	381.84
502.43	387.59
502.79	393.47
503.16	399.69
503.52	406.08
503.88	412.65
504.24	419.33
504.60	426.27
504.97	433.54
505.33	441.00
505.69	448.87
506.05	456.79
506.41	464.73
506.78	473.02
507.14	481.61
507.50	490.51
507.86	499.70
508.22	509.04
508.59	518.45
508.95	528.10
509.31	538.09
509.67	548.40
510.03	558.83
510.39	569.56
510.75	580.50
511.12	591.63
511.48	603.11
511.84	614.86
512.20	626.57
512.56	638.72
512.92	651.03
513.28	663.68
513.64	676.48
514.00	689.51
514.37	702.70
514.73	716.00
515.09	729.27
515.45	742.88
515.81	756.81
516.17	771.02
516.53	785.50
516.89	800.06
517.25	814.50
517.61	829.18
517.97	844.04
518.33	858.76
518.69	873.85
519.05	889.13
519.41	904.58
519.77	920.51
520.13	936.26
520.49	952.17
520.85	967.78
521.21	983.76
521.57	1000.42
521.93	1016.58
522.29	1033.30
522.65	1050.06
523.01	1066.54
523.37	1083.00
523.73	1099.62
524.09	1116.14
524.45	1132.78
524.81	1149.83
525.17	1167.05
525.53	1184.32
525.89	1201.63
526.25	1218.84
526.61	1235.78
526.97	1253.05
527.33	1270.03
527.68	1287.23
528.04	1304.17
528.40	1321.39
528.76	1339.02
529.12	1356.07
529.48	1373.48
529.84	1390.12
530.20	1407.17
530.56	1424.92
530.91	1442.89
531.27	1460.22
531.63	1477.35
531.99	1494.56
532.35	1511.29
532.71	1527.91
533.07	1544.95
533.42	1561.67
533.78	1578.68
534.14	1595.64
534.50	1611.78
534.86	1628.29
535.21	1644.17
535.57	1660.81
535.93	1677.00
536.29	1692.49
536.65	1708.39
537.00	1723.88
537.36	1740.10
537.72	1755.47
538.08	1770.56
538.44	1785.03
538.79	1799.88
539.15	1814.15
539.51	1828.69
539.87	1843.92
540.22	1858.52
540.58	1873.00
540.94	1887.10
541.29	1900.59
541.65	1914.11
542.01	1928.10
542.37	1941.38
542.72	1954.65
543.08	1967.49
543.44	1980.80
543.79	1993.00
544.15	2004.83
544.51	2017.42
544.87	2029.23
545.22	2041.20
545.58	2052.46
545.94	2063.41
546.29	2074.28
546.65	2085.26
547.01	2095.69
547.36	2105.29
547.72	2114.69
548.07	2123.71
548.43	2133.05
548.79	2141.91
549.14	2150.62
549.50	2158.94
549.86	2167.48
550.21	2175.66
550.57	2183.63
550.92	2191.24
551.28	2199.32
551.64	2207.35
551.99	2214.91
552.35	2222.00
552.70	2228.95
553.06	2235.91
553.41	2243.33
553.77	2249.98
554.13	2257.09
554.48	2264.12
554.84	2270.81
555.19	2277.02
555.55	2283.04
555.90	2288.41
556.26	2294.48
556.61	2299.99
556.97	2305.38
557.32	2310.61
557.68	2315.74
558.03	2320.95
558.39	2325.42
558.74	2330.96
559.10	2335.79
559.45	2340.17
559.81	2345.33
560.16	2350.02
560.52	2354.13
560.87	2358.18
561.23	2362.00
561.58	2365.48
561.94	2368.86
562.29	2371.71
562.64	2375.46
563.00	2378.82
563.35	2383.06
563.71	2387.09
564.06	2390.94
564.42	2394.60
564.77	2397.97
565.12	2401.38
565.48	2404.18
565.83	2407.01
566.19	2409.30
566.54	2410.81
566.89	2412.85
567.25	2414.35
567.60	2416.33
567.96	2418.84
568.31	2420.38
568.66	2422.19
569.02	2423.59
569.37	2424.54
569.72	2426.17
570.08	2426.96
570.43	2427.47
570.78	2427.48
571.14	2426.34
571.49	2425.46
571.84	2425.39
572.20	2424.78
572.55	2424.02
572.90	2422.68
573.26	2421.81
573.61	2420.40
573.96	2419.28
574.31	2416.52
574.67	2413.73
575.02	2410.40
575.37	2407.22
575.72	2403.83
576.08	2400.48
576.43	2397.16
576.78	2394.00
577.13	2390.98
577.49	2387.81
577.84	2384.79
578.19	2381.14
578.54	2377.86
578.90	2374.12
579.25	2368.77
579.60	2364.01
579.95	2359.13
580.30	2354.32
580.66	2349.18
581.01	2344.13
581.36	2339.11
581.71	2335.33
582.06	2331.25
582.42	2327.17
582.77	2321.89
583.12	2317.35
583.47	2313.02
583.82	2308.50
584.17	2303.01
584.53	2297.63
584.88	2292.14
585.23	2286.37
585.58	2280.82
585.93	2275.17
586.28	2270.08
586.63	2265.10
586.98	2259.80
587.34	2255.01
587.69	2249.96
588.04	2244.78
588.39	2239.14
588.74	2232.46
589.09	2225.92
589.44	2218.85
589.79	2212.25
590.14	2206.28
590.49	2199.47
590.84	2192.56
591.19	2186.28
591.54	2179.57
591.89	2172.00
592.25	2165.09
592.60	2157.52
592.95	2149.82
593.30	2142.20
593.65	2134.34
594.00	2126.78
594.35	2119.17
594.70	2110.61
595.05	2103.32
595.40	2095.45
595.75	2087.46
596.10	2081.15
596.45	2074.27
596.80	2067.67
597.15	2060.78
597.50	2053.83
597.85	2046.99
598.19	2039.96
598.54	2032.66
598.89	2025.79
599.24	2019.46
599.59	2012.51
599.94	2005.79
600.29	1999.08
600.64	1992.12
600.99	1984.31
601.34	1977.33
601.69	1969.92
602.04	1962.88
602.39	1954.94
602.74	1947.86
603.08	1940.86
603.43	1933.57
603.78	1925.78
604.13	1918.16
604.48	1910.69
604.83	1903.17
605.18	1896.07
605.53	1887.89
605.87	1879.19
606.22	1871.36
606.57	1862.83
606.92	1854.61
607.27	1847.16
607.62	1839.80
607.96	1832.12
608.31	1825.35
608.66	1817.25
609.01	1809.26
609.36	1801.22
609.70	1792.78
610.05	1784.05
610.40	1775.73
610.75	1766.96
611.10	1758.72
611.44	1749.67
611.79	1740.86
612.14	1731.62
612.49	1721.61
612.83	1712.40
613.18	1703.63
613.53	1694.84
613.88	1685.68
614.22	1676.83
614.57	1667.45
614.92	1658.72
615.27	1650.71
615.61	1641.62
615.96	1632.86
616.31	1624.43
616.65	1616.33
617.00	1608.13
617.35	1599.80
617.70	1590.85
618.04	1581.72
618.39	1572.69
618.74	1564.47
619.08	1555.57
619.43	1547.28
619.78	1539.71
620.12	1532.07
620.47	1523.89
620.82	1515.01
621.16	1506.81
621.51	1498.48
621.85	1490.14
622.20	1480.97
622.55	1471.65
622.89	1463.02
623.24	1454.63
623.59	1446.57
623.93	1438.39
624.28	1430.45
624.62	1422.31
624.97	1414.42
625.32	1406.78
625.66	1399.13
626.01	1391.28
626.35	1383.29
626.70	1374.86
627.04	1366.50
627.39	1358.01
627.73	1349.94
628.08	1342.46
628.43	1334.72
628.77	1326.96
629.12	1318.82
629.46	1311.01
629.81	1302.94
630.15	1295.13
630.50	1287.10
630.84	1278.42
631.19	1269.75
631.53	1261.51
631.88	1253.38
632.22	1245.16
632.57	1237.25
632.91	1229.14
633.26	1221.19
633.60	1213.07
633.95	1205.24
634.29	1197.46
634.64	1190.07
634.98	1182.24
635.32	1174.57
635.67	1167.35
636.01	1159.99
636.36	1152.76
636.70	1145.75
637.05	1138.64
637.39	1131.56
637.73	1124.68
638.08	1118.24
638.42	1111.81
638.77	1104.86
639.11	1097.83
639.45	1090.97
639.80	1083.92
640.14	1077.03
640.49	1070.08
640.83	1063.26
641.17	1056.65
641.52	1049.95
641.86	1043.07
642.20	1036.69
642.55	1029.74
642.89	1022.89
643.23	1015.80
643.58	1009.49
643.92	1002.76
644.26	996.44
644.61	989.92
644.95	983.43
645.29	976.45
645.64	969.15
645.98	962.34
646.32	955.79
646.66	949.30
647.01	943.02
647.35	936.91
647.69	930.57
648.04	924.64
648.38	918.55
648.72	912.18
649.06	905.69
649.41	899.27
649.75	892.94
650.09	886.53
650.43	880.33
650.78	873.75
651.12	867.37
651.46	861.05
651.80	855.05
652.14	849.22
652.49	843.41
652.83	837.92
653.17	832.01
653.51	826.04
653.85	820.19
654.20	814.21
654.54	807.78
654.88	801.60
655.22	795.27
655.56	789.08
655.90	783.05
656.25	777.46
656.59	771.87
656.93	766.47
657.27	760.98
657.61	755.23
657.95	749.75
658.29	744.26
658.64	738.61
658.98	732.79
659.32	726.97
659.66	721.37
660.00	715.78
660.34	710.43
660.68	705.16
661.02	699.79
661.36	694.71
661.70	689.80
662.05	685.11
662.39	680.51
662.73	675.71
663.07	671.09
663.41	666.33
663.75	661.47
664.09	656.59
664.43	651.82
664.77	647.43
665.11	642.88
665.45	638.48
665.79	634.21
666.13	629.90
666.47	625.46
666.81	621.06
667.15	616.59
667.49	612.42
667.83	608.26
668.17	604.03
668.51	599.71
668.85	595.39
669.19	591.22
669.53	587.11
669.87	583.02
670.21	579.11
670.55	575.11
670.89	571.35
671.23	567.64
671.57	563.85
671.91	560.11
672.25	556.35
672.58	552.52
672.92	548.82
673.26	545.32
673.60	541.91
673.94	538.59
674.28	535.45
674.62	532.21
674.96	528.88
675.30	525.83
675.64	522.74
675.97	519.75
676.31	516.70
676.65	513.57
676.99	510.60
677.33	507.42
677.67	504.46
678.01	501.27
678.34	498.15
678.68	495.08
679.02	492.01
679.36	489.04
679.70	486.11
680.04	483.18
680.37	480.16
680.71	477.19
681.05	474.36
681.39	471.47
681.73	468.66
682.06	466.00
682.40	463.29
682.74	460.56
683.08	457.88
683.42	455.06
683.75	452.39
684.09	449.62
684.43	447.07
684.77	444.46
685.10	441.92
685.44	439.37
685.78	436.91
686.12	434.47
686.45	432.02
686.79	429.65
687.13	427.26
687.46	424.89
687.80	422.54
688.14	420.08
688.48	417.87
688.81	415.49
689.15	413.15
689.49	410.78
689.82	408.50
690.16	406.17
690.50	404.10
690.83	402.01
691.17	399.87
691.51	397.79
691.84	395.79
692.18	393.76
692.52	391.73
692.85	389.61
693.19	387.64
693.52	385.65
693.86	383.67
694.20	381.73
694.53	379.78
694.87	377.83
695.21	375.92
695.54	373.95
695.88	372.07
696.21	370.17
696.55	368.36
696.88	366.53
697.22	364.75
697.56	362.95
697.89	361.16
698.23	359.50
698.56	357.76
698.90	356.03
699.23	354.25
699.57	352.55
699.90	350.89
700.24	349.19
700.58	347.58
700.91	346.01
701.25	344.44
701.58	343.05
701.92	341.60
702.25	340.09
702.59	338.66
702.92	337.23
703.26	335.87
703.59	334.50
703.93	333.27
704.26	331.95
704.60	330.58
704.93	329.23
705.26	327.86
705.60	326.57
705.93	325.32
706.27	324.24
706.60	323.07
706.94	321.95
707.27	320.75
707.61	319.62
707.94	318.43
708.27	317.27
708.61	316.00
708.94	314.87
709.28	313.81
709.61	312.74
709.94	311.68
710.28	310.57
710.61	309.44
710.95	308.22
711.28	307.21
711.61	306.16
711.95	305.15
712.28	304.10
712.61	303.05
712.95	301.99
713.28	300.98
713.61	300.01
713.95	299.05
714.28	298.10
714.61	297.11
714.95	296.20
715.28	295.30
715.61	294.38
715.95	293.42
716.28	292.49
716.61	291.56
716.95	290.73
717.28	289.90
717.61	289.10
717.94	288.29
718.28	287.42
718.61	286.63
718.94	285.85
719.27	285.17
719.61	284.46
719.94	283.76
720.27	282.97
720.60	282.25
720.94	281.52
721.27	280.86
721.60	280.24
721.93	279.57
722.27	278.92
722.60	278.34
722.93	277.73
723.26	277.17
723.59	276.55
723.93	275.89
724.26	275.29
724.59	274.67
724.92	274.08
725.25	273.55
725.59	273.03
725.92	272.49
726.25	271.91
726.58	271.38
726.91	270.84
727.24	270.35
727.57	269.81
727.91	269.26
728.24	268.75
728.57	268.20
728.90	267.72
729.23	267.21
729.56	266.72
729.89	266.20
730.22	265.68
730.55	265.17
730.89	264.70
731.22	264.22
731.55	263.74
731.88	263.28
732.21	262.82
732.54	262.29
732.87	261.82
733.20	261.39
733.53	260.96
733.86	260.57
734.19	260.12
734.52	259.74
734.85	259.40
735.18	258.97
735.51	258.55
735.84	258.16
736.17	257.79
736.50	257.35
736.83	257.10
737.16	256.76
737.49	256.43
737.82	256.04
738.15	255.67
738.48	255.30
738.81	254.97
739.14	254.63
739.47	254.33
739.80	254.02
740.13	253.68
740.46	253.32
740.79	252.95
741.12	252.60
741.45	252.24
741.78	251.86
742.11	251.53
742.44	251.22
742.77	250.89
743.10	250.53
743.43	250.20
743.75	249.78
744.08	249.59
744.41	249.28
744.74	249.01
745.07	248.72
745.40	248.45
745.73	248.17
746.06	247.84
746.39	247.56
746.71	247.22
747.04	246.92
747.37	246.57
747.70	246.28
748.03	246.01
748.36	245.75
748.68	245.47
749.01	245.19
749.34	244.91
749.67	244.64
750.00	244.42
750.33	244.23
750.65	243.99
750.98	243.62
751.31	243.35
751.64	243.09
751.97	242.90
752.29	242.64
752.62	242.38
752.95	242.15
753.28	241.88
753.60	241.69
753.93	241.49
754.26	241.33
754.59	241.08
754.91	240.85
755.24	240.61
755.57	240.41
755.90	240.20
756.22	240.04
756.55	239.82
756.88	239.61
757.20	239.35
757.53	239.14
757.86	238.99
758.19	238.81
758.51	238.63
758.84	238.40
759.17	238.25
759.49	238.09
759.82	237.93
760.15	237.80
760.47	237.62
760.80	237.44
761.13	237.28
761.45	237.15
761.78	237.01
762.11	236.88
762.43	236.73
762.76	236.59
763.08	236.42
763.41	236.29
763.74	236.13
764.06	236.00
764.39	235.85
764.71	235.65
765.04	235.54
765.37	235.42
765.69	235.27
766.02	235.12
766.34	234.99
766.67	234.86
767.00	234.76
767.32	234.69
767.65	234.62
767.97	234.52
768.30	234.38
768.62	234.31
768.95	234.20
769.27	234.09
769.60	233.98
769.92	233.87
770.25	233.75
770.57	233.65
770.90	233.56
771.22	233.43
771.55	233.37
771.87	233.28
772.20	233.18
772.52	233.18
772.85	233.20
773.17	233.12
773.50	233.03
773.82	232.91
774.15	232.79
774.47	232.70
774.80	232.61
775.12	232.54
775.45	232.41
775.77	232.32
776.09	232.23
776.42	232.15
776.74	232.09
777.07	232.02
777.39	231.95
777.72	231.84
778.04	231.81
778.36	231.72
778.69	231.65
779.01	231.59
779.33	231.43
779.66	231.25
779.98	231.16
780.31	231.09
780.63	231.09
780.95	231.02
781.28	230.89
781.60	230.81
781.92	230.74
782.25	230.71
782.57	230.61
782.89	230.61
783.22	230.56
783.54	230.50
783.86	230.43
784.19	230.38
784.51	230.38
784.83	230.31
785.16	230.25
785.48	230.21
785.80	230.15
786.12	230.10
786.45	230.07
786.77	230.02
