SpectraSuite Data File
++++++++++++++++++++++++++++++++++++
Date: Fri Feb 01 16:11:30 EST 2013
User: group
Dark Spectrum Present: No
Reference Spectrum Present: No
Number of Sampled Component Spectra: 1
Spectrometers: USB2E7196
Integration Time (usec): 35000 (USB2E7196)
Spectra Averaged: 100 (USB2E7196)
Boxcar Smoothing: 10 (USB2E7196)
Correct for Electrical Dark: No (USB2E7196)
Strobe/Lamp Enabled: No (USB2E7196)
Correct for Detector Non-linearity: No (USB2E7196)
Correct for Stray Light: No (USB2E7196)
Number of Pixels in Processed Spectrum: 2048
>>>>>Begin Processed Spectral Data<<<<<
339.09	0.00
339.48	214.39
339.86	215.29
340.24	217.22
340.63	218.21
341.01	221.19
341.39	221.00
341.78	222.79
342.16	223.33
342.54	224.14
342.93	212.56
343.31	223.31
343.69	223.85
344.07	224.33
344.46	224.75
344.84	225.12
345.22	225.37
345.60	225.64
345.99	225.79
346.37	225.94
346.75	226.04
347.13	226.09
347.52	226.16
347.90	226.23
348.28	226.24
348.66	226.31
349.05	226.32
349.43	226.33
349.81	226.37
350.19	226.42
350.57	226.46
350.96	226.55
351.34	226.64
351.72	226.70
352.10	226.80
352.48	226.86
352.87	226.93
353.25	226.99
353.63	227.03
354.01	227.13
354.39	227.20
354.77	227.29
355.15	227.40
355.54	227.45
355.92	227.51
356.30	227.58
356.68	227.69
357.06	227.75
357.44	227.81
357.82	227.88
358.20	227.95
358.58	228.03
358.97	228.07
359.35	228.15
359.73	228.25
360.11	228.27
360.49	228.32
360.87	228.38
361.25	228.42
361.63	228.49
362.01	228.50
362.39	228.51
362.77	228.53
363.15	228.55
363.53	228.61
363.91	228.63
364.29	228.67
364.67	228.60
365.05	228.64
365.43	228.68
365.81	228.71
366.19	228.76
366.57	228.81
366.95	228.80
367.33	228.78
367.71	228.73
368.09	228.76
368.47	228.77
368.85	228.75
369.23	228.80
369.61	228.75
369.99	228.78
370.37	228.79
370.75	228.82
371.13	228.76
371.51	228.69
371.89	228.65
372.27	228.62
372.65	228.58
373.03	228.51
373.41	228.46
373.78	228.39
374.16	228.27
374.54	228.17
374.92	228.11
375.30	228.08
375.68	228.03
376.06	227.98
376.44	227.90
376.82	227.84
377.19	227.72
377.57	227.66
377.95	227.56
378.33	227.49
378.71	227.37
379.09	227.31
379.47	227.28
379.84	227.21
380.22	227.15
380.60	227.05
380.98	227.00
381.36	226.93
381.73	226.89
382.11	226.87
382.49	226.81
382.87	226.76
383.25	226.66
383.62	226.72
384.00	226.61
384.38	226.58
384.76	226.56
385.13	226.58
385.51	226.54
385.89	226.48
386.27	226.46
386.64	226.44
387.02	226.42
387.40	226.39
387.78	226.33
388.15	226.31
388.53	226.29
388.91	226.27
389.29	226.24
389.66	226.17
390.04	226.15
390.42	226.15
390.79	226.15
391.17	226.14
391.55	226.03
391.92	226.07
392.30	226.09
392.68	226.09
393.05	226.08
393.43	226.06
393.81	226.10
394.18	226.06
394.56	226.08
394.94	226.12
395.31	226.12
395.69	226.21
396.06	226.21
396.44	226.25
396.82	226.27
397.19	226.37
397.57	226.41
397.95	226.47
398.32	226.51
398.70	226.52
399.07	226.61
399.45	226.66
399.82	226.70
400.20	226.79
400.58	226.83
400.95	226.87
401.33	226.99
401.70	227.13
402.08	227.25
402.45	227.32
402.83	227.41
403.20	227.51
403.58	227.58
403.95	227.72
404.33	227.85
404.71	228.00
405.08	228.13
405.46	228.27
405.83	228.42
406.21	228.56
406.58	228.73
406.96	228.88
407.33	229.03
407.70	229.21
408.08	229.42
408.45	229.62
408.83	229.85
409.20	230.03
409.58	230.20
409.95	230.45
410.33	230.71
410.70	230.94
411.08	231.26
411.45	231.55
411.82	231.85
412.20	232.19
412.57	232.58
412.95	232.90
413.32	233.32
413.69	233.70
414.07	234.10
414.44	234.59
414.82	235.05
415.19	235.62
415.56	236.18
415.94	236.73
416.31	237.34
416.68	237.97
417.06	238.70
417.43	239.39
417.81	240.13
418.18	240.92
418.55	241.78
418.93	242.63
419.30	243.53
419.67	244.49
420.04	245.43
420.42	246.42
420.79	247.60
421.16	248.74
421.54	249.94
421.91	251.17
422.28	252.41
422.66	253.78
423.03	255.09
423.40	256.43
423.77	257.84
424.15	259.26
424.52	260.76
424.89	262.38
425.26	263.93
425.64	265.39
426.01	266.98
426.38	268.61
426.75	270.26
427.13	272.02
427.50	273.80
427.87	275.68
428.24	277.56
428.61	279.31
428.99	281.26
429.36	283.38
429.73	285.42
430.10	287.43
430.47	289.44
430.85	291.52
431.22	293.75
431.59	296.08
431.96	298.37
432.33	300.81
432.70	303.19
433.08	305.99
433.45	308.62
433.82	311.21
434.19	314.10
434.56	316.94
434.93	319.54
435.30	322.09
435.68	324.98
436.05	327.79
436.42	330.56
436.79	333.09
437.16	335.77
437.53	338.63
437.90	341.45
438.27	344.20
438.64	347.04
439.01	349.67
439.38	351.98
439.75	354.15
440.13	356.63
440.50	358.94
440.87	360.78
441.24	362.73
441.61	364.91
441.98	366.33
442.35	368.13
442.72	369.98
443.09	371.87
443.46	372.85
443.83	373.43
444.20	373.97
444.57	374.72
444.94	374.96
445.31	375.26
445.68	375.59
446.05	375.67
446.42	375.26
446.79	374.74
447.16	374.24
447.53	373.88
447.90	372.70
448.27	371.51
448.64	369.90
449.01	368.75
449.37	366.77
449.74	364.96
450.11	362.70
450.48	360.26
450.85	357.68
451.22	355.56
451.59	353.53
451.96	351.59
452.33	349.06
452.70	346.73
453.07	343.90
453.43	341.01
453.80	338.22
454.17	335.53
454.54	333.07
454.91	330.35
455.28	327.70
455.65	325.26
456.02	322.87
456.38	320.76
456.75	318.09
457.12	315.80
457.49	313.55
457.86	311.40
458.23	309.52
458.59	307.52
458.96	305.44
459.33	303.58
459.70	301.68
460.07	300.15
460.43	298.43
460.80	296.81
461.17	295.40
461.54	293.91
461.91	292.54
462.27	291.06
462.64	289.82
463.01	288.43
463.38	287.15
463.74	285.76
464.11	284.63
464.48	283.59
464.85	282.53
465.21	281.64
465.58	280.75
465.95	279.68
466.32	278.76
466.68	277.87
467.05	277.00
467.42	276.09
467.78	275.17
468.15	274.32
468.52	273.67
468.88	272.81
469.25	272.07
469.62	271.46
469.98	270.81
470.35	270.19
470.72	269.64
471.08	268.99
471.45	268.46
471.82	267.93
472.18	267.39
472.55	266.97
472.92	266.46
473.28	265.98
473.65	265.52
474.02	265.08
474.38	264.70
474.75	264.39
475.11	264.07
475.48	263.84
475.85	263.64
476.21	263.41
476.58	263.24
476.94	263.10
477.31	262.91
477.67	262.80
478.04	262.69
478.41	262.61
478.77	262.64
479.14	262.59
479.50	262.59
479.87	262.68
480.23	262.75
480.60	262.86
480.96	262.96
481.33	263.22
481.69	263.41
482.06	263.63
482.42	263.82
482.79	264.08
483.15	264.41
483.52	264.80
483.88	265.15
484.25	265.54
484.61	265.98
484.98	266.44
485.34	266.95
485.71	267.51
486.07	268.10
486.44	268.67
486.80	269.38
487.17	270.09
487.53	270.89
487.90	271.71
488.26	272.64
488.62	273.56
488.99	274.53
489.35	275.58
489.72	276.66
490.08	277.83
490.44	279.04
490.81	280.36
491.17	281.67
491.54	283.16
491.90	284.69
492.26	286.31
492.63	288.04
492.99	289.81
493.36	291.72
493.72	293.79
494.08	295.92
494.45	298.12
494.81	300.45
495.17	302.85
495.54	305.43
495.90	308.10
496.26	310.92
496.63	313.86
496.99	316.98
497.35	320.32
497.72	323.77
498.08	327.34
498.44	331.03
498.80	334.97
499.17	339.01
499.53	343.17
499.89	347.57
500.26	352.05
500.62	356.72
500.98	361.72
501.34	366.81
501.71	372.12
502.07	377.61
502.43	383.31
502.79	389.16
503.16	395.28
503.52	401.54
503.88	407.98
504.24	414.57
504.60	421.45
504.97	428.57
505.33	435.85
505.69	443.54
506.05	451.33
506.41	459.20
506.78	467.41
507.14	475.86
507.50	484.59
507.86	493.65
508.22	502.91
508.59	512.14
508.95	521.78
509.31	531.63
509.67	541.67
510.03	551.92
510.39	562.49
510.75	573.26
511.12	584.23
511.48	595.55
511.84	607.05
512.20	618.61
512.56	630.58
512.92	642.79
513.28	655.19
513.64	667.65
514.00	680.36
514.37	693.26
514.73	706.39
515.09	719.38
515.45	732.70
515.81	746.29
516.17	760.32
516.53	774.38
516.89	788.54
517.25	802.79
517.61	817.28
517.97	831.69
518.33	846.18
518.69	860.90
519.05	875.75
519.41	890.87
519.77	906.36
520.13	921.71
520.49	937.13
520.85	952.44
521.21	968.09
521.57	984.32
521.93	1000.06
522.29	1016.39
522.65	1032.63
523.01	1048.79
523.37	1064.82
523.73	1080.81
524.09	1096.96
524.45	1113.27
524.81	1129.84
525.17	1146.51
525.53	1163.40
525.89	1180.08
526.25	1196.84
526.61	1213.25
526.97	1230.02
527.33	1246.50
527.68	1263.07
528.04	1279.46
528.40	1296.06
528.76	1313.09
529.12	1329.52
529.48	1346.34
529.84	1362.23
530.20	1378.81
530.56	1395.74
530.91	1413.03
531.27	1429.79
531.63	1446.18
531.99	1462.64
532.35	1478.61
532.71	1494.42
533.07	1510.56
533.42	1526.53
533.78	1542.58
534.14	1558.80
534.50	1573.99
534.86	1589.69
535.21	1604.81
535.57	1620.65
535.93	1636.06
536.29	1650.73
536.65	1665.85
537.00	1680.37
537.36	1695.60
537.72	1710.04
538.08	1724.48
538.44	1738.19
538.79	1752.07
539.15	1765.52
539.51	1779.21
539.87	1793.45
540.22	1807.12
540.58	1820.84
540.94	1833.91
541.29	1846.66
541.65	1859.24
542.01	1872.39
542.37	1884.75
542.72	1897.14
543.08	1908.83
543.44	1921.15
543.79	1932.43
544.15	1943.22
544.51	1954.96
544.87	1965.90
545.22	1976.68
545.58	1986.84
545.94	1996.67
546.29	2006.32
546.65	2016.24
547.01	2025.56
547.36	2034.28
547.72	2042.75
548.07	2050.65
548.43	2058.92
548.79	2066.92
549.14	2074.49
549.50	2081.80
549.86	2089.40
550.21	2096.66
550.57	2103.89
550.92	2110.42
551.28	2117.37
551.64	2124.57
551.99	2131.03
552.35	2137.17
552.70	2143.40
553.06	2149.40
553.41	2155.70
553.77	2161.83
554.13	2167.92
554.48	2173.80
554.84	2179.26
555.19	2184.40
555.55	2189.48
555.90	2194.05
556.26	2199.00
556.61	2203.73
556.97	2208.10
557.32	2212.28
557.68	2216.35
558.03	2220.57
558.39	2224.30
558.74	2229.01
559.10	2232.86
559.45	2236.43
559.81	2240.79
560.16	2244.51
560.52	2247.69
560.87	2251.14
561.23	2253.76
561.58	2256.54
561.94	2259.11
562.29	2261.29
562.64	2264.11
563.00	2266.77
563.35	2270.25
563.71	2273.36
564.06	2276.54
564.42	2279.38
564.77	2281.80
565.12	2284.31
565.48	2286.40
565.83	2288.33
566.19	2289.68
566.54	2290.50
566.89	2291.77
567.25	2292.49
567.60	2293.78
567.96	2295.56
568.31	2296.30
568.66	2297.51
569.02	2298.15
569.37	2298.60
569.72	2299.65
570.08	2299.98
570.43	2300.06
570.78	2299.34
571.14	2297.90
571.49	2296.56
571.84	2296.33
572.20	2295.29
572.55	2294.19
572.90	2292.39
573.26	2291.08
573.61	2289.28
573.96	2287.70
574.31	2284.71
574.67	2281.62
575.02	2278.08
575.37	2274.50
575.72	2270.74
576.08	2267.35
576.43	2264.04
576.78	2260.39
577.13	2257.20
577.49	2253.92
577.84	2250.43
578.19	2246.66
578.54	2243.04
578.90	2238.90
579.25	2233.31
579.60	2228.41
579.95	2223.33
580.30	2218.47
580.66	2213.23
581.01	2208.45
581.36	2203.44
581.71	2199.31
582.06	2194.86
582.42	2190.47
582.77	2185.42
583.12	2180.97
583.47	2176.38
583.82	2171.55
584.17	2166.41
584.53	2160.94
584.88	2155.48
585.23	2149.72
585.58	2144.45
585.93	2138.84
586.28	2133.96
586.63	2128.93
586.98	2123.90
587.34	2119.29
587.69	2114.35
588.04	2109.09
588.39	2103.38
588.74	2097.05
589.09	2090.82
589.44	2084.18
589.79	2078.08
590.14	2072.35
590.49	2065.72
590.84	2059.21
591.19	2053.13
591.54	2046.65
591.89	2039.34
592.25	2032.50
592.60	2025.25
592.95	2017.68
593.30	2010.50
593.65	2003.02
594.00	1995.88
594.35	1988.59
594.70	1980.51
595.05	1973.40
595.40	1966.14
595.75	1958.61
596.10	1952.42
596.45	1945.95
596.80	1939.78
597.15	1933.17
597.50	1926.24
597.85	1919.76
598.19	1913.32
598.54	1906.25
598.89	1899.62
599.24	1893.73
599.59	1887.19
599.94	1880.97
600.29	1874.70
600.64	1868.17
600.99	1860.84
601.34	1854.05
601.69	1847.05
602.04	1840.11
602.39	1832.90
602.74	1826.12
603.08	1819.53
603.43	1812.82
603.78	1805.45
604.13	1798.25
604.48	1791.10
604.83	1784.15
605.18	1777.37
605.53	1769.35
605.87	1761.29
606.22	1754.08
606.57	1746.15
606.92	1738.68
607.27	1731.66
607.62	1724.81
607.96	1717.52
608.31	1711.01
608.66	1703.48
609.01	1696.06
609.36	1688.59
609.70	1680.49
610.05	1672.46
610.40	1664.80
610.75	1656.46
611.10	1648.85
611.44	1640.31
611.79	1632.34
612.14	1623.79
612.49	1614.42
612.83	1606.01
613.18	1597.96
613.53	1589.86
613.88	1581.30
614.22	1573.04
614.57	1564.41
614.92	1556.37
615.27	1548.93
615.61	1540.43
615.96	1532.49
616.31	1524.80
616.65	1517.45
617.00	1509.91
617.35	1502.26
617.70	1493.82
618.04	1485.33
618.39	1476.97
618.74	1469.49
619.08	1461.05
619.43	1453.45
619.78	1446.71
620.12	1439.64
620.47	1432.20
620.82	1424.06
621.16	1416.69
621.51	1409.05
621.85	1401.31
622.20	1392.75
622.55	1384.24
622.89	1376.44
623.24	1368.80
623.59	1361.42
623.93	1353.96
624.28	1346.73
624.62	1339.19
624.97	1332.02
625.32	1325.17
625.66	1318.11
626.01	1310.99
626.35	1303.60
626.70	1295.84
627.04	1288.06
627.39	1280.06
627.73	1272.52
628.08	1265.59
628.43	1258.37
628.77	1251.10
629.12	1243.61
629.46	1236.51
629.81	1229.03
630.15	1221.79
630.50	1214.40
630.84	1206.23
631.19	1198.19
631.53	1190.62
631.88	1183.03
632.22	1175.44
632.57	1168.14
632.91	1160.63
633.26	1153.09
633.60	1145.70
633.95	1138.45
634.29	1131.30
634.64	1124.77
634.98	1117.52
635.32	1110.36
635.67	1103.55
636.01	1096.84
636.36	1090.03
636.70	1083.37
637.05	1076.83
637.39	1070.37
637.73	1063.77
638.08	1057.85
638.42	1051.93
638.77	1045.51
639.11	1038.94
639.45	1032.50
639.80	1025.87
640.14	1019.57
640.49	1013.10
640.83	1006.80
641.17	1000.73
641.52	994.38
641.86	987.78
642.20	981.81
642.55	975.42
642.89	969.10
643.23	962.59
643.58	956.86
643.92	950.74
644.26	944.78
644.61	938.66
644.95	932.66
645.29	926.07
645.64	919.36
645.98	912.98
646.32	907.07
646.66	901.06
647.01	895.27
647.35	889.44
647.69	883.62
648.04	878.08
648.38	872.21
648.72	866.36
649.06	860.35
649.41	854.44
649.75	848.48
650.09	842.48
650.43	836.66
650.78	830.46
651.12	824.48
651.46	818.70
651.80	813.03
652.14	807.66
652.49	802.40
652.83	797.15
653.17	791.51
653.51	785.91
653.85	780.44
654.20	774.87
654.54	768.87
654.88	763.03
655.22	757.10
655.56	751.38
655.90	745.85
656.25	740.66
656.59	735.32
656.93	730.18
657.27	725.02
657.61	719.61
657.95	714.47
658.29	709.42
658.64	704.07
658.98	698.67
659.32	693.16
659.66	687.89
660.00	682.68
660.34	677.68
660.68	672.71
661.02	667.73
661.36	662.95
661.70	658.47
662.05	654.15
662.39	649.91
662.73	645.51
663.07	641.15
663.41	636.68
663.75	632.25
664.09	627.73
664.43	623.35
664.77	619.30
665.11	615.04
665.45	610.90
665.79	606.87
666.13	602.84
666.47	598.74
666.81	594.57
667.15	590.32
667.49	586.38
667.83	582.53
668.17	578.60
668.51	574.58
668.85	570.53
669.19	566.64
669.53	562.76
669.87	558.84
670.21	555.12
670.55	551.50
670.89	548.06
671.23	544.69
671.57	541.13
671.91	537.56
672.25	534.09
672.58	530.55
672.92	527.14
673.26	523.94
673.60	520.77
673.94	517.66
674.28	514.79
674.62	511.90
674.96	508.79
675.30	505.90
675.64	502.94
675.97	500.13
676.31	497.28
676.65	494.36
676.99	491.66
677.33	488.78
677.67	485.91
678.01	482.91
678.34	479.86
678.68	477.03
679.02	474.22
679.36	471.49
679.70	468.71
680.04	465.96
680.37	463.09
680.71	460.27
681.05	457.68
681.39	454.95
681.73	452.27
682.06	449.79
682.40	447.26
682.74	444.72
683.08	442.15
683.42	439.53
683.75	437.00
684.09	434.42
684.43	432.01
684.77	429.51
685.10	427.14
685.44	424.85
685.78	422.54
686.12	420.24
686.45	417.96
686.79	415.70
687.13	413.56
687.46	411.42
687.80	409.31
688.14	407.09
688.48	405.03
688.81	402.81
689.15	400.62
689.49	398.43
689.82	396.37
690.16	394.34
690.50	392.43
690.83	390.53
691.17	388.58
691.51	386.68
691.84	384.88
692.18	382.92
692.52	380.96
692.85	379.01
693.19	377.15
693.52	375.26
693.86	373.44
694.20	371.61
694.53	369.81
694.87	367.95
695.21	366.13
695.54	364.29
695.88	362.55
696.21	360.87
696.55	359.22
696.88	357.51
697.22	355.81
697.56	354.23
697.89	352.55
698.23	350.96
698.56	349.31
698.90	347.75
699.23	346.13
699.57	344.54
699.90	343.02
700.24	341.47
700.58	339.96
700.91	338.48
701.25	337.00
701.58	335.63
701.92	334.27
702.25	332.88
702.59	331.52
702.92	330.21
703.26	328.89
703.59	327.63
703.93	326.46
704.26	325.23
704.60	323.88
704.93	322.58
705.26	321.32
705.60	320.15
705.93	318.95
706.27	317.89
706.60	316.83
706.94	315.72
707.27	314.61
707.61	313.53
707.94	312.52
708.27	311.45
708.61	310.35
708.94	309.33
709.28	308.33
709.61	307.38
709.94	306.39
710.28	305.38
710.61	304.35
710.95	303.25
711.28	302.35
711.61	301.41
711.95	300.55
712.28	299.60
712.61	298.63
712.95	297.67
713.28	296.77
713.61	295.90
713.95	295.01
714.28	294.14
714.61	293.29
714.95	292.38
715.28	291.55
715.61	290.68
715.95	289.79
716.28	288.92
716.61	288.10
716.95	287.28
717.28	286.50
717.61	285.76
717.94	285.05
718.28	284.23
718.61	283.48
718.94	282.76
719.27	282.09
719.61	281.42
719.94	280.80
720.27	280.11
720.60	279.46
720.94	278.87
721.27	278.30
721.60	277.69
721.93	277.13
722.27	276.55
722.60	276.00
722.93	275.46
723.26	274.97
723.59	274.40
723.93	273.83
724.26	273.28
724.59	272.71
724.92	272.18
725.25	271.70
725.59	271.18
725.92	270.68
726.25	270.18
726.58	269.70
726.91	269.15
727.24	268.64
727.57	268.17
727.91	267.62
728.24	267.14
728.57	266.67
728.90	266.20
729.23	265.72
729.56	265.31
729.89	264.82
730.22	264.31
730.55	263.86
730.89	263.45
731.22	263.03
731.55	262.58
731.88	262.15
732.21	261.72
732.54	261.34
732.87	260.90
733.20	260.50
733.53	260.14
733.86	259.77
734.19	259.40
734.52	258.99
734.85	258.71
735.18	258.31
735.51	257.94
735.84	257.60
736.17	257.29
736.50	256.86
736.83	256.68
737.16	256.33
737.49	256.01
737.82	255.62
738.15	255.33
738.48	255.02
738.81	254.67
739.14	254.36
739.47	254.01
739.80	253.72
740.13	253.39
740.46	253.08
740.79	252.79
741.12	252.49
741.45	252.18
741.78	251.85
742.11	251.55
742.44	251.23
742.77	250.91
743.10	250.58
743.43	250.28
743.75	249.88
744.08	249.76
744.41	249.51
744.74	249.28
745.07	248.97
745.40	248.71
745.73	248.47
746.06	248.16
746.39	247.90
746.71	247.62
747.04	247.35
747.37	247.04
747.70	246.78
748.03	246.52
748.36	246.28
748.68	246.00
749.01	245.73
749.34	245.51
749.67	245.27
750.00	245.06
750.33	244.91
750.65	244.67
750.98	244.36
751.31	244.14
751.64	243.90
751.97	243.71
752.29	243.49
752.62	243.23
752.95	243.02
753.28	242.79
753.60	242.57
753.93	242.41
754.26	242.20
754.59	241.97
754.91	241.76
755.24	241.52
755.57	241.34
755.90	241.17
756.22	240.93
756.55	240.74
756.88	240.53
757.20	240.25
757.53	240.07
757.86	239.86
758.19	239.67
758.51	239.50
758.84	239.28
759.17	239.09
759.49	238.96
759.82	238.87
760.15	238.72
760.47	238.57
760.80	238.40
761.13	238.29
761.45	238.12
761.78	237.99
762.11	237.90
762.43	237.74
762.76	237.59
763.08	237.47
763.41	237.35
763.74	237.21
764.06	237.11
764.39	236.97
764.71	236.84
765.04	236.71
765.37	236.58
765.69	236.46
766.02	236.33
766.34	236.17
766.67	236.00
767.00	235.93
767.32	235.90
767.65	235.84
767.97	235.75
768.30	235.67
768.62	235.53
768.95	235.39
769.27	235.32
769.60	235.25
769.92	235.16
770.25	235.03
770.57	234.92
770.90	234.83
771.22	234.72
771.55	234.61
771.87	234.49
772.20	234.42
772.52	234.41
772.85	234.44
773.17	234.37
773.50	234.24
773.82	234.11
774.15	233.96
774.47	233.83
774.80	233.71
775.12	233.65
775.45	233.54
775.77	233.50
776.09	233.37
776.42	233.28
776.74	233.26
777.07	233.20
777.39	233.12
777.72	233.03
778.04	233.01
778.36	232.95
778.69	232.93
779.01	232.86
779.33	232.72
779.66	232.56
779.98	232.51
780.31	232.47
780.63	232.46
780.95	232.42
781.28	232.34
781.60	232.27
781.92	232.20
782.25	232.17
782.57	232.12
782.89	232.11
783.22	232.05
783.54	231.96
783.86	231.90
784.19	231.85
784.51	231.84
784.83	231.75
785.16	231.69
785.48	231.63
785.80	231.58
786.12	231.54
786.45	231.47
786.77	231.41
787.09	231.39
