SpectraSuite Data File
++++++++++++++++++++++++++++++++++++
Date: Fri Feb 01 15:39:19 EST 2013
User: group
Dark Spectrum Present: No
Reference Spectrum Present: No
Number of Sampled Component Spectra: 1
Spectrometers: USB2E7196
Integration Time (usec): 35000 (USB2E7196)
Spectra Averaged: 100 (USB2E7196)
Boxcar Smoothing: 10 (USB2E7196)
Correct for Electrical Dark: No (USB2E7196)
Strobe/Lamp Enabled: No (USB2E7196)
Correct for Detector Non-linearity: No (USB2E7196)
Correct for Stray Light: No (USB2E7196)
Number of Pixels in Processed Spectrum: 2048
>>>>>Begin Processed Spectral Data<<<<<
339.09	0.00
339.48	214.51
339.86	215.90
340.24	217.91
340.63	219.28
341.01	221.96
341.39	221.70
341.78	223.56
342.16	224.54
342.54	225.23
342.93	213.26
343.31	224.04
343.69	224.59
344.07	225.08
344.46	225.49
344.84	225.89
345.22	226.13
345.60	226.41
345.99	226.57
346.37	226.71
346.75	226.82
347.13	226.90
347.52	226.98
347.90	227.08
348.28	227.16
348.66	227.17
349.05	227.16
349.43	227.23
349.81	227.29
350.19	227.34
350.57	227.44
350.96	227.51
351.34	227.59
351.72	227.70
352.10	227.80
352.48	227.89
352.87	227.91
353.25	227.98
353.63	228.03
354.01	228.11
354.39	228.18
354.77	228.24
355.15	228.35
355.54	228.40
355.92	228.43
356.30	228.48
356.68	228.59
357.06	228.69
357.44	228.74
357.82	228.78
358.20	228.87
358.58	228.93
358.97	228.96
359.35	229.03
359.73	229.11
360.11	229.16
360.49	229.22
360.87	229.29
361.25	229.32
361.63	229.38
362.01	229.41
362.39	229.42
362.77	229.45
363.15	229.44
363.53	229.45
363.91	229.48
364.29	229.52
364.67	229.43
365.05	229.41
365.43	229.41
365.81	229.43
366.19	229.44
366.57	229.46
366.95	229.50
367.33	229.46
367.71	229.46
368.09	229.44
368.47	229.39
368.85	229.35
369.23	229.36
369.61	229.31
369.99	229.31
370.37	229.28
370.75	229.27
371.13	229.24
371.51	229.19
371.89	229.13
372.27	229.04
372.65	229.01
373.03	228.98
373.41	228.93
373.78	228.86
374.16	228.76
374.54	228.64
374.92	228.55
375.30	228.47
375.68	228.35
376.06	228.27
376.44	228.17
376.82	228.12
377.19	228.04
377.57	227.95
377.95	227.85
378.33	227.79
378.71	227.68
379.09	227.60
379.47	227.52
379.84	227.44
380.22	227.35
380.60	227.26
380.98	227.15
381.36	227.05
381.73	226.96
382.11	226.88
382.49	226.84
382.87	226.74
383.25	226.66
383.62	226.69
384.00	226.62
384.38	226.61
384.76	226.56
385.13	226.55
385.51	226.51
385.89	226.47
386.27	226.39
386.64	226.35
387.02	226.33
387.40	226.30
387.78	226.28
388.15	226.28
388.53	226.24
388.91	226.23
389.29	226.23
389.66	226.25
390.04	226.21
390.42	226.20
390.79	226.22
391.17	226.21
391.55	226.15
391.92	226.16
392.30	226.19
392.68	226.16
393.05	226.15
393.43	226.16
393.81	226.19
394.18	226.23
394.56	226.24
394.94	226.29
395.31	226.31
395.69	226.38
396.06	226.43
396.44	226.49
396.82	226.53
397.19	226.63
397.57	226.66
397.95	226.77
398.32	226.81
398.70	226.89
399.07	226.97
399.45	227.03
399.82	227.09
400.20	227.16
400.58	227.26
400.95	227.29
401.33	227.42
401.70	227.55
402.08	227.66
402.45	227.75
402.83	227.87
403.20	227.97
403.58	228.10
403.95	228.26
404.33	228.40
404.71	228.52
405.08	228.67
405.46	228.80
405.83	228.92
406.21	229.09
406.58	229.29
406.96	229.45
407.33	229.62
407.70	229.83
408.08	230.07
408.45	230.28
408.83	230.55
409.20	230.74
409.58	230.94
409.95	231.18
410.33	231.47
410.70	231.72
411.08	232.03
411.45	232.32
411.82	232.58
412.20	232.92
412.57	233.32
412.95	233.61
413.32	234.02
413.69	234.44
414.07	234.87
414.44	235.30
414.82	235.82
415.19	236.36
415.56	236.91
415.94	237.42
416.31	238.04
416.68	238.64
417.06	239.33
417.43	240.00
417.81	240.75
418.18	241.50
418.55	242.32
418.93	243.19
419.30	244.05
419.67	244.98
420.04	245.94
420.42	246.93
420.79	248.09
421.16	249.25
421.54	250.42
421.91	251.61
422.28	252.82
422.66	254.14
423.03	255.41
423.40	256.71
423.77	258.19
424.15	259.63
424.52	261.13
424.89	262.75
425.26	264.31
425.64	265.80
426.01	267.41
426.38	269.02
426.75	270.72
427.13	272.46
427.50	274.27
427.87	276.13
428.24	277.98
428.61	279.75
428.99	281.65
429.36	283.77
429.73	285.85
430.10	287.94
430.47	290.02
430.85	292.20
431.22	294.47
431.59	296.78
431.96	299.04
432.33	301.55
432.70	303.91
433.08	306.72
433.45	309.37
433.82	311.97
434.19	314.91
434.56	317.70
434.93	320.40
435.30	323.02
435.68	325.93
436.05	328.79
436.42	331.58
436.79	334.12
437.16	336.87
437.53	339.74
437.90	342.53
438.27	345.26
438.64	348.09
439.01	350.66
439.38	352.90
439.75	355.07
440.13	357.55
440.50	359.90
440.87	361.74
441.24	363.68
441.61	365.82
441.98	367.36
442.35	369.16
442.72	371.00
443.09	372.80
443.46	373.79
443.83	374.40
444.20	374.93
444.57	375.87
444.94	376.11
445.31	376.43
445.68	376.76
446.05	376.84
446.42	376.40
446.79	376.05
447.16	375.64
447.53	375.32
447.90	374.17
448.27	373.04
448.64	371.47
449.01	370.32
449.37	368.38
449.74	366.44
450.11	364.21
450.48	361.72
450.85	359.22
451.22	357.09
451.59	355.05
451.96	353.13
452.33	350.49
452.70	348.14
453.07	345.32
453.43	342.42
453.80	339.65
454.17	337.00
454.54	334.37
454.91	331.64
455.28	328.97
455.65	326.46
456.02	324.01
456.38	321.84
456.75	319.18
457.12	316.89
457.49	314.66
457.86	312.47
458.23	310.62
458.59	308.57
458.96	306.48
459.33	304.60
459.70	302.68
460.07	301.15
460.43	299.43
460.80	297.78
461.17	296.34
461.54	294.85
461.91	293.43
462.27	292.05
462.64	290.81
463.01	289.45
463.38	288.16
463.74	286.78
464.11	285.67
464.48	284.60
464.85	283.52
465.21	282.65
465.58	281.74
465.95	280.61
466.32	279.74
466.68	278.82
467.05	277.93
467.42	277.07
467.78	276.12
468.15	275.24
468.52	274.60
468.88	273.75
469.25	272.98
469.62	272.35
469.98	271.61
470.35	270.96
470.72	270.34
471.08	269.67
471.45	269.12
471.82	268.51
472.18	267.95
472.55	267.49
472.92	266.96
473.28	266.48
473.65	266.04
474.02	265.56
474.38	265.18
474.75	264.88
475.11	264.55
475.48	264.29
475.85	264.07
476.21	263.80
476.58	263.63
476.94	263.48
477.31	263.32
477.67	263.21
478.04	263.10
478.41	263.07
478.77	263.12
479.14	263.05
479.50	263.06
479.87	263.07
480.23	263.17
480.60	263.24
480.96	263.34
481.33	263.55
481.69	263.78
482.06	263.96
482.42	264.11
482.79	264.37
483.15	264.68
483.52	265.07
483.88	265.46
484.25	265.85
484.61	266.26
484.98	266.71
485.34	267.26
485.71	267.86
486.07	268.44
486.44	268.99
486.80	269.71
487.17	270.45
487.53	271.32
487.90	272.17
488.26	273.14
488.62	274.15
488.99	275.09
489.35	276.08
489.72	277.20
490.08	278.41
490.44	279.62
490.81	280.96
491.17	282.30
491.54	283.75
491.90	285.29
492.26	286.92
492.63	288.69
492.99	290.42
493.36	292.29
493.72	294.36
494.08	296.47
494.45	298.72
494.81	301.07
495.17	303.48
495.54	306.03
495.90	308.66
496.26	311.48
496.63	314.50
496.99	317.61
497.35	320.88
497.72	324.30
498.08	327.85
498.44	331.46
498.80	335.37
499.17	339.39
499.53	343.51
499.89	347.86
500.26	352.32
500.62	357.07
500.98	362.04
501.34	367.13
501.71	372.46
502.07	377.93
502.43	383.52
502.79	389.30
503.16	395.42
503.52	401.67
503.88	408.04
504.24	414.64
504.60	421.54
504.97	428.70
505.33	436.02
505.69	443.75
506.05	451.57
506.41	459.49
506.78	467.68
507.14	476.19
507.50	484.92
507.86	493.94
508.22	503.07
508.59	512.29
508.95	521.88
509.31	531.67
509.67	541.74
510.03	552.01
510.39	562.66
510.75	573.47
511.12	584.47
511.48	595.82
511.84	607.30
512.20	618.85
512.56	630.75
512.92	642.91
513.28	655.15
513.64	667.65
514.00	680.25
514.37	693.12
514.73	706.07
515.09	719.17
515.45	732.48
515.81	746.18
516.17	760.19
516.53	774.31
516.89	788.56
517.25	802.73
517.61	817.22
517.97	831.60
518.33	845.90
518.69	860.67
519.05	875.71
519.41	890.95
519.77	906.53
520.13	921.92
520.49	937.31
520.85	952.89
521.21	968.63
521.57	984.95
521.93	1000.77
522.29	1017.27
522.65	1033.50
523.01	1049.78
523.37	1065.75
523.73	1082.01
524.09	1098.11
524.45	1114.38
524.81	1131.13
525.17	1148.02
525.53	1165.05
525.89	1182.03
526.25	1198.87
526.61	1215.15
526.97	1231.88
527.33	1248.38
527.68	1265.04
528.04	1281.55
528.40	1298.16
528.76	1315.23
529.12	1331.96
529.48	1348.90
529.84	1364.97
530.20	1381.52
530.56	1398.56
530.91	1416.00
531.27	1432.70
531.63	1449.18
531.99	1465.84
532.35	1481.80
532.71	1497.67
533.07	1513.86
533.42	1529.92
533.78	1545.98
534.14	1562.29
534.50	1577.62
534.86	1593.51
535.21	1608.80
535.57	1624.87
535.93	1640.46
536.29	1655.21
536.65	1670.14
537.00	1684.98
537.36	1700.32
537.72	1715.02
538.08	1729.34
538.44	1743.16
538.79	1757.10
539.15	1770.77
539.51	1784.52
539.87	1798.78
540.22	1812.44
540.58	1826.20
540.94	1839.42
541.29	1852.47
541.65	1865.19
542.01	1878.35
542.37	1890.66
542.72	1903.05
543.08	1914.81
543.44	1926.97
543.79	1938.26
544.15	1949.17
544.51	1960.69
544.87	1971.58
545.22	1982.38
545.58	1992.63
545.94	2002.38
546.29	2012.16
546.65	2022.04
547.01	2031.19
547.36	2039.94
547.72	2048.53
548.07	2056.47
548.43	2064.57
548.79	2072.61
549.14	2080.12
549.50	2087.57
549.86	2095.34
550.21	2102.67
550.57	2109.91
550.92	2116.56
551.28	2123.60
551.64	2130.89
551.99	2137.43
552.35	2143.63
552.70	2149.66
553.06	2155.74
553.41	2162.15
553.77	2168.31
554.13	2174.38
554.48	2180.64
554.84	2186.08
555.19	2191.35
555.55	2196.41
555.90	2201.01
556.26	2205.67
556.61	2210.32
556.97	2214.49
557.32	2218.56
557.68	2222.67
558.03	2226.89
558.39	2230.76
558.74	2235.30
559.10	2238.95
559.45	2242.62
559.81	2247.01
560.16	2250.93
560.52	2254.22
560.87	2257.45
561.23	2260.11
561.58	2263.10
561.94	2265.55
562.29	2268.03
562.64	2270.58
563.00	2273.16
563.35	2276.65
563.71	2279.78
564.06	2283.09
564.42	2286.00
564.77	2288.52
565.12	2290.75
565.48	2292.56
565.83	2294.25
566.19	2295.63
566.54	2296.62
566.89	2297.72
567.25	2298.13
567.60	2299.55
567.96	2301.06
568.31	2302.04
568.66	2302.99
569.02	2303.35
569.37	2303.65
569.72	2304.38
570.08	2304.63
570.43	2304.83
570.78	2304.21
571.14	2302.87
571.49	2301.48
571.84	2301.17
572.20	2299.95
572.55	2298.95
572.90	2297.46
573.26	2296.04
573.61	2294.30
573.96	2292.54
574.31	2289.61
574.67	2286.54
575.02	2282.80
575.37	2279.48
575.72	2275.55
576.08	2272.25
576.43	2269.00
576.78	2265.29
577.13	2262.09
577.49	2258.99
577.84	2255.31
578.19	2251.58
578.54	2247.76
578.90	2243.47
579.25	2237.78
579.60	2232.83
579.95	2227.81
580.30	2222.65
580.66	2217.67
581.01	2212.69
581.36	2207.76
581.71	2203.43
582.06	2198.97
582.42	2194.43
582.77	2189.07
583.12	2184.56
583.47	2179.73
583.82	2174.66
584.17	2169.34
584.53	2163.75
584.88	2157.95
585.23	2152.12
585.58	2146.61
585.93	2141.12
586.28	2136.37
586.63	2131.33
586.98	2126.17
587.34	2121.35
587.69	2116.51
588.04	2110.96
588.39	2105.19
588.74	2098.73
589.09	2092.51
589.44	2085.70
589.79	2079.71
590.14	2074.23
590.49	2067.73
590.84	2061.49
591.19	2055.46
591.54	2049.00
591.89	2041.50
592.25	2034.83
592.60	2027.59
592.95	2019.87
593.30	2012.38
593.65	2004.85
594.00	1997.83
594.35	1990.52
594.70	1982.47
595.05	1975.12
595.40	1967.86
595.75	1960.48
596.10	1954.14
596.45	1947.36
596.80	1941.11
597.15	1934.42
597.50	1927.09
597.85	1920.54
598.19	1913.64
598.54	1906.52
598.89	1899.83
599.24	1893.94
599.59	1887.15
599.94	1881.01
600.29	1874.66
600.64	1868.19
600.99	1860.63
601.34	1853.61
601.69	1846.68
602.04	1839.76
602.39	1832.46
602.74	1825.62
603.08	1818.86
603.43	1812.13
603.78	1804.88
604.13	1797.61
604.48	1790.13
604.83	1783.29
605.18	1776.02
605.53	1768.10
605.87	1760.00
606.22	1752.86
606.57	1744.94
606.92	1737.63
607.27	1730.34
607.62	1723.36
607.96	1715.99
608.31	1709.33
608.66	1701.87
609.01	1694.23
609.36	1686.55
609.70	1678.52
610.05	1670.43
610.40	1662.69
610.75	1654.28
611.10	1646.54
611.44	1638.12
611.79	1630.23
612.14	1621.51
612.49	1612.60
612.83	1604.19
613.18	1596.17
613.53	1587.91
613.88	1579.45
614.22	1571.12
614.57	1562.54
614.92	1554.51
615.27	1547.02
615.61	1538.72
615.96	1530.65
616.31	1523.03
616.65	1515.81
617.00	1508.18
617.35	1500.63
617.70	1492.17
618.04	1483.75
618.39	1475.59
618.74	1468.16
619.08	1459.88
619.43	1452.37
619.78	1445.47
620.12	1438.24
620.47	1430.66
620.82	1422.67
621.16	1415.27
621.51	1407.65
621.85	1400.14
622.20	1391.64
622.55	1383.25
622.89	1375.43
623.24	1367.81
623.59	1360.49
623.93	1352.97
624.28	1345.76
624.62	1338.17
624.97	1331.13
625.32	1324.41
625.66	1317.40
626.01	1310.12
626.35	1302.65
626.70	1294.80
627.04	1287.07
627.39	1279.34
627.73	1271.95
628.08	1264.90
628.43	1257.59
628.77	1250.21
629.12	1242.52
629.46	1235.34
629.81	1227.92
630.15	1220.63
630.50	1213.18
630.84	1204.88
631.19	1196.95
631.53	1189.36
631.88	1181.69
632.22	1174.09
632.57	1166.72
632.91	1159.17
633.26	1151.78
633.60	1144.44
633.95	1137.42
634.29	1130.34
634.64	1123.70
634.98	1116.41
635.32	1109.24
635.67	1102.66
636.01	1096.04
636.36	1089.21
636.70	1082.84
637.05	1076.19
637.39	1069.74
637.73	1063.21
638.08	1057.45
638.42	1051.47
638.77	1045.15
639.11	1038.55
639.45	1032.16
639.80	1025.49
640.14	1019.05
640.49	1012.48
640.83	1006.18
641.17	999.96
641.52	993.61
641.86	987.17
642.20	981.25
642.55	975.08
642.89	968.47
643.23	961.89
643.58	956.15
643.92	949.90
644.26	943.89
644.61	937.89
644.95	931.93
645.29	925.32
645.64	918.55
645.98	912.19
646.32	906.44
646.66	900.34
647.01	894.54
647.35	888.82
647.69	883.02
648.04	877.51
648.38	871.68
648.72	865.72
649.06	859.67
649.41	853.77
649.75	847.76
650.09	841.94
650.43	836.20
650.78	830.00
651.12	824.02
651.46	818.30
651.80	812.57
652.14	807.16
652.49	801.74
652.83	796.61
653.17	790.86
653.51	785.14
653.85	779.83
654.20	774.20
654.54	768.19
654.88	762.48
655.22	756.56
655.56	750.92
655.90	745.49
656.25	740.23
656.59	734.99
656.93	729.90
657.27	724.72
657.61	719.25
657.95	714.21
658.29	709.13
658.64	703.88
658.98	698.56
659.32	693.07
659.66	687.95
660.00	682.67
660.34	677.74
660.68	672.82
661.02	667.79
661.36	663.10
661.70	658.67
662.05	654.32
662.39	650.08
662.73	645.59
663.07	641.18
663.41	636.71
663.75	632.18
664.09	627.66
664.43	623.32
664.77	619.21
665.11	614.95
665.45	610.82
665.79	606.72
666.13	602.59
666.47	598.49
666.81	594.29
667.15	590.11
667.49	586.34
667.83	582.52
668.17	578.56
668.51	574.48
668.85	570.47
669.19	566.62
669.53	562.71
669.87	558.81
670.21	555.13
670.55	551.57
670.89	548.12
671.23	544.62
671.57	541.12
671.91	537.55
672.25	534.05
672.58	530.50
672.92	527.16
673.26	524.01
673.60	520.90
673.94	517.74
674.28	514.82
674.62	511.80
674.96	508.70
675.30	505.75
675.64	502.84
675.97	500.02
676.31	497.12
676.65	494.18
676.99	491.50
677.33	488.63
677.67	485.77
678.01	482.68
678.34	479.71
678.68	476.81
679.02	474.05
679.36	471.31
679.70	468.60
680.04	465.82
680.37	462.92
680.71	460.11
681.05	457.53
681.39	454.86
681.73	452.24
682.06	449.72
682.40	447.14
682.74	444.60
683.08	442.10
683.42	439.55
683.75	437.07
684.09	434.49
684.43	432.05
684.77	429.56
685.10	427.30
685.44	424.97
685.78	422.69
686.12	420.49
686.45	418.21
686.79	415.98
687.13	413.82
687.46	411.63
687.80	409.49
688.14	407.29
688.48	405.22
688.81	402.93
689.15	400.76
689.49	398.66
689.82	396.58
690.16	394.49
690.50	392.55
690.83	390.61
691.17	388.67
691.51	386.72
691.84	384.89
692.18	382.87
692.52	380.97
692.85	379.07
693.19	377.16
693.52	375.35
693.86	373.53
694.20	371.71
694.53	369.95
694.87	368.08
695.21	366.26
695.54	364.43
695.88	362.73
696.21	361.03
696.55	359.32
696.88	357.61
697.22	355.96
697.56	354.33
697.89	352.65
698.23	351.07
698.56	349.47
698.90	347.87
699.23	346.27
699.57	344.65
699.90	343.05
700.24	341.52
700.58	339.98
700.91	338.50
701.25	337.08
701.58	335.73
701.92	334.41
702.25	333.05
702.59	331.68
702.92	330.35
703.26	329.02
703.59	327.77
703.93	326.63
704.26	325.37
704.60	324.04
704.93	322.79
705.26	321.50
705.60	320.31
705.93	319.14
706.27	318.09
706.60	317.04
706.94	315.98
707.27	314.84
707.61	313.75
707.94	312.70
708.27	311.62
708.61	310.49
708.94	309.49
709.28	308.53
709.61	307.59
709.94	306.64
710.28	305.59
710.61	304.61
710.95	303.55
711.28	302.65
711.61	301.72
711.95	300.82
712.28	299.92
712.61	298.90
712.95	297.95
713.28	297.08
713.61	296.21
713.95	295.31
714.28	294.47
714.61	293.63
714.95	292.77
715.28	291.94
715.61	291.12
715.95	290.26
716.28	289.38
716.61	288.54
716.95	287.74
717.28	287.06
717.61	286.30
717.94	285.53
718.28	284.73
718.61	284.00
718.94	283.30
719.27	282.59
719.61	282.02
719.94	281.39
720.27	280.71
720.60	280.03
720.94	279.41
721.27	278.86
721.60	278.30
721.93	277.70
722.27	277.12
722.60	276.55
722.93	275.98
723.26	275.47
723.59	274.90
723.93	274.36
724.26	273.78
724.59	273.26
724.92	272.74
725.25	272.25
725.59	271.74
725.92	271.22
726.25	270.73
726.58	270.21
726.91	269.70
727.24	269.21
727.57	268.73
727.91	268.25
728.24	267.77
728.57	267.24
728.90	266.79
729.23	266.31
729.56	265.89
729.89	265.43
730.22	264.93
730.55	264.52
730.89	264.07
731.22	263.62
731.55	263.17
731.88	262.73
732.21	262.28
732.54	261.87
732.87	261.45
733.20	261.06
733.53	260.72
733.86	260.34
734.19	259.95
734.52	259.58
734.85	259.25
735.18	258.78
735.51	258.44
735.84	258.10
736.17	257.75
736.50	257.32
736.83	257.09
737.16	256.75
737.49	256.40
737.82	256.05
738.15	255.73
738.48	255.38
738.81	255.08
739.14	254.75
739.47	254.39
739.80	254.10
740.13	253.80
740.46	253.42
740.79	253.10
741.12	252.79
741.45	252.48
741.78	252.13
742.11	251.86
742.44	251.54
742.77	251.22
743.10	250.89
743.43	250.60
743.75	250.23
744.08	250.10
744.41	249.80
744.74	249.51
745.07	249.22
745.40	248.98
745.73	248.70
746.06	248.45
746.39	248.21
746.71	247.90
747.04	247.60
747.37	247.34
747.70	247.09
748.03	246.84
748.36	246.64
748.68	246.40
749.01	246.15
749.34	245.90
749.67	245.68
750.00	245.51
750.33	245.31
750.65	245.09
750.98	244.72
751.31	244.55
751.64	244.36
751.97	244.22
752.29	243.99
752.62	243.78
752.95	243.55
753.28	243.34
753.60	243.17
753.93	243.04
754.26	242.84
754.59	242.63
754.91	242.43
755.24	242.19
755.57	242.01
755.90	241.87
756.22	241.70
756.55	241.50
756.88	241.29
757.20	241.11
757.53	240.93
757.86	240.75
758.19	240.57
758.51	240.42
758.84	240.18
759.17	240.00
759.49	239.83
759.82	239.73
760.15	239.59
760.47	239.42
760.80	239.24
761.13	239.13
761.45	238.98
761.78	238.82
762.11	238.72
762.43	238.56
762.76	238.41
763.08	238.28
763.41	238.18
763.74	238.05
764.06	237.87
764.39	237.70
764.71	237.57
765.04	237.42
765.37	237.27
765.69	237.15
766.02	237.01
766.34	236.88
766.67	236.72
767.00	236.60
767.32	236.55
767.65	236.49
767.97	236.38
768.30	236.27
768.62	236.16
768.95	236.03
769.27	235.94
769.60	235.85
769.92	235.69
770.25	235.55
770.57	235.42
770.90	235.33
771.22	235.23
771.55	235.14
771.87	235.06
772.20	234.95
772.52	234.95
772.85	234.97
773.17	234.86
773.50	234.76
773.82	234.67
774.15	234.50
774.47	234.36
774.80	234.23
775.12	234.14
775.45	234.07
775.77	233.98
776.09	233.91
776.42	233.80
776.74	233.78
777.07	233.72
777.39	233.64
777.72	233.57
778.04	233.52
778.36	233.47
778.69	233.42
779.01	233.39
779.33	233.26
779.66	233.11
779.98	233.07
780.31	233.01
780.63	232.95
780.95	232.95
781.28	232.86
781.60	232.82
781.92	232.78
782.25	232.73
782.57	232.66
782.89	232.60
783.22	232.54
783.54	232.47
783.86	232.41
784.19	232.34
784.51	232.32
784.83	232.28
785.16	232.20
785.48	232.14
785.80	232.10
786.12	232.06
786.45	231.99
786.77	231.95
787.09	231.89
