SpectraSuite Data File
++++++++++++++++++++++++++++++++++++
Date: Fri Feb 01 16:08:34 EST 2013
User: group
Dark Spectrum Present: No
Reference Spectrum Present: No
Number of Sampled Component Spectra: 1
Spectrometers: USB2E7196
Integration Time (usec): 35000 (USB2E7196)
Spectra Averaged: 100 (USB2E7196)
Boxcar Smoothing: 10 (USB2E7196)
Correct for Electrical Dark: No (USB2E7196)
Strobe/Lamp Enabled: No (USB2E7196)
Correct for Detector Non-linearity: No (USB2E7196)
Correct for Stray Light: No (USB2E7196)
Number of Pixels in Processed Spectrum: 2048
>>>>>Begin Processed Spectral Data<<<<<
339.09	0.00
339.48	214.17
339.86	216.28
340.24	217.58
340.63	218.46
341.01	221.33
341.39	221.65
341.78	222.36
342.16	224.19
342.54	224.46
342.93	212.86
343.31	223.62
343.69	224.20
344.07	224.65
344.46	225.05
344.84	225.43
345.22	225.67
345.60	225.92
345.99	226.13
346.37	226.22
346.75	226.32
347.13	226.41
347.52	226.46
347.90	226.54
348.28	226.56
348.66	226.60
349.05	226.62
349.43	226.65
349.81	226.73
350.19	226.76
350.57	226.85
350.96	226.96
351.34	227.07
351.72	227.16
352.10	227.28
352.48	227.35
352.87	227.42
353.25	227.52
353.63	227.61
354.01	227.66
354.39	227.79
354.77	227.88
355.15	228.01
355.54	228.05
355.92	228.10
356.30	228.21
356.68	228.35
357.06	228.41
357.44	228.47
357.82	228.51
358.20	228.58
358.58	228.60
358.97	228.65
359.35	228.72
359.73	228.77
360.11	228.78
360.49	228.86
360.87	228.91
361.25	228.96
361.63	229.02
362.01	229.07
362.39	229.08
362.77	229.12
363.15	229.14
363.53	229.22
363.91	229.24
364.29	229.24
364.67	229.17
365.05	229.17
365.43	229.20
365.81	229.22
366.19	229.27
366.57	229.33
366.95	229.34
367.33	229.31
367.71	229.30
368.09	229.33
368.47	229.31
368.85	229.30
369.23	229.28
369.61	229.25
369.99	229.27
370.37	229.23
370.75	229.23
371.13	229.16
371.51	229.06
371.89	229.02
372.27	228.95
372.65	228.88
373.03	228.85
373.41	228.76
373.78	228.71
374.16	228.60
374.54	228.50
374.92	228.42
375.30	228.35
375.68	228.30
376.06	228.23
376.44	228.14
376.82	228.08
377.19	227.96
377.57	227.88
377.95	227.74
378.33	227.67
378.71	227.58
379.09	227.52
379.47	227.46
379.84	227.40
380.22	227.35
380.60	227.28
380.98	227.18
381.36	227.11
381.73	227.05
382.11	226.99
382.49	226.91
382.87	226.83
383.25	226.74
383.62	226.74
384.00	226.69
384.38	226.67
384.76	226.61
385.13	226.63
385.51	226.53
385.89	226.47
386.27	226.45
386.64	226.38
387.02	226.33
387.40	226.29
387.78	226.26
388.15	226.22
388.53	226.20
388.91	226.21
389.29	226.23
389.66	226.21
390.04	226.21
390.42	226.25
390.79	226.24
391.17	226.24
391.55	226.12
391.92	226.11
392.30	226.11
392.68	226.09
393.05	226.09
393.43	226.11
393.81	226.14
394.18	226.14
394.56	226.15
394.94	226.21
395.31	226.22
395.69	226.27
396.06	226.35
396.44	226.40
396.82	226.40
397.19	226.46
397.57	226.49
397.95	226.55
398.32	226.56
398.70	226.57
399.07	226.66
399.45	226.73
399.82	226.76
400.20	226.82
400.58	226.93
400.95	226.95
401.33	227.07
401.70	227.24
402.08	227.34
402.45	227.44
402.83	227.55
403.20	227.67
403.58	227.74
403.95	227.88
404.33	228.00
404.71	228.12
405.08	228.32
405.46	228.46
405.83	228.61
406.21	228.77
406.58	228.97
406.96	229.09
407.33	229.31
407.70	229.50
408.08	229.78
408.45	229.98
408.83	230.23
409.20	230.45
409.58	230.61
409.95	230.88
410.33	231.17
410.70	231.41
411.08	231.70
411.45	232.01
411.82	232.26
412.20	232.61
412.57	233.04
412.95	233.31
413.32	233.71
413.69	234.13
414.07	234.54
414.44	234.99
414.82	235.51
415.19	236.02
415.56	236.56
415.94	237.07
416.31	237.71
416.68	238.31
417.06	239.02
417.43	239.68
417.81	240.45
418.18	241.19
418.55	241.99
418.93	242.86
419.30	243.76
419.67	244.71
420.04	245.67
420.42	246.65
420.79	247.81
421.16	248.95
421.54	250.11
421.91	251.32
422.28	252.56
422.66	253.89
423.03	255.23
423.40	256.61
423.77	258.02
424.15	259.45
424.52	260.96
424.89	262.57
425.26	264.11
425.64	265.52
426.01	267.12
426.38	268.79
426.75	270.48
427.13	272.20
427.50	274.01
427.87	275.87
428.24	277.71
428.61	279.46
428.99	281.40
429.36	283.50
429.73	285.55
430.10	287.59
430.47	289.60
430.85	291.69
431.22	293.89
431.59	296.27
431.96	298.49
432.33	300.98
432.70	303.35
433.08	306.14
433.45	308.81
433.82	311.43
434.19	314.30
434.56	317.13
434.93	319.74
435.30	322.35
435.68	325.26
436.05	328.07
436.42	330.87
436.79	333.32
437.16	336.05
437.53	338.85
437.90	341.68
438.27	344.40
438.64	347.24
439.01	349.80
439.38	352.00
439.75	354.15
440.13	356.62
440.50	358.94
440.87	360.80
441.24	362.75
441.61	364.84
441.98	366.30
442.35	368.03
442.72	369.89
443.09	371.70
443.46	372.63
443.83	373.21
444.20	373.76
444.57	374.62
444.94	374.87
445.31	375.19
445.68	375.53
446.05	375.64
446.42	375.29
446.79	374.89
447.16	374.47
447.53	374.11
447.90	372.94
448.27	371.74
448.64	370.17
449.01	368.94
449.37	367.00
449.74	365.10
450.11	362.87
450.48	360.39
450.85	357.87
451.22	355.75
451.59	353.74
451.96	351.77
452.33	349.16
452.70	346.81
453.07	343.98
453.43	341.10
453.80	338.35
454.17	335.64
454.54	333.10
454.91	330.37
455.28	327.74
455.65	325.28
456.02	322.84
456.38	320.73
456.75	318.16
457.12	315.95
457.49	313.76
457.86	311.63
458.23	309.79
458.59	307.74
458.96	305.69
459.33	303.85
459.70	302.02
460.07	300.57
460.43	298.87
460.80	297.30
461.17	295.88
461.54	294.42
461.91	292.97
462.27	291.52
462.64	290.29
463.01	288.91
463.38	287.63
463.74	286.26
464.11	285.07
464.48	284.04
464.85	282.93
465.21	282.09
465.58	281.18
465.95	280.14
466.32	279.26
466.68	278.33
467.05	277.42
467.42	276.51
467.78	275.57
468.15	274.69
468.52	274.01
468.88	273.14
469.25	272.33
469.62	271.77
469.98	271.13
470.35	270.48
470.72	269.94
471.08	269.31
471.45	268.80
471.82	268.27
472.18	267.64
472.55	267.21
472.92	266.68
473.28	266.22
473.65	265.73
474.02	265.28
474.38	264.91
474.75	264.63
475.11	264.28
475.48	264.00
475.85	263.79
476.21	263.55
476.58	263.39
476.94	263.26
477.31	263.05
477.67	262.90
478.04	262.80
478.41	262.76
478.77	262.78
479.14	262.69
479.50	262.72
479.87	262.78
480.23	262.85
480.60	262.92
480.96	263.00
481.33	263.22
481.69	263.38
482.06	263.59
482.42	263.75
482.79	264.01
483.15	264.34
483.52	264.71
483.88	265.10
484.25	265.50
484.61	265.92
484.98	266.36
485.34	266.91
485.71	267.50
486.07	268.11
486.44	268.70
486.80	269.40
487.17	270.12
487.53	270.92
487.90	271.80
488.26	272.73
488.62	273.77
488.99	274.72
489.35	275.79
489.72	276.91
490.08	278.12
490.44	279.34
490.81	280.67
491.17	282.01
491.54	283.49
491.90	284.98
492.26	286.64
492.63	288.37
492.99	290.18
493.36	292.06
493.72	294.06
494.08	296.15
494.45	298.42
494.81	300.82
495.17	303.26
495.54	305.80
495.90	308.50
496.26	311.26
496.63	314.22
496.99	317.34
497.35	320.59
497.72	324.05
498.08	327.60
498.44	331.29
498.80	335.21
499.17	339.27
499.53	343.47
499.89	347.87
500.26	352.40
500.62	357.09
500.98	362.06
501.34	367.12
501.71	372.38
502.07	377.81
502.43	383.39
502.79	389.25
503.16	395.34
503.52	401.63
503.88	408.07
504.24	414.74
504.60	421.67
504.97	428.77
505.33	436.08
505.69	443.74
506.05	451.51
506.41	459.41
506.78	467.52
507.14	475.99
507.50	484.66
507.86	493.68
508.22	502.87
508.59	512.12
508.95	521.77
509.31	531.68
509.67	541.80
510.03	552.13
510.39	562.67
510.75	573.46
511.12	584.44
511.48	595.66
511.84	607.09
512.20	618.58
512.56	630.53
512.92	642.70
513.28	655.10
513.64	667.56
514.00	680.28
514.37	693.23
514.73	706.32
515.09	719.34
515.45	732.60
515.81	746.15
516.17	760.03
516.53	774.09
516.89	788.27
517.25	802.49
517.61	816.92
517.97	831.38
518.33	845.71
518.69	860.45
519.05	875.49
519.41	890.68
519.77	906.19
520.13	921.63
520.49	937.01
520.85	952.36
521.21	968.08
521.57	984.22
521.93	1000.02
522.29	1016.34
522.65	1032.56
523.01	1048.71
523.37	1064.75
523.73	1080.91
524.09	1096.96
524.45	1113.27
524.81	1129.73
525.17	1146.53
525.53	1163.41
525.89	1180.35
526.25	1197.05
526.61	1213.33
526.97	1229.98
527.33	1246.37
527.68	1262.96
528.04	1279.43
528.40	1295.93
528.76	1312.93
529.12	1329.53
529.48	1346.28
529.84	1362.13
530.20	1378.68
530.56	1395.61
530.91	1412.96
531.27	1429.70
531.63	1446.13
531.99	1462.54
532.35	1478.38
532.71	1494.16
533.07	1510.35
533.42	1526.20
533.78	1542.21
534.14	1558.41
534.50	1573.68
534.86	1589.53
535.21	1604.52
535.57	1620.35
535.93	1635.72
536.29	1650.52
536.65	1665.46
537.00	1680.15
537.36	1695.51
537.72	1710.08
538.08	1724.45
538.44	1738.16
538.79	1751.97
539.15	1765.50
539.51	1779.19
539.87	1793.67
540.22	1807.24
540.58	1820.91
540.94	1834.09
541.29	1846.81
541.65	1859.50
542.01	1872.60
542.37	1884.85
542.72	1897.22
543.08	1908.83
543.44	1921.10
543.79	1932.25
544.15	1943.35
544.51	1954.81
544.87	1965.59
545.22	1976.25
545.58	1986.46
545.94	1996.15
546.29	2005.79
546.65	2015.66
547.01	2024.88
547.36	2033.42
547.72	2041.89
548.07	2049.76
548.43	2058.00
548.79	2066.03
549.14	2073.48
549.50	2080.78
549.86	2088.48
550.21	2095.99
550.57	2103.20
550.92	2109.94
551.28	2116.85
551.64	2123.70
551.99	2130.21
552.35	2136.42
552.70	2142.67
553.06	2148.64
553.41	2155.02
553.77	2161.30
554.13	2167.27
554.48	2173.36
554.84	2178.96
555.19	2184.23
555.55	2189.46
555.90	2193.91
556.26	2198.78
556.61	2203.49
556.97	2207.92
557.32	2211.87
557.68	2215.82
558.03	2220.07
558.39	2223.62
558.74	2228.41
559.10	2232.38
559.45	2236.19
559.81	2240.54
560.16	2244.37
560.52	2247.73
560.87	2251.24
561.23	2253.78
561.58	2256.90
561.94	2259.52
562.29	2261.88
562.64	2264.61
563.00	2267.02
563.35	2270.51
563.71	2273.69
564.06	2276.89
564.42	2279.71
564.77	2282.44
565.12	2284.83
565.48	2286.82
565.83	2288.79
566.19	2290.11
566.54	2290.99
566.89	2292.07
567.25	2292.61
567.60	2293.89
567.96	2295.48
568.31	2296.27
568.66	2297.52
569.02	2298.04
569.37	2298.34
569.72	2299.15
570.08	2299.20
570.43	2299.41
570.78	2299.00
571.14	2297.49
571.49	2296.29
571.84	2296.04
572.20	2294.84
572.55	2293.74
572.90	2292.18
573.26	2290.81
573.61	2289.14
573.96	2287.40
574.31	2284.44
574.67	2281.45
575.02	2277.78
575.37	2274.39
575.72	2270.60
576.08	2267.09
576.43	2263.67
576.78	2260.10
577.13	2256.92
577.49	2253.95
577.84	2250.39
578.19	2246.57
578.54	2243.00
578.90	2238.75
579.25	2233.00
579.60	2228.06
579.95	2223.10
580.30	2218.13
580.66	2213.03
581.01	2207.98
581.36	2203.10
581.71	2198.94
582.06	2194.53
582.42	2190.04
582.77	2184.88
583.12	2180.33
583.47	2175.84
583.82	2170.93
584.17	2165.67
584.53	2160.19
584.88	2154.52
585.23	2148.80
585.58	2143.20
585.93	2137.64
586.28	2132.90
586.63	2127.98
586.98	2123.06
587.34	2118.39
587.69	2113.55
588.04	2108.23
588.39	2102.59
588.74	2096.20
589.09	2090.05
589.44	2083.24
589.79	2077.34
590.14	2071.75
590.49	2065.13
590.84	2058.59
591.19	2052.56
591.54	2046.04
591.89	2038.75
592.25	2032.01
592.60	2024.77
592.95	2017.32
593.30	2009.95
593.65	2002.30
594.00	1995.39
594.35	1988.09
594.70	1979.98
595.05	1972.77
595.40	1965.59
595.75	1958.14
596.10	1951.84
596.45	1945.15
596.80	1939.11
597.15	1932.52
597.50	1925.44
597.85	1919.08
598.19	1912.63
598.54	1905.59
598.89	1898.98
599.24	1893.13
599.59	1886.57
599.94	1880.35
600.29	1873.98
600.64	1867.55
600.99	1860.14
601.34	1853.32
601.69	1846.34
602.04	1839.55
602.39	1832.23
602.74	1825.40
603.08	1818.63
603.43	1812.04
603.78	1804.78
604.13	1797.69
604.48	1790.42
604.83	1783.58
605.18	1776.64
605.53	1768.63
605.87	1760.73
606.22	1753.63
606.57	1745.67
606.92	1738.42
607.27	1731.36
607.62	1724.57
607.96	1717.42
608.31	1711.04
608.66	1703.34
609.01	1695.90
609.36	1688.43
609.70	1680.47
610.05	1672.51
610.40	1664.87
610.75	1656.52
611.10	1648.81
611.44	1640.30
611.79	1632.19
612.14	1623.42
612.49	1614.29
612.83	1605.89
613.18	1597.77
613.53	1589.63
613.88	1581.14
614.22	1572.77
614.57	1564.16
614.92	1555.99
615.27	1548.32
615.61	1539.85
615.96	1531.93
616.31	1524.27
616.65	1516.78
617.00	1509.14
617.35	1501.45
617.70	1493.19
618.04	1484.72
618.39	1476.56
618.74	1469.06
619.08	1460.87
619.43	1453.34
619.78	1446.29
620.12	1439.19
620.47	1431.58
620.82	1423.35
621.16	1415.81
621.51	1408.14
621.85	1400.54
622.20	1392.19
622.55	1383.84
622.89	1375.99
623.24	1368.33
623.59	1360.89
623.93	1353.41
624.28	1346.23
624.62	1338.74
624.97	1331.54
625.32	1324.80
625.66	1317.71
626.01	1310.43
626.35	1303.02
626.70	1295.28
627.04	1287.70
627.39	1279.82
627.73	1272.41
628.08	1265.49
628.43	1258.29
628.77	1250.93
629.12	1243.33
629.46	1236.05
629.81	1228.64
630.15	1221.38
630.50	1213.95
630.84	1205.78
631.19	1197.88
631.53	1190.45
631.88	1182.81
632.22	1175.17
632.57	1167.78
632.91	1160.29
633.26	1152.81
633.60	1145.33
633.95	1138.24
634.29	1131.14
634.64	1124.44
634.98	1117.16
635.32	1110.08
635.67	1103.41
636.01	1096.82
636.36	1090.00
636.70	1083.49
637.05	1076.93
637.39	1070.52
637.73	1063.92
638.08	1058.03
638.42	1052.00
638.77	1045.37
639.11	1038.81
639.45	1032.36
639.80	1025.68
640.14	1019.26
640.49	1012.88
640.83	1006.60
641.17	1000.39
641.52	994.11
641.86	987.63
642.20	981.75
642.55	975.36
642.89	968.97
643.23	962.41
643.58	956.68
643.92	950.50
644.26	944.37
644.61	938.27
644.95	932.27
645.29	925.73
645.64	918.97
645.98	912.74
646.32	906.93
646.66	900.97
647.01	895.26
647.35	889.65
647.69	883.73
648.04	878.23
648.38	872.42
648.72	866.46
649.06	860.43
649.41	854.58
649.75	848.68
650.09	842.74
650.43	836.95
650.78	830.77
651.12	824.80
651.46	819.17
651.80	813.50
652.14	808.25
652.49	802.79
652.83	797.65
653.17	791.93
653.51	786.19
653.85	780.83
654.20	775.17
654.54	769.10
654.88	763.41
655.22	757.52
655.56	751.85
655.90	746.34
656.25	741.14
656.59	735.73
656.93	730.65
657.27	725.48
657.61	720.01
657.95	714.89
658.29	709.75
658.64	704.50
658.98	699.17
659.32	693.64
659.66	688.42
660.00	683.14
660.34	678.23
660.68	673.31
661.02	668.20
661.36	663.46
661.70	658.98
662.05	654.63
662.39	650.31
662.73	645.78
663.07	641.39
663.41	636.88
663.75	632.36
664.09	627.75
664.43	623.32
664.77	619.25
665.11	615.04
665.45	610.95
665.79	606.89
666.13	602.73
666.47	598.69
666.81	594.56
667.15	590.39
667.49	586.44
667.83	582.60
668.17	578.70
668.51	574.66
668.85	570.55
669.19	566.67
669.53	562.82
669.87	558.98
670.21	555.27
670.55	551.62
670.89	548.23
671.23	544.79
671.57	541.30
671.91	537.74
672.25	534.18
672.58	530.69
672.92	527.21
673.26	524.07
673.60	520.87
673.94	517.82
674.28	514.94
674.62	512.00
674.96	508.90
675.30	505.98
675.64	503.01
675.97	500.28
676.31	497.41
676.65	494.46
676.99	491.78
677.33	488.92
677.67	486.09
678.01	483.01
678.34	480.07
678.68	477.14
679.02	474.34
679.36	471.61
679.70	468.88
680.04	466.18
680.37	463.27
680.71	460.46
681.05	457.81
681.39	455.07
681.73	452.46
682.06	449.96
682.40	447.42
682.74	444.86
683.08	442.26
683.42	439.63
683.75	437.18
684.09	434.56
684.43	432.10
684.77	429.68
685.10	427.38
685.44	425.09
685.78	422.85
686.12	420.62
686.45	418.36
686.79	416.06
687.13	413.84
687.46	411.67
687.80	409.54
688.14	407.30
688.48	405.25
688.81	403.01
689.15	400.84
689.49	398.69
689.82	396.68
690.16	394.64
690.50	392.72
690.83	390.73
691.17	388.79
691.51	386.86
691.84	385.07
692.18	383.13
692.52	381.15
692.85	379.16
693.19	377.27
693.52	375.38
693.86	373.57
694.20	371.77
694.53	369.98
694.87	368.12
695.21	366.31
695.54	364.45
695.88	362.71
696.21	360.98
696.55	359.30
696.88	357.56
697.22	355.88
697.56	354.27
697.89	352.66
698.23	351.03
698.56	349.42
698.90	347.78
699.23	346.13
699.57	344.58
699.90	343.07
700.24	341.59
700.58	340.13
700.91	338.61
701.25	337.17
701.58	335.85
701.92	334.50
702.25	333.15
702.59	331.83
702.92	330.47
703.26	329.11
703.59	327.82
703.93	326.68
704.26	325.44
704.60	324.10
704.93	322.78
705.26	321.59
705.60	320.38
705.93	319.18
706.27	318.12
706.60	317.02
706.94	315.93
707.27	314.73
707.61	313.59
707.94	312.56
708.27	311.46
708.61	310.32
708.94	309.28
709.28	308.27
709.61	307.28
709.94	306.30
710.28	305.33
710.61	304.35
710.95	303.24
711.28	302.30
711.61	301.37
711.95	300.43
712.28	299.45
712.61	298.50
712.95	297.57
713.28	296.67
713.61	295.81
713.95	294.90
714.28	294.01
714.61	293.15
714.95	292.31
715.28	291.46
715.61	290.61
715.95	289.76
716.28	288.92
716.61	288.08
716.95	287.25
717.28	286.51
717.61	285.72
717.94	285.01
718.28	284.21
718.61	283.49
718.94	282.83
719.27	282.18
719.61	281.55
719.94	280.87
720.27	280.18
720.60	279.52
720.94	278.92
721.27	278.36
721.60	277.80
721.93	277.19
722.27	276.68
722.60	276.13
722.93	275.56
723.26	275.02
723.59	274.49
723.93	273.96
724.26	273.37
724.59	272.80
724.92	272.29
725.25	271.78
725.59	271.23
725.92	270.71
726.25	270.22
726.58	269.71
726.91	269.22
727.24	268.77
727.57	268.29
727.91	267.78
728.24	267.35
728.57	266.87
728.90	266.43
729.23	265.95
729.56	265.52
729.89	265.07
730.22	264.61
730.55	264.17
730.89	263.74
731.22	263.34
731.55	262.99
731.88	262.54
732.21	262.18
732.54	261.77
732.87	261.41
733.20	261.01
733.53	260.62
733.86	260.26
734.19	259.87
734.52	259.50
734.85	259.21
735.18	258.76
735.51	258.42
735.84	258.07
736.17	257.72
736.50	257.31
736.83	257.09
737.16	256.75
737.49	256.38
737.82	256.03
738.15	255.69
738.48	255.36
738.81	255.04
739.14	254.64
739.47	254.34
739.80	254.01
740.13	253.68
740.46	253.34
740.79	253.00
741.12	252.72
741.45	252.36
741.78	252.00
742.11	251.72
742.44	251.35
742.77	251.04
743.10	250.73
743.43	250.44
743.75	250.04
744.08	249.88
744.41	249.62
744.74	249.37
745.07	249.08
745.40	248.77
745.73	248.55
746.06	248.31
746.39	248.04
746.71	247.73
747.04	247.49
747.37	247.23
747.70	246.98
748.03	246.67
748.36	246.48
748.68	246.25
749.01	245.99
749.34	245.77
749.67	245.55
750.00	245.32
750.33	245.13
750.65	244.90
750.98	244.53
751.31	244.28
751.64	244.06
751.97	243.86
752.29	243.65
752.62	243.37
752.95	243.14
753.28	242.91
753.60	242.70
753.93	242.47
754.26	242.26
754.59	242.06
754.91	241.88
755.24	241.65
755.57	241.49
755.90	241.32
756.22	241.08
756.55	240.82
756.88	240.61
757.20	240.39
757.53	240.18
757.86	240.01
758.19	239.88
758.51	239.69
758.84	239.50
759.17	239.30
759.49	239.15
759.82	239.03
760.15	238.88
760.47	238.73
760.80	238.56
761.13	238.43
761.45	238.24
761.78	238.10
762.11	237.96
762.43	237.77
762.76	237.58
763.08	237.48
763.41	237.39
763.74	237.29
764.06	237.14
764.39	237.02
764.71	236.91
765.04	236.75
765.37	236.61
765.69	236.46
766.02	236.34
766.34	236.20
766.67	236.08
767.00	236.00
767.32	235.95
767.65	235.93
767.97	235.82
768.30	235.76
768.62	235.66
768.95	235.56
769.27	235.47
769.60	235.43
769.92	235.33
770.25	235.21
770.57	235.09
770.90	235.00
771.22	234.89
771.55	234.81
771.87	234.73
772.20	234.66
772.52	234.67
772.85	234.71
773.17	234.65
773.50	234.53
773.82	234.41
774.15	234.28
774.47	234.12
774.80	234.02
775.12	233.92
775.45	233.81
775.77	233.73
776.09	233.65
776.42	233.57
776.74	233.53
777.07	233.47
777.39	233.39
777.72	233.32
778.04	233.26
778.36	233.20
778.69	233.14
779.01	233.08
779.33	232.95
779.66	232.80
779.98	232.72
780.31	232.68
780.63	232.67
780.95	232.62
781.28	232.56
781.60	232.49
781.92	232.46
782.25	232.41
782.57	232.34
782.89	232.27
783.22	232.24
783.54	232.17
783.86	232.12
784.19	232.05
784.51	232.02
784.83	231.96
785.16	231.88
785.48	231.82
785.80	231.79
786.12	231.73
786.45	231.63
786.77	231.61
787.09	231.56
