SpectraSuite Data File
++++++++++++++++++++++++++++++++++++
Date: Fri Feb 01 16:07:10 EST 2013
User: group
Dark Spectrum Present: No
Reference Spectrum Present: No
Number of Sampled Component Spectra: 1
Spectrometers: USB2E7196
Integration Time (usec): 35000 (USB2E7196)
Spectra Averaged: 100 (USB2E7196)
Boxcar Smoothing: 10 (USB2E7196)
Correct for Electrical Dark: No (USB2E7196)
Strobe/Lamp Enabled: No (USB2E7196)
Correct for Detector Non-linearity: No (USB2E7196)
Correct for Stray Light: No (USB2E7196)
Number of Pixels in Processed Spectrum: 2048
>>>>>Begin Processed Spectral Data<<<<<
339.09	0.00
339.48	214.24
339.86	216.64
340.24	217.66
340.63	218.72
341.01	221.48
341.39	221.68
341.78	222.79
342.16	224.75
342.54	224.50
342.93	213.10
343.31	223.84
343.69	224.40
344.07	224.85
344.46	225.29
344.84	225.66
345.22	225.90
345.60	226.14
345.99	226.33
346.37	226.39
346.75	226.52
347.13	226.54
347.52	226.58
347.90	226.64
348.28	226.68
348.66	226.73
349.05	226.69
349.43	226.72
349.81	226.77
350.19	226.82
350.57	226.87
350.96	226.92
351.34	227.06
351.72	227.16
352.10	227.23
352.48	227.28
352.87	227.33
353.25	227.41
353.63	227.46
354.01	227.53
354.39	227.66
354.77	227.72
355.15	227.84
355.54	227.92
355.92	227.97
356.30	228.03
356.68	228.18
357.06	228.27
357.44	228.30
357.82	228.37
358.20	228.43
358.58	228.50
358.97	228.55
359.35	228.59
359.73	228.64
360.11	228.71
360.49	228.74
360.87	228.80
361.25	228.88
361.63	228.99
362.01	229.04
362.39	229.04
362.77	229.08
363.15	229.12
363.53	229.15
363.91	229.18
364.29	229.24
364.67	229.14
365.05	229.15
365.43	229.17
365.81	229.20
366.19	229.23
366.57	229.28
366.95	229.30
367.33	229.28
367.71	229.26
368.09	229.26
368.47	229.28
368.85	229.27
369.23	229.26
369.61	229.19
369.99	229.19
370.37	229.22
370.75	229.21
371.13	229.11
371.51	229.05
371.89	228.99
372.27	228.94
372.65	228.93
373.03	228.87
373.41	228.83
373.78	228.78
374.16	228.68
374.54	228.56
374.92	228.47
375.30	228.41
375.68	228.33
376.06	228.27
376.44	228.18
376.82	228.12
377.19	228.05
377.57	227.95
377.95	227.86
378.33	227.76
378.71	227.65
379.09	227.61
379.47	227.56
379.84	227.52
380.22	227.43
380.60	227.33
380.98	227.26
381.36	227.19
381.73	227.08
382.11	227.05
382.49	227.03
382.87	226.97
383.25	226.90
383.62	226.98
384.00	226.90
384.38	226.85
384.76	226.81
385.13	226.76
385.51	226.71
385.89	226.64
386.27	226.58
386.64	226.54
387.02	226.50
387.40	226.44
387.78	226.36
388.15	226.33
388.53	226.32
388.91	226.29
389.29	226.28
389.66	226.27
390.04	226.22
390.42	226.17
390.79	226.16
391.17	226.14
391.55	226.02
391.92	226.02
392.30	226.02
392.68	225.96
393.05	225.97
393.43	225.96
393.81	225.98
394.18	226.00
394.56	226.00
394.94	226.03
395.31	226.07
395.69	226.13
396.06	226.18
396.44	226.22
396.82	226.25
397.19	226.32
397.57	226.33
397.95	226.39
398.32	226.43
398.70	226.48
399.07	226.57
399.45	226.62
399.82	226.68
400.20	226.71
400.58	226.83
400.95	226.88
401.33	227.01
401.70	227.16
402.08	227.22
402.45	227.34
402.83	227.48
403.20	227.55
403.58	227.67
403.95	227.82
404.33	227.94
404.71	228.06
405.08	228.24
405.46	228.42
405.83	228.57
406.21	228.72
406.58	228.90
406.96	229.08
407.33	229.26
407.70	229.46
408.08	229.76
408.45	230.00
408.83	230.25
409.20	230.46
409.58	230.64
409.95	230.91
410.33	231.15
410.70	231.39
411.08	231.71
411.45	231.99
411.82	232.27
412.20	232.60
412.57	233.01
412.95	233.29
413.32	233.67
413.69	234.09
414.07	234.53
414.44	235.00
414.82	235.46
415.19	235.99
415.56	236.54
415.94	237.07
416.31	237.69
416.68	238.28
417.06	238.98
417.43	239.64
417.81	240.40
418.18	241.21
418.55	242.03
418.93	242.89
419.30	243.77
419.67	244.70
420.04	245.66
420.42	246.63
420.79	247.84
421.16	249.03
421.54	250.22
421.91	251.43
422.28	252.66
422.66	253.99
423.03	255.29
423.40	256.60
423.77	258.01
424.15	259.39
424.52	260.86
424.89	262.46
425.26	264.02
425.64	265.51
426.01	267.06
426.38	268.73
426.75	270.38
427.13	272.09
427.50	273.90
427.87	275.78
428.24	277.61
428.61	279.31
428.99	281.20
429.36	283.28
429.73	285.32
430.10	287.34
430.47	289.38
430.85	291.48
431.22	293.72
431.59	296.09
431.96	298.32
432.33	300.83
432.70	303.21
433.08	305.99
433.45	308.59
433.82	311.21
434.19	314.08
434.56	316.88
434.93	319.56
435.30	322.19
435.68	325.09
436.05	327.97
436.42	330.76
436.79	333.29
437.16	335.99
437.53	338.85
437.90	341.68
438.27	344.46
438.64	347.27
439.01	349.87
439.38	352.11
439.75	354.31
440.13	356.77
440.50	359.07
440.87	360.91
441.24	362.83
441.61	365.03
441.98	366.51
442.35	368.35
442.72	370.16
443.09	371.96
443.46	372.92
443.83	373.45
444.20	374.02
444.57	374.88
444.94	375.19
445.31	375.54
445.68	375.81
446.05	375.84
446.42	375.46
446.79	375.01
447.16	374.59
447.53	374.29
447.90	373.12
448.27	372.01
448.64	370.42
449.01	369.32
449.37	367.30
449.74	365.43
450.11	363.14
450.48	360.72
450.85	358.20
451.22	356.07
451.59	354.11
451.96	352.10
452.33	349.49
452.70	347.09
453.07	344.25
453.43	341.44
453.80	338.73
454.17	336.03
454.54	333.52
454.91	330.76
455.28	328.06
455.65	325.59
456.02	323.14
456.38	321.06
456.75	318.41
457.12	316.13
457.49	313.90
457.86	311.76
458.23	309.88
458.59	307.83
458.96	305.72
459.33	303.89
459.70	302.06
460.07	300.59
460.43	298.85
460.80	297.21
461.17	295.75
461.54	294.25
461.91	292.86
462.27	291.42
462.64	290.16
463.01	288.83
463.38	287.52
463.74	286.11
464.11	284.92
464.48	283.90
464.85	282.84
465.21	281.96
465.58	281.01
465.95	279.93
466.32	279.03
466.68	278.17
467.05	277.25
467.42	276.34
467.78	275.38
468.15	274.58
468.52	273.93
468.88	273.07
469.25	272.25
469.62	271.66
469.98	271.01
470.35	270.40
470.72	269.80
471.08	269.18
471.45	268.68
471.82	268.13
472.18	267.57
472.55	267.14
472.92	266.64
473.28	266.18
473.65	265.74
474.02	265.32
474.38	264.96
474.75	264.64
475.11	264.33
475.48	264.08
475.85	263.83
476.21	263.61
476.58	263.43
476.94	263.32
477.31	263.14
477.67	262.95
478.04	262.82
478.41	262.77
478.77	262.84
479.14	262.76
479.50	262.78
479.87	262.84
480.23	262.89
480.60	262.96
480.96	263.06
481.33	263.23
481.69	263.39
482.06	263.57
482.42	263.78
482.79	264.03
483.15	264.34
483.52	264.68
483.88	265.06
484.25	265.48
484.61	265.88
484.98	266.33
485.34	266.92
485.71	267.51
486.07	268.13
486.44	268.64
486.80	269.37
487.17	270.08
487.53	270.89
487.90	271.73
488.26	272.68
488.62	273.69
488.99	274.70
489.35	275.79
489.72	276.92
490.08	278.12
490.44	279.40
490.81	280.73
491.17	282.11
491.54	283.61
491.90	285.11
492.26	286.74
492.63	288.47
492.99	290.28
493.36	292.20
493.72	294.24
494.08	296.34
494.45	298.62
494.81	301.01
495.17	303.41
495.54	305.96
495.90	308.65
496.26	311.47
496.63	314.41
496.99	317.49
497.35	320.75
497.72	324.17
498.08	327.65
498.44	331.36
498.80	335.33
499.17	339.35
499.53	343.50
499.89	347.95
500.26	352.48
500.62	357.12
500.98	362.11
501.34	367.16
501.71	372.56
502.07	377.98
502.43	383.59
502.79	389.40
503.16	395.51
503.52	401.82
503.88	408.23
504.24	414.92
504.60	421.83
504.97	429.00
505.33	436.32
505.69	444.04
506.05	451.87
506.41	459.68
506.78	467.85
507.14	476.33
507.50	484.99
507.86	494.02
508.22	503.26
508.59	512.48
508.95	522.12
509.31	531.91
509.67	542.01
510.03	552.37
510.39	562.95
510.75	573.73
511.12	584.70
511.48	595.99
511.84	607.40
512.20	618.93
512.56	630.83
512.92	642.98
513.28	655.39
513.64	667.85
514.00	680.62
514.37	693.55
514.73	706.60
515.09	719.66
515.45	733.02
515.81	746.52
516.17	760.47
516.53	774.58
516.89	788.78
517.25	802.97
517.61	817.39
517.97	831.79
518.33	846.24
518.69	860.94
519.05	875.97
519.41	891.25
519.77	906.71
520.13	922.14
520.49	937.47
520.85	952.85
521.21	968.50
521.57	984.69
521.93	1000.39
522.29	1016.71
522.65	1032.93
523.01	1049.02
523.37	1065.18
523.73	1081.36
524.09	1097.37
524.45	1113.58
524.81	1130.08
525.17	1146.69
525.53	1163.56
525.89	1180.47
526.25	1197.21
526.61	1213.52
526.97	1230.13
527.33	1246.67
527.68	1263.21
528.04	1279.73
528.40	1296.24
528.76	1313.29
529.12	1329.86
529.48	1346.82
529.84	1362.86
530.20	1379.37
530.56	1396.30
530.91	1413.59
531.27	1430.37
531.63	1446.81
531.99	1463.41
532.35	1479.40
532.71	1495.35
533.07	1511.63
533.42	1527.40
533.78	1543.44
534.14	1559.61
534.50	1574.87
534.86	1590.59
535.21	1605.64
535.57	1621.34
535.93	1636.70
536.29	1651.22
536.65	1666.14
537.00	1680.70
537.36	1695.80
537.72	1710.28
538.08	1724.64
538.44	1738.23
538.79	1751.81
539.15	1765.32
539.51	1778.92
539.87	1793.19
540.22	1806.81
540.58	1820.33
540.94	1833.38
541.29	1846.08
541.65	1858.66
542.01	1871.80
542.37	1884.06
542.72	1896.33
543.08	1908.16
543.44	1920.57
543.79	1931.74
544.15	1942.73
544.51	1954.14
544.87	1965.07
545.22	1975.86
545.58	1986.04
545.94	1995.75
546.29	2005.77
546.65	2015.69
547.01	2024.88
547.36	2033.43
547.72	2041.82
548.07	2049.80
548.43	2058.07
548.79	2066.14
549.14	2073.70
549.50	2080.88
549.86	2088.49
550.21	2095.87
550.57	2102.94
550.92	2109.58
551.28	2116.90
551.64	2123.87
551.99	2130.44
552.35	2136.68
552.70	2142.83
553.06	2148.99
553.41	2155.40
553.77	2161.25
554.13	2167.30
554.48	2173.39
554.84	2178.97
555.19	2184.46
555.55	2189.64
555.90	2194.24
556.26	2199.24
556.61	2203.82
556.97	2208.33
557.32	2212.50
557.68	2216.76
558.03	2221.12
558.39	2224.70
558.74	2229.15
559.10	2233.09
559.45	2236.94
559.81	2241.25
560.16	2245.20
560.52	2248.33
560.87	2251.87
561.23	2254.59
561.58	2257.57
561.94	2260.23
562.29	2262.52
562.64	2265.12
563.00	2267.68
563.35	2271.15
563.71	2274.18
564.06	2277.59
564.42	2280.50
564.77	2283.07
565.12	2285.43
565.48	2287.28
565.83	2289.27
566.19	2290.64
566.54	2291.58
566.89	2292.63
567.25	2293.23
567.60	2294.34
567.96	2296.09
568.31	2296.71
568.66	2297.89
569.02	2298.45
569.37	2298.81
569.72	2299.82
570.08	2299.89
570.43	2299.98
570.78	2299.46
571.14	2297.84
571.49	2296.54
571.84	2296.16
572.20	2295.01
572.55	2293.88
572.90	2292.35
573.26	2290.83
573.61	2289.17
573.96	2287.45
574.31	2284.60
574.67	2281.68
575.02	2278.06
575.37	2274.56
575.72	2270.87
576.08	2267.59
576.43	2264.34
576.78	2260.68
577.13	2257.38
577.49	2254.31
577.84	2250.80
578.19	2247.00
578.54	2243.65
578.90	2239.39
579.25	2233.87
579.60	2228.97
579.95	2223.93
580.30	2218.94
580.66	2213.84
581.01	2208.89
581.36	2203.96
581.71	2199.76
582.06	2195.25
582.42	2190.99
582.77	2185.86
583.12	2181.48
583.47	2176.71
583.82	2171.76
584.17	2166.55
584.53	2161.15
584.88	2155.61
585.23	2149.84
585.58	2144.35
585.93	2138.72
586.28	2133.86
586.63	2128.72
586.98	2123.68
587.34	2119.02
587.69	2114.22
588.04	2109.12
588.39	2103.37
588.74	2096.88
589.09	2090.68
589.44	2084.13
589.79	2077.95
590.14	2072.34
590.49	2065.70
590.84	2059.41
591.19	2053.29
591.54	2046.83
591.89	2039.55
592.25	2032.74
592.60	2025.58
592.95	2018.08
593.30	2010.83
593.65	2003.29
594.00	1996.38
594.35	1989.05
594.70	1980.97
595.05	1973.79
595.40	1966.58
595.75	1959.21
596.10	1952.99
596.45	1946.25
596.80	1939.94
597.15	1933.41
597.50	1926.38
597.85	1919.97
598.19	1913.21
598.54	1906.14
598.89	1899.51
599.24	1893.53
599.59	1886.98
599.94	1880.77
600.29	1874.39
600.64	1867.76
600.99	1860.35
601.34	1853.47
601.69	1846.60
602.04	1839.76
602.39	1832.46
602.74	1825.64
603.08	1818.89
603.43	1812.22
603.78	1804.94
604.13	1797.65
604.48	1790.40
604.83	1783.46
605.18	1776.47
605.53	1768.59
605.87	1760.63
606.22	1753.47
606.57	1745.55
606.92	1738.06
607.27	1730.91
607.62	1724.11
607.96	1716.90
608.31	1710.32
608.66	1702.71
609.01	1695.27
609.36	1687.81
609.70	1679.80
610.05	1671.73
610.40	1663.93
610.75	1655.49
611.10	1647.78
611.44	1639.42
611.79	1631.31
612.14	1622.57
612.49	1613.36
612.83	1604.89
613.18	1596.77
613.53	1588.62
613.88	1580.10
614.22	1571.97
614.57	1563.30
614.92	1555.20
615.27	1547.71
615.61	1539.36
615.96	1531.38
616.31	1523.61
616.65	1516.22
617.00	1508.61
617.35	1500.92
617.70	1492.75
618.04	1484.39
618.39	1476.27
618.74	1468.74
619.08	1460.52
619.43	1453.08
619.78	1446.19
620.12	1439.14
620.47	1431.60
620.82	1423.42
621.16	1416.01
621.51	1408.41
621.85	1400.78
622.20	1392.30
622.55	1383.86
622.89	1376.08
623.24	1368.36
623.59	1360.90
623.93	1353.42
624.28	1346.15
624.62	1338.63
624.97	1331.36
625.32	1324.62
625.66	1317.58
626.01	1310.33
626.35	1302.91
626.70	1295.06
627.04	1287.46
627.39	1279.59
627.73	1272.17
628.08	1265.23
628.43	1257.97
628.77	1250.55
629.12	1243.03
629.46	1235.91
629.81	1228.34
630.15	1221.19
630.50	1213.80
630.84	1205.78
631.19	1197.84
631.53	1190.32
631.88	1182.63
632.22	1175.09
632.57	1167.67
632.91	1160.10
633.26	1152.71
633.60	1145.28
633.95	1138.15
634.29	1131.03
634.64	1124.28
634.98	1116.87
635.32	1109.74
635.67	1103.06
636.01	1096.36
636.36	1089.62
636.70	1083.03
637.05	1076.60
637.39	1070.09
637.73	1063.63
638.08	1057.71
638.42	1051.71
638.77	1045.31
639.11	1038.85
639.45	1032.46
639.80	1025.83
640.14	1019.50
640.49	1012.97
640.83	1006.67
641.17	1000.53
641.52	994.18
641.86	987.84
642.20	982.02
642.55	975.64
642.89	969.23
643.23	962.71
643.58	956.90
643.92	950.79
644.26	944.75
644.61	938.63
644.95	932.66
645.29	926.06
645.64	919.30
645.98	913.00
646.32	907.16
646.66	901.09
647.01	895.30
647.35	889.51
647.69	883.62
648.04	878.18
648.38	872.34
648.72	866.36
649.06	860.23
649.41	854.34
649.75	848.40
650.09	842.47
650.43	836.74
650.78	830.60
651.12	824.53
651.46	818.80
651.80	813.05
652.14	807.70
652.49	802.41
652.83	797.31
653.17	791.62
653.51	785.88
653.85	780.50
654.20	774.90
654.54	768.95
654.88	763.24
655.22	757.34
655.56	751.69
655.90	746.24
656.25	741.10
656.59	735.71
656.93	730.64
657.27	725.44
657.61	719.92
657.95	714.84
658.29	709.79
658.64	704.54
658.98	699.21
659.32	693.62
659.66	688.37
660.00	682.96
660.34	678.02
660.68	673.11
661.02	668.09
661.36	663.34
661.70	658.88
662.05	654.54
662.39	650.16
662.73	645.65
663.07	641.30
663.41	636.77
663.75	632.31
664.09	627.72
664.43	623.37
664.77	619.33
665.11	615.04
665.45	610.91
665.79	606.81
666.13	602.75
666.47	598.74
666.81	594.50
667.15	590.44
667.49	586.48
667.83	582.56
668.17	578.58
668.51	574.61
668.85	570.49
669.19	566.62
669.53	562.79
669.87	558.93
670.21	555.23
670.55	551.62
670.89	548.27
671.23	544.85
671.57	541.30
671.91	537.76
672.25	534.28
672.58	530.80
672.92	527.39
673.26	524.24
673.60	521.06
673.94	517.96
674.28	515.02
674.62	512.16
674.96	509.12
675.30	506.26
675.64	503.31
675.97	500.57
676.31	497.68
676.65	494.83
676.99	492.18
677.33	489.26
677.67	486.43
678.01	483.34
678.34	480.37
678.68	477.47
679.02	474.66
679.36	471.86
679.70	469.14
680.04	466.38
680.37	463.41
680.71	460.60
681.05	458.02
681.39	455.27
681.73	452.54
682.06	449.95
682.40	447.33
682.74	444.78
683.08	442.24
683.42	439.64
683.75	437.05
684.09	434.43
684.43	431.93
684.77	429.46
685.10	427.10
685.44	424.84
685.78	422.58
686.12	420.25
686.45	417.94
686.79	415.60
687.13	413.38
687.46	411.23
687.80	409.02
688.14	406.81
688.48	404.74
688.81	402.47
689.15	400.37
689.49	398.24
689.82	396.18
690.16	394.08
690.50	392.10
690.83	390.17
691.17	388.20
691.51	386.33
691.84	384.46
692.18	382.61
692.52	380.56
692.85	378.57
693.19	376.73
693.52	374.93
693.86	373.14
694.20	371.42
694.53	369.67
694.87	367.86
695.21	366.06
695.54	364.21
695.88	362.51
696.21	360.80
696.55	359.14
696.88	357.40
697.22	355.75
697.56	354.16
697.89	352.52
698.23	350.95
698.56	349.35
698.90	347.83
699.23	346.16
699.57	344.68
699.90	343.20
700.24	341.64
700.58	340.16
700.91	338.67
701.25	337.20
701.58	335.82
701.92	334.54
702.25	333.20
702.59	331.88
702.92	330.54
703.26	329.27
703.59	327.97
703.93	326.82
704.26	325.59
704.60	324.29
704.93	323.06
705.26	321.80
705.60	320.63
705.93	319.44
706.27	318.36
706.60	317.29
706.94	316.16
707.27	315.07
707.61	313.94
707.94	312.91
708.27	311.82
708.61	310.75
708.94	309.71
709.28	308.72
709.61	307.74
709.94	306.81
710.28	305.76
710.61	304.75
710.95	303.63
711.28	302.69
711.61	301.77
711.95	300.84
712.28	299.88
712.61	298.91
712.95	297.93
713.28	297.04
713.61	296.11
713.95	295.22
714.28	294.39
714.61	293.54
714.95	292.67
715.28	291.79
715.61	290.91
715.95	290.01
716.28	289.12
716.61	288.29
716.95	287.49
717.28	286.74
717.61	285.99
717.94	285.26
718.28	284.47
718.61	283.72
718.94	283.00
719.27	282.37
719.61	281.71
719.94	281.07
720.27	280.34
720.60	279.66
720.94	279.05
721.27	278.41
721.60	277.82
721.93	277.25
722.27	276.74
722.60	276.17
722.93	275.60
723.26	275.09
723.59	274.52
723.93	273.92
724.26	273.38
724.59	272.82
724.92	272.31
725.25	271.78
725.59	271.25
725.92	270.71
726.25	270.18
726.58	269.67
726.91	269.20
727.24	268.71
727.57	268.27
727.91	267.79
728.24	267.35
728.57	266.86
728.90	266.38
729.23	265.86
729.56	265.48
729.89	265.04
730.22	264.53
730.55	264.10
730.89	263.69
731.22	263.26
731.55	262.82
731.88	262.40
732.21	262.02
732.54	261.60
732.87	261.20
733.20	260.84
733.53	260.46
733.86	260.09
734.19	259.75
734.52	259.36
734.85	259.06
735.18	258.63
735.51	258.30
735.84	257.93
736.17	257.59
736.50	257.16
736.83	256.91
737.16	256.60
737.49	256.25
737.82	255.90
738.15	255.56
738.48	255.25
738.81	254.96
739.14	254.59
739.47	254.31
739.80	253.99
740.13	253.67
740.46	253.36
740.79	253.01
741.12	252.71
741.45	252.39
741.78	252.05
742.11	251.78
742.44	251.44
742.77	251.18
743.10	250.89
743.43	250.61
743.75	250.24
744.08	250.09
744.41	249.80
744.74	249.57
745.07	249.27
745.40	249.04
745.73	248.77
746.06	248.54
746.39	248.26
746.71	248.02
747.04	247.75
747.37	247.49
747.70	247.25
748.03	247.02
748.36	246.84
748.68	246.57
749.01	246.34
749.34	246.14
749.67	245.91
750.00	245.69
750.33	245.51
750.65	245.29
750.98	244.98
751.31	244.78
751.64	244.58
751.97	244.43
752.29	244.17
752.62	243.93
752.95	243.70
753.28	243.45
753.60	243.22
753.93	243.03
754.26	242.81
754.59	242.61
754.91	242.39
755.24	242.18
755.57	242.00
755.90	241.81
756.22	241.62
756.55	241.42
756.88	241.23
757.20	241.02
757.53	240.82
757.86	240.64
758.19	240.48
758.51	240.26
758.84	240.02
759.17	239.84
759.49	239.68
759.82	239.54
760.15	239.44
760.47	239.29
760.80	239.09
761.13	238.98
761.45	238.82
761.78	238.65
762.11	238.51
762.43	238.33
762.76	238.17
763.08	238.00
763.41	237.86
763.74	237.73
764.06	237.56
764.39	237.42
764.71	237.26
765.04	237.12
765.37	237.00
765.69	236.86
766.02	236.77
766.34	236.65
766.67	236.45
767.00	236.30
767.32	236.22
767.65	236.17
767.97	236.05
768.30	235.91
768.62	235.79
768.95	235.65
769.27	235.52
769.60	235.42
769.92	235.34
770.25	235.23
770.57	235.13
770.90	235.04
771.22	234.94
771.55	234.87
771.87	234.78
772.20	234.68
772.52	234.69
772.85	234.72
773.17	234.63
773.50	234.61
773.82	234.54
774.15	234.41
774.47	234.23
774.80	234.14
775.12	234.07
775.45	233.99
775.77	233.93
776.09	233.89
776.42	233.81
776.74	233.74
777.07	233.66
777.39	233.56
777.72	233.47
778.04	233.40
778.36	233.32
778.69	233.24
779.01	233.20
779.33	233.06
779.66	232.87
779.98	232.82
780.31	232.76
780.63	232.75
780.95	232.72
781.28	232.70
781.60	232.62
781.92	232.58
782.25	232.57
782.57	232.48
782.89	232.40
783.22	232.34
783.54	232.27
783.86	232.23
784.19	232.18
784.51	232.16
784.83	232.12
785.16	232.08
785.48	232.06
785.80	231.98
786.12	231.93
786.45	231.87
786.77	231.80
787.09	231.77
