SpectraSuite Data File
++++++++++++++++++++++++++++++++++++
Date: Fri Feb 01 17:27:51 EST 2013
User: group
Dark Spectrum Present: No
Reference Spectrum Present: No
Number of Sampled Component Spectra: 1
Spectrometers: USB2E7196
Integration Time (usec): 35000 (USB2E7196)
Spectra Averaged: 100 (USB2E7196)
Boxcar Smoothing: 10 (USB2E7196)
Correct for Electrical Dark: No (USB2E7196)
Strobe/Lamp Enabled: No (USB2E7196)
Correct for Detector Non-linearity: No (USB2E7196)
Correct for Stray Light: No (USB2E7196)
Number of Pixels in Processed Spectrum: 2048
>>>>>Begin Processed Spectral Data<<<<<
339.09	0.00
339.48	211.81
339.86	213.65
340.24	216.21
340.63	217.65
341.01	219.49
341.39	219.71
341.78	221.41
342.16	222.34
342.54	222.80
342.93	211.22
343.31	221.91
343.69	222.50
344.07	223.00
344.46	223.41
344.84	223.76
345.22	224.01
345.60	224.24
345.99	224.42
346.37	224.56
346.75	224.67
347.13	224.78
347.52	224.84
347.90	224.93
348.28	224.97
348.66	225.02
349.05	225.02
349.43	225.07
349.81	225.10
350.19	225.15
350.57	225.19
350.96	225.25
351.34	225.33
351.72	225.42
352.10	225.51
352.48	225.58
352.87	225.63
353.25	225.72
353.63	225.81
354.01	225.87
354.39	225.95
354.77	226.03
355.15	226.11
355.54	226.18
355.92	226.19
356.30	226.26
356.68	226.42
357.06	226.49
357.44	226.52
357.82	226.60
358.20	226.68
358.58	226.76
358.97	226.82
359.35	226.92
359.73	227.00
360.11	227.03
360.49	227.09
360.87	227.13
361.25	227.19
361.63	227.26
362.01	227.33
362.39	227.34
362.77	227.38
363.15	227.42
363.53	227.44
363.91	227.51
364.29	227.52
364.67	227.44
365.05	227.48
365.43	227.52
365.81	227.55
366.19	227.58
366.57	227.63
366.95	227.64
367.33	227.61
367.71	227.62
368.09	227.65
368.47	227.64
368.85	227.65
369.23	227.65
369.61	227.58
369.99	227.56
370.37	227.58
370.75	227.61
371.13	227.54
371.51	227.48
371.89	227.47
372.27	227.43
372.65	227.40
373.03	227.38
373.41	227.34
373.78	227.27
374.16	227.19
374.54	227.06
374.92	226.99
375.30	226.94
375.68	226.86
376.06	226.81
376.44	226.72
376.82	226.70
377.19	226.61
377.57	226.57
377.95	226.48
378.33	226.38
378.71	226.26
379.09	226.21
379.47	226.15
379.84	226.05
380.22	225.98
380.60	225.88
380.98	225.82
381.36	225.75
381.73	225.68
382.11	225.66
382.49	225.68
382.87	225.63
383.25	225.53
383.62	225.59
384.00	225.53
384.38	225.49
384.76	225.43
385.13	225.48
385.51	225.38
385.89	225.31
386.27	225.27
386.64	225.23
387.02	225.17
387.40	225.14
387.78	225.12
388.15	225.12
388.53	225.10
388.91	225.09
389.29	225.04
389.66	225.02
390.04	224.94
390.42	224.91
390.79	224.88
391.17	224.86
391.55	224.72
391.92	224.69
392.30	224.71
392.68	224.69
393.05	224.64
393.43	224.70
393.81	224.73
394.18	224.72
394.56	224.74
394.94	224.75
395.31	224.78
395.69	224.81
396.06	224.82
396.44	224.83
396.82	224.80
397.19	224.91
397.57	224.95
397.95	225.02
398.32	225.02
398.70	225.09
399.07	225.16
399.45	225.19
399.82	225.24
400.20	225.28
400.58	225.35
400.95	225.36
401.33	225.39
401.70	225.51
402.08	225.60
402.45	225.67
402.83	225.80
403.20	225.83
403.58	225.90
403.95	226.03
404.33	226.13
404.71	226.25
405.08	226.38
405.46	226.50
405.83	226.63
406.21	226.75
406.58	226.88
406.96	227.02
407.33	227.21
407.70	227.39
408.08	227.65
408.45	227.84
408.83	228.12
409.20	228.33
409.58	228.51
409.95	228.76
410.33	229.06
410.70	229.31
411.08	229.66
411.45	229.96
411.82	230.27
412.20	230.66
412.57	231.05
412.95	231.36
413.32	231.78
413.69	232.21
414.07	232.66
414.44	233.15
414.82	233.64
415.19	234.18
415.56	234.76
415.94	235.32
416.31	236.01
416.68	236.62
417.06	237.38
417.43	238.06
417.81	238.87
418.18	239.63
418.55	240.52
418.93	241.42
419.30	242.36
419.67	243.31
420.04	244.33
420.42	245.39
420.79	246.61
421.16	247.81
421.54	249.04
421.91	250.34
422.28	251.65
422.66	253.06
423.03	254.43
423.40	255.84
423.77	257.30
424.15	258.75
424.52	260.31
424.89	261.97
425.26	263.63
425.64	265.15
426.01	266.82
426.38	268.55
426.75	270.28
427.13	272.07
427.50	273.95
427.87	275.90
428.24	277.87
428.61	279.69
428.99	281.72
429.36	283.87
429.73	286.03
430.10	288.14
430.47	290.30
430.85	292.52
431.22	294.84
431.59	297.33
431.96	299.67
432.33	302.26
432.70	304.76
433.08	307.70
433.45	310.43
433.82	313.15
434.19	316.15
434.56	319.07
434.93	321.85
435.30	324.61
435.68	327.62
436.05	330.53
436.42	333.49
436.79	336.13
437.16	338.97
437.53	341.91
437.90	344.81
438.27	347.66
438.64	350.61
439.01	353.31
439.38	355.66
439.75	357.92
440.13	360.53
440.50	362.97
440.87	364.92
441.24	366.97
441.61	369.22
441.98	370.78
442.35	372.69
442.72	374.59
443.09	376.48
443.46	377.51
443.83	378.16
444.20	378.67
444.57	379.56
444.94	379.86
445.31	380.25
445.68	380.65
446.05	380.80
446.42	380.40
446.79	379.98
447.16	379.48
447.53	379.19
447.90	377.96
448.27	376.76
448.64	375.09
449.01	373.90
449.37	371.88
449.74	369.92
450.11	367.58
450.48	365.02
450.85	362.37
451.22	360.17
451.59	358.06
451.96	356.07
452.33	353.32
452.70	350.90
453.07	347.92
453.43	344.90
453.80	341.97
454.17	339.17
454.54	336.52
454.91	333.73
455.28	330.89
455.65	328.31
456.02	325.74
456.38	323.49
456.75	320.72
457.12	318.32
457.49	316.00
457.86	313.75
458.23	311.85
458.59	309.75
458.96	307.54
459.33	305.58
459.70	303.61
460.07	302.06
460.43	300.27
460.80	298.58
461.17	297.07
461.54	295.53
461.91	294.06
462.27	292.58
462.64	291.26
463.01	289.87
463.38	288.51
463.74	287.12
464.11	285.91
464.48	284.86
464.85	283.75
465.21	282.86
465.58	281.89
465.95	280.75
466.32	279.82
466.68	278.90
467.05	278.01
467.42	277.11
467.78	276.13
468.15	275.23
468.52	274.49
468.88	273.63
469.25	272.79
469.62	272.14
469.98	271.40
470.35	270.74
470.72	270.15
471.08	269.49
471.45	268.93
471.82	268.39
472.18	267.76
472.55	267.32
472.92	266.81
473.28	266.36
473.65	265.91
474.02	265.47
474.38	265.09
474.75	264.72
475.11	264.36
475.48	264.09
475.85	263.86
476.21	263.66
476.58	263.46
476.94	263.33
477.31	263.17
477.67	263.04
478.04	262.94
478.41	262.88
478.77	262.94
479.14	262.89
479.50	262.91
479.87	262.96
480.23	263.01
480.60	263.06
480.96	263.12
481.33	263.32
481.69	263.49
482.06	263.70
482.42	263.91
482.79	264.18
483.15	264.52
483.52	264.87
483.88	265.25
484.25	265.64
484.61	266.08
484.98	266.54
485.34	267.09
485.71	267.70
486.07	268.33
486.44	268.87
486.80	269.55
487.17	270.29
487.53	271.15
487.90	272.02
488.26	272.95
488.62	273.98
488.99	274.94
489.35	276.02
489.72	277.10
490.08	278.31
490.44	279.53
490.81	280.84
491.17	282.18
491.54	283.62
491.90	285.15
492.26	286.77
492.63	288.47
492.99	290.24
493.36	292.08
493.72	294.09
494.08	296.18
494.45	298.42
494.81	300.77
495.17	303.14
495.54	305.71
495.90	308.36
496.26	311.13
496.63	314.06
496.99	317.14
497.35	320.40
497.72	323.78
498.08	327.28
498.44	330.86
498.80	334.76
499.17	338.77
499.53	342.87
499.89	347.18
500.26	351.60
500.62	356.17
500.98	361.10
501.34	366.06
501.71	371.26
502.07	376.62
502.43	382.14
502.79	387.93
503.16	393.82
503.52	399.97
503.88	406.27
504.24	412.80
504.60	419.52
504.97	426.53
505.33	433.71
505.69	441.26
506.05	448.91
506.41	456.61
506.78	464.56
507.14	472.89
507.50	481.44
507.86	490.30
508.22	499.36
508.59	508.37
508.95	517.82
509.31	527.46
509.67	537.34
510.03	547.43
510.39	557.69
510.75	568.25
511.12	579.01
511.48	590.04
511.84	601.26
512.20	612.53
512.56	624.16
512.92	636.08
513.28	648.17
513.64	660.32
514.00	672.76
514.37	685.42
514.73	698.14
515.09	710.90
515.45	723.88
515.81	737.11
516.17	750.75
516.53	764.50
516.89	778.30
517.25	792.11
517.61	806.05
517.97	820.21
518.33	834.30
518.69	848.67
519.05	863.16
519.41	877.91
519.77	892.99
520.13	907.96
520.49	922.93
520.85	937.79
521.21	953.06
521.57	968.89
521.93	984.18
522.29	1000.16
522.65	1016.05
523.01	1031.80
523.37	1047.34
523.73	1063.11
524.09	1078.72
524.45	1094.57
524.81	1110.76
525.17	1127.08
525.53	1143.37
525.89	1159.89
526.25	1176.29
526.61	1192.26
526.97	1208.52
527.33	1224.55
527.68	1240.82
528.04	1256.85
528.40	1273.01
528.76	1289.75
529.12	1305.88
529.48	1322.28
529.84	1337.69
530.20	1353.83
530.56	1370.33
530.91	1387.34
531.27	1403.61
531.63	1419.71
531.99	1435.92
532.35	1451.55
532.71	1467.25
533.07	1483.12
533.42	1498.60
533.78	1514.20
534.14	1530.15
534.50	1545.10
534.86	1560.63
535.21	1575.53
535.57	1591.02
535.93	1606.25
536.29	1620.67
536.65	1635.27
537.00	1649.79
537.36	1664.93
537.72	1679.07
538.08	1693.20
538.44	1706.78
538.79	1720.48
539.15	1733.80
539.51	1747.21
539.87	1761.36
540.22	1774.75
540.58	1788.30
540.94	1801.25
541.29	1813.92
541.65	1826.42
542.01	1839.53
542.37	1851.75
542.72	1863.99
543.08	1875.71
543.44	1887.92
543.79	1899.15
544.15	1910.26
544.51	1921.81
544.87	1932.67
545.22	1943.59
545.58	1953.88
545.94	1963.66
546.29	1973.57
546.65	1983.65
547.01	1993.01
547.36	2001.82
547.72	2010.39
548.07	2018.52
548.43	2026.87
548.79	2034.96
549.14	2042.74
549.50	2050.21
549.86	2057.86
550.21	2065.39
550.57	2072.83
550.92	2079.72
551.28	2086.87
551.64	2094.03
551.99	2100.76
552.35	2107.10
552.70	2113.46
553.06	2119.74
553.41	2126.27
553.77	2132.46
554.13	2138.58
554.48	2145.01
554.84	2150.82
555.19	2156.31
555.55	2161.80
555.90	2166.56
556.26	2172.00
556.61	2176.92
556.97	2181.72
557.32	2186.32
557.68	2190.73
558.03	2195.28
558.39	2199.06
558.74	2204.01
559.10	2208.28
559.45	2212.24
559.81	2216.97
560.16	2221.03
560.52	2224.66
560.87	2228.46
561.23	2231.40
561.58	2234.67
561.94	2237.65
562.29	2240.15
562.64	2243.40
563.00	2246.19
563.35	2250.01
563.71	2253.36
564.06	2256.80
564.42	2260.06
564.77	2263.07
565.12	2265.90
565.48	2268.30
565.83	2270.77
566.19	2272.64
566.54	2273.91
566.89	2275.51
567.25	2276.53
567.60	2278.16
567.96	2280.31
568.31	2281.59
568.66	2283.29
569.02	2284.30
569.37	2284.94
569.72	2286.38
570.08	2286.97
570.43	2287.55
570.78	2287.56
571.14	2286.52
571.49	2285.81
571.84	2285.58
572.20	2284.89
572.55	2284.10
572.90	2282.80
573.26	2281.83
573.61	2280.25
573.96	2279.07
574.31	2276.46
574.67	2274.04
575.02	2270.90
575.37	2267.74
575.72	2264.35
576.08	2261.26
576.43	2258.30
576.78	2255.17
577.13	2252.11
577.49	2249.17
577.84	2246.09
578.19	2242.84
578.54	2239.60
578.90	2235.70
579.25	2230.67
579.60	2226.08
579.95	2221.47
580.30	2216.81
580.66	2211.99
581.01	2207.45
581.36	2202.69
581.71	2199.00
582.06	2194.74
582.42	2190.70
582.77	2185.89
583.12	2181.66
583.47	2177.41
583.82	2172.86
584.17	2167.84
584.53	2162.75
584.88	2157.58
585.23	2152.27
585.58	2146.86
585.93	2141.61
586.28	2137.01
586.63	2132.26
586.98	2127.51
587.34	2123.03
587.69	2118.35
588.04	2113.57
588.39	2108.20
588.74	2101.99
589.09	2095.99
589.44	2089.55
589.79	2083.53
590.14	2078.13
590.49	2071.74
590.84	2065.33
591.19	2059.50
591.54	2053.24
591.89	2046.30
592.25	2039.81
592.60	2032.55
592.95	2025.23
593.30	2018.12
593.65	2010.78
594.00	2003.86
594.35	1996.70
594.70	1988.85
595.05	1982.11
595.40	1974.68
595.75	1967.54
596.10	1961.64
596.45	1955.19
596.80	1949.03
597.15	1942.57
597.50	1935.79
597.85	1929.45
598.19	1923.03
598.54	1916.20
598.89	1909.86
599.24	1904.04
599.59	1897.47
599.94	1891.37
600.29	1885.13
600.64	1878.62
600.99	1871.39
601.34	1864.62
601.69	1857.69
602.04	1850.93
602.39	1843.55
602.74	1837.02
603.08	1830.20
603.43	1823.43
603.78	1816.13
604.13	1809.06
604.48	1802.22
604.83	1795.34
605.18	1788.63
605.53	1780.71
605.87	1772.67
606.22	1765.27
606.57	1757.24
606.92	1749.78
607.27	1742.63
607.62	1735.81
607.96	1728.68
608.31	1722.14
608.66	1714.66
609.01	1707.12
609.36	1699.70
609.70	1691.81
610.05	1683.78
610.40	1676.24
610.75	1667.91
611.10	1660.25
611.44	1651.73
611.79	1643.46
612.14	1634.83
612.49	1625.55
612.83	1617.21
613.18	1609.01
613.53	1600.93
613.88	1592.37
614.22	1583.94
614.57	1575.25
614.92	1567.09
615.27	1559.54
615.61	1551.14
615.96	1542.92
616.31	1535.22
616.65	1527.50
617.00	1519.68
617.35	1511.78
617.70	1503.33
618.04	1494.77
618.39	1486.28
618.74	1478.70
619.08	1470.28
619.43	1462.49
619.78	1455.41
620.12	1448.22
620.47	1440.61
620.82	1432.30
621.16	1424.71
621.51	1417.10
621.85	1409.30
622.20	1400.80
622.55	1392.23
622.89	1384.17
623.24	1376.44
623.59	1368.99
623.93	1361.48
624.28	1354.18
624.62	1346.64
624.97	1339.31
625.32	1332.31
625.66	1325.43
626.01	1318.18
626.35	1310.84
626.70	1302.95
627.04	1295.17
627.39	1287.31
627.73	1279.84
628.08	1272.85
628.43	1265.63
628.77	1258.23
629.12	1250.75
629.46	1243.53
629.81	1235.87
630.15	1228.61
630.50	1221.15
630.84	1212.84
631.19	1204.77
631.53	1196.98
631.88	1189.28
632.22	1181.70
632.57	1174.44
632.91	1166.73
633.26	1159.25
633.60	1151.64
633.95	1144.43
634.29	1137.24
634.64	1130.40
634.98	1123.06
635.32	1115.78
635.67	1109.07
636.01	1102.28
636.36	1095.44
636.70	1088.77
637.05	1082.29
637.39	1075.70
637.73	1069.24
638.08	1063.31
638.42	1057.27
638.77	1050.93
639.11	1044.50
639.45	1038.01
639.80	1031.31
640.14	1024.90
640.49	1018.27
640.83	1011.97
641.17	1005.71
641.52	999.39
641.86	992.86
642.20	986.86
642.55	980.36
642.89	973.83
643.23	967.27
643.58	961.42
643.92	955.17
644.26	949.09
644.61	943.05
644.95	936.97
645.29	930.47
645.64	923.69
645.98	917.29
646.32	911.19
646.66	905.07
647.01	899.19
647.35	893.39
647.69	887.52
648.04	881.99
648.38	876.18
648.72	870.26
649.06	864.17
649.41	858.28
649.75	852.50
650.09	846.57
650.43	840.80
650.78	834.57
651.12	828.59
651.46	822.81
651.80	817.11
652.14	811.61
652.49	806.13
652.83	800.94
653.17	795.33
653.51	789.75
653.85	784.36
654.20	778.80
654.54	772.76
654.88	766.93
655.22	760.93
655.56	755.19
655.90	749.56
656.25	744.34
656.59	738.93
656.93	733.81
657.27	728.61
657.61	723.14
657.95	717.99
658.29	712.85
658.64	707.57
658.98	702.17
659.32	696.70
659.66	691.44
660.00	686.21
660.34	681.21
660.68	676.15
661.02	671.02
661.36	666.30
661.70	661.77
662.05	657.44
662.39	653.21
662.73	648.73
663.07	644.41
663.41	639.95
663.75	635.43
664.09	630.87
664.43	626.44
664.77	622.36
665.11	618.17
665.45	613.98
665.79	609.89
666.13	605.73
666.47	601.70
666.81	597.59
667.15	593.34
667.49	589.38
667.83	585.55
668.17	581.67
668.51	577.58
668.85	573.57
669.19	569.69
669.53	565.81
669.87	561.95
670.21	558.19
670.55	554.46
670.89	551.05
671.23	547.58
671.57	544.02
671.91	540.50
672.25	536.96
672.58	533.49
672.92	530.04
673.26	526.85
673.60	523.59
673.94	520.45
674.28	517.54
674.62	514.59
674.96	511.46
675.30	508.48
675.64	505.52
675.97	502.67
676.31	499.81
676.65	496.83
676.99	494.06
677.33	491.20
677.67	488.41
678.01	485.34
678.34	482.36
678.68	479.46
679.02	476.54
679.36	473.68
679.70	470.92
680.04	468.14
680.37	465.26
680.71	462.47
681.05	459.81
681.39	457.08
681.73	454.36
682.06	451.83
682.40	449.27
682.74	446.64
683.08	444.04
683.42	441.43
683.75	438.90
684.09	436.28
684.43	433.81
684.77	431.29
685.10	428.90
685.44	426.52
685.78	424.25
686.12	421.99
686.45	419.73
686.79	417.46
687.13	415.22
687.46	413.00
687.80	410.82
688.14	408.51
688.48	406.40
688.81	404.16
689.15	401.94
689.49	399.76
689.82	397.68
690.16	395.57
690.50	393.54
690.83	391.56
691.17	389.57
691.51	387.61
691.84	385.74
692.18	383.80
692.52	381.84
692.85	379.82
693.19	377.92
693.52	376.08
693.86	374.17
694.20	372.34
694.53	370.56
694.87	368.67
695.21	366.92
695.54	365.04
695.88	363.26
696.21	361.55
696.55	359.85
696.88	358.14
697.22	356.44
697.56	354.73
697.89	353.08
698.23	351.47
698.56	349.81
698.90	348.21
699.23	346.55
699.57	344.94
699.90	343.40
700.24	341.84
700.58	340.25
700.91	338.77
701.25	337.30
701.58	335.92
701.92	334.50
702.25	333.08
702.59	331.74
702.92	330.40
703.26	329.04
703.59	327.76
703.93	326.57
704.26	325.31
704.60	324.10
704.93	322.80
705.26	321.51
705.60	320.34
705.93	319.12
706.27	318.04
706.60	316.97
706.94	315.85
707.27	314.71
707.61	313.61
707.94	312.57
708.27	311.47
708.61	310.32
708.94	309.29
709.28	308.29
709.61	307.26
709.94	306.29
710.28	305.29
710.61	304.25
710.95	303.12
711.28	302.22
711.61	301.22
711.95	300.32
712.28	299.42
712.61	298.37
712.95	297.44
713.28	296.55
713.61	295.63
713.95	294.70
714.28	293.83
714.61	293.00
714.95	292.12
715.28	291.24
715.61	290.35
715.95	289.51
716.28	288.68
716.61	287.83
716.95	287.01
717.28	286.23
717.61	285.46
717.94	284.75
718.28	283.93
718.61	283.19
718.94	282.44
719.27	281.73
719.61	281.11
719.94	280.42
720.27	279.67
720.60	278.99
720.94	278.36
721.27	277.76
721.60	277.16
721.93	276.56
722.27	276.04
722.60	275.47
722.93	274.87
723.26	274.27
723.59	273.68
723.93	273.11
724.26	272.57
724.59	271.99
724.92	271.44
725.25	270.91
725.59	270.37
725.92	269.87
726.25	269.32
726.58	268.78
726.91	268.27
727.24	267.84
727.57	267.35
727.91	266.82
728.24	266.34
728.57	265.84
728.90	265.39
729.23	264.90
729.56	264.49
729.89	264.03
730.22	263.58
730.55	263.15
730.89	262.70
731.22	262.21
731.55	261.79
731.88	261.34
732.21	260.91
732.54	260.48
732.87	260.08
733.20	259.72
733.53	259.34
733.86	259.03
734.19	258.59
734.52	258.22
734.85	257.92
735.18	257.49
735.51	257.08
735.84	256.70
736.17	256.33
736.50	255.93
736.83	255.70
737.16	255.37
737.49	255.04
737.82	254.70
738.15	254.38
738.48	254.04
738.81	253.69
739.14	253.38
739.47	253.03
739.80	252.67
740.13	252.34
740.46	252.04
740.79	251.65
741.12	251.33
741.45	251.00
741.78	250.63
742.11	250.35
742.44	250.03
742.77	249.72
743.10	249.40
743.43	249.08
743.75	248.67
744.08	248.47
744.41	248.17
744.74	247.89
745.07	247.62
745.40	247.36
745.73	247.13
746.06	246.88
746.39	246.66
746.71	246.39
747.04	246.12
747.37	245.85
747.70	245.61
748.03	245.37
748.36	245.15
748.68	244.91
749.01	244.67
749.34	244.50
749.67	244.28
750.00	244.05
750.33	243.89
750.65	243.70
750.98	243.35
751.31	243.15
751.64	242.92
751.97	242.72
752.29	242.52
752.62	242.29
752.95	242.04
753.28	241.83
753.60	241.63
753.93	241.44
754.26	241.24
754.59	241.01
754.91	240.84
755.24	240.61
755.57	240.45
755.90	240.24
756.22	239.99
756.55	239.79
756.88	239.62
757.20	239.38
757.53	239.16
757.86	239.01
758.19	238.86
758.51	238.69
758.84	238.50
759.17	238.31
759.49	238.12
759.82	238.00
760.15	237.81
760.47	237.62
760.80	237.43
761.13	237.32
761.45	237.15
761.78	236.96
762.11	236.84
762.43	236.68
762.76	236.52
763.08	236.41
763.41	236.26
763.74	236.10
764.06	235.98
764.39	235.82
764.71	235.68
765.04	235.53
765.37	235.41
765.69	235.27
766.02	235.12
766.34	234.97
766.67	234.82
767.00	234.72
767.32	234.69
767.65	234.63
767.97	234.46
768.30	234.36
768.62	234.27
768.95	234.13
769.27	234.01
769.60	233.91
769.92	233.78
770.25	233.68
770.57	233.59
770.90	233.49
771.22	233.37
771.55	233.28
771.87	233.19
772.20	233.10
772.52	233.11
772.85	233.13
773.17	233.07
773.50	232.95
773.82	232.84
774.15	232.68
774.47	232.53
774.80	232.45
775.12	232.38
775.45	232.29
775.77	232.21
776.09	232.17
776.42	232.12
776.74	232.04
777.07	231.95
777.39	231.86
777.72	231.73
778.04	231.68
778.36	231.60
778.69	231.52
779.01	231.44
779.33	231.27
779.66	231.10
779.98	231.00
780.31	230.94
780.63	230.95
780.95	230.95
781.28	230.92
781.60	230.86
781.92	230.79
782.25	230.73
782.57	230.69
782.89	230.60
783.22	230.51
783.54	230.49
783.86	230.44
784.19	230.36
784.51	230.34
784.83	230.31
785.16	230.24
785.48	230.15
785.80	230.10
786.12	230.08
786.45	230.04
786.77	230.04
787.09	230.00
