SpectraSuite Data File
++++++++++++++++++++++++++++++++++++
Date: Fri Feb 01 15:15:35 EST 2013
User: group
Dark Spectrum Present: No
Reference Spectrum Present: No
Number of Sampled Component Spectra: 1
Spectrometers: USB2E7196
Integration Time (usec): 35000 (USB2E7196)
Spectra Averaged: 100 (USB2E7196)
Boxcar Smoothing: 10 (USB2E7196)
Correct for Electrical Dark: No (USB2E7196)
Strobe/Lamp Enabled: No (USB2E7196)
Correct for Detector Non-linearity: No (USB2E7196)
Correct for Stray Light: No (USB2E7196)
Number of Pixels in Processed Spectrum: 2048
>>>>>Begin Processed Spectral Data<<<<<
339.09	0.00
339.48	215.06
339.86	216.44
340.24	217.86
340.63	218.70
341.01	220.84
341.39	221.85
341.78	223.43
342.16	224.52
342.54	225.33
342.93	213.11
343.31	223.88
343.69	224.41
344.07	224.84
344.46	225.26
344.84	225.64
345.22	225.92
345.60	226.17
345.99	226.35
346.37	226.44
346.75	226.54
347.13	226.66
347.52	226.74
347.90	226.82
348.28	226.87
348.66	226.91
349.05	226.91
349.43	226.95
349.81	226.99
350.19	227.03
350.57	227.08
350.96	227.14
351.34	227.22
351.72	227.30
352.10	227.40
352.48	227.50
352.87	227.57
353.25	227.65
353.63	227.72
354.01	227.77
354.39	227.89
354.77	227.95
355.15	228.06
355.54	228.11
355.92	228.17
356.30	228.25
356.68	228.42
357.06	228.49
357.44	228.53
357.82	228.64
358.20	228.74
358.58	228.77
358.97	228.87
359.35	228.96
359.73	229.06
360.11	229.16
360.49	229.19
360.87	229.24
361.25	229.31
361.63	229.37
362.01	229.40
362.39	229.41
362.77	229.45
363.15	229.43
363.53	229.49
363.91	229.50
364.29	229.49
364.67	229.43
365.05	229.45
365.43	229.47
365.81	229.48
366.19	229.54
366.57	229.60
366.95	229.63
367.33	229.60
367.71	229.55
368.09	229.55
368.47	229.56
368.85	229.55
369.23	229.55
369.61	229.48
369.99	229.51
370.37	229.50
370.75	229.50
371.13	229.46
371.51	229.38
371.89	229.35
372.27	229.34
372.65	229.29
373.03	229.24
373.41	229.20
373.78	229.13
374.16	228.98
374.54	228.88
374.92	228.76
375.30	228.68
375.68	228.60
376.06	228.52
376.44	228.43
376.82	228.37
377.19	228.28
377.57	228.24
377.95	228.14
378.33	228.05
378.71	227.94
379.09	227.88
379.47	227.84
379.84	227.75
380.22	227.64
380.60	227.56
380.98	227.47
381.36	227.40
381.73	227.32
382.11	227.31
382.49	227.25
382.87	227.19
383.25	227.13
383.62	227.21
384.00	227.15
384.38	227.08
384.76	227.00
385.13	226.97
385.51	226.93
385.89	226.86
386.27	226.84
386.64	226.80
387.02	226.75
387.40	226.68
387.78	226.62
388.15	226.62
388.53	226.57
388.91	226.53
389.29	226.49
389.66	226.46
390.04	226.41
390.42	226.39
390.79	226.39
391.17	226.41
391.55	226.27
391.92	226.30
392.30	226.32
392.68	226.31
393.05	226.31
393.43	226.30
393.81	226.32
394.18	226.32
394.56	226.30
394.94	226.34
395.31	226.37
395.69	226.49
396.06	226.52
396.44	226.59
396.82	226.62
397.19	226.75
397.57	226.81
397.95	226.90
398.32	226.93
398.70	226.97
399.07	227.00
399.45	227.09
399.82	227.14
400.20	227.21
400.58	227.34
400.95	227.42
401.33	227.54
401.70	227.70
402.08	227.80
402.45	227.93
402.83	228.09
403.20	228.27
403.58	228.33
403.95	228.46
404.33	228.61
404.71	228.76
405.08	228.93
405.46	229.09
405.83	229.21
406.21	229.42
406.58	229.60
406.96	229.80
407.33	230.01
407.70	230.21
408.08	230.49
408.45	230.70
408.83	230.91
409.20	231.16
409.58	231.34
409.95	231.62
410.33	231.94
410.70	232.15
411.08	232.43
411.45	232.76
411.82	233.08
412.20	233.42
412.57	233.86
412.95	234.17
413.32	234.57
413.69	235.04
414.07	235.46
414.44	235.94
414.82	236.45
415.19	236.96
415.56	237.51
415.94	238.07
416.31	238.71
416.68	239.35
417.06	240.07
417.43	240.77
417.81	241.52
418.18	242.26
418.55	243.12
418.93	243.96
419.30	244.85
419.67	245.76
420.04	246.71
420.42	247.69
420.79	248.82
421.16	249.97
421.54	251.10
421.91	252.31
422.28	253.56
422.66	254.86
423.03	256.15
423.40	257.49
423.77	258.84
424.15	260.22
424.52	261.71
424.89	263.25
425.26	264.77
425.64	266.25
426.01	267.83
426.38	269.50
426.75	271.20
427.13	272.93
427.50	274.74
427.87	276.59
428.24	278.41
428.61	280.15
428.99	282.08
429.36	284.16
429.73	286.21
430.10	288.22
430.47	290.27
430.85	292.41
431.22	294.65
431.59	297.02
431.96	299.27
432.33	301.73
432.70	304.13
433.08	306.93
433.45	309.51
433.82	312.14
434.19	314.99
434.56	317.78
434.93	320.44
435.30	323.06
435.68	325.98
436.05	328.87
436.42	331.71
436.79	334.21
437.16	336.95
437.53	339.78
437.90	342.59
438.27	345.33
438.64	348.20
439.01	350.73
439.38	353.04
439.75	355.16
440.13	357.68
440.50	360.00
440.87	361.88
441.24	363.83
441.61	365.96
441.98	367.43
442.35	369.22
442.72	371.05
443.09	372.87
443.46	373.89
443.83	374.44
444.20	374.90
444.57	375.74
444.94	376.05
445.31	376.41
445.68	376.81
446.05	376.92
446.42	376.47
446.79	376.13
447.16	375.64
447.53	375.39
447.90	374.23
448.27	373.09
448.64	371.48
449.01	370.39
449.37	368.42
449.74	366.52
450.11	364.25
450.48	361.78
450.85	359.26
451.22	357.05
451.59	355.01
451.96	353.07
452.33	350.46
452.70	348.06
453.07	345.21
453.43	342.27
453.80	339.45
454.17	336.83
454.54	334.25
454.91	331.52
455.28	328.84
455.65	326.34
456.02	323.90
456.38	321.76
456.75	319.06
457.12	316.80
457.49	314.59
457.86	312.45
458.23	310.62
458.59	308.54
458.96	306.49
459.33	304.62
459.70	302.75
460.07	301.23
460.43	299.53
460.80	297.92
461.17	296.45
461.54	294.97
461.91	293.53
462.27	292.08
462.64	290.84
463.01	289.47
463.38	288.17
463.74	286.80
464.11	285.63
464.48	284.59
464.85	283.48
465.21	282.60
465.58	281.67
465.95	280.57
466.32	279.70
466.68	278.80
467.05	277.92
467.42	277.03
467.78	276.12
468.15	275.23
468.52	274.55
468.88	273.69
469.25	272.86
469.62	272.21
469.98	271.56
470.35	270.90
470.72	270.28
471.08	269.61
471.45	269.07
471.82	268.49
472.18	267.89
472.55	267.48
472.92	266.98
473.28	266.52
473.65	266.05
474.02	265.58
474.38	265.23
474.75	264.92
475.11	264.58
475.48	264.26
475.85	264.02
476.21	263.78
476.58	263.61
476.94	263.49
477.31	263.34
477.67	263.18
478.04	263.08
478.41	263.03
478.77	263.05
479.14	262.96
479.50	262.97
479.87	263.05
480.23	263.13
480.60	263.16
480.96	263.23
481.33	263.42
481.69	263.61
482.06	263.78
482.42	263.98
482.79	264.22
483.15	264.57
483.52	264.97
483.88	265.33
484.25	265.71
484.61	266.11
484.98	266.54
485.34	267.07
485.71	267.61
486.07	268.20
486.44	268.78
486.80	269.44
487.17	270.17
487.53	270.95
487.90	271.75
488.26	272.69
488.62	273.66
488.99	274.64
489.35	275.67
489.72	276.77
490.08	277.95
490.44	279.19
490.81	280.52
491.17	281.81
491.54	283.30
491.90	284.84
492.26	286.52
492.63	288.25
492.99	290.02
493.36	291.95
493.72	294.00
494.08	296.11
494.45	298.41
494.81	300.83
495.17	303.23
495.54	305.82
495.90	308.51
496.26	311.30
496.63	314.25
496.99	317.37
497.35	320.65
497.72	324.05
498.08	327.57
498.44	331.24
498.80	335.15
499.17	339.17
499.53	343.33
499.89	347.71
500.26	352.26
500.62	356.96
500.98	361.97
501.34	366.99
501.71	372.30
502.07	377.70
502.43	383.25
502.79	389.12
503.16	395.17
503.52	401.42
503.88	407.85
504.24	414.48
504.60	421.34
504.97	428.41
505.33	435.74
505.69	443.43
506.05	451.19
506.41	459.13
506.78	467.26
507.14	475.69
507.50	484.44
507.86	493.39
508.22	502.54
508.59	511.72
508.95	521.37
509.31	531.20
509.67	541.32
510.03	551.59
510.39	562.11
510.75	572.99
511.12	583.94
511.48	595.27
511.84	606.70
512.20	618.21
512.56	630.18
512.92	642.30
513.28	654.64
513.64	667.13
514.00	679.79
514.37	692.80
514.73	705.89
515.09	718.91
515.45	732.21
515.81	745.81
516.17	759.83
516.53	773.95
516.89	788.11
517.25	802.35
517.61	816.78
517.97	831.25
518.33	845.70
518.69	860.50
519.05	875.52
519.41	890.74
519.77	906.40
520.13	921.88
520.49	937.38
520.85	952.79
521.21	968.57
521.57	984.88
521.93	1000.68
522.29	1017.14
522.65	1033.42
523.01	1049.71
523.37	1065.81
523.73	1082.08
524.09	1098.23
524.45	1114.69
524.81	1131.49
525.17	1148.53
525.53	1165.53
525.89	1182.44
526.25	1199.20
526.61	1215.58
526.97	1232.36
527.33	1248.71
527.68	1265.46
528.04	1281.92
528.40	1298.69
528.76	1315.78
529.12	1332.37
529.48	1349.25
529.84	1365.23
530.20	1381.95
530.56	1399.13
530.91	1416.66
531.27	1433.39
531.63	1449.84
531.99	1466.36
532.35	1482.27
532.71	1498.07
533.07	1514.39
533.42	1530.25
533.78	1546.46
534.14	1562.81
534.50	1578.19
534.86	1594.24
535.21	1609.33
535.57	1625.36
535.93	1640.93
536.29	1655.76
536.65	1671.05
537.00	1685.96
537.36	1701.44
537.72	1716.16
538.08	1730.50
538.44	1744.26
538.79	1758.28
539.15	1772.12
539.51	1786.01
539.87	1800.52
540.22	1814.29
540.58	1828.20
540.94	1841.75
541.29	1854.77
541.65	1867.51
542.01	1880.97
542.37	1893.34
542.72	1906.01
543.08	1917.90
543.44	1930.30
543.79	1941.62
544.15	1952.67
544.51	1964.27
544.87	1975.25
545.22	1985.99
545.58	1996.24
545.94	2006.05
546.29	2015.80
546.65	2025.53
547.01	2034.84
547.36	2043.54
547.72	2052.14
548.07	2059.98
548.43	2068.06
548.79	2076.12
549.14	2083.77
549.50	2091.12
549.86	2098.92
550.21	2106.24
550.57	2113.33
550.92	2119.88
551.28	2127.05
551.64	2134.07
551.99	2140.56
552.35	2146.76
552.70	2152.96
553.06	2158.98
553.41	2165.40
553.77	2171.56
554.13	2177.79
554.48	2183.73
554.84	2189.10
555.19	2194.35
555.55	2199.33
555.90	2203.85
556.26	2208.68
556.61	2213.35
556.97	2217.39
557.32	2221.43
557.68	2225.56
558.03	2229.86
558.39	2233.71
558.74	2238.32
559.10	2242.02
559.45	2245.68
559.81	2250.11
560.16	2253.84
560.52	2257.08
560.87	2260.39
561.23	2262.91
561.58	2265.95
561.94	2268.60
562.29	2270.88
562.64	2273.43
563.00	2276.13
563.35	2279.65
563.71	2282.69
564.06	2285.77
564.42	2288.75
564.77	2291.18
565.12	2293.39
565.48	2295.24
565.83	2296.95
566.19	2298.15
566.54	2299.33
566.89	2300.42
567.25	2300.73
567.60	2302.02
567.96	2303.58
568.31	2304.51
568.66	2305.58
569.02	2305.91
569.37	2306.08
569.72	2306.96
570.08	2307.11
570.43	2307.01
570.78	2306.19
571.14	2304.71
571.49	2303.31
571.84	2302.85
572.20	2301.62
572.55	2300.52
572.90	2298.94
573.26	2297.53
573.61	2295.66
573.96	2293.60
574.31	2290.51
574.67	2287.37
575.02	2283.49
575.37	2280.06
575.72	2276.06
576.08	2272.73
576.43	2269.49
576.78	2265.74
577.13	2262.54
577.49	2259.38
577.84	2255.91
578.19	2252.13
578.54	2248.27
578.90	2243.99
579.25	2238.47
579.60	2233.48
579.95	2228.42
580.30	2223.36
580.66	2218.11
581.01	2213.10
581.36	2208.11
581.71	2203.90
582.06	2199.45
582.42	2195.09
582.77	2189.78
583.12	2184.99
583.47	2179.94
583.82	2174.72
584.17	2169.43
584.53	2163.83
584.88	2158.12
585.23	2152.19
585.58	2146.80
585.93	2141.33
586.28	2136.54
586.63	2131.16
586.98	2125.96
587.34	2121.11
587.69	2115.97
588.04	2110.68
588.39	2104.81
588.74	2098.29
589.09	2091.99
589.44	2085.09
589.79	2078.91
590.14	2073.25
590.49	2066.76
590.84	2060.46
591.19	2054.34
591.54	2047.85
591.89	2040.24
592.25	2033.27
592.60	2026.01
592.95	2018.00
593.30	2010.54
593.65	2002.70
594.00	1995.77
594.35	1988.55
594.70	1980.49
595.05	1973.32
595.40	1965.98
595.75	1958.44
596.10	1952.00
596.45	1945.20
596.80	1938.99
597.15	1932.30
597.50	1924.93
597.85	1918.45
598.19	1911.72
598.54	1904.69
598.89	1898.04
599.24	1892.13
599.59	1885.39
599.94	1879.07
600.29	1872.85
600.64	1866.29
600.99	1858.94
601.34	1851.95
601.69	1844.78
602.04	1837.70
602.39	1830.27
602.74	1823.35
603.08	1816.74
603.43	1810.01
603.78	1802.80
604.13	1795.57
604.48	1788.08
604.83	1781.38
605.18	1774.26
605.53	1766.09
605.87	1757.89
606.22	1750.55
606.57	1742.61
606.92	1735.40
607.27	1728.22
607.62	1721.27
607.96	1713.89
608.31	1707.20
608.66	1699.63
609.01	1692.20
609.36	1684.73
609.70	1676.69
610.05	1668.49
610.40	1660.73
610.75	1652.45
611.10	1644.72
611.44	1636.26
611.79	1628.40
612.14	1619.66
612.49	1610.65
612.83	1602.53
613.18	1594.46
613.53	1586.40
613.88	1577.91
614.22	1569.57
614.57	1561.13
614.92	1553.01
615.27	1545.38
615.61	1536.94
615.96	1529.01
616.31	1521.38
616.65	1514.01
617.00	1506.47
617.35	1498.88
617.70	1490.48
618.04	1481.90
618.39	1473.52
618.74	1465.93
619.08	1457.57
619.43	1449.93
619.78	1442.98
620.12	1435.69
620.47	1428.16
620.82	1419.98
621.16	1412.60
621.51	1405.12
621.85	1397.43
622.20	1388.97
622.55	1380.82
622.89	1373.17
623.24	1365.51
623.59	1358.17
623.93	1350.52
624.28	1343.31
624.62	1335.71
624.97	1328.63
625.32	1321.91
625.66	1314.99
626.01	1307.79
626.35	1300.36
626.70	1292.62
627.04	1284.85
627.39	1277.20
627.73	1269.77
628.08	1262.86
628.43	1255.45
628.77	1247.94
629.12	1240.32
629.46	1233.17
629.81	1225.71
630.15	1218.49
630.50	1210.96
630.84	1202.67
631.19	1194.83
631.53	1187.34
631.88	1179.80
632.22	1172.17
632.57	1164.88
632.91	1157.40
633.26	1149.97
633.60	1142.76
633.95	1135.80
634.29	1128.78
634.64	1122.04
634.98	1114.70
635.32	1107.63
635.67	1101.22
636.01	1094.60
636.36	1087.80
636.70	1081.33
637.05	1074.86
637.39	1068.40
637.73	1062.07
638.08	1056.35
638.42	1050.31
638.77	1043.81
639.11	1037.25
639.45	1030.84
639.80	1024.18
640.14	1017.72
640.49	1011.19
640.83	1004.82
641.17	998.57
641.52	992.27
641.86	985.90
642.20	980.03
642.55	973.75
642.89	967.15
643.23	960.61
643.58	954.95
643.92	948.72
644.26	942.52
644.61	936.46
644.95	930.36
645.29	923.63
645.64	916.99
645.98	910.70
646.32	904.94
646.66	899.02
647.01	893.24
647.35	887.60
647.69	881.79
648.04	876.30
648.38	870.51
648.72	864.51
649.06	858.38
649.41	852.55
649.75	846.48
650.09	840.61
650.43	834.83
650.78	828.68
651.12	822.75
651.46	817.06
651.80	811.25
652.14	805.88
652.49	800.46
652.83	795.29
653.17	789.62
653.51	783.79
653.85	778.37
654.20	772.80
654.54	766.76
654.88	761.11
655.22	755.25
655.56	749.54
655.90	744.09
656.25	738.89
656.59	733.56
656.93	728.47
657.27	723.24
657.61	717.90
657.95	712.70
658.29	707.62
658.64	702.38
658.98	697.14
659.32	691.65
659.66	686.50
660.00	681.16
660.34	676.21
660.68	671.33
661.02	666.33
661.36	661.60
661.70	657.14
662.05	652.73
662.39	648.35
662.73	643.96
663.07	639.61
663.41	635.14
663.75	630.65
664.09	626.13
664.43	621.76
664.77	617.56
665.11	613.36
665.45	609.28
665.79	605.26
666.13	601.16
666.47	597.18
666.81	593.03
667.15	588.93
667.49	585.09
667.83	581.30
668.17	577.35
668.51	573.35
668.85	569.40
669.19	565.64
669.53	561.86
669.87	557.90
670.21	554.21
670.55	550.58
670.89	547.15
671.23	543.77
671.57	540.36
671.91	536.85
672.25	533.37
672.58	529.94
672.92	526.58
673.26	523.47
673.60	520.26
673.94	517.13
674.28	514.28
674.62	511.37
674.96	508.27
675.30	505.39
675.64	502.45
675.97	499.71
676.31	496.85
676.65	493.91
676.99	491.19
677.33	488.36
677.67	485.54
678.01	482.49
678.34	479.51
678.68	476.60
679.02	473.77
679.36	471.07
679.70	468.32
680.04	465.53
680.37	462.62
680.71	459.85
681.05	457.32
681.39	454.62
681.73	451.92
682.06	449.43
682.40	446.90
682.74	444.38
683.08	441.78
683.42	439.19
683.75	436.70
684.09	434.22
684.43	431.77
684.77	429.38
685.10	427.09
685.44	424.80
685.78	422.55
686.12	420.36
686.45	418.05
686.79	415.74
687.13	413.54
687.46	411.37
687.80	409.23
688.14	407.03
688.48	404.97
688.81	402.69
689.15	400.56
689.49	398.37
689.82	396.28
690.16	394.19
690.50	392.20
690.83	390.30
691.17	388.34
691.51	386.41
691.84	384.55
692.18	382.60
692.52	380.61
692.85	378.67
693.19	376.74
693.52	374.94
693.86	373.12
694.20	371.36
694.53	369.54
694.87	367.68
695.21	365.84
695.54	364.02
695.88	362.34
696.21	360.62
696.55	358.96
696.88	357.27
697.22	355.61
697.56	354.01
697.89	352.34
698.23	350.76
698.56	349.18
698.90	347.58
699.23	345.94
699.57	344.42
699.90	342.88
700.24	341.38
700.58	339.82
700.91	338.31
701.25	336.86
701.58	335.52
701.92	334.17
702.25	332.82
702.59	331.46
702.92	330.12
703.26	328.82
703.59	327.55
703.93	326.39
704.26	325.18
704.60	323.85
704.93	322.55
705.26	321.30
705.60	320.16
705.93	319.02
706.27	317.97
706.60	316.89
706.94	315.83
707.27	314.69
707.61	313.65
707.94	312.66
708.27	311.58
708.61	310.52
708.94	309.51
709.28	308.51
709.61	307.55
709.94	306.59
710.28	305.58
710.61	304.62
710.95	303.56
711.28	302.68
711.61	301.73
711.95	300.84
712.28	299.88
712.61	298.90
712.95	297.95
713.28	297.06
713.61	296.18
713.95	295.28
714.28	294.46
714.61	293.57
714.95	292.72
715.28	291.91
715.61	291.03
715.95	290.18
716.28	289.36
716.61	288.53
716.95	287.76
717.28	287.03
717.61	286.29
717.94	285.56
718.28	284.71
718.61	284.01
718.94	283.31
719.27	282.70
719.61	282.04
719.94	281.42
720.27	280.70
720.60	280.08
720.94	279.50
721.27	278.89
721.60	278.34
721.93	277.73
722.27	277.18
722.60	276.70
722.93	276.15
723.26	275.58
723.59	275.03
723.93	274.50
724.26	273.92
724.59	273.34
724.92	272.81
725.25	272.35
725.59	271.82
725.92	271.38
726.25	270.86
726.58	270.38
726.91	269.85
727.24	269.39
727.57	268.90
727.91	268.39
728.24	267.93
728.57	267.46
728.90	267.02
729.23	266.51
729.56	266.03
729.89	265.62
730.22	265.14
730.55	264.67
730.89	264.22
731.22	263.78
731.55	263.33
731.88	262.90
732.21	262.42
732.54	261.98
732.87	261.51
733.20	261.09
733.53	260.68
733.86	260.32
734.19	259.94
734.52	259.54
734.85	259.23
735.18	258.79
735.51	258.44
735.84	258.04
736.17	257.68
736.50	257.28
736.83	257.01
737.16	256.69
737.49	256.35
737.82	255.98
738.15	255.66
738.48	255.34
738.81	255.01
739.14	254.73
739.47	254.44
739.80	254.12
740.13	253.79
740.46	253.46
740.79	253.09
741.12	252.75
741.45	252.41
741.78	252.07
742.11	251.80
742.44	251.42
742.77	251.15
743.10	250.84
743.43	250.53
743.75	250.15
744.08	249.98
744.41	249.71
744.74	249.41
745.07	249.12
745.40	248.89
745.73	248.65
746.06	248.36
746.39	248.09
746.71	247.84
747.04	247.53
747.37	247.28
747.70	247.05
748.03	246.80
748.36	246.62
748.68	246.34
749.01	246.08
749.34	245.90
749.67	245.67
750.00	245.49
750.33	245.34
750.65	245.09
750.98	244.76
751.31	244.55
751.64	244.38
751.97	244.24
752.29	244.03
752.62	243.77
752.95	243.53
753.28	243.33
753.60	243.15
753.93	243.03
754.26	242.85
754.59	242.63
754.91	242.47
755.24	242.26
755.57	242.09
755.90	241.93
756.22	241.73
756.55	241.54
756.88	241.31
757.20	241.09
757.53	240.95
757.86	240.80
758.19	240.66
758.51	240.47
758.84	240.24
759.17	240.01
759.49	239.88
759.82	239.78
760.15	239.63
760.47	239.45
760.80	239.29
761.13	239.16
761.45	239.05
761.78	238.88
762.11	238.74
762.43	238.57
762.76	238.44
763.08	238.31
763.41	238.18
763.74	238.09
764.06	237.94
764.39	237.79
764.71	237.68
765.04	237.52
765.37	237.41
765.69	237.32
766.02	237.25
766.34	237.13
766.67	236.99
767.00	236.90
767.32	236.84
767.65	236.77
767.97	236.67
768.30	236.54
768.62	236.42
768.95	236.27
769.27	236.20
769.60	236.10
769.92	235.98
770.25	235.85
770.57	235.72
770.90	235.63
771.22	235.53
771.55	235.40
771.87	235.31
772.20	235.20
772.52	235.20
772.85	235.19
773.17	235.08
773.50	235.01
773.82	234.87
774.15	234.73
774.47	234.61
774.80	234.48
775.12	234.39
775.45	234.34
775.77	234.27
776.09	234.15
776.42	234.06
776.74	233.99
777.07	233.92
777.39	233.82
777.72	233.73
778.04	233.65
778.36	233.57
778.69	233.50
779.01	233.43
779.33	233.23
779.66	233.04
779.98	232.97
780.31	232.88
780.63	232.84
780.95	232.79
781.28	232.72
781.60	232.66
781.92	232.58
782.25	232.48
782.57	232.41
782.89	232.35
783.22	232.26
783.54	232.19
783.86	232.12
784.19	232.07
784.51	232.05
784.83	232.04
785.16	231.99
785.48	231.93
785.80	231.91
786.12	231.88
786.45	231.83
786.77	231.77
787.09	231.71
