SpectraSuite Data File
++++++++++++++++++++++++++++++++++++
Date: Fri Feb 01 14:52:36 EST 2013
User: group
Dark Spectrum Present: No
Reference Spectrum Present: No
Number of Sampled Component Spectra: 1
Spectrometers: USB2E7196
Integration Time (usec): 35000 (USB2E7196)
Spectra Averaged: 100 (USB2E7196)
Boxcar Smoothing: 10 (USB2E7196)
Correct for Electrical Dark: No (USB2E7196)
Strobe/Lamp Enabled: No (USB2E7196)
Correct for Detector Non-linearity: No (USB2E7196)
Correct for Stray Light: No (USB2E7196)
Number of Pixels in Processed Spectrum: 2048
>>>>>Begin Processed Spectral Data<<<<<
339.09	0.00
339.48	215.08
339.86	216.94
340.24	218.48
340.63	219.63
341.01	222.87
341.39	222.66
341.78	223.07
342.16	225.00
342.54	225.83
342.93	213.81
343.31	224.61
343.69	225.15
344.07	225.62
344.46	226.04
344.84	226.43
345.22	226.69
345.60	226.91
345.99	227.12
346.37	227.25
346.75	227.30
347.13	227.39
347.52	227.41
347.90	227.50
348.28	227.53
348.66	227.55
349.05	227.57
349.43	227.63
349.81	227.69
350.19	227.69
350.57	227.76
350.96	227.86
351.34	227.93
351.72	228.04
352.10	228.15
352.48	228.22
352.87	228.26
353.25	228.31
353.63	228.39
354.01	228.46
354.39	228.52
354.77	228.63
355.15	228.73
355.54	228.82
355.92	228.83
356.30	228.87
356.68	229.02
357.06	229.07
357.44	229.11
357.82	229.16
358.20	229.28
358.58	229.33
358.97	229.33
359.35	229.41
359.73	229.49
360.11	229.49
360.49	229.55
360.87	229.62
361.25	229.64
361.63	229.70
362.01	229.73
362.39	229.77
362.77	229.80
363.15	229.81
363.53	229.80
363.91	229.85
364.29	229.88
364.67	229.79
365.05	229.81
365.43	229.82
365.81	229.83
366.19	229.82
366.57	229.83
366.95	229.81
367.33	229.81
367.71	229.76
368.09	229.78
368.47	229.76
368.85	229.67
369.23	229.64
369.61	229.59
369.99	229.59
370.37	229.55
370.75	229.57
371.13	229.46
371.51	229.40
371.89	229.35
372.27	229.29
372.65	229.24
373.03	229.17
373.41	229.11
373.78	229.01
374.16	228.90
374.54	228.79
374.92	228.71
375.30	228.62
375.68	228.54
376.06	228.47
376.44	228.36
376.82	228.29
377.19	228.21
377.57	228.14
377.95	228.05
378.33	227.99
378.71	227.82
379.09	227.82
379.47	227.76
379.84	227.71
380.22	227.64
380.60	227.56
380.98	227.47
381.36	227.39
381.73	227.30
382.11	227.28
382.49	227.23
382.87	227.16
383.25	227.08
383.62	227.14
384.00	227.05
384.38	227.01
384.76	226.98
385.13	227.00
385.51	226.91
385.89	226.81
386.27	226.74
386.64	226.70
387.02	226.63
387.40	226.57
387.78	226.51
388.15	226.48
388.53	226.45
388.91	226.40
389.29	226.37
389.66	226.38
390.04	226.33
390.42	226.36
390.79	226.35
391.17	226.34
391.55	226.19
391.92	226.23
392.30	226.22
392.68	226.23
393.05	226.18
393.43	226.19
393.81	226.23
394.18	226.28
394.56	226.33
394.94	226.38
395.31	226.42
395.69	226.51
396.06	226.59
396.44	226.63
396.82	226.69
397.19	226.82
397.57	226.89
397.95	226.98
398.32	226.99
398.70	227.09
399.07	227.20
399.45	227.31
399.82	227.37
400.20	227.48
400.58	227.56
400.95	227.64
401.33	227.77
401.70	227.94
402.08	228.03
402.45	228.12
402.83	228.30
403.20	228.41
403.58	228.51
403.95	228.62
404.33	228.75
404.71	228.92
405.08	229.12
405.46	229.24
405.83	229.40
406.21	229.58
406.58	229.77
406.96	229.96
407.33	230.13
407.70	230.30
408.08	230.56
408.45	230.82
408.83	231.08
409.20	231.30
409.58	231.47
409.95	231.73
410.33	232.02
410.70	232.21
411.08	232.51
411.45	232.84
411.82	233.16
412.20	233.54
412.57	233.99
412.95	234.28
413.32	234.72
413.69	235.15
414.07	235.60
414.44	236.08
414.82	236.52
415.19	237.11
415.56	237.69
415.94	238.24
416.31	238.83
416.68	239.43
417.06	240.14
417.43	240.82
417.81	241.59
418.18	242.35
418.55	243.19
418.93	244.04
419.30	244.94
419.67	245.86
420.04	246.79
420.42	247.72
420.79	248.86
421.16	250.00
421.54	251.17
421.91	252.32
422.28	253.55
422.66	254.87
423.03	256.13
423.40	257.50
423.77	258.89
424.15	260.30
424.52	261.79
424.89	263.41
425.26	265.00
425.64	266.41
426.01	267.98
426.38	269.61
426.75	271.26
427.13	272.96
427.50	274.73
427.87	276.62
428.24	278.48
428.61	280.23
428.99	282.11
429.36	284.20
429.73	286.26
430.10	288.28
430.47	290.35
430.85	292.46
431.22	294.63
431.59	296.99
431.96	299.25
432.33	301.78
432.70	304.09
433.08	306.86
433.45	309.53
433.82	312.11
434.19	315.03
434.56	317.89
434.93	320.55
435.30	323.20
435.68	326.10
436.05	328.93
436.42	331.75
436.79	334.31
437.16	337.04
437.53	339.93
437.90	342.71
438.27	345.47
438.64	348.27
439.01	350.92
439.38	353.18
439.75	355.32
440.13	357.81
440.50	360.17
440.87	362.03
441.24	363.96
441.61	366.17
441.98	367.68
442.35	369.42
442.72	371.26
443.09	373.09
443.46	374.12
443.83	374.69
444.20	375.17
444.57	375.99
444.94	376.28
445.31	376.56
445.68	376.95
446.05	377.04
446.42	376.73
446.79	376.30
447.16	375.85
447.53	375.57
447.90	374.39
448.27	373.24
448.64	371.68
449.01	370.55
449.37	368.62
449.74	366.73
450.11	364.52
450.48	362.06
450.85	359.50
451.22	357.32
451.59	355.33
451.96	353.44
452.33	350.88
452.70	348.48
453.07	345.67
453.43	342.74
453.80	339.97
454.17	337.27
454.54	334.72
454.91	331.98
455.28	329.29
455.65	326.81
456.02	324.38
456.38	322.24
456.75	319.58
457.12	317.31
457.49	315.06
457.86	312.92
458.23	311.07
458.59	309.04
458.96	306.95
459.33	305.09
459.70	303.19
460.07	301.68
460.43	300.00
460.80	298.41
461.17	296.99
461.54	295.46
461.91	294.07
462.27	292.63
462.64	291.41
463.01	290.04
463.38	288.74
463.74	287.32
464.11	286.20
464.48	285.14
464.85	284.00
465.21	283.10
465.58	282.17
465.95	281.02
466.32	280.13
466.68	279.20
467.05	278.27
467.42	277.38
467.78	276.43
468.15	275.54
468.52	274.84
468.88	273.98
469.25	273.20
469.62	272.52
469.98	271.82
470.35	271.14
470.72	270.55
471.08	269.87
471.45	269.30
471.82	268.65
472.18	268.05
472.55	267.57
472.92	267.05
473.28	266.56
473.65	266.11
474.02	265.63
474.38	265.26
474.75	264.92
475.11	264.58
475.48	264.29
475.85	264.01
476.21	263.79
476.58	263.60
476.94	263.45
477.31	263.27
477.67	263.11
478.04	263.01
478.41	262.95
478.77	262.98
479.14	262.94
479.50	262.94
479.87	263.01
480.23	263.10
480.60	263.17
480.96	263.20
481.33	263.41
481.69	263.61
482.06	263.78
482.42	264.01
482.79	264.25
483.15	264.53
483.52	264.89
483.88	265.17
484.25	265.51
484.61	265.93
484.98	266.36
485.34	266.91
485.71	267.46
486.07	268.03
486.44	268.60
486.80	269.33
487.17	270.09
487.53	270.92
487.90	271.78
488.26	272.73
488.62	273.71
488.99	274.67
489.35	275.71
489.72	276.80
490.08	277.99
490.44	279.19
490.81	280.54
491.17	281.89
491.54	283.42
491.90	284.97
492.26	286.61
492.63	288.33
492.99	290.13
493.36	292.03
493.72	294.07
494.08	296.13
494.45	298.35
494.81	300.68
495.17	303.08
495.54	305.59
495.90	308.21
496.26	311.02
496.63	313.93
496.99	317.01
497.35	320.27
497.72	323.62
498.08	327.13
498.44	330.75
498.80	334.68
499.17	338.64
499.53	342.74
499.89	347.06
500.26	351.49
500.62	356.10
500.98	361.00
501.34	366.05
501.71	371.32
502.07	376.68
502.43	382.27
502.79	388.06
503.16	394.10
503.52	400.34
503.88	406.69
504.24	413.32
504.60	420.19
504.97	427.27
505.33	434.58
505.69	442.19
506.05	449.95
506.41	457.77
506.78	465.88
507.14	474.33
507.50	483.01
507.86	491.99
508.22	501.09
508.59	510.27
508.95	519.78
509.31	529.45
509.67	539.49
510.03	549.68
510.39	560.18
510.75	570.99
511.12	581.87
511.48	593.13
511.84	604.51
512.20	616.03
512.56	627.97
512.92	640.13
513.28	652.47
513.64	664.89
514.00	677.58
514.37	690.53
514.73	703.49
515.09	716.46
515.45	729.82
515.81	743.44
516.17	757.44
516.53	771.55
516.89	785.85
517.25	800.12
517.61	814.68
517.97	829.16
518.33	843.54
518.69	858.31
519.05	873.42
519.41	888.59
519.77	904.07
520.13	919.59
520.49	934.88
520.85	950.34
521.21	966.11
521.57	982.42
521.93	998.18
522.29	1014.65
522.65	1030.98
523.01	1047.22
523.37	1063.30
523.73	1079.51
524.09	1095.69
524.45	1112.04
524.81	1128.63
525.17	1145.39
525.53	1162.25
525.89	1179.10
526.25	1196.00
526.61	1212.41
526.97	1229.35
527.33	1245.85
527.68	1262.51
528.04	1279.24
528.40	1295.95
528.76	1313.12
529.12	1329.75
529.48	1346.68
529.84	1362.76
530.20	1379.46
530.56	1396.46
530.91	1413.82
531.27	1430.68
531.63	1447.19
531.99	1463.83
532.35	1480.03
532.71	1496.03
533.07	1512.39
533.42	1528.44
533.78	1544.60
534.14	1560.85
534.50	1576.08
534.86	1592.07
535.21	1607.13
535.57	1623.06
535.93	1638.48
536.29	1653.30
536.65	1668.49
537.00	1683.41
537.36	1698.93
537.72	1713.56
538.08	1728.11
538.44	1741.99
538.79	1755.88
539.15	1769.74
539.51	1783.66
539.87	1797.98
540.22	1811.73
540.58	1825.66
540.94	1839.09
541.29	1852.03
541.65	1864.86
542.01	1878.13
542.37	1890.47
542.72	1903.10
543.08	1915.04
543.44	1927.69
543.79	1938.86
544.15	1949.90
544.51	1961.47
544.87	1972.28
545.22	1983.19
545.58	1993.55
545.94	2003.53
546.29	2013.50
546.65	2023.33
547.01	2032.39
547.36	2041.18
547.72	2049.73
548.07	2057.60
548.43	2065.70
548.79	2073.63
549.14	2081.24
549.50	2088.70
549.86	2096.52
550.21	2103.81
550.57	2110.88
550.92	2117.27
551.28	2124.44
551.64	2131.34
551.99	2137.80
552.35	2144.04
552.70	2149.96
553.06	2155.77
553.41	2161.90
553.77	2167.85
554.13	2173.76
554.48	2179.82
554.84	2185.07
555.19	2190.18
555.55	2195.26
555.90	2199.73
556.26	2204.61
556.61	2209.12
556.97	2213.34
557.32	2217.23
557.68	2221.35
558.03	2225.50
558.39	2229.12
558.74	2233.58
559.10	2237.31
559.45	2240.91
559.81	2245.04
560.16	2248.74
560.52	2251.78
560.87	2255.20
561.23	2257.59
561.58	2260.40
561.94	2262.87
562.29	2265.27
562.64	2267.78
563.00	2270.13
563.35	2273.48
563.71	2276.43
564.06	2279.53
564.42	2282.32
564.77	2284.75
565.12	2286.65
565.48	2288.32
565.83	2290.05
566.19	2291.13
566.54	2292.05
566.89	2293.12
567.25	2293.56
567.60	2294.80
567.96	2296.35
568.31	2296.86
568.66	2297.74
569.02	2298.15
569.37	2298.25
569.72	2298.71
570.08	2298.56
570.43	2298.29
570.78	2297.35
571.14	2295.64
571.49	2294.04
571.84	2293.44
572.20	2291.93
572.55	2290.74
572.90	2288.97
573.26	2287.32
573.61	2285.43
573.96	2283.43
574.31	2280.09
574.67	2276.83
575.02	2273.01
575.37	2269.44
575.72	2265.55
576.08	2262.13
576.43	2258.52
576.78	2254.78
577.13	2251.41
577.49	2248.26
577.84	2244.73
578.19	2240.99
578.54	2237.21
578.90	2232.83
579.25	2227.01
579.60	2222.03
579.95	2216.95
580.30	2211.77
580.66	2206.41
581.01	2201.30
581.36	2196.17
581.71	2191.85
582.06	2187.15
582.42	2182.51
582.77	2177.10
583.12	2172.31
583.47	2167.45
583.82	2162.53
584.17	2157.18
584.53	2151.68
584.88	2145.91
585.23	2140.00
585.58	2134.33
585.93	2128.47
586.28	2123.52
586.63	2118.40
586.98	2113.19
587.34	2108.26
587.69	2103.20
588.04	2097.79
588.39	2091.98
588.74	2085.35
589.09	2079.05
589.44	2072.11
589.79	2065.76
590.14	2059.85
590.49	2053.08
590.84	2046.40
591.19	2039.97
591.54	2033.23
591.89	2025.50
592.25	2018.55
592.60	2011.21
592.95	2003.38
593.30	1996.17
593.65	1988.36
594.00	1981.11
594.35	1973.63
594.70	1965.40
595.05	1958.33
595.40	1951.14
595.75	1943.60
596.10	1937.40
596.45	1930.39
596.80	1924.13
597.15	1917.64
597.50	1910.56
597.85	1904.08
598.19	1897.58
598.54	1890.62
598.89	1884.09
599.24	1878.25
599.59	1871.67
599.94	1865.40
600.29	1859.00
600.64	1852.22
600.99	1844.81
601.34	1837.86
601.69	1830.92
602.04	1824.05
602.39	1816.49
602.74	1809.65
603.08	1802.84
603.43	1795.97
603.78	1788.91
604.13	1781.81
604.48	1774.50
604.83	1767.67
605.18	1760.76
605.53	1752.67
605.87	1744.51
606.22	1737.13
606.57	1729.27
606.92	1721.83
607.27	1714.71
607.62	1707.94
607.96	1700.76
608.31	1694.33
608.66	1686.80
609.01	1679.29
609.36	1671.93
609.70	1663.94
610.05	1655.84
610.40	1648.39
610.75	1640.12
611.10	1632.45
611.44	1624.10
611.79	1616.04
612.14	1607.44
612.49	1598.30
612.83	1590.08
613.18	1581.99
613.53	1573.96
613.88	1565.48
614.22	1557.31
614.57	1548.78
614.92	1540.83
615.27	1533.40
615.61	1525.03
615.96	1517.12
616.31	1509.57
616.65	1502.11
617.00	1494.70
617.35	1487.03
617.70	1478.67
618.04	1470.29
618.39	1462.31
618.74	1454.81
619.08	1446.73
619.43	1439.29
619.78	1432.57
620.12	1425.45
620.47	1418.19
620.82	1410.16
621.16	1402.83
621.51	1395.20
621.85	1387.69
622.20	1379.28
622.55	1371.08
622.89	1363.39
623.24	1355.86
623.59	1348.59
623.93	1341.30
624.28	1334.11
624.62	1326.72
624.97	1319.54
625.32	1312.80
625.66	1305.68
626.01	1298.61
626.35	1291.29
626.70	1283.60
627.04	1275.94
627.39	1268.19
627.73	1260.77
628.08	1253.94
628.43	1246.77
628.77	1239.67
629.12	1232.25
629.46	1225.19
629.81	1217.83
630.15	1210.68
630.50	1203.48
630.84	1195.33
631.19	1187.38
631.53	1179.96
631.88	1172.43
632.22	1164.99
632.57	1157.77
632.91	1150.38
633.26	1143.03
633.60	1135.66
633.95	1128.60
634.29	1121.55
634.64	1114.96
634.98	1107.69
635.32	1100.62
635.67	1094.12
636.01	1087.41
636.36	1080.68
636.70	1074.23
637.05	1067.73
637.39	1061.31
637.73	1054.88
638.08	1049.21
638.42	1043.37
638.77	1037.05
639.11	1030.62
639.45	1024.35
639.80	1017.70
640.14	1011.38
640.49	1004.90
640.83	998.72
641.17	992.65
641.52	986.46
641.86	980.14
642.20	974.47
642.55	968.22
642.89	961.79
643.23	955.33
643.58	949.63
643.92	943.47
644.26	937.51
644.61	931.55
644.95	925.45
645.29	918.81
645.64	912.07
645.98	905.82
646.32	900.08
646.66	894.03
647.01	888.40
647.35	882.67
647.69	876.92
648.04	871.38
648.38	865.59
648.72	859.67
649.06	853.66
649.41	847.78
649.75	841.86
650.09	835.97
650.43	830.25
650.78	824.10
651.12	818.19
651.46	812.41
651.80	806.67
652.14	801.42
652.49	796.12
652.83	791.00
653.17	785.27
653.51	779.51
653.85	774.15
654.20	768.57
654.54	762.69
654.88	757.01
655.22	751.21
655.56	745.58
655.90	740.13
656.25	734.91
656.59	729.61
656.93	724.54
657.27	719.46
657.61	714.11
657.95	709.08
658.29	704.01
658.64	698.79
658.98	693.53
659.32	688.08
659.66	682.91
660.00	677.64
660.34	672.77
660.68	667.99
661.02	663.02
661.36	658.37
661.70	653.90
662.05	649.58
662.39	645.30
662.73	640.87
663.07	636.59
663.41	632.20
663.75	627.75
664.09	623.23
664.43	618.89
664.77	614.83
665.11	610.62
665.45	606.59
665.79	602.58
666.13	598.56
666.47	594.55
666.81	590.47
667.15	586.41
667.49	582.58
667.83	578.77
668.17	574.87
668.51	570.85
668.85	566.86
669.19	563.08
669.53	559.31
669.87	555.48
670.21	551.87
670.55	548.31
670.89	544.92
671.23	541.56
671.57	538.11
671.91	534.65
672.25	531.20
672.58	527.77
672.92	524.49
673.26	521.37
673.60	518.23
673.94	515.16
674.28	512.28
674.62	509.42
674.96	506.34
675.30	503.50
675.64	500.62
675.97	497.96
676.31	495.12
676.65	492.23
676.99	489.60
677.33	486.70
677.67	483.87
678.01	480.88
678.34	477.94
678.68	475.09
679.02	472.29
679.36	469.55
679.70	466.83
680.04	464.02
680.37	461.19
680.71	458.46
681.05	455.92
681.39	453.31
681.73	450.63
682.06	448.16
682.40	445.66
682.74	443.14
683.08	440.57
683.42	438.01
683.75	435.50
684.09	432.99
684.43	430.51
684.77	428.07
685.10	425.77
685.44	423.51
685.78	421.22
686.12	418.99
686.45	416.74
686.79	414.47
687.13	412.34
687.46	410.21
687.80	408.00
688.14	405.80
688.48	403.74
688.81	401.59
689.15	399.44
689.49	397.31
689.82	395.25
690.16	393.20
690.50	391.28
690.83	389.37
691.17	387.40
691.51	385.57
691.84	383.78
692.18	381.86
692.52	379.84
692.85	377.95
693.19	376.11
693.52	374.28
693.86	372.50
694.20	370.71
694.53	368.91
694.87	367.14
695.21	365.32
695.54	363.53
695.88	361.79
696.21	360.06
696.55	358.42
696.88	356.74
697.22	355.08
697.56	353.45
697.89	351.78
698.23	350.17
698.56	348.56
698.90	346.96
699.23	345.35
699.57	343.84
699.90	342.31
700.24	340.75
700.58	339.22
700.91	337.73
701.25	336.33
701.58	334.97
701.92	333.60
702.25	332.26
702.59	330.89
702.92	329.53
703.26	328.28
703.59	327.01
703.93	325.83
704.26	324.65
704.60	323.38
704.93	322.16
705.26	320.93
705.60	319.77
705.93	318.65
706.27	317.62
706.60	316.62
706.94	315.53
707.27	314.42
707.61	313.37
707.94	312.37
708.27	311.29
708.61	310.23
708.94	309.24
709.28	308.28
709.61	307.36
709.94	306.47
710.28	305.44
710.61	304.47
710.95	303.40
711.28	302.48
711.61	301.57
711.95	300.67
712.28	299.78
712.61	298.82
712.95	297.88
713.28	296.99
713.61	296.09
713.95	295.28
714.28	294.44
714.61	293.61
714.95	292.79
715.28	291.96
715.61	291.12
715.95	290.29
716.28	289.42
716.61	288.60
716.95	287.76
717.28	287.07
717.61	286.31
717.94	285.58
718.28	284.81
718.61	284.09
718.94	283.46
719.27	282.79
719.61	282.19
719.94	281.52
720.27	280.83
720.60	280.19
720.94	279.53
721.27	278.96
721.60	278.44
721.93	277.84
722.27	277.31
722.60	276.75
722.93	276.20
723.26	275.72
723.59	275.17
723.93	274.67
724.26	274.06
724.59	273.46
724.92	272.94
725.25	272.46
725.59	271.90
725.92	271.36
726.25	270.85
726.58	270.35
726.91	269.89
727.24	269.44
727.57	268.98
727.91	268.51
728.24	268.06
728.57	267.52
728.90	267.11
729.23	266.57
729.56	266.15
729.89	265.69
730.22	265.16
730.55	264.68
730.89	264.24
731.22	263.82
731.55	263.42
731.88	263.01
732.21	262.57
732.54	262.17
732.87	261.73
733.20	261.31
733.53	260.90
733.86	260.55
734.19	260.14
734.52	259.72
734.85	259.39
735.18	258.96
735.51	258.59
735.84	258.17
736.17	257.84
736.50	257.42
736.83	257.17
737.16	256.86
737.49	256.53
737.82	256.18
738.15	255.88
738.48	255.55
738.81	255.22
739.14	254.87
739.47	254.58
739.80	254.25
740.13	253.97
740.46	253.64
740.79	253.26
741.12	252.96
741.45	252.66
741.78	252.29
742.11	252.02
742.44	251.70
742.77	251.41
743.10	251.11
743.43	250.83
743.75	250.44
744.08	250.30
744.41	250.01
744.74	249.73
745.07	249.42
745.40	249.19
745.73	248.96
746.06	248.68
746.39	248.43
746.71	248.18
747.04	247.88
747.37	247.64
747.70	247.43
748.03	247.19
748.36	246.94
748.68	246.74
749.01	246.53
749.34	246.32
749.67	246.10
750.00	245.86
750.33	245.72
750.65	245.54
750.98	245.21
751.31	245.04
751.64	244.85
751.97	244.71
752.29	244.54
752.62	244.29
752.95	244.11
753.28	243.90
753.60	243.72
753.93	243.56
754.26	243.37
754.59	243.16
754.91	242.92
755.24	242.76
755.57	242.56
755.90	242.37
756.22	242.15
756.55	241.96
756.88	241.81
757.20	241.58
757.53	241.37
757.86	241.19
758.19	241.00
758.51	240.82
758.84	240.60
759.17	240.41
759.49	240.27
759.82	240.15
760.15	239.99
760.47	239.86
760.80	239.69
761.13	239.55
761.45	239.39
761.78	239.26
762.11	239.10
762.43	238.95
762.76	238.81
763.08	238.69
763.41	238.59
763.74	238.45
764.06	238.35
764.39	238.21
764.71	238.07
765.04	237.96
765.37	237.81
765.69	237.68
766.02	237.55
766.34	237.41
766.67	237.26
767.00	237.19
767.32	237.11
767.65	237.07
767.97	236.94
768.30	236.87
768.62	236.74
768.95	236.63
769.27	236.55
769.60	236.43
769.92	236.33
770.25	236.19
770.57	236.08
770.90	235.95
771.22	235.84
771.55	235.76
771.87	235.67
772.20	235.58
772.52	235.60
772.85	235.57
773.17	235.46
773.50	235.37
773.82	235.23
774.15	235.09
774.47	234.94
774.80	234.81
775.12	234.70
775.45	234.64
775.77	234.53
776.09	234.44
776.42	234.38
776.74	234.33
777.07	234.28
777.39	234.17
777.72	234.09
778.04	234.04
778.36	233.95
778.69	233.83
779.01	233.81
779.33	233.62
779.66	233.47
779.98	233.43
780.31	233.34
780.63	233.35
780.95	233.32
781.28	233.21
781.60	233.16
781.92	233.10
782.25	233.03
782.57	233.00
782.89	232.93
783.22	232.85
783.54	232.80
783.86	232.74
784.19	232.70
784.51	232.65
784.83	232.58
785.16	232.48
785.48	232.47
785.80	232.40
786.12	232.40
786.45	232.31
786.77	232.23
787.09	232.17
