SpectraSuite Data File
++++++++++++++++++++++++++++++++++++
Date: Fri Feb 01 16:49:07 EST 2013
User: group
Dark Spectrum Present: No
Reference Spectrum Present: No
Number of Sampled Component Spectra: 1
Spectrometers: USB2E7196
Integration Time (usec): 35000 (USB2E7196)
Spectra Averaged: 100 (USB2E7196)
Boxcar Smoothing: 10 (USB2E7196)
Correct for Electrical Dark: No (USB2E7196)
Strobe/Lamp Enabled: No (USB2E7196)
Correct for Detector Non-linearity: No (USB2E7196)
Correct for Stray Light: No (USB2E7196)
Number of Pixels in Processed Spectrum: 2048
>>>>>Begin Processed Spectral Data<<<<<
339.09	0.00
339.48	213.72
339.86	215.02
340.24	216.41
340.63	217.58
341.01	220.57
341.39	220.54
341.78	222.18
342.16	222.87
342.54	223.70
342.93	211.91
343.31	222.61
343.69	223.14
344.07	223.58
344.46	223.99
344.84	224.36
345.22	224.63
345.60	224.88
345.99	225.06
346.37	225.17
346.75	225.23
347.13	225.31
347.52	225.39
347.90	225.48
348.28	225.52
348.66	225.53
349.05	225.55
349.43	225.59
349.81	225.63
350.19	225.68
350.57	225.74
350.96	225.78
351.34	225.86
351.72	225.95
352.10	226.04
352.48	226.14
352.87	226.19
353.25	226.22
353.63	226.26
354.01	226.31
354.39	226.40
354.77	226.52
355.15	226.62
355.54	226.69
355.92	226.72
356.30	226.79
356.68	226.92
357.06	226.97
357.44	227.03
357.82	227.07
358.20	227.13
358.58	227.18
358.97	227.26
359.35	227.35
359.73	227.40
360.11	227.46
360.49	227.48
360.87	227.57
361.25	227.61
361.63	227.67
362.01	227.74
362.39	227.78
362.77	227.80
363.15	227.83
363.53	227.82
363.91	227.87
364.29	227.92
364.67	227.87
365.05	227.87
365.43	227.90
365.81	227.89
366.19	227.97
366.57	228.00
366.95	227.97
367.33	227.91
367.71	227.91
368.09	227.95
368.47	227.91
368.85	227.86
369.23	227.86
369.61	227.79
369.99	227.78
370.37	227.75
370.75	227.75
371.13	227.71
371.51	227.67
371.89	227.62
372.27	227.58
372.65	227.53
373.03	227.48
373.41	227.42
373.78	227.36
374.16	227.26
374.54	227.16
374.92	227.12
375.30	227.08
375.68	226.98
376.06	226.90
376.44	226.88
376.82	226.84
377.19	226.75
377.57	226.72
377.95	226.60
378.33	226.51
378.71	226.39
379.09	226.33
379.47	226.28
379.84	226.22
380.22	226.13
380.60	226.08
380.98	226.02
381.36	225.95
381.73	225.87
382.11	225.79
382.49	225.78
382.87	225.71
383.25	225.67
383.62	225.76
384.00	225.68
384.38	225.61
384.76	225.57
385.13	225.59
385.51	225.55
385.89	225.49
386.27	225.43
386.64	225.41
387.02	225.36
387.40	225.32
387.78	225.29
388.15	225.25
388.53	225.16
388.91	225.12
389.29	225.08
389.66	225.10
390.04	225.07
390.42	225.04
390.79	225.01
391.17	224.99
391.55	224.85
391.92	224.85
392.30	224.86
392.68	224.82
393.05	224.78
393.43	224.78
393.81	224.78
394.18	224.79
394.56	224.77
394.94	224.80
395.31	224.81
395.69	224.84
396.06	224.89
396.44	224.93
396.82	224.96
397.19	225.04
397.57	225.05
397.95	225.10
398.32	225.11
398.70	225.18
399.07	225.24
399.45	225.30
399.82	225.33
400.20	225.35
400.58	225.42
400.95	225.43
401.33	225.49
401.70	225.61
402.08	225.70
402.45	225.82
402.83	225.90
403.20	225.97
403.58	226.05
403.95	226.12
404.33	226.25
404.71	226.35
405.08	226.53
405.46	226.63
405.83	226.75
406.21	226.88
406.58	226.99
406.96	227.11
407.33	227.28
407.70	227.49
408.08	227.79
408.45	228.02
408.83	228.29
409.20	228.52
409.58	228.69
409.95	228.93
410.33	229.19
410.70	229.43
411.08	229.77
411.45	230.08
411.82	230.40
412.20	230.71
412.57	231.12
412.95	231.40
413.32	231.84
413.69	232.27
414.07	232.70
414.44	233.20
414.82	233.69
415.19	234.21
415.56	234.78
415.94	235.30
416.31	235.91
416.68	236.50
417.06	237.22
417.43	237.92
417.81	238.71
418.18	239.49
418.55	240.35
418.93	241.17
419.30	242.06
419.67	243.02
420.04	243.99
420.42	244.95
420.79	246.14
421.16	247.28
421.54	248.50
421.91	249.70
422.28	250.97
422.66	252.32
423.03	253.62
423.40	254.89
423.77	256.30
424.15	257.78
424.52	259.29
424.89	260.87
425.26	262.42
425.64	263.85
426.01	265.43
426.38	267.07
426.75	268.72
427.13	270.47
427.50	272.25
427.87	274.17
428.24	276.07
428.61	277.81
428.99	279.72
429.36	281.75
429.73	283.83
430.10	285.79
430.47	287.80
430.85	289.90
431.22	292.15
431.59	294.50
431.96	296.68
432.33	299.13
432.70	301.50
433.08	304.30
433.45	306.89
433.82	309.48
434.19	312.33
434.56	315.14
434.93	317.72
435.30	320.28
435.68	323.11
436.05	325.89
436.42	328.60
436.79	331.09
437.16	333.77
437.53	336.58
437.90	339.39
438.27	342.10
438.64	344.92
439.01	347.49
439.38	349.73
439.75	351.86
440.13	354.29
440.50	356.52
440.87	358.33
441.24	360.27
441.61	362.38
441.98	363.88
442.35	365.66
442.72	367.52
443.09	369.37
443.46	370.39
443.83	370.98
444.20	371.50
444.57	372.33
444.94	372.61
445.31	372.93
445.68	373.24
446.05	373.35
446.42	372.96
446.79	372.53
447.16	372.10
447.53	371.79
447.90	370.66
448.27	369.61
448.64	368.09
449.01	366.96
449.37	365.06
449.74	363.18
450.11	360.99
450.48	358.51
450.85	356.01
451.22	353.84
451.59	351.87
451.96	349.96
452.33	347.42
452.70	345.11
453.07	342.36
453.43	339.53
453.80	336.76
454.17	334.12
454.54	331.64
454.91	328.90
455.28	326.24
455.65	323.82
456.02	321.39
456.38	319.23
456.75	316.61
457.12	314.37
457.49	312.19
457.86	310.02
458.23	308.21
458.59	306.15
458.96	304.11
459.33	302.25
459.70	300.42
460.07	298.94
460.43	297.23
460.80	295.57
461.17	294.12
461.54	292.67
461.91	291.24
462.27	289.79
462.64	288.56
463.01	287.27
463.38	285.96
463.74	284.59
464.11	283.44
464.48	282.41
464.85	281.30
465.21	280.42
465.58	279.51
465.95	278.43
466.32	277.55
466.68	276.65
467.05	275.78
467.42	274.90
467.78	273.96
468.15	273.10
468.52	272.45
468.88	271.65
469.25	270.87
469.62	270.29
469.98	269.65
470.35	269.06
470.72	268.44
471.08	267.81
471.45	267.30
471.82	266.78
472.18	266.20
472.55	265.80
472.92	265.27
473.28	264.84
473.65	264.40
474.02	263.96
474.38	263.59
474.75	263.29
475.11	262.95
475.48	262.72
475.85	262.49
476.21	262.26
476.58	262.10
476.94	261.96
477.31	261.79
477.67	261.66
478.04	261.57
478.41	261.54
478.77	261.61
479.14	261.57
479.50	261.60
479.87	261.72
480.23	261.78
480.60	261.90
480.96	261.97
481.33	262.22
481.69	262.49
482.06	262.71
482.42	262.89
482.79	263.17
483.15	263.49
483.52	263.92
483.88	264.27
484.25	264.64
484.61	265.07
484.98	265.51
485.34	266.07
485.71	266.64
486.07	267.27
486.44	267.82
486.80	268.55
487.17	269.26
487.53	270.08
487.90	270.95
488.26	271.87
488.62	272.91
488.99	273.86
489.35	274.84
489.72	275.98
490.08	277.21
490.44	278.45
490.81	279.77
491.17	281.08
491.54	282.59
491.90	284.10
492.26	285.76
492.63	287.50
492.99	289.25
493.36	291.13
493.72	293.15
494.08	295.24
494.45	297.47
494.81	299.87
495.17	302.24
495.54	304.78
495.90	307.46
496.26	310.19
496.63	313.11
496.99	316.24
497.35	319.42
497.72	322.84
498.08	326.34
498.44	330.03
498.80	333.98
499.17	338.01
499.53	342.20
499.89	346.56
500.26	351.04
500.62	355.69
500.98	360.66
501.34	365.67
501.71	370.97
502.07	376.38
502.43	381.90
502.79	387.74
503.16	393.83
503.52	400.10
503.88	406.54
504.24	413.17
504.60	420.00
504.97	427.11
505.33	434.33
505.69	442.01
506.05	449.75
506.41	457.62
506.78	465.75
507.14	474.13
507.50	482.84
507.86	491.86
508.22	500.99
508.59	510.14
508.95	519.72
509.31	529.54
509.67	539.62
510.03	549.91
510.39	560.35
510.75	571.00
511.12	581.80
511.48	593.00
511.84	604.41
512.20	615.84
512.56	627.76
512.92	639.89
513.28	652.15
513.64	664.57
514.00	677.17
514.37	690.01
514.73	702.99
515.09	715.91
515.45	729.07
515.81	742.60
516.17	756.48
516.53	770.48
516.89	784.51
517.25	798.56
517.61	812.83
517.97	827.26
518.33	841.62
518.69	856.34
519.05	871.17
519.41	886.23
519.77	901.64
520.13	916.89
520.49	932.12
520.85	947.35
521.21	962.93
521.57	978.96
521.93	994.55
522.29	1010.73
522.65	1026.83
523.01	1042.94
523.37	1058.80
523.73	1074.81
524.09	1090.81
524.45	1106.93
524.81	1123.48
525.17	1140.01
525.53	1156.62
525.89	1173.27
526.25	1189.93
526.61	1206.17
526.97	1222.72
527.33	1239.11
527.68	1255.48
528.04	1271.76
528.40	1288.17
528.76	1304.86
529.12	1321.33
529.48	1338.09
529.84	1353.95
530.20	1370.21
530.56	1386.81
530.91	1404.01
531.27	1420.66
531.63	1436.78
531.99	1453.13
532.35	1468.82
532.71	1484.62
533.07	1500.80
533.42	1516.63
533.78	1532.47
534.14	1548.41
534.50	1563.55
534.86	1579.16
535.21	1594.28
535.57	1610.00
535.93	1625.28
536.29	1640.01
536.65	1654.84
537.00	1669.33
537.36	1684.50
537.72	1698.91
538.08	1713.33
538.44	1726.93
538.79	1740.54
539.15	1753.99
539.51	1767.53
539.87	1781.75
540.22	1795.13
540.58	1808.51
540.94	1821.37
541.29	1833.93
541.65	1846.53
542.01	1859.48
542.37	1871.53
542.72	1883.64
543.08	1895.23
543.44	1907.45
543.79	1918.54
544.15	1929.39
544.51	1940.84
544.87	1951.52
545.22	1962.29
545.58	1972.31
545.94	1982.01
546.29	1991.81
546.65	2001.65
547.01	2010.87
547.36	2019.39
547.72	2027.88
548.07	2035.70
548.43	2043.80
548.79	2051.62
549.14	2059.08
549.50	2066.20
549.86	2073.88
550.21	2081.15
550.57	2088.25
550.92	2094.73
551.28	2101.77
551.64	2108.63
551.99	2115.04
552.35	2121.25
552.70	2127.23
553.06	2133.17
553.41	2139.36
553.77	2145.13
554.13	2151.14
554.48	2157.17
554.84	2162.75
555.19	2168.04
555.55	2173.33
555.90	2178.03
556.26	2183.09
556.61	2187.76
556.97	2192.38
557.32	2196.44
557.68	2200.48
558.03	2204.84
558.39	2208.51
558.74	2213.04
559.10	2217.02
559.45	2220.60
559.81	2224.82
560.16	2228.58
560.52	2231.87
560.87	2235.25
561.23	2238.04
561.58	2240.87
561.94	2243.37
562.29	2245.50
562.64	2248.38
563.00	2250.82
563.35	2254.20
563.71	2257.37
564.06	2260.62
564.42	2263.45
564.77	2266.18
565.12	2268.74
565.48	2270.75
565.83	2272.89
566.19	2274.39
566.54	2275.20
566.89	2276.50
567.25	2277.35
567.60	2278.95
567.96	2280.92
568.31	2281.87
568.66	2283.17
569.02	2283.91
569.37	2284.46
569.72	2285.57
570.08	2285.86
570.43	2285.99
570.78	2285.64
571.14	2284.30
571.49	2283.01
571.84	2282.65
572.20	2281.55
572.55	2280.46
572.90	2278.89
573.26	2277.55
573.61	2275.74
573.96	2274.26
574.31	2271.41
574.67	2268.52
575.02	2265.02
575.37	2261.52
575.72	2258.02
576.08	2254.63
576.43	2251.40
576.78	2247.96
577.13	2244.74
577.49	2241.41
577.84	2238.10
578.19	2234.37
578.54	2230.91
578.90	2227.03
579.25	2221.74
579.60	2217.00
579.95	2212.33
580.30	2207.42
580.66	2202.42
581.01	2197.70
581.36	2192.96
581.71	2189.21
582.06	2184.95
582.42	2180.52
582.77	2175.44
583.12	2170.97
583.47	2166.60
583.82	2162.03
584.17	2156.79
584.53	2151.54
584.88	2146.19
585.23	2140.73
585.58	2135.38
585.93	2129.85
586.28	2124.85
586.63	2120.01
586.98	2114.96
587.34	2110.23
587.69	2105.39
588.04	2100.39
588.39	2094.88
588.74	2088.48
589.09	2082.19
589.44	2075.48
589.79	2069.42
590.14	2063.81
590.49	2057.29
590.84	2050.82
591.19	2044.54
591.54	2038.27
591.89	2031.19
592.25	2024.61
592.60	2017.43
592.95	2010.10
593.30	2003.06
593.65	1995.75
594.00	1988.66
594.35	1981.54
594.70	1973.48
595.05	1966.64
595.40	1959.22
595.75	1951.81
596.10	1945.81
596.45	1939.38
596.80	1933.33
597.15	1926.91
597.50	1920.14
597.85	1913.61
598.19	1907.13
598.54	1900.44
598.89	1893.71
599.24	1887.83
599.59	1881.30
599.94	1875.06
600.29	1868.70
600.64	1862.08
600.99	1854.70
601.34	1848.06
601.69	1841.11
602.04	1834.57
602.39	1827.25
602.74	1820.68
603.08	1814.09
603.43	1807.36
603.78	1800.05
604.13	1792.90
604.48	1785.86
604.83	1778.97
605.18	1772.53
605.53	1764.56
605.87	1756.55
606.22	1749.48
606.57	1741.54
606.92	1734.13
607.27	1727.21
607.62	1720.50
607.96	1713.33
608.31	1707.07
608.66	1699.52
609.01	1692.19
609.36	1684.63
609.70	1676.67
610.05	1668.66
610.40	1661.02
610.75	1652.82
611.10	1645.20
611.44	1636.66
611.79	1628.58
612.14	1620.07
612.49	1610.78
612.83	1602.54
613.18	1594.38
613.53	1586.32
613.88	1577.80
614.22	1569.56
614.57	1560.92
614.92	1552.75
615.27	1545.32
615.61	1536.97
615.96	1528.84
616.31	1521.06
616.65	1513.66
617.00	1506.11
617.35	1498.43
617.70	1490.19
618.04	1481.76
618.39	1473.47
618.74	1466.21
619.08	1457.96
619.43	1450.23
619.78	1443.27
620.12	1436.17
620.47	1428.71
620.82	1420.49
621.16	1413.16
621.51	1405.53
621.85	1397.88
622.20	1389.50
622.55	1380.98
622.89	1373.06
623.24	1365.49
623.59	1358.10
623.93	1350.59
624.28	1343.34
624.62	1335.95
624.97	1328.76
625.32	1321.84
625.66	1314.84
626.01	1307.48
626.35	1300.15
626.70	1292.42
627.04	1284.75
627.39	1276.96
627.73	1269.53
628.08	1262.75
628.43	1255.60
628.77	1248.31
629.12	1240.84
629.46	1233.78
629.81	1226.31
630.15	1219.12
630.50	1211.77
630.84	1203.70
631.19	1195.69
631.53	1188.17
631.88	1180.46
632.22	1172.80
632.57	1165.51
632.91	1157.99
633.26	1150.67
633.60	1143.17
633.95	1136.05
634.29	1129.00
634.64	1122.26
634.98	1114.95
635.32	1107.73
635.67	1100.96
636.01	1094.33
636.36	1087.59
636.70	1081.02
637.05	1074.53
637.39	1068.07
637.73	1061.59
638.08	1055.73
638.42	1049.95
638.77	1043.52
639.11	1037.02
639.45	1030.65
639.80	1023.98
640.14	1017.64
640.49	1011.12
640.83	1004.88
641.17	998.77
641.52	992.44
641.86	985.98
642.20	980.16
642.55	973.79
642.89	967.41
643.23	960.76
643.58	954.91
643.92	948.72
644.26	942.85
644.61	936.73
644.95	930.70
645.29	924.20
645.64	917.54
645.98	911.24
646.32	905.33
646.66	899.31
647.01	893.56
647.35	887.89
647.69	882.00
648.04	876.42
648.38	870.59
648.72	864.63
649.06	858.67
649.41	852.67
649.75	846.85
650.09	840.86
650.43	835.21
650.78	829.16
651.12	823.28
651.46	817.46
651.80	811.88
652.14	806.48
652.49	801.09
652.83	795.76
653.17	790.18
653.51	784.52
653.85	779.07
654.20	773.49
654.54	767.46
654.88	761.76
655.22	755.89
655.56	750.27
655.90	744.76
656.25	739.52
656.59	734.20
656.93	729.14
657.27	724.05
657.61	718.55
657.95	713.43
658.29	708.26
658.64	703.01
658.98	697.60
659.32	692.13
659.66	686.92
660.00	681.68
660.34	676.65
660.68	671.70
661.02	666.71
661.36	662.08
661.70	657.56
662.05	653.21
662.39	648.96
662.73	644.44
663.07	640.07
663.41	635.64
663.75	631.25
664.09	626.67
664.43	622.27
664.77	618.24
665.11	613.99
665.45	609.87
665.79	605.76
666.13	601.71
666.47	597.65
666.81	593.51
667.15	589.35
667.49	585.47
667.83	581.58
668.17	577.67
668.51	573.57
668.85	569.54
669.19	565.63
669.53	561.76
669.87	557.95
670.21	554.27
670.55	550.60
670.89	547.14
671.23	543.62
671.57	540.06
671.91	536.54
672.25	532.97
672.58	529.45
672.92	526.05
673.26	522.84
673.60	519.65
673.94	516.54
674.28	513.61
674.62	510.62
674.96	507.61
675.30	504.74
675.64	501.79
675.97	498.95
676.31	496.12
676.65	493.21
676.99	490.46
677.33	487.59
677.67	484.75
678.01	481.68
678.34	478.81
678.68	475.95
679.02	473.07
679.36	470.36
679.70	467.56
680.04	464.86
680.37	461.99
680.71	459.20
681.05	456.57
681.39	453.88
681.73	451.21
682.06	448.63
682.40	446.03
682.74	443.50
683.08	440.99
683.42	438.38
683.75	435.83
684.09	433.29
684.43	430.82
684.77	428.44
685.10	426.08
685.44	423.75
685.78	421.45
686.12	419.13
686.45	416.84
686.79	414.64
687.13	412.36
687.46	410.22
687.80	408.01
688.14	405.73
688.48	403.64
688.81	401.46
689.15	399.33
689.49	397.19
689.82	395.11
690.16	393.02
690.50	391.05
690.83	389.17
691.17	387.13
691.51	385.18
691.84	383.33
692.18	381.47
692.52	379.50
692.85	377.59
693.19	375.76
693.52	373.93
693.86	372.09
694.20	370.37
694.53	368.60
694.87	366.84
695.21	365.08
695.54	363.29
695.88	361.56
696.21	359.82
696.55	358.14
696.88	356.48
697.22	354.81
697.56	353.19
697.89	351.53
698.23	350.00
698.56	348.43
698.90	346.82
699.23	345.18
699.57	343.66
699.90	342.06
700.24	340.53
700.58	339.01
700.91	337.57
701.25	336.13
701.58	334.74
701.92	333.33
702.25	331.92
702.59	330.57
702.92	329.26
703.26	327.99
703.59	326.74
703.93	325.55
704.26	324.35
704.60	323.10
704.93	321.79
705.26	320.53
705.60	319.35
705.93	318.17
706.27	317.10
706.60	316.04
706.94	315.01
707.27	313.83
707.61	312.77
707.94	311.66
708.27	310.55
708.61	309.43
708.94	308.41
709.28	307.43
709.61	306.44
709.94	305.42
710.28	304.37
710.61	303.33
710.95	302.18
711.28	301.20
711.61	300.21
711.95	299.30
712.28	298.33
712.61	297.37
712.95	296.43
713.28	295.55
713.61	294.61
713.95	293.70
714.28	292.88
714.61	292.01
714.95	291.14
715.28	290.27
715.61	289.46
715.95	288.61
716.28	287.76
716.61	286.90
716.95	286.07
717.28	285.30
717.61	284.55
717.94	283.89
718.28	283.13
718.61	282.40
718.94	281.69
719.27	281.04
719.61	280.36
719.94	279.73
720.27	279.01
720.60	278.35
720.94	277.75
721.27	277.19
721.60	276.58
721.93	275.99
722.27	275.48
722.60	274.87
722.93	274.33
723.26	273.79
723.59	273.27
723.93	272.74
724.26	272.20
724.59	271.62
724.92	271.05
725.25	270.57
725.59	270.05
725.92	269.55
726.25	268.99
726.58	268.51
726.91	268.00
727.24	267.55
727.57	267.09
727.91	266.55
728.24	266.05
728.57	265.59
728.90	265.18
729.23	264.66
729.56	264.25
729.89	263.80
730.22	263.35
730.55	262.91
730.89	262.50
731.22	262.07
731.55	261.66
731.88	261.23
732.21	260.77
732.54	260.31
732.87	259.92
733.20	259.56
733.53	259.14
733.86	258.78
734.19	258.38
734.52	258.01
734.85	257.70
735.18	257.29
735.51	256.88
735.84	256.54
736.17	256.17
736.50	255.76
736.83	255.51
737.16	255.16
737.49	254.83
737.82	254.50
738.15	254.19
738.48	253.86
738.81	253.56
739.14	253.25
739.47	252.96
739.80	252.61
740.13	252.33
740.46	252.01
740.79	251.72
741.12	251.43
741.45	251.11
741.78	250.79
742.11	250.55
742.44	250.31
742.77	249.99
743.10	249.70
743.43	249.40
743.75	248.99
744.08	248.84
744.41	248.56
744.74	248.28
745.07	247.95
745.40	247.73
745.73	247.47
746.06	247.20
746.39	246.92
746.71	246.69
747.04	246.41
747.37	246.15
747.70	245.83
748.03	245.56
748.36	245.32
748.68	245.09
749.01	244.81
749.34	244.55
749.67	244.29
750.00	244.05
750.33	243.89
750.65	243.72
750.98	243.33
751.31	243.09
751.64	242.84
751.97	242.70
752.29	242.43
752.62	242.19
752.95	241.98
753.28	241.78
753.60	241.58
753.93	241.38
754.26	241.20
754.59	240.98
754.91	240.75
755.24	240.53
755.57	240.33
755.90	240.14
756.22	239.91
756.55	239.74
756.88	239.57
757.20	239.34
757.53	239.11
757.86	238.95
758.19	238.78
758.51	238.61
758.84	238.37
759.17	238.21
759.49	238.03
759.82	237.93
760.15	237.77
760.47	237.61
760.80	237.42
761.13	237.29
761.45	237.13
761.78	237.00
762.11	236.85
762.43	236.67
762.76	236.50
763.08	236.40
763.41	236.24
763.74	236.13
764.06	235.94
764.39	235.82
764.71	235.68
765.04	235.51
765.37	235.39
765.69	235.26
766.02	235.16
766.34	235.05
766.67	234.87
767.00	234.79
767.32	234.72
767.65	234.69
767.97	234.57
768.30	234.47
768.62	234.36
768.95	234.23
769.27	234.15
769.60	234.07
769.92	233.94
770.25	233.85
770.57	233.71
770.90	233.66
771.22	233.51
771.55	233.44
771.87	233.39
772.20	233.31
772.52	233.29
772.85	233.31
773.17	233.24
773.50	233.13
773.82	233.00
774.15	232.87
774.47	232.72
774.80	232.64
775.12	232.56
775.45	232.48
775.77	232.47
776.09	232.38
776.42	232.30
776.74	232.28
777.07	232.20
777.39	232.13
777.72	232.06
778.04	232.04
778.36	231.97
778.69	231.92
779.01	231.89
779.33	231.77
779.66	231.59
779.98	231.51
780.31	231.46
780.63	231.47
780.95	231.43
781.28	231.39
781.60	231.33
781.92	231.24
782.25	231.18
782.57	231.11
782.89	231.04
783.22	230.97
783.54	230.91
783.86	230.85
784.19	230.81
784.51	230.78
784.83	230.76
785.16	230.66
785.48	230.60
785.80	230.52
786.12	230.46
786.45	230.44
786.77	230.37
787.09	230.34
