SpectraSuite Data File
++++++++++++++++++++++++++++++++++++
Date: Fri Feb 01 16:19:07 EST 2013
User: group
Dark Spectrum Present: No
Reference Spectrum Present: No
Number of Sampled Component Spectra: 1
Spectrometers: USB2E7196
Integration Time (usec): 35000 (USB2E7196)
Spectra Averaged: 100 (USB2E7196)
Boxcar Smoothing: 10 (USB2E7196)
Correct for Electrical Dark: No (USB2E7196)
Strobe/Lamp Enabled: No (USB2E7196)
Correct for Detector Non-linearity: No (USB2E7196)
Correct for Stray Light: No (USB2E7196)
Number of Pixels in Processed Spectrum: 2048
>>>>>Begin Processed Spectral Data<<<<<
339.09	0.00
339.48	213.42
339.86	215.52
340.24	216.79
340.63	217.99
341.01	220.34
341.39	221.23
341.78	222.08
342.16	223.32
342.54	223.38
342.93	212.27
343.31	223.01
343.69	223.58
344.07	224.04
344.46	224.46
344.84	224.86
345.22	225.09
345.60	225.34
345.99	225.54
346.37	225.67
346.75	225.80
347.13	225.87
347.52	225.95
347.90	226.00
348.28	226.00
348.66	226.05
349.05	226.06
349.43	226.09
349.81	226.16
350.19	226.21
350.57	226.26
350.96	226.36
351.34	226.45
351.72	226.53
352.10	226.65
352.48	226.75
352.87	226.79
353.25	226.92
353.63	226.96
354.01	227.03
354.39	227.11
354.77	227.20
355.15	227.33
355.54	227.40
355.92	227.42
356.30	227.52
356.68	227.68
357.06	227.74
357.44	227.80
357.82	227.84
358.20	227.92
358.58	227.99
358.97	228.04
359.35	228.12
359.73	228.21
360.11	228.25
360.49	228.29
360.87	228.36
361.25	228.41
361.63	228.52
362.01	228.55
362.39	228.62
362.77	228.68
363.15	228.69
363.53	228.74
363.91	228.78
364.29	228.80
364.67	228.72
365.05	228.73
365.43	228.76
365.81	228.81
366.19	228.85
366.57	228.88
366.95	228.86
367.33	228.85
367.71	228.82
368.09	228.78
368.47	228.79
368.85	228.74
369.23	228.74
369.61	228.68
369.99	228.67
370.37	228.65
370.75	228.66
371.13	228.60
371.51	228.53
371.89	228.48
372.27	228.43
372.65	228.40
373.03	228.34
373.41	228.27
373.78	228.16
374.16	228.06
374.54	227.96
374.92	227.90
375.30	227.86
375.68	227.78
376.06	227.72
376.44	227.63
376.82	227.56
377.19	227.48
377.57	227.40
377.95	227.29
378.33	227.19
378.71	227.03
379.09	226.99
379.47	226.92
379.84	226.89
380.22	226.81
380.60	226.71
380.98	226.71
381.36	226.65
381.73	226.59
382.11	226.54
382.49	226.49
382.87	226.40
383.25	226.32
383.62	226.37
384.00	226.29
384.38	226.23
384.76	226.19
385.13	226.18
385.51	226.09
385.89	226.05
386.27	226.02
386.64	225.99
387.02	225.95
387.40	225.88
387.78	225.80
388.15	225.76
388.53	225.74
388.91	225.65
389.29	225.62
389.66	225.60
390.04	225.54
390.42	225.52
390.79	225.51
391.17	225.47
391.55	225.33
391.92	225.35
392.30	225.32
392.68	225.32
393.05	225.30
393.43	225.33
393.81	225.32
394.18	225.34
394.56	225.36
394.94	225.35
395.31	225.38
395.69	225.44
396.06	225.49
396.44	225.51
396.82	225.51
397.19	225.63
397.57	225.64
397.95	225.72
398.32	225.74
398.70	225.81
399.07	225.91
399.45	225.97
399.82	226.03
400.20	226.11
400.58	226.19
400.95	226.21
401.33	226.27
401.70	226.48
402.08	226.54
402.45	226.63
402.83	226.74
403.20	226.83
403.58	226.95
403.95	227.08
404.33	227.22
404.71	227.37
405.08	227.52
405.46	227.68
405.83	227.82
406.21	227.98
406.58	228.15
406.96	228.27
407.33	228.45
407.70	228.62
408.08	228.86
408.45	229.08
408.83	229.31
409.20	229.53
409.58	229.66
409.95	229.91
410.33	230.18
410.70	230.42
411.08	230.73
411.45	231.01
411.82	231.29
412.20	231.62
412.57	232.03
412.95	232.33
413.32	232.73
413.69	233.16
414.07	233.61
414.44	234.05
414.82	234.53
415.19	235.09
415.56	235.68
415.94	236.25
416.31	236.90
416.68	237.52
417.06	238.24
417.43	238.93
417.81	239.70
418.18	240.47
418.55	241.34
418.93	242.23
419.30	243.12
419.67	244.09
420.04	245.06
420.42	246.05
420.79	247.20
421.16	248.33
421.54	249.48
421.91	250.65
422.28	251.91
422.66	253.25
423.03	254.59
423.40	255.91
423.77	257.31
424.15	258.72
424.52	260.22
424.89	261.85
425.26	263.41
425.64	264.88
426.01	266.46
426.38	268.05
426.75	269.72
427.13	271.44
427.50	273.23
427.87	275.10
428.24	276.95
428.61	278.69
428.99	280.65
429.36	282.74
429.73	284.80
430.10	286.83
430.47	288.88
430.85	290.96
431.22	293.20
431.59	295.55
431.96	297.74
432.33	300.23
432.70	302.57
433.08	305.34
433.45	307.94
433.82	310.55
434.19	313.44
434.56	316.23
434.93	318.83
435.30	321.44
435.68	324.34
436.05	327.16
436.42	329.98
436.79	332.50
437.16	335.19
437.53	338.05
437.90	340.88
438.27	343.63
438.64	346.48
439.01	349.10
439.38	351.35
439.75	353.58
440.13	356.06
440.50	358.36
440.87	360.20
441.24	362.17
441.61	364.31
441.98	365.82
442.35	367.61
442.72	369.55
443.09	371.34
443.46	372.30
443.83	372.91
444.20	373.44
444.57	374.25
444.94	374.52
445.31	374.89
445.68	375.19
446.05	375.28
446.42	374.88
446.79	374.40
447.16	373.97
447.53	373.65
447.90	372.49
448.27	371.35
448.64	369.76
449.01	368.63
449.37	366.68
449.74	364.78
450.11	362.55
450.48	360.06
450.85	357.54
451.22	355.42
451.59	353.43
451.96	351.46
452.33	348.88
452.70	346.58
453.07	343.72
453.43	340.84
453.80	338.03
454.17	335.33
454.54	332.78
454.91	330.06
455.28	327.36
455.65	324.90
456.02	322.48
456.38	320.36
456.75	317.65
457.12	315.41
457.49	313.21
457.86	311.05
458.23	309.18
458.59	307.15
458.96	305.06
459.33	303.16
459.70	301.32
460.07	299.83
460.43	298.08
460.80	296.50
461.17	295.09
461.54	293.63
461.91	292.24
462.27	290.82
462.64	289.57
463.01	288.25
463.38	286.94
463.74	285.59
464.11	284.44
464.48	283.46
464.85	282.34
465.21	281.47
465.58	280.55
465.95	279.46
466.32	278.55
466.68	277.68
467.05	276.82
467.42	275.90
467.78	274.96
468.15	274.11
468.52	273.42
468.88	272.53
469.25	271.75
469.62	271.16
469.98	270.51
470.35	269.92
470.72	269.33
471.08	268.71
471.45	268.16
471.82	267.62
472.18	266.98
472.55	266.57
472.92	266.03
473.28	265.58
473.65	265.15
474.02	264.71
474.38	264.32
474.75	263.98
475.11	263.67
475.48	263.40
475.85	263.14
476.21	262.91
476.58	262.75
476.94	262.62
477.31	262.44
477.67	262.28
478.04	262.13
478.41	262.05
478.77	262.02
479.14	261.99
479.50	262.01
479.87	262.11
480.23	262.17
480.60	262.25
480.96	262.39
481.33	262.59
481.69	262.83
482.06	263.02
482.42	263.26
482.79	263.50
483.15	263.81
483.52	264.21
483.88	264.56
484.25	264.98
484.61	265.36
484.98	265.82
485.34	266.36
485.71	266.96
486.07	267.60
486.44	268.21
486.80	268.90
487.17	269.62
487.53	270.42
487.90	271.26
488.26	272.18
488.62	273.15
488.99	274.13
489.35	275.15
489.72	276.32
490.08	277.50
490.44	278.77
490.81	280.13
491.17	281.47
491.54	282.96
491.90	284.52
492.26	286.24
492.63	287.96
492.99	289.79
493.36	291.73
493.72	293.75
494.08	295.87
494.45	298.15
494.81	300.54
495.17	302.98
495.54	305.55
495.90	308.26
496.26	311.06
496.63	314.04
496.99	317.18
497.35	320.45
497.72	323.89
498.08	327.44
498.44	331.13
498.80	335.11
499.17	339.15
499.53	343.29
499.89	347.64
500.26	352.22
500.62	356.88
500.98	361.83
501.34	366.95
501.71	372.28
502.07	377.74
502.43	383.38
502.79	389.23
503.16	395.37
503.52	401.64
503.88	408.07
504.24	414.69
504.60	421.54
504.97	428.65
505.33	435.98
505.69	443.72
506.05	451.49
506.41	459.37
506.78	467.56
507.14	476.05
507.50	484.78
507.86	493.76
508.22	502.95
508.59	512.13
508.95	521.73
509.31	531.55
509.67	541.62
510.03	551.84
510.39	562.41
510.75	573.21
511.12	584.20
511.48	595.49
511.84	606.98
512.20	618.54
512.56	630.50
512.92	642.66
513.28	654.93
513.64	667.41
514.00	680.10
514.37	693.02
514.73	706.13
515.09	719.14
515.45	732.41
515.81	745.94
516.17	760.04
516.53	774.13
516.89	788.31
517.25	802.43
517.61	816.93
517.97	831.40
518.33	845.84
518.69	860.58
519.05	875.52
519.41	890.70
519.77	906.16
520.13	921.59
520.49	936.91
520.85	952.30
521.21	967.95
521.57	984.10
521.93	999.87
522.29	1016.12
522.65	1032.38
523.01	1048.61
523.37	1064.73
523.73	1080.65
524.09	1096.70
524.45	1112.94
524.81	1129.54
525.17	1146.19
525.53	1163.08
525.89	1179.86
526.25	1196.65
526.61	1213.11
526.97	1229.80
527.33	1246.28
527.68	1262.78
528.04	1279.28
528.40	1295.80
528.76	1312.85
529.12	1329.43
529.48	1346.27
529.84	1362.26
530.20	1378.77
530.56	1395.66
530.91	1412.97
531.27	1429.85
531.63	1446.32
531.99	1462.91
532.35	1478.89
532.71	1494.78
533.07	1510.88
533.42	1526.68
533.78	1542.66
534.14	1558.82
534.50	1574.10
534.86	1589.84
535.21	1604.91
535.57	1620.74
535.93	1636.16
536.29	1650.82
536.65	1665.80
537.00	1680.44
537.36	1695.59
537.72	1710.23
538.08	1724.61
538.44	1738.24
538.79	1752.08
539.15	1765.51
539.51	1779.11
539.87	1793.23
540.22	1806.99
540.58	1820.85
540.94	1834.18
541.29	1847.01
541.65	1859.61
542.01	1872.73
542.37	1885.04
542.72	1897.56
543.08	1909.35
543.44	1921.69
543.79	1933.00
544.15	1944.02
544.51	1955.64
544.87	1966.63
545.22	1977.26
545.58	1987.39
545.94	1997.31
546.29	2007.02
546.65	2017.00
547.01	2026.14
547.36	2035.04
547.72	2043.39
548.07	2051.06
548.43	2059.21
548.79	2067.20
549.14	2074.65
549.50	2082.02
549.86	2089.61
550.21	2096.78
550.57	2103.90
550.92	2110.48
551.28	2117.31
551.64	2124.29
551.99	2130.69
552.35	2136.95
552.70	2143.15
553.06	2149.18
553.41	2155.36
553.77	2161.45
554.13	2167.51
554.48	2173.84
554.84	2179.30
555.19	2184.72
555.55	2189.93
555.90	2194.49
556.26	2199.39
556.61	2204.02
556.97	2208.26
557.32	2212.44
557.68	2216.69
558.03	2221.06
558.39	2224.79
558.74	2229.60
559.10	2233.48
559.45	2237.17
559.81	2241.47
560.16	2245.23
560.52	2248.39
560.87	2251.76
561.23	2254.28
561.58	2257.26
561.94	2259.68
562.29	2262.02
562.64	2264.71
563.00	2267.20
563.35	2270.56
563.71	2273.75
564.06	2277.18
564.42	2280.06
564.77	2282.62
565.12	2284.77
565.48	2286.67
565.83	2288.58
566.19	2289.84
566.54	2290.81
566.89	2291.77
567.25	2292.32
567.60	2293.65
567.96	2295.41
568.31	2296.41
568.66	2297.69
569.02	2298.15
569.37	2298.58
569.72	2299.48
570.08	2299.56
570.43	2299.77
570.78	2299.32
571.14	2297.65
571.49	2296.34
571.84	2295.93
572.20	2294.83
572.55	2294.02
572.90	2292.47
573.26	2291.04
573.61	2289.43
573.96	2287.69
574.31	2284.97
574.67	2281.89
575.02	2278.25
575.37	2274.91
575.72	2271.17
576.08	2267.92
576.43	2264.63
576.78	2260.94
577.13	2257.81
577.49	2254.90
577.84	2251.37
578.19	2247.70
578.54	2244.30
578.90	2240.08
579.25	2234.73
579.60	2229.75
579.95	2224.73
580.30	2219.82
580.66	2214.72
581.01	2209.79
581.36	2204.88
581.71	2200.71
582.06	2196.40
582.42	2192.05
582.77	2186.95
583.12	2182.38
583.47	2177.63
583.82	2172.87
584.17	2167.64
584.53	2162.12
584.88	2156.44
585.23	2150.84
585.58	2145.30
585.93	2139.83
586.28	2135.23
586.63	2130.29
586.98	2125.47
587.34	2120.81
587.69	2115.89
588.04	2110.61
588.39	2105.07
588.74	2098.80
589.09	2092.73
589.44	2086.01
589.79	2080.03
590.14	2074.42
590.49	2067.99
590.84	2061.61
591.19	2055.49
591.54	2049.13
591.89	2041.77
592.25	2034.97
592.60	2027.69
592.95	2020.24
593.30	2012.89
593.65	2005.25
594.00	1998.08
594.35	1990.72
594.70	1982.68
595.05	1975.49
595.40	1968.31
595.75	1960.73
596.10	1954.44
596.45	1947.74
596.80	1941.58
597.15	1935.01
597.50	1927.88
597.85	1921.33
598.19	1914.75
598.54	1907.64
598.89	1901.01
599.24	1895.09
599.59	1888.41
599.94	1882.28
600.29	1875.91
600.64	1869.36
600.99	1861.96
601.34	1855.18
601.69	1848.25
602.04	1841.45
602.39	1834.11
602.74	1827.38
603.08	1820.75
603.43	1814.17
603.78	1806.98
604.13	1799.77
604.48	1792.38
604.83	1785.62
605.18	1778.75
605.53	1770.86
605.87	1762.88
606.22	1755.62
606.57	1747.78
606.92	1740.50
607.27	1733.28
607.62	1726.34
607.96	1719.03
608.31	1712.41
608.66	1704.87
609.01	1697.35
609.36	1689.80
609.70	1681.80
610.05	1673.68
610.40	1665.86
610.75	1657.41
611.10	1649.66
611.44	1641.25
611.79	1633.41
612.14	1624.72
612.49	1615.50
612.83	1607.02
613.18	1598.95
613.53	1590.87
613.88	1582.29
614.22	1573.92
614.57	1565.34
614.92	1557.28
615.27	1549.74
615.61	1541.41
615.96	1533.37
616.31	1525.72
616.65	1518.32
617.00	1510.82
617.35	1503.14
617.70	1494.90
618.04	1486.29
618.39	1478.04
618.74	1470.38
619.08	1461.86
619.43	1454.20
619.78	1447.30
620.12	1440.07
620.47	1432.54
620.82	1424.35
621.16	1416.90
621.51	1409.30
621.85	1401.73
622.20	1393.29
622.55	1384.84
622.89	1376.89
623.24	1369.17
623.59	1361.73
623.93	1354.05
624.28	1346.76
624.62	1339.28
624.97	1332.08
625.32	1325.43
625.66	1318.39
626.01	1311.26
626.35	1303.96
626.70	1296.25
627.04	1288.52
627.39	1280.67
627.73	1273.22
628.08	1266.32
628.43	1259.14
628.77	1251.84
629.12	1244.23
629.46	1237.08
629.81	1229.74
630.15	1222.54
630.50	1215.13
630.84	1206.88
631.19	1199.06
631.53	1191.46
631.88	1183.86
632.22	1176.22
632.57	1168.81
632.91	1161.23
633.26	1153.78
633.60	1146.31
633.95	1139.09
634.29	1132.06
634.64	1125.48
634.98	1118.22
635.32	1111.04
635.67	1104.28
636.01	1097.57
636.36	1090.79
636.70	1084.17
637.05	1077.60
637.39	1071.15
637.73	1064.70
638.08	1058.83
638.42	1052.85
638.77	1046.35
639.11	1039.71
639.45	1033.33
639.80	1026.67
640.14	1020.24
640.49	1013.76
640.83	1007.46
641.17	1001.24
641.52	994.81
641.86	988.36
642.20	982.36
642.55	976.06
642.89	969.66
643.23	963.01
643.58	957.19
643.92	951.05
644.26	944.91
644.61	938.83
644.95	932.73
645.29	926.11
645.64	919.28
645.98	913.03
646.32	907.23
646.66	901.10
647.01	895.30
647.35	889.62
647.69	883.71
648.04	878.26
648.38	872.41
648.72	866.45
649.06	860.34
649.41	854.42
649.75	848.41
650.09	842.40
650.43	836.66
650.78	830.47
651.12	824.48
651.46	818.80
651.80	813.08
652.14	807.66
652.49	802.34
652.83	797.17
653.17	791.41
653.51	785.58
653.85	780.22
654.20	774.63
654.54	768.62
654.88	762.84
655.22	756.92
655.56	751.27
655.90	745.85
656.25	740.61
656.59	735.27
656.93	730.17
657.27	725.05
657.61	719.64
657.95	714.54
658.29	709.41
658.64	704.15
658.98	698.74
659.32	693.30
659.66	688.08
660.00	682.83
660.34	677.96
660.68	673.13
661.02	668.13
661.36	663.35
661.70	658.81
662.05	654.53
662.39	650.14
662.73	645.68
663.07	641.26
663.41	636.77
663.75	632.28
664.09	627.73
664.43	623.37
664.77	619.28
665.11	615.00
665.45	610.82
665.79	606.75
666.13	602.65
666.47	598.57
666.81	594.40
667.15	590.21
667.49	586.24
667.83	582.39
668.17	578.34
668.51	574.24
668.85	570.28
669.19	566.35
669.53	562.57
669.87	558.70
670.21	555.00
670.55	551.34
670.89	547.93
671.23	544.42
671.57	540.84
671.91	537.23
672.25	533.75
672.58	530.25
672.92	526.77
673.26	523.58
673.60	520.38
673.94	517.25
674.28	514.34
674.62	511.41
674.96	508.31
675.30	505.44
675.64	502.54
675.97	499.71
676.31	496.91
676.65	493.97
676.99	491.25
677.33	488.40
677.67	485.58
678.01	482.52
678.34	479.60
678.68	476.74
679.02	473.94
679.36	471.21
679.70	468.52
680.04	465.76
680.37	462.88
680.71	460.07
681.05	457.46
681.39	454.77
681.73	452.10
682.06	449.60
682.40	447.04
682.74	444.51
683.08	441.98
683.42	439.29
683.75	436.76
684.09	434.23
684.43	431.73
684.77	429.31
685.10	426.95
685.44	424.65
685.78	422.37
686.12	420.05
686.45	417.70
686.79	415.36
687.13	413.21
687.46	411.10
687.80	408.97
688.14	406.79
688.48	404.72
688.81	402.49
689.15	400.28
689.49	398.12
689.82	396.05
690.16	393.93
690.50	392.03
690.83	390.03
691.17	388.03
691.51	386.11
691.84	384.22
692.18	382.32
692.52	380.31
692.85	378.42
693.19	376.59
693.52	374.78
693.86	372.97
694.20	371.13
694.53	369.31
694.87	367.43
695.21	365.58
695.54	363.71
695.88	362.01
696.21	360.32
696.55	358.63
696.88	356.93
697.22	355.28
697.56	353.66
697.89	352.03
698.23	350.43
698.56	348.82
698.90	347.28
699.23	345.62
699.57	344.06
699.90	342.46
700.24	340.90
700.58	339.31
700.91	337.86
701.25	336.40
701.58	335.05
701.92	333.72
702.25	332.40
702.59	331.04
702.92	329.69
703.26	328.38
703.59	327.13
703.93	325.99
704.26	324.75
704.60	323.45
704.93	322.19
705.26	320.90
705.60	319.76
705.93	318.55
706.27	317.51
706.60	316.46
706.94	315.40
707.27	314.27
707.61	313.26
707.94	312.21
708.27	311.15
708.61	310.05
708.94	309.01
709.28	308.03
709.61	307.11
709.94	306.13
710.28	305.10
710.61	304.12
710.95	303.01
711.28	302.12
711.61	301.14
711.95	300.25
712.28	299.32
712.61	298.30
712.95	297.37
713.28	296.51
713.61	295.61
713.95	294.75
714.28	293.92
714.61	293.02
714.95	292.18
715.28	291.30
715.61	290.44
715.95	289.59
716.28	288.73
716.61	287.88
716.95	287.09
717.28	286.33
717.61	285.55
717.94	284.80
718.28	283.98
718.61	283.29
718.94	282.55
719.27	281.91
719.61	281.30
719.94	280.61
720.27	279.87
720.60	279.19
720.94	278.53
721.27	277.92
721.60	277.37
721.93	276.79
722.27	276.25
722.60	275.69
722.93	275.11
723.26	274.54
723.59	273.98
723.93	273.43
724.26	272.91
724.59	272.36
724.92	271.82
725.25	271.32
725.59	270.79
725.92	270.29
726.25	269.79
726.58	269.32
726.91	268.84
727.24	268.39
727.57	267.94
727.91	267.41
728.24	266.91
728.57	266.42
728.90	265.97
729.23	265.48
729.56	265.06
729.89	264.57
730.22	264.11
730.55	263.61
730.89	263.15
731.22	262.67
731.55	262.24
731.88	261.82
732.21	261.40
732.54	260.96
732.87	260.51
733.20	260.09
733.53	259.68
733.86	259.31
734.19	258.92
734.52	258.53
734.85	258.21
735.18	257.81
735.51	257.45
735.84	257.08
736.17	256.73
736.50	256.35
736.83	256.14
737.16	255.80
737.49	255.49
737.82	255.16
738.15	254.87
738.48	254.53
738.81	254.22
739.14	253.91
739.47	253.60
739.80	253.31
740.13	253.01
740.46	252.68
740.79	252.32
741.12	251.98
741.45	251.66
741.78	251.35
742.11	251.06
742.44	250.67
742.77	250.41
743.10	250.11
743.43	249.76
743.75	249.36
744.08	249.21
744.41	248.93
744.74	248.65
745.07	248.37
745.40	248.11
745.73	247.86
746.06	247.54
746.39	247.31
746.71	247.06
747.04	246.75
747.37	246.48
747.70	246.24
748.03	246.00
748.36	245.78
748.68	245.56
749.01	245.31
749.34	245.11
749.67	244.84
750.00	244.58
750.33	244.44
750.65	244.25
750.98	243.89
751.31	243.69
751.64	243.49
751.97	243.28
752.29	243.07
752.62	242.78
752.95	242.61
753.28	242.36
753.60	242.11
753.93	241.96
754.26	241.77
754.59	241.58
754.91	241.34
755.24	241.15
755.57	240.93
755.90	240.75
756.22	240.58
756.55	240.40
756.88	240.23
757.20	240.00
757.53	239.75
757.86	239.59
758.19	239.41
758.51	239.20
758.84	239.01
759.17	238.80
759.49	238.69
759.82	238.56
760.15	238.41
760.47	238.30
760.80	238.14
761.13	238.02
761.45	237.86
761.78	237.76
762.11	237.56
762.43	237.42
762.76	237.30
763.08	237.14
763.41	236.99
763.74	236.86
764.06	236.74
764.39	236.67
764.71	236.52
765.04	236.41
765.37	236.29
765.69	236.19
766.02	236.09
766.34	235.97
766.67	235.82
767.00	235.69
767.32	235.63
767.65	235.56
767.97	235.43
768.30	235.34
768.62	235.21
768.95	235.13
769.27	235.02
769.60	234.93
769.92	234.82
770.25	234.73
770.57	234.61
770.90	234.52
771.22	234.40
771.55	234.31
771.87	234.22
772.20	234.12
772.52	234.07
772.85	234.09
773.17	234.00
773.50	233.91
773.82	233.81
774.15	233.70
774.47	233.57
774.80	233.50
775.12	233.41
775.45	233.33
775.77	233.27
776.09	233.23
776.42	233.12
776.74	233.11
777.07	233.02
777.39	232.95
777.72	232.86
778.04	232.78
778.36	232.74
778.69	232.63
779.01	232.57
779.33	232.43
779.66	232.28
779.98	232.23
780.31	232.17
780.63	232.15
780.95	232.09
781.28	232.04
781.60	231.97
781.92	231.90
782.25	231.85
782.57	231.78
782.89	231.70
783.22	231.67
783.54	231.57
783.86	231.50
784.19	231.45
784.51	231.43
784.83	231.36
785.16	231.25
785.48	231.23
785.80	231.21
786.12	231.16
786.45	231.10
786.77	231.05
787.09	231.01
