SpectraSuite Data File
++++++++++++++++++++++++++++++++++++
Date: Fri Feb 01 15:32:54 EST 2013
User: group
Dark Spectrum Present: No
Reference Spectrum Present: No
Number of Sampled Component Spectra: 1
Spectrometers: USB2E7196
Integration Time (usec): 35000 (USB2E7196)
Spectra Averaged: 100 (USB2E7196)
Boxcar Smoothing: 10 (USB2E7196)
Correct for Electrical Dark: No (USB2E7196)
Strobe/Lamp Enabled: No (USB2E7196)
Correct for Detector Non-linearity: No (USB2E7196)
Correct for Stray Light: No (USB2E7196)
Number of Pixels in Processed Spectrum: 2048
>>>>>Begin Processed Spectral Data<<<<<
339.09	0.00
339.48	214.77
339.86	215.90
340.24	217.24
340.63	219.18
341.01	221.59
341.39	221.69
341.78	223.41
342.16	224.28
342.54	224.94
342.93	213.13
343.31	223.92
343.69	224.44
344.07	224.93
344.46	225.37
344.84	225.73
345.22	225.98
345.60	226.22
345.99	226.41
346.37	226.53
346.75	226.60
347.13	226.65
347.52	226.73
347.90	226.81
348.28	226.83
348.66	226.87
349.05	226.86
349.43	226.88
349.81	226.92
350.19	226.95
350.57	227.00
350.96	227.07
351.34	227.15
351.72	227.24
352.10	227.35
352.48	227.43
352.87	227.49
353.25	227.56
353.63	227.63
354.01	227.68
354.39	227.74
354.77	227.82
355.15	227.94
355.54	228.02
355.92	228.06
356.30	228.15
356.68	228.28
357.06	228.37
357.44	228.43
357.82	228.49
358.20	228.55
358.58	228.65
358.97	228.68
359.35	228.76
359.73	228.85
360.11	228.88
360.49	228.93
360.87	229.01
361.25	229.06
361.63	229.16
362.01	229.23
362.39	229.29
362.77	229.34
363.15	229.39
363.53	229.40
363.91	229.43
364.29	229.45
364.67	229.38
365.05	229.41
365.43	229.44
365.81	229.49
366.19	229.56
366.57	229.59
366.95	229.63
367.33	229.60
367.71	229.57
368.09	229.58
368.47	229.58
368.85	229.54
369.23	229.55
369.61	229.47
369.99	229.48
370.37	229.47
370.75	229.49
371.13	229.43
371.51	229.37
371.89	229.34
372.27	229.32
372.65	229.26
373.03	229.19
373.41	229.18
373.78	229.10
374.16	228.97
374.54	228.86
374.92	228.77
375.30	228.73
375.68	228.66
376.06	228.61
376.44	228.54
376.82	228.47
377.19	228.41
377.57	228.36
377.95	228.26
378.33	228.20
378.71	228.06
379.09	228.00
379.47	227.96
379.84	227.87
380.22	227.77
380.60	227.70
380.98	227.60
381.36	227.50
381.73	227.42
382.11	227.42
382.49	227.39
382.87	227.33
383.25	227.27
383.62	227.31
384.00	227.22
384.38	227.19
384.76	227.14
385.13	227.11
385.51	227.03
385.89	226.94
386.27	226.88
386.64	226.82
387.02	226.74
387.40	226.68
387.78	226.64
388.15	226.61
388.53	226.59
388.91	226.56
389.29	226.52
389.66	226.50
390.04	226.44
390.42	226.43
390.79	226.38
391.17	226.33
391.55	226.21
391.92	226.21
392.30	226.18
392.68	226.15
393.05	226.12
393.43	226.14
393.81	226.17
394.18	226.16
394.56	226.20
394.94	226.26
395.31	226.26
395.69	226.32
396.06	226.37
396.44	226.41
396.82	226.47
397.19	226.56
397.57	226.57
397.95	226.63
398.32	226.62
398.70	226.71
399.07	226.78
399.45	226.83
399.82	226.88
400.20	226.95
400.58	227.04
400.95	227.08
401.33	227.19
401.70	227.31
402.08	227.40
402.45	227.52
402.83	227.64
403.20	227.77
403.58	227.85
403.95	227.96
404.33	228.10
404.71	228.23
405.08	228.43
405.46	228.56
405.83	228.72
406.21	228.89
406.58	229.05
406.96	229.25
407.33	229.47
407.70	229.71
408.08	229.99
408.45	230.21
408.83	230.48
409.20	230.69
409.58	230.92
409.95	231.20
410.33	231.49
410.70	231.73
411.08	232.03
411.45	232.38
411.82	232.71
412.20	233.06
412.57	233.45
412.95	233.75
413.32	234.21
413.69	234.63
414.07	235.10
414.44	235.58
414.82	236.03
415.19	236.58
415.56	237.12
415.94	237.66
416.31	238.35
416.68	239.00
417.06	239.75
417.43	240.43
417.81	241.18
418.18	241.96
418.55	242.78
418.93	243.67
419.30	244.57
419.67	245.48
420.04	246.44
420.42	247.45
420.79	248.64
421.16	249.78
421.54	250.92
421.91	252.10
422.28	253.39
422.66	254.76
423.03	256.08
423.40	257.40
423.77	258.84
424.15	260.24
424.52	261.70
424.89	263.27
425.26	264.82
425.64	266.29
426.01	267.88
426.38	269.55
426.75	271.21
427.13	272.92
427.50	274.73
427.87	276.61
428.24	278.45
428.61	280.17
428.99	282.11
429.36	284.26
429.73	286.33
430.10	288.30
430.47	290.34
430.85	292.43
431.22	294.67
431.59	297.01
431.96	299.23
432.33	301.67
432.70	304.06
433.08	306.91
433.45	309.52
433.82	312.09
434.19	314.97
434.56	317.77
434.93	320.44
435.30	323.08
435.68	325.96
436.05	328.78
436.42	331.59
436.79	334.05
437.16	336.76
437.53	339.62
437.90	342.39
438.27	345.11
438.64	347.94
439.01	350.51
439.38	352.74
439.75	354.90
440.13	357.43
440.50	359.73
440.87	361.53
441.24	363.51
441.61	365.67
441.98	367.18
442.35	369.01
442.72	370.84
443.09	372.66
443.46	373.66
443.83	374.29
444.20	374.82
444.57	375.69
444.94	375.96
445.31	376.27
445.68	376.66
446.05	376.76
446.42	376.37
446.79	375.95
447.16	375.52
447.53	375.24
447.90	374.06
448.27	372.94
448.64	371.35
449.01	370.19
449.37	368.25
449.74	366.36
450.11	364.08
450.48	361.62
450.85	359.05
451.22	356.91
451.59	354.87
451.96	352.96
452.33	350.33
452.70	347.98
453.07	345.16
453.43	342.27
453.80	339.51
454.17	336.85
454.54	334.33
454.91	331.57
455.28	328.89
455.65	326.45
456.02	323.96
456.38	321.84
456.75	319.19
457.12	316.96
457.49	314.71
457.86	312.55
458.23	310.72
458.59	308.71
458.96	306.62
459.33	304.79
459.70	302.87
460.07	301.39
460.43	299.66
460.80	298.07
461.17	296.61
461.54	295.10
461.91	293.66
462.27	292.24
462.64	291.02
463.01	289.65
463.38	288.32
463.74	286.97
464.11	285.80
464.48	284.73
464.85	283.62
465.21	282.75
465.58	281.84
465.95	280.68
466.32	279.74
466.68	278.84
467.05	277.93
467.42	277.03
467.78	276.10
468.15	275.23
468.52	274.53
468.88	273.66
469.25	272.87
469.62	272.25
469.98	271.53
470.35	270.89
470.72	270.30
471.08	269.63
471.45	269.07
471.82	268.53
472.18	267.93
472.55	267.46
472.92	266.93
473.28	266.46
473.65	266.01
474.02	265.55
474.38	265.14
474.75	264.80
475.11	264.49
475.48	264.21
475.85	263.93
476.21	263.68
476.58	263.51
476.94	263.36
477.31	263.16
477.67	263.04
478.04	262.89
478.41	262.76
478.77	262.84
479.14	262.75
479.50	262.75
479.87	262.82
480.23	262.92
480.60	262.97
480.96	263.08
481.33	263.30
481.69	263.51
482.06	263.73
482.42	263.93
482.79	264.16
483.15	264.50
483.52	264.90
483.88	265.26
484.25	265.65
484.61	266.08
484.98	266.57
485.34	267.10
485.71	267.72
486.07	268.37
486.44	268.93
486.80	269.67
487.17	270.41
487.53	271.22
487.90	272.04
488.26	272.97
488.62	273.93
488.99	274.95
489.35	275.97
489.72	277.08
490.08	278.31
490.44	279.55
490.81	280.90
491.17	282.27
491.54	283.75
491.90	285.29
492.26	286.96
492.63	288.71
492.99	290.51
493.36	292.40
493.72	294.44
494.08	296.52
494.45	298.78
494.81	301.16
495.17	303.63
495.54	306.22
495.90	308.96
496.26	311.77
496.63	314.73
496.99	317.83
497.35	321.11
497.72	324.47
498.08	327.98
498.44	331.64
498.80	335.57
499.17	339.62
499.53	343.82
499.89	348.17
500.26	352.68
500.62	357.30
500.98	362.29
501.34	367.34
501.71	372.70
502.07	378.08
502.43	383.70
502.79	389.49
503.16	395.58
503.52	401.81
503.88	408.23
504.24	414.86
504.60	421.78
504.97	428.91
505.33	436.29
505.69	443.98
506.05	451.75
506.41	459.68
506.78	467.90
507.14	476.29
507.50	485.03
507.86	494.07
508.22	503.31
508.59	512.55
508.95	522.18
509.31	531.96
509.67	542.11
510.03	552.34
510.39	562.95
510.75	573.72
511.12	584.75
511.48	595.98
511.84	607.43
512.20	619.01
512.56	630.90
512.92	643.07
513.28	655.38
513.64	667.82
514.00	680.48
514.37	693.45
514.73	706.55
515.09	719.62
515.45	732.92
515.81	746.56
516.17	760.49
516.53	774.58
516.89	788.78
517.25	803.09
517.61	817.56
517.97	831.98
518.33	846.44
518.69	861.11
519.05	876.15
519.41	891.35
519.77	906.94
520.13	922.40
520.49	937.72
520.85	953.21
521.21	969.08
521.57	985.35
521.93	1001.04
522.29	1017.48
522.65	1033.71
523.01	1049.85
523.37	1065.91
523.73	1082.12
524.09	1098.30
524.45	1114.71
524.81	1131.18
525.17	1148.06
525.53	1165.05
525.89	1181.93
526.25	1198.69
526.61	1215.20
526.97	1232.03
527.33	1248.34
527.68	1264.99
528.04	1281.51
528.40	1298.12
528.76	1315.17
529.12	1331.71
529.48	1348.66
529.84	1364.82
530.20	1381.48
530.56	1398.62
530.91	1416.05
531.27	1432.85
531.63	1449.37
531.99	1466.03
532.35	1482.19
532.71	1498.06
533.07	1514.25
533.42	1530.23
533.78	1546.43
534.14	1562.68
534.50	1578.07
534.86	1594.04
535.21	1609.28
535.57	1625.49
535.93	1641.14
536.29	1655.85
536.65	1670.96
537.00	1685.81
537.36	1701.09
537.72	1715.70
538.08	1730.10
538.44	1743.96
538.79	1757.80
539.15	1771.53
539.51	1785.18
539.87	1799.57
540.22	1813.47
540.58	1827.35
540.94	1840.74
541.29	1853.79
541.65	1866.55
542.01	1879.87
542.37	1892.25
542.72	1904.64
543.08	1916.25
543.44	1928.51
543.79	1939.90
544.15	1951.07
544.51	1962.68
544.87	1973.62
545.22	1984.47
545.58	1994.77
545.94	2004.64
546.29	2014.59
546.65	2024.39
547.01	2033.61
547.36	2042.32
547.72	2050.71
548.07	2058.64
548.43	2066.84
548.79	2074.77
549.14	2082.37
549.50	2089.71
549.86	2097.52
550.21	2104.92
550.57	2112.18
550.92	2118.90
551.28	2126.05
551.64	2132.97
551.99	2139.52
552.35	2145.73
552.70	2151.89
553.06	2157.93
553.41	2164.23
553.77	2170.33
554.13	2176.45
554.48	2182.77
554.84	2188.13
555.19	2193.49
555.55	2198.66
555.90	2203.10
556.26	2208.03
556.61	2212.60
556.97	2216.78
557.32	2220.90
557.68	2225.13
558.03	2229.37
558.39	2233.08
558.74	2237.54
559.10	2241.43
559.45	2244.97
559.81	2249.23
560.16	2253.05
560.52	2256.14
560.87	2259.51
561.23	2262.15
561.58	2265.24
561.94	2267.68
562.29	2270.11
562.64	2272.76
563.00	2275.34
563.35	2278.79
563.71	2281.92
564.06	2285.28
564.42	2288.18
564.77	2290.66
565.12	2292.89
565.48	2294.63
565.83	2296.50
566.19	2297.81
566.54	2298.93
566.89	2300.02
567.25	2300.60
567.60	2302.06
567.96	2303.71
568.31	2304.57
568.66	2305.56
569.02	2305.98
569.37	2306.15
569.72	2306.97
570.08	2307.05
570.43	2306.90
570.78	2306.37
571.14	2304.77
571.49	2303.46
571.84	2303.03
572.20	2301.74
572.55	2300.53
572.90	2299.06
573.26	2297.67
573.61	2296.03
573.96	2293.97
574.31	2291.04
574.67	2287.80
575.02	2284.06
575.37	2280.78
575.72	2276.96
576.08	2273.76
576.43	2270.34
576.78	2266.70
577.13	2263.51
577.49	2260.52
577.84	2256.97
578.19	2253.14
578.54	2249.44
578.90	2245.07
579.25	2239.39
579.60	2234.38
579.95	2229.43
580.30	2224.48
580.66	2219.18
581.01	2214.20
581.36	2209.25
581.71	2204.96
582.06	2200.64
582.42	2196.11
582.77	2190.71
583.12	2185.95
583.47	2181.10
583.82	2176.15
584.17	2170.79
584.53	2165.21
584.88	2159.41
585.23	2153.61
585.58	2148.11
585.93	2142.70
586.28	2137.88
586.63	2132.81
586.98	2127.71
587.34	2123.07
587.69	2118.12
588.04	2112.90
588.39	2107.05
588.74	2100.53
589.09	2094.47
589.44	2087.53
589.79	2081.41
590.14	2075.65
590.49	2069.14
590.84	2062.68
591.19	2056.64
591.54	2050.22
591.89	2042.69
592.25	2035.75
592.60	2028.53
592.95	2020.83
593.30	2013.44
593.65	2005.73
594.00	1998.60
594.35	1991.32
594.70	1983.05
595.05	1975.63
595.40	1968.23
595.75	1960.72
596.10	1954.46
596.45	1947.53
596.80	1941.39
597.15	1934.60
597.50	1927.48
597.85	1920.94
598.19	1914.12
598.54	1906.90
598.89	1900.45
599.24	1894.69
599.59	1887.84
599.94	1881.54
600.29	1875.14
600.64	1868.47
600.99	1861.01
601.34	1854.11
601.69	1847.15
602.04	1840.20
602.39	1832.99
602.74	1826.14
603.08	1819.26
603.43	1812.58
603.78	1805.33
604.13	1798.09
604.48	1790.81
604.83	1784.13
605.18	1777.13
605.53	1769.22
605.87	1761.06
606.22	1753.52
606.57	1745.48
606.92	1738.25
607.27	1731.15
607.62	1724.25
607.96	1716.91
608.31	1710.27
608.66	1702.69
609.01	1695.10
609.36	1687.47
609.70	1679.42
610.05	1671.36
610.40	1663.77
610.75	1655.20
611.10	1647.45
611.44	1639.11
611.79	1631.12
612.14	1622.34
612.49	1613.20
612.83	1604.73
613.18	1596.78
613.53	1588.76
613.88	1580.21
614.22	1571.95
614.57	1563.44
614.92	1555.40
615.27	1547.77
615.61	1539.39
615.96	1531.48
616.31	1523.88
616.65	1516.55
617.00	1508.95
617.35	1501.24
617.70	1492.92
618.04	1484.40
618.39	1476.21
618.74	1468.53
619.08	1460.18
619.43	1452.58
619.78	1445.70
620.12	1438.68
620.47	1430.86
620.82	1422.68
621.16	1415.35
621.51	1407.84
621.85	1400.05
622.20	1391.55
622.55	1383.16
622.89	1375.37
623.24	1367.70
623.59	1360.21
623.93	1352.76
624.28	1345.42
624.62	1337.80
624.97	1330.61
625.32	1324.09
625.66	1317.10
626.01	1309.95
626.35	1302.45
626.70	1294.75
627.04	1286.89
627.39	1278.99
627.73	1271.80
628.08	1264.82
628.43	1257.48
628.77	1250.04
629.12	1242.56
629.46	1235.38
629.81	1228.07
630.15	1220.84
630.50	1213.38
630.84	1205.26
631.19	1197.29
631.53	1189.91
631.88	1182.39
632.22	1174.76
632.57	1167.39
632.91	1159.82
633.26	1152.29
633.60	1145.03
633.95	1137.92
634.29	1130.98
634.64	1124.34
634.98	1116.85
635.32	1109.75
635.67	1103.13
636.01	1096.45
636.36	1089.63
636.70	1083.09
637.05	1076.52
637.39	1069.98
637.73	1063.53
638.08	1057.64
638.42	1051.75
638.77	1045.27
639.11	1038.65
639.45	1032.30
639.80	1025.68
640.14	1019.19
640.49	1012.77
640.83	1006.42
641.17	1000.13
641.52	993.82
641.86	987.40
642.20	981.62
642.55	975.37
642.89	968.91
643.23	962.43
643.58	956.60
643.92	950.42
644.26	944.28
644.61	938.33
644.95	932.27
645.29	925.64
645.64	918.80
645.98	912.47
646.32	906.77
646.66	900.65
647.01	894.78
647.35	889.14
647.69	883.34
648.04	877.83
648.38	871.99
648.72	865.94
649.06	859.84
649.41	853.94
649.75	847.93
650.09	841.93
650.43	835.99
650.78	829.90
651.12	823.88
651.46	818.20
651.80	812.39
652.14	807.00
652.49	801.66
652.83	796.45
653.17	790.71
653.51	784.82
653.85	779.49
654.20	773.81
654.54	767.81
654.88	762.01
655.22	756.14
655.56	750.45
655.90	745.03
656.25	739.76
656.59	734.43
656.93	729.26
657.27	724.14
657.61	718.74
657.95	713.61
658.29	708.56
658.64	703.32
658.98	698.04
659.32	692.62
659.66	687.42
660.00	682.15
660.34	677.32
660.68	672.47
661.02	667.42
661.36	662.74
661.70	658.28
662.05	653.93
662.39	649.56
662.73	645.17
663.07	640.78
663.41	636.34
663.75	631.85
664.09	627.35
664.43	622.97
664.77	618.88
665.11	614.62
665.45	610.49
665.79	606.42
666.13	602.33
666.47	598.20
666.81	594.06
667.15	589.91
667.49	586.01
667.83	582.25
668.17	578.35
668.51	574.26
668.85	570.24
669.19	566.34
669.53	562.53
669.87	558.65
670.21	554.94
670.55	551.34
670.89	547.94
671.23	544.50
671.57	540.97
671.91	537.51
672.25	534.10
672.58	530.58
672.92	527.20
673.26	524.01
673.60	520.92
673.94	517.81
674.28	514.92
674.62	511.93
674.96	508.83
675.30	505.92
675.64	503.08
675.97	500.34
676.31	497.55
676.65	494.66
676.99	491.98
677.33	489.10
677.67	486.23
678.01	483.20
678.34	480.23
678.68	477.34
679.02	474.43
679.36	471.66
679.70	468.95
680.04	466.18
680.37	463.28
680.71	460.44
681.05	457.83
681.39	455.14
681.73	452.47
682.06	449.87
682.40	447.28
682.74	444.72
683.08	442.15
683.42	439.51
683.75	437.00
684.09	434.44
684.43	431.98
684.77	429.55
685.10	427.19
685.44	424.85
685.78	422.57
686.12	420.42
686.45	418.10
686.79	415.80
687.13	413.61
687.46	411.50
687.80	409.38
688.14	407.15
688.48	405.10
688.81	402.83
689.15	400.71
689.49	398.59
689.82	396.50
690.16	394.40
690.50	392.47
690.83	390.50
691.17	388.50
691.51	386.61
691.84	384.77
692.18	382.82
692.52	380.87
692.85	378.94
693.19	376.99
693.52	375.20
693.86	373.41
694.20	371.64
694.53	369.83
694.87	367.94
695.21	366.18
695.54	364.36
695.88	362.70
696.21	360.99
696.55	359.32
696.88	357.63
697.22	356.02
697.56	354.36
697.89	352.75
698.23	351.14
698.56	349.53
698.90	347.95
699.23	346.32
699.57	344.79
699.90	343.28
700.24	341.75
700.58	340.20
700.91	338.67
701.25	337.19
701.58	335.80
701.92	334.50
702.25	333.11
702.59	331.77
702.92	330.39
703.26	329.08
703.59	327.79
703.93	326.62
704.26	325.38
704.60	324.12
704.93	322.87
705.26	321.63
705.60	320.49
705.93	319.34
706.27	318.30
706.60	317.26
706.94	316.13
707.27	315.03
707.61	314.00
707.94	313.01
708.27	311.93
708.61	310.88
708.94	309.83
709.28	308.89
709.61	307.93
709.94	306.99
710.28	305.99
710.61	305.04
710.95	303.94
711.28	303.02
711.61	302.09
711.95	301.15
712.28	300.21
712.61	299.22
712.95	298.29
713.28	297.42
713.61	296.49
713.95	295.65
714.28	294.83
714.61	293.90
714.95	293.10
715.28	292.29
715.61	291.43
715.95	290.59
716.28	289.71
716.61	288.86
716.95	288.05
717.28	287.27
717.61	286.51
717.94	285.81
718.28	285.01
718.61	284.25
718.94	283.57
719.27	282.89
719.61	282.23
719.94	281.56
720.27	280.87
720.60	280.20
720.94	279.52
721.27	278.90
721.60	278.34
721.93	277.69
722.27	277.12
722.60	276.57
722.93	276.00
723.26	275.47
723.59	274.92
723.93	274.35
724.26	273.78
724.59	273.20
724.92	272.65
725.25	272.14
725.59	271.61
725.92	271.06
726.25	270.56
726.58	270.07
726.91	269.59
727.24	269.07
727.57	268.60
727.91	268.13
728.24	267.66
728.57	267.19
728.90	266.76
729.23	266.27
729.56	265.81
729.89	265.33
730.22	264.84
730.55	264.33
730.89	263.90
731.22	263.48
731.55	263.07
731.88	262.66
732.21	262.23
732.54	261.80
732.87	261.37
733.20	260.97
733.53	260.59
733.86	260.16
734.19	259.77
734.52	259.40
734.85	259.07
735.18	258.64
735.51	258.27
735.84	257.85
736.17	257.50
736.50	257.08
736.83	256.84
737.16	256.49
737.49	256.19
737.82	255.84
738.15	255.50
738.48	255.11
738.81	254.80
739.14	254.47
739.47	254.17
739.80	253.88
740.13	253.59
740.46	253.23
740.79	252.94
741.12	252.64
741.45	252.35
741.78	252.02
742.11	251.73
742.44	251.40
742.77	251.12
743.10	250.81
743.43	250.55
743.75	250.15
744.08	250.02
744.41	249.75
744.74	249.50
745.07	249.25
745.40	249.06
745.73	248.79
746.06	248.52
746.39	248.26
746.71	247.99
747.04	247.72
747.37	247.48
747.70	247.25
748.03	246.98
748.36	246.77
748.68	246.55
749.01	246.35
749.34	246.13
749.67	245.94
750.00	245.76
750.33	245.62
750.65	245.42
750.98	245.07
751.31	244.83
751.64	244.62
751.97	244.47
752.29	244.24
752.62	243.99
752.95	243.77
753.28	243.54
753.60	243.35
753.93	243.17
754.26	243.00
754.59	242.77
754.91	242.59
755.24	242.36
755.57	242.16
755.90	241.93
756.22	241.73
756.55	241.54
756.88	241.31
757.20	241.06
757.53	240.89
757.86	240.73
758.19	240.60
758.51	240.44
758.84	240.22
759.17	240.06
759.49	239.92
759.82	239.82
760.15	239.72
760.47	239.54
760.80	239.36
761.13	239.21
761.45	239.03
761.78	238.92
762.11	238.79
762.43	238.65
762.76	238.55
763.08	238.44
763.41	238.31
763.74	238.15
764.06	238.02
764.39	237.89
764.71	237.76
765.04	237.61
765.37	237.46
765.69	237.32
766.02	237.17
766.34	237.08
766.67	236.90
767.00	236.76
767.32	236.70
767.65	236.64
767.97	236.54
768.30	236.46
768.62	236.30
768.95	236.16
769.27	236.06
769.60	236.00
769.92	235.85
770.25	235.73
770.57	235.64
770.90	235.54
771.22	235.38
771.55	235.26
771.87	235.17
772.20	235.09
772.52	235.08
772.85	235.13
773.17	235.00
773.50	234.91
773.82	234.79
774.15	234.66
774.47	234.51
774.80	234.44
775.12	234.32
775.45	234.26
775.77	234.21
776.09	234.15
776.42	234.02
776.74	233.97
777.07	233.88
777.39	233.84
777.72	233.75
778.04	233.71
778.36	233.66
778.69	233.57
779.01	233.50
779.33	233.36
779.66	233.15
779.98	233.06
780.31	233.00
780.63	233.01
780.95	232.98
781.28	232.95
781.60	232.84
781.92	232.83
782.25	232.76
782.57	232.70
782.89	232.61
783.22	232.54
783.54	232.48
783.86	232.41
784.19	232.34
784.51	232.31
784.83	232.27
785.16	232.18
785.48	232.17
785.80	232.12
786.12	232.08
786.45	232.01
786.77	232.00
787.09	231.93
