SpectraSuite Data File
++++++++++++++++++++++++++++++++++++
Date: Fri Feb 01 15:04:03 EST 2013
User: group
Dark Spectrum Present: No
Reference Spectrum Present: No
Number of Sampled Component Spectra: 1
Spectrometers: USB2E7196
Integration Time (usec): 35000 (USB2E7196)
Spectra Averaged: 100 (USB2E7196)
Boxcar Smoothing: 10 (USB2E7196)
Correct for Electrical Dark: No (USB2E7196)
Strobe/Lamp Enabled: No (USB2E7196)
Correct for Detector Non-linearity: No (USB2E7196)
Correct for Stray Light: No (USB2E7196)
Number of Pixels in Processed Spectrum: 2048
>>>>>Begin Processed Spectral Data<<<<<
339.09	0.00
339.48	215.31
339.86	216.73
340.24	218.36
340.63	219.71
341.01	222.42
341.39	222.24
341.78	223.40
342.16	225.07
342.54	225.53
342.93	213.56
343.31	224.34
343.69	224.88
344.07	225.35
344.46	225.77
344.84	226.14
345.22	226.39
345.60	226.62
345.99	226.81
346.37	226.92
346.75	226.98
347.13	227.05
347.52	227.09
347.90	227.17
348.28	227.18
348.66	227.24
349.05	227.27
349.43	227.33
349.81	227.36
350.19	227.41
350.57	227.46
350.96	227.50
351.34	227.58
351.72	227.64
352.10	227.72
352.48	227.77
352.87	227.81
353.25	227.88
353.63	227.96
354.01	228.04
354.39	228.12
354.77	228.21
355.15	228.29
355.54	228.39
355.92	228.45
356.30	228.53
356.68	228.62
357.06	228.69
357.44	228.74
357.82	228.79
358.20	228.90
358.58	228.97
358.97	229.05
359.35	229.13
359.73	229.19
360.11	229.26
360.49	229.34
360.87	229.39
361.25	229.45
361.63	229.53
362.01	229.55
362.39	229.57
362.77	229.62
363.15	229.64
363.53	229.67
363.91	229.68
364.29	229.70
364.67	229.61
365.05	229.62
365.43	229.66
365.81	229.67
366.19	229.66
366.57	229.69
366.95	229.67
367.33	229.65
367.71	229.66
368.09	229.63
368.47	229.58
368.85	229.55
369.23	229.51
369.61	229.44
369.99	229.45
370.37	229.44
370.75	229.43
371.13	229.37
371.51	229.33
371.89	229.30
372.27	229.24
372.65	229.21
373.03	229.16
373.41	229.05
373.78	228.98
374.16	228.90
374.54	228.79
374.92	228.70
375.30	228.63
375.68	228.55
376.06	228.49
376.44	228.41
376.82	228.38
377.19	228.28
377.57	228.19
377.95	228.08
378.33	228.01
378.71	227.89
379.09	227.82
379.47	227.77
379.84	227.67
380.22	227.63
380.60	227.53
380.98	227.42
381.36	227.38
381.73	227.30
382.11	227.25
382.49	227.21
382.87	227.17
383.25	227.10
383.62	227.14
384.00	227.03
384.38	226.98
384.76	226.91
385.13	226.89
385.51	226.86
385.89	226.77
386.27	226.69
386.64	226.67
387.02	226.60
387.40	226.49
387.78	226.45
388.15	226.40
388.53	226.38
388.91	226.37
389.29	226.32
389.66	226.34
390.04	226.29
390.42	226.24
390.79	226.21
391.17	226.20
391.55	226.08
391.92	226.10
392.30	226.09
392.68	226.07
393.05	226.07
393.43	226.08
393.81	226.12
394.18	226.11
394.56	226.14
394.94	226.22
395.31	226.26
395.69	226.32
396.06	226.36
396.44	226.41
396.82	226.44
397.19	226.54
397.57	226.61
397.95	226.67
398.32	226.75
398.70	226.81
399.07	226.90
399.45	226.98
399.82	227.08
400.20	227.18
400.58	227.29
400.95	227.34
401.33	227.45
401.70	227.63
402.08	227.77
402.45	227.87
402.83	227.98
403.20	228.08
403.58	228.19
403.95	228.34
404.33	228.50
404.71	228.64
405.08	228.84
405.46	228.97
405.83	229.14
406.21	229.31
406.58	229.53
406.96	229.70
407.33	229.90
407.70	230.08
408.08	230.35
408.45	230.57
408.83	230.79
409.20	231.01
409.58	231.17
409.95	231.43
410.33	231.70
410.70	231.98
411.08	232.31
411.45	232.64
411.82	232.94
412.20	233.28
412.57	233.70
412.95	233.99
413.32	234.42
413.69	234.84
414.07	235.27
414.44	235.71
414.82	236.20
415.19	236.73
415.56	237.29
415.94	237.85
416.31	238.47
416.68	239.12
417.06	239.86
417.43	240.57
417.81	241.32
418.18	242.09
418.55	242.91
418.93	243.75
419.30	244.63
419.67	245.57
420.04	246.52
420.42	247.49
420.79	248.65
421.16	249.76
421.54	250.94
421.91	252.14
422.28	253.40
422.66	254.70
423.03	256.02
423.40	257.37
423.77	258.74
424.15	260.18
424.52	261.65
424.89	263.21
425.26	264.74
425.64	266.16
426.01	267.78
426.38	269.45
426.75	271.18
427.13	272.91
427.50	274.73
427.87	276.62
428.24	278.48
428.61	280.20
428.99	282.13
429.36	284.25
429.73	286.29
430.10	288.31
430.47	290.38
430.85	292.46
431.22	294.66
431.59	297.07
431.96	299.33
432.33	301.80
432.70	304.23
433.08	307.05
433.45	309.76
433.82	312.36
434.19	315.23
434.56	317.98
434.93	320.66
435.30	323.27
435.68	326.11
436.05	328.96
436.42	331.79
436.79	334.34
437.16	337.03
437.53	339.90
437.90	342.75
438.27	345.51
438.64	348.41
439.01	351.00
439.38	353.21
439.75	355.35
440.13	357.85
440.50	360.14
440.87	361.98
441.24	363.88
441.61	366.07
441.98	367.56
442.35	369.38
442.72	371.24
443.09	373.06
443.46	374.08
443.83	374.72
444.20	375.22
444.57	376.05
444.94	376.37
445.31	376.67
445.68	376.94
446.05	377.02
446.42	376.58
446.79	376.20
447.16	375.81
447.53	375.52
447.90	374.39
448.27	373.27
448.64	371.70
449.01	370.56
449.37	368.55
449.74	366.65
450.11	364.40
450.48	361.93
450.85	359.40
451.22	357.27
451.59	355.22
451.96	353.30
452.33	350.68
452.70	348.30
453.07	345.50
453.43	342.61
453.80	339.83
454.17	337.19
454.54	334.64
454.91	331.91
455.28	329.21
455.65	326.72
456.02	324.26
456.38	322.10
456.75	319.45
457.12	317.27
457.49	315.06
457.86	312.90
458.23	311.01
458.59	308.98
458.96	306.94
459.33	305.07
459.70	303.22
460.07	301.74
460.43	300.02
460.80	298.42
461.17	297.02
461.54	295.55
461.91	294.09
462.27	292.65
462.64	291.37
463.01	290.05
463.38	288.72
463.74	287.36
464.11	286.22
464.48	285.21
464.85	284.03
465.21	283.15
465.58	282.25
465.95	281.18
466.32	280.24
466.68	279.30
467.05	278.39
467.42	277.46
467.78	276.46
468.15	275.54
468.52	274.84
468.88	273.96
469.25	273.14
469.62	272.51
469.98	271.80
470.35	271.13
470.72	270.50
471.08	269.86
471.45	269.31
471.82	268.71
472.18	268.07
472.55	267.62
472.92	267.07
473.28	266.57
473.65	266.07
474.02	265.61
474.38	265.23
474.75	264.87
475.11	264.53
475.48	264.28
475.85	264.07
476.21	263.82
476.58	263.60
476.94	263.43
477.31	263.26
477.67	263.11
478.04	262.99
478.41	262.92
478.77	262.91
479.14	262.85
479.50	262.88
479.87	262.96
480.23	263.01
480.60	263.06
480.96	263.12
481.33	263.32
481.69	263.51
482.06	263.67
482.42	263.87
482.79	264.10
483.15	264.44
483.52	264.79
483.88	265.16
484.25	265.56
484.61	265.98
484.98	266.41
485.34	266.94
485.71	267.55
486.07	268.17
486.44	268.73
486.80	269.40
487.17	270.13
487.53	270.94
487.90	271.80
488.26	272.74
488.62	273.75
488.99	274.72
489.35	275.76
489.72	276.92
490.08	278.09
490.44	279.31
490.81	280.62
491.17	281.95
491.54	283.39
491.90	284.91
492.26	286.56
492.63	288.29
492.99	290.06
493.36	291.92
493.72	293.95
494.08	296.06
494.45	298.33
494.81	300.69
495.17	303.06
495.54	305.66
495.90	308.31
496.26	311.07
496.63	314.04
496.99	317.14
497.35	320.38
497.72	323.79
498.08	327.32
498.44	330.98
498.80	334.92
499.17	338.95
499.53	343.16
499.89	347.50
500.26	351.98
500.62	356.62
500.98	361.57
501.34	366.64
501.71	371.97
502.07	377.31
502.43	382.87
502.79	388.66
503.16	394.65
503.52	400.88
503.88	407.33
504.24	413.95
504.60	420.83
504.97	427.87
505.33	435.14
505.69	442.84
506.05	450.59
506.41	458.42
506.78	466.58
507.14	474.97
507.50	483.71
507.86	492.72
508.22	501.92
508.59	511.13
508.95	520.70
509.31	530.46
509.67	540.60
510.03	550.88
510.39	561.49
510.75	572.28
511.12	583.27
511.48	594.47
511.84	605.85
512.20	617.32
512.56	629.31
512.92	641.53
513.28	653.79
513.64	666.25
514.00	678.95
514.37	691.89
514.73	704.90
515.09	717.91
515.45	731.23
515.81	744.83
516.17	758.87
516.53	773.01
516.89	787.20
517.25	801.38
517.61	815.82
517.97	830.26
518.33	844.71
518.69	859.52
519.05	874.60
519.41	889.88
519.77	905.55
520.13	920.99
520.49	936.48
520.85	951.96
521.21	967.78
521.57	984.05
521.93	999.89
522.29	1016.42
522.65	1032.83
523.01	1049.06
523.37	1065.19
523.73	1081.43
524.09	1097.53
524.45	1113.94
524.81	1130.62
525.17	1147.55
525.53	1164.51
525.89	1181.43
526.25	1198.32
526.61	1214.73
526.97	1231.54
527.33	1247.97
527.68	1264.68
528.04	1281.19
528.40	1297.99
528.76	1315.12
529.12	1331.81
529.48	1348.69
529.84	1364.74
530.20	1381.29
530.56	1398.38
530.91	1415.85
531.27	1432.55
531.63	1449.28
531.99	1465.83
532.35	1481.91
532.71	1497.81
533.07	1514.13
533.42	1530.11
533.78	1546.16
534.14	1562.54
534.50	1578.04
534.86	1594.01
535.21	1609.37
535.57	1625.38
535.93	1640.94
536.29	1655.78
536.65	1671.02
537.00	1685.98
537.36	1701.42
537.72	1716.22
538.08	1730.77
538.44	1744.68
538.79	1758.66
539.15	1772.39
539.51	1786.37
539.87	1800.76
540.22	1814.64
540.58	1828.50
540.94	1842.03
541.29	1855.04
541.65	1867.86
542.01	1881.12
542.37	1893.49
542.72	1905.86
543.08	1917.58
543.44	1929.96
543.79	1941.32
544.15	1952.29
544.51	1963.90
544.87	1974.91
545.22	1985.67
545.58	1995.84
545.94	2005.64
546.29	2015.61
546.65	2025.29
547.01	2034.47
547.36	2043.19
547.72	2051.66
548.07	2059.57
548.43	2067.71
548.79	2075.88
549.14	2083.35
549.50	2090.79
549.86	2098.51
550.21	2105.84
550.57	2113.15
550.92	2119.85
551.28	2126.86
551.64	2133.93
551.99	2140.45
552.35	2146.58
552.70	2152.73
553.06	2158.76
553.41	2165.08
553.77	2171.10
554.13	2177.24
554.48	2183.36
554.84	2188.79
555.19	2194.13
555.55	2199.15
555.90	2203.47
556.26	2208.23
556.61	2212.97
556.97	2216.99
557.32	2221.23
557.68	2225.26
558.03	2229.51
558.39	2233.21
558.74	2237.82
559.10	2241.62
559.45	2245.18
559.81	2249.58
560.16	2253.23
560.52	2256.32
560.87	2259.60
561.23	2262.21
561.58	2265.10
561.94	2267.57
562.29	2270.02
562.64	2272.75
563.00	2275.36
563.35	2278.99
563.71	2282.05
564.06	2285.28
564.42	2288.01
564.77	2290.30
565.12	2292.69
565.48	2294.49
565.83	2296.09
566.19	2297.40
566.54	2298.28
566.89	2299.37
567.25	2299.69
567.60	2301.03
567.96	2302.60
568.31	2303.44
568.66	2304.56
569.02	2304.91
569.37	2305.19
569.72	2305.86
570.08	2305.66
570.43	2305.54
570.78	2304.64
571.14	2302.88
571.49	2301.23
571.84	2300.86
572.20	2299.45
572.55	2298.25
572.90	2296.54
573.26	2294.95
573.61	2292.96
573.96	2291.03
574.31	2287.86
574.67	2284.59
575.02	2280.77
575.37	2277.30
575.72	2273.38
576.08	2269.79
576.43	2266.52
576.78	2262.65
577.13	2259.41
577.49	2256.38
577.84	2252.85
578.19	2248.99
578.54	2245.27
578.90	2240.90
579.25	2235.23
579.60	2230.20
579.95	2224.93
580.30	2219.75
580.66	2214.62
581.01	2209.58
581.36	2204.58
581.71	2200.36
582.06	2195.98
582.42	2191.37
582.77	2186.15
583.12	2181.37
583.47	2176.53
583.82	2171.26
584.17	2165.84
584.53	2160.16
584.88	2154.30
585.23	2148.33
585.58	2142.85
585.93	2137.34
586.28	2132.60
586.63	2127.36
586.98	2122.21
587.34	2117.44
587.69	2112.52
588.04	2107.06
588.39	2101.15
588.74	2094.45
589.09	2088.21
589.44	2081.22
589.79	2075.14
590.14	2069.25
590.49	2062.62
590.84	2056.00
591.19	2050.06
591.54	2043.72
591.89	2036.21
592.25	2029.27
592.60	2022.03
592.95	2014.29
593.30	2006.76
593.65	1999.10
594.00	1992.17
594.35	1984.90
594.70	1976.83
595.05	1969.39
595.40	1962.00
595.75	1954.55
596.10	1948.36
596.45	1941.40
596.80	1935.14
597.15	1928.39
597.50	1921.24
597.85	1914.76
598.19	1908.10
598.54	1900.90
598.89	1893.97
599.24	1888.00
599.59	1881.26
599.94	1874.95
600.29	1868.63
600.64	1862.14
600.99	1854.47
601.34	1847.52
601.69	1840.56
602.04	1833.48
602.39	1826.20
602.74	1819.38
603.08	1812.78
603.43	1806.04
603.78	1798.75
604.13	1791.51
604.48	1784.30
604.83	1777.47
605.18	1770.42
605.53	1762.38
605.87	1754.43
606.22	1747.22
606.57	1739.28
606.92	1731.96
607.27	1724.69
607.62	1717.76
607.96	1710.35
608.31	1703.81
608.66	1696.11
609.01	1688.51
609.36	1681.16
609.70	1673.13
610.05	1665.04
610.40	1657.10
610.75	1648.75
611.10	1641.21
611.44	1632.86
611.79	1624.83
612.14	1616.16
612.49	1607.07
612.83	1598.77
613.18	1590.54
613.53	1582.47
613.88	1573.99
614.22	1565.79
614.57	1557.20
614.92	1549.18
615.27	1541.64
615.61	1533.38
615.96	1525.36
616.31	1517.84
616.65	1510.46
617.00	1502.93
617.35	1495.24
617.70	1487.06
618.04	1478.46
618.39	1470.14
618.74	1462.59
619.08	1454.31
619.43	1446.84
619.78	1440.08
620.12	1432.83
620.47	1425.35
620.82	1417.19
621.16	1409.80
621.51	1402.17
621.85	1394.69
622.20	1386.19
622.55	1377.95
622.89	1370.04
623.24	1362.60
623.59	1355.25
623.93	1347.70
624.28	1340.50
624.62	1333.14
624.97	1325.91
625.32	1319.28
625.66	1312.30
626.01	1305.14
626.35	1297.76
626.70	1289.99
627.04	1282.20
627.39	1274.57
627.73	1267.17
628.08	1260.35
628.43	1253.09
628.77	1245.67
629.12	1238.08
629.46	1230.95
629.81	1223.57
630.15	1216.49
630.50	1209.06
630.84	1200.81
631.19	1192.94
631.53	1185.49
631.88	1177.87
632.22	1170.28
632.57	1162.98
632.91	1155.49
633.26	1148.05
633.60	1140.69
633.95	1133.75
634.29	1126.70
634.64	1120.13
634.98	1112.83
635.32	1105.72
635.67	1099.21
636.01	1092.75
636.36	1086.06
636.70	1079.56
637.05	1073.07
637.39	1066.61
637.73	1060.12
638.08	1054.37
638.42	1048.45
638.77	1041.97
639.11	1035.40
639.45	1029.14
639.80	1022.51
640.14	1016.12
640.49	1009.57
640.83	1003.29
641.17	996.90
641.52	990.58
641.86	984.09
642.20	978.21
642.55	971.99
642.89	965.46
643.23	958.92
643.58	953.09
643.92	946.86
644.26	940.70
644.61	934.77
644.95	928.75
645.29	922.11
645.64	915.35
645.98	909.12
646.32	903.35
646.66	897.31
647.01	891.57
647.35	885.85
647.69	880.10
648.04	874.56
648.38	868.91
648.72	862.86
649.06	856.79
649.41	850.98
649.75	844.90
650.09	838.96
650.43	833.08
650.78	826.96
651.12	821.03
651.46	815.32
651.80	809.49
652.14	804.08
652.49	798.68
652.83	793.49
653.17	787.77
653.51	782.04
653.85	776.66
654.20	771.03
654.54	765.13
654.88	759.42
655.22	753.61
655.56	747.88
655.90	742.51
656.25	737.28
656.59	731.91
656.93	726.86
657.27	721.81
657.61	716.44
657.95	711.43
658.29	706.40
658.64	701.21
658.98	695.93
659.32	690.54
659.66	685.38
660.00	680.13
660.34	675.21
660.68	670.35
661.02	665.40
661.36	660.70
661.70	656.18
662.05	651.83
662.39	647.54
662.73	643.11
663.07	638.78
663.41	634.42
663.75	630.03
664.09	625.56
664.43	621.16
664.77	617.06
665.11	612.75
665.45	608.69
665.79	604.61
666.13	600.53
666.47	596.41
666.81	592.27
667.15	588.17
667.49	584.34
667.83	580.57
668.17	576.58
668.51	572.53
668.85	568.58
669.19	564.81
669.53	561.00
669.87	557.16
670.21	553.48
670.55	549.78
670.89	546.35
671.23	542.90
671.57	539.37
671.91	535.90
672.25	532.48
672.58	528.95
672.92	525.60
673.26	522.45
673.60	519.39
673.94	516.27
674.28	513.43
674.62	510.43
674.96	507.37
675.30	504.50
675.64	501.56
675.97	498.80
676.31	495.93
676.65	493.00
676.99	490.29
677.33	487.42
677.67	484.68
678.01	481.64
678.34	478.66
678.68	475.85
679.02	473.01
679.36	470.29
679.70	467.63
680.04	464.93
680.37	462.06
680.71	459.24
681.05	456.70
681.39	454.01
681.73	451.45
682.06	448.93
682.40	446.40
682.74	443.91
683.08	441.37
683.42	438.78
683.75	436.24
684.09	433.71
684.43	431.29
684.77	428.83
685.10	426.49
685.44	424.26
685.78	421.94
686.12	419.71
686.45	417.41
686.79	415.09
687.13	412.87
687.46	410.77
687.80	408.67
688.14	406.43
688.48	404.36
688.81	402.03
689.15	399.87
689.49	397.73
689.82	395.65
690.16	393.57
690.50	391.63
690.83	389.71
691.17	387.77
691.51	385.84
691.84	384.01
692.18	382.10
692.52	380.06
692.85	378.17
693.19	376.28
693.52	374.49
693.86	372.69
694.20	370.96
694.53	369.13
694.87	367.26
695.21	365.51
695.54	363.67
695.88	361.99
696.21	360.28
696.55	358.60
696.88	356.98
697.22	355.31
697.56	353.70
697.89	352.05
698.23	350.43
698.56	348.83
698.90	347.21
699.23	345.57
699.57	344.08
699.90	342.56
700.24	341.03
700.58	339.50
700.91	338.05
701.25	336.57
701.58	335.22
701.92	333.88
702.25	332.51
702.59	331.15
702.92	329.84
703.26	328.53
703.59	327.25
703.93	326.03
704.26	324.80
704.60	323.56
704.93	322.31
705.26	321.08
705.60	319.92
705.93	318.81
706.27	317.82
706.60	316.72
706.94	315.65
707.27	314.58
707.61	313.52
707.94	312.49
708.27	311.46
708.61	310.36
708.94	309.35
709.28	308.41
709.61	307.52
709.94	306.58
710.28	305.58
710.61	304.65
710.95	303.59
711.28	302.72
711.61	301.77
711.95	300.84
712.28	299.90
712.61	298.92
712.95	297.99
713.28	297.11
713.61	296.27
713.95	295.41
714.28	294.58
714.61	293.75
714.95	292.93
715.28	292.09
715.61	291.27
715.95	290.44
716.28	289.55
716.61	288.73
716.95	287.94
717.28	287.22
717.61	286.46
717.94	285.76
718.28	284.95
718.61	284.21
718.94	283.56
719.27	282.94
719.61	282.31
719.94	281.66
720.27	280.95
720.60	280.28
720.94	279.64
721.27	279.04
721.60	278.43
721.93	277.84
722.27	277.27
722.60	276.73
722.93	276.18
723.26	275.68
723.59	275.12
723.93	274.58
724.26	274.01
724.59	273.44
724.92	272.94
725.25	272.44
725.59	271.91
725.92	271.37
726.25	270.86
726.58	270.37
726.91	269.85
727.24	269.35
727.57	268.85
727.91	268.30
728.24	267.86
728.57	267.42
728.90	266.94
729.23	266.43
729.56	265.95
729.89	265.46
730.22	264.98
730.55	264.50
730.89	264.04
731.22	263.61
731.55	263.18
731.88	262.70
732.21	262.28
732.54	261.86
732.87	261.45
733.20	261.02
733.53	260.62
733.86	260.28
734.19	259.91
734.52	259.54
734.85	259.23
735.18	258.80
735.51	258.40
735.84	258.02
736.17	257.65
736.50	257.26
736.83	257.01
737.16	256.65
737.49	256.30
737.82	255.96
738.15	255.61
738.48	255.24
738.81	254.90
739.14	254.55
739.47	254.24
739.80	253.93
740.13	253.62
740.46	253.27
740.79	252.94
741.12	252.61
741.45	252.28
741.78	251.95
742.11	251.64
742.44	251.28
742.77	250.99
743.10	250.69
743.43	250.40
743.75	250.02
744.08	249.89
744.41	249.61
744.74	249.31
745.07	249.04
745.40	248.82
745.73	248.61
746.06	248.35
746.39	248.10
746.71	247.83
747.04	247.61
747.37	247.36
747.70	247.11
748.03	246.89
748.36	246.69
748.68	246.48
749.01	246.25
749.34	246.06
749.67	245.85
750.00	245.63
750.33	245.47
750.65	245.28
750.98	244.92
751.31	244.71
751.64	244.52
751.97	244.37
752.29	244.16
752.62	243.91
752.95	243.73
753.28	243.50
753.60	243.30
753.93	243.11
754.26	242.92
754.59	242.70
754.91	242.47
755.24	242.28
755.57	242.08
755.90	241.92
756.22	241.73
756.55	241.53
756.88	241.36
757.20	241.14
757.53	240.96
757.86	240.84
758.19	240.72
758.51	240.58
758.84	240.36
759.17	240.19
759.49	240.07
759.82	239.95
760.15	239.82
760.47	239.72
760.80	239.53
761.13	239.43
761.45	239.30
761.78	239.15
762.11	239.02
762.43	238.88
762.76	238.73
763.08	238.61
763.41	238.47
763.74	238.32
764.06	238.21
764.39	238.06
764.71	237.90
765.04	237.74
765.37	237.59
765.69	237.45
766.02	237.30
766.34	237.17
766.67	236.97
767.00	236.87
767.32	236.77
767.65	236.72
767.97	236.56
768.30	236.43
768.62	236.33
768.95	236.20
769.27	236.09
769.60	235.95
769.92	235.83
770.25	235.72
770.57	235.62
770.90	235.50
771.22	235.40
771.55	235.29
771.87	235.20
772.20	235.11
772.52	235.11
772.85	235.14
773.17	235.06
773.50	234.95
773.82	234.85
774.15	234.71
774.47	234.55
774.80	234.46
775.12	234.38
775.45	234.27
775.77	234.19
776.09	234.12
776.42	234.06
776.74	234.00
777.07	233.93
777.39	233.87
777.72	233.77
778.04	233.70
778.36	233.61
778.69	233.53
779.01	233.49
779.33	233.33
779.66	233.17
779.98	233.07
780.31	233.03
780.63	233.01
780.95	232.94
781.28	232.89
781.60	232.80
781.92	232.75
782.25	232.70
782.57	232.61
782.89	232.53
783.22	232.45
783.54	232.41
783.86	232.31
784.19	232.22
784.51	232.24
784.83	232.15
785.16	232.11
785.48	232.07
785.80	231.98
786.12	231.94
786.45	231.85
786.77	231.83
787.09	231.78
