SpectraSuite Data File
++++++++++++++++++++++++++++++++++++
Date: Fri Feb 01 16:20:27 EST 2013
User: group
Dark Spectrum Present: No
Reference Spectrum Present: No
Number of Sampled Component Spectra: 1
Spectrometers: USB2E7196
Integration Time (usec): 35000 (USB2E7196)
Spectra Averaged: 100 (USB2E7196)
Boxcar Smoothing: 10 (USB2E7196)
Correct for Electrical Dark: No (USB2E7196)
Strobe/Lamp Enabled: No (USB2E7196)
Correct for Detector Non-linearity: No (USB2E7196)
Correct for Stray Light: No (USB2E7196)
Number of Pixels in Processed Spectrum: 2048
>>>>>Begin Processed Spectral Data<<<<<
339.09	0.00
339.48	214.33
339.86	215.57
340.24	216.87
340.63	218.11
341.01	221.32
341.39	220.72
341.78	222.13
342.16	223.52
342.54	224.41
342.93	212.50
343.31	223.24
343.69	223.79
344.07	224.27
344.46	224.71
344.84	225.11
345.22	225.35
345.60	225.61
345.99	225.82
346.37	226.00
346.75	226.11
347.13	226.15
347.52	226.18
347.90	226.26
348.28	226.29
348.66	226.35
349.05	226.34
349.43	226.42
349.81	226.49
350.19	226.50
350.57	226.59
350.96	226.67
351.34	226.80
351.72	226.86
352.10	226.96
352.48	227.04
352.87	227.05
353.25	227.12
353.63	227.18
354.01	227.23
354.39	227.27
354.77	227.33
355.15	227.45
355.54	227.53
355.92	227.54
356.30	227.63
356.68	227.78
357.06	227.87
357.44	227.91
357.82	227.97
358.20	228.09
358.58	228.15
358.97	228.19
359.35	228.22
359.73	228.28
360.11	228.33
360.49	228.39
360.87	228.50
361.25	228.57
361.63	228.66
362.01	228.71
362.39	228.73
362.77	228.78
363.15	228.77
363.53	228.79
363.91	228.81
364.29	228.82
364.67	228.71
365.05	228.71
365.43	228.75
365.81	228.76
366.19	228.78
366.57	228.80
366.95	228.81
367.33	228.81
367.71	228.80
368.09	228.77
368.47	228.77
368.85	228.74
369.23	228.74
369.61	228.68
369.99	228.69
370.37	228.69
370.75	228.67
371.13	228.65
371.51	228.61
371.89	228.58
372.27	228.56
372.65	228.55
373.03	228.52
373.41	228.42
373.78	228.34
374.16	228.25
374.54	228.16
374.92	228.07
375.30	227.99
375.68	227.88
376.06	227.87
376.44	227.80
376.82	227.72
377.19	227.63
377.57	227.56
377.95	227.47
378.33	227.39
378.71	227.26
379.09	227.21
379.47	227.15
379.84	227.08
380.22	226.96
380.60	226.88
380.98	226.80
381.36	226.73
381.73	226.69
382.11	226.64
382.49	226.57
382.87	226.51
383.25	226.48
383.62	226.57
384.00	226.44
384.38	226.37
384.76	226.35
385.13	226.34
385.51	226.29
385.89	226.21
386.27	226.17
386.64	226.17
387.02	226.07
387.40	226.02
387.78	226.02
388.15	226.03
388.53	225.99
388.91	225.94
389.29	225.93
389.66	225.89
390.04	225.81
390.42	225.79
390.79	225.78
391.17	225.73
391.55	225.59
391.92	225.61
392.30	225.63
392.68	225.61
393.05	225.58
393.43	225.60
393.81	225.60
394.18	225.57
394.56	225.57
394.94	225.62
395.31	225.60
395.69	225.62
396.06	225.66
396.44	225.70
396.82	225.71
397.19	225.77
397.57	225.80
397.95	225.86
398.32	225.89
398.70	225.94
399.07	226.02
399.45	226.09
399.82	226.13
400.20	226.19
400.58	226.24
400.95	226.23
401.33	226.28
401.70	226.41
402.08	226.50
402.45	226.60
402.83	226.71
403.20	226.82
403.58	226.90
403.95	227.01
404.33	227.14
404.71	227.30
405.08	227.48
405.46	227.59
405.83	227.74
406.21	227.89
406.58	228.07
406.96	228.23
407.33	228.43
407.70	228.62
408.08	228.85
408.45	229.04
408.83	229.30
409.20	229.51
409.58	229.67
409.95	229.93
410.33	230.17
410.70	230.41
411.08	230.72
411.45	231.04
411.82	231.34
412.20	231.67
412.57	232.06
412.95	232.37
413.32	232.81
413.69	233.23
414.07	233.65
414.44	234.10
414.82	234.55
415.19	235.10
415.56	235.61
415.94	236.14
416.31	236.81
416.68	237.43
417.06	238.16
417.43	238.86
417.81	239.63
418.18	240.40
418.55	241.26
418.93	242.12
419.30	243.02
419.67	243.92
420.04	244.87
420.42	245.87
420.79	247.04
421.16	248.18
421.54	249.40
421.91	250.64
422.28	251.88
422.66	253.22
423.03	254.52
423.40	255.87
423.77	257.30
424.15	258.69
424.52	260.16
424.89	261.76
425.26	263.34
425.64	264.78
426.01	266.38
426.38	268.04
426.75	269.76
427.13	271.44
427.50	273.30
427.87	275.17
428.24	277.03
428.61	278.80
428.99	280.72
429.36	282.75
429.73	284.80
430.10	286.86
430.47	288.92
430.85	291.02
431.22	293.23
431.59	295.64
431.96	297.89
432.33	300.41
432.70	302.79
433.08	305.61
433.45	308.29
433.82	310.90
434.19	313.79
434.56	316.57
434.93	319.28
435.30	321.84
435.68	324.71
436.05	327.51
436.42	330.29
436.79	332.87
437.16	335.60
437.53	338.46
437.90	341.21
438.27	343.95
438.64	346.76
439.01	349.44
439.38	351.62
439.75	353.80
440.13	356.28
440.50	358.64
440.87	360.44
441.24	362.33
441.61	364.49
441.98	365.96
442.35	367.72
442.72	369.56
443.09	371.38
443.46	372.39
443.83	372.96
444.20	373.43
444.57	374.23
444.94	374.49
445.31	374.77
445.68	375.16
446.05	375.28
446.42	374.93
446.79	374.49
447.16	374.05
447.53	373.74
447.90	372.57
448.27	371.36
448.64	369.81
449.01	368.72
449.37	366.74
449.74	364.86
450.11	362.63
450.48	360.13
450.85	357.57
451.22	355.46
451.59	353.48
451.96	351.57
452.33	348.95
452.70	346.58
453.07	343.77
453.43	340.90
453.80	338.07
454.17	335.39
454.54	332.77
454.91	330.02
455.28	327.29
455.65	324.80
456.02	322.41
456.38	320.24
456.75	317.56
457.12	315.28
457.49	313.07
457.86	310.88
458.23	309.05
458.59	307.04
458.96	304.94
459.33	303.09
459.70	301.23
460.07	299.68
460.43	298.00
460.80	296.39
461.17	294.91
461.54	293.44
461.91	292.03
462.27	290.60
462.64	289.44
463.01	288.10
463.38	286.84
463.74	285.45
464.11	284.30
464.48	283.26
464.85	282.14
465.21	281.26
465.58	280.36
465.95	279.26
466.32	278.36
466.68	277.46
467.05	276.58
467.42	275.64
467.78	274.71
468.15	273.82
468.52	273.15
468.88	272.32
469.25	271.53
469.62	270.89
469.98	270.26
470.35	269.62
470.72	269.05
471.08	268.38
471.45	267.82
471.82	267.31
472.18	266.72
472.55	266.29
472.92	265.78
473.28	265.36
473.65	264.92
474.02	264.48
474.38	264.10
474.75	263.80
475.11	263.50
475.48	263.33
475.85	263.13
476.21	262.94
476.58	262.77
476.94	262.66
477.31	262.51
477.67	262.36
478.04	262.24
478.41	262.19
478.77	262.25
479.14	262.24
479.50	262.24
479.87	262.37
480.23	262.51
480.60	262.56
480.96	262.62
481.33	262.87
481.69	263.09
482.06	263.30
482.42	263.50
482.79	263.77
483.15	264.06
483.52	264.46
483.88	264.80
484.25	265.16
484.61	265.60
484.98	266.11
485.34	266.69
485.71	267.30
486.07	267.91
486.44	268.49
486.80	269.19
487.17	269.94
487.53	270.73
487.90	271.62
488.26	272.61
488.62	273.62
488.99	274.59
489.35	275.64
489.72	276.80
490.08	278.00
490.44	279.26
490.81	280.63
491.17	281.97
491.54	283.48
491.90	285.04
492.26	286.68
492.63	288.37
492.99	290.17
493.36	292.06
493.72	294.13
494.08	296.25
494.45	298.54
494.81	300.92
495.17	303.37
495.54	305.88
495.90	308.57
496.26	311.38
496.63	314.37
496.99	317.52
497.35	320.78
497.72	324.20
498.08	327.71
498.44	331.37
498.80	335.30
499.17	339.33
499.53	343.50
499.89	347.90
500.26	352.42
500.62	357.08
500.98	362.07
501.34	367.12
501.71	372.46
502.07	377.88
502.43	383.52
502.79	389.39
503.16	395.49
503.52	401.73
503.88	408.18
504.24	414.77
504.60	421.60
504.97	428.72
505.33	436.08
505.69	443.77
506.05	451.50
506.41	459.42
506.78	467.59
507.14	476.05
507.50	484.81
507.86	493.85
508.22	503.02
508.59	512.17
508.95	521.73
509.31	531.53
509.67	541.65
510.03	551.94
510.39	562.42
510.75	573.19
511.12	584.16
511.48	595.44
511.84	606.93
512.20	618.45
512.56	630.38
512.92	642.48
513.28	654.81
513.64	667.42
514.00	680.13
514.37	693.03
514.73	706.14
515.09	719.10
515.45	732.32
515.81	745.93
516.17	760.01
516.53	774.16
516.89	788.29
517.25	802.35
517.61	816.73
517.97	831.15
518.33	845.56
518.69	860.31
519.05	875.21
519.41	890.37
519.77	905.95
520.13	921.36
520.49	936.80
520.85	952.18
521.21	967.80
521.57	983.99
521.93	999.73
522.29	1016.09
522.65	1032.27
523.01	1048.45
523.37	1064.44
523.73	1080.49
524.09	1096.57
524.45	1112.87
524.81	1129.49
525.17	1146.28
525.53	1163.13
525.89	1179.96
526.25	1196.75
526.61	1213.20
526.97	1229.83
527.33	1246.22
527.68	1262.81
528.04	1279.14
528.40	1295.66
528.76	1312.65
529.12	1329.19
529.48	1346.06
529.84	1361.95
530.20	1378.55
530.56	1395.53
530.91	1412.99
531.27	1429.64
531.63	1446.02
531.99	1462.57
532.35	1478.44
532.71	1494.22
533.07	1510.39
533.42	1526.30
533.78	1542.13
534.14	1558.35
534.50	1573.65
534.86	1589.53
535.21	1604.69
535.57	1620.57
535.93	1636.09
536.29	1650.75
536.65	1665.66
537.00	1680.41
537.36	1695.52
537.72	1709.97
538.08	1724.39
538.44	1738.04
538.79	1751.99
539.15	1765.57
539.51	1779.19
539.87	1793.46
540.22	1807.11
540.58	1820.86
540.94	1834.12
541.29	1847.09
541.65	1859.55
542.01	1872.75
542.37	1885.03
542.72	1897.22
543.08	1908.97
543.44	1921.27
543.79	1932.63
544.15	1943.62
544.51	1955.13
544.87	1966.18
545.22	1976.93
545.58	1986.96
545.94	1996.70
546.29	2006.43
546.65	2016.35
547.01	2025.58
547.36	2034.30
547.72	2042.82
548.07	2050.66
548.43	2058.72
548.79	2066.65
549.14	2074.20
549.50	2081.43
549.86	2088.97
550.21	2096.37
550.57	2103.58
550.92	2110.07
551.28	2116.99
551.64	2123.94
551.99	2130.38
552.35	2136.45
552.70	2142.55
553.06	2148.60
553.41	2154.78
553.77	2160.74
554.13	2166.64
554.48	2172.76
554.84	2178.25
555.19	2183.38
555.55	2188.44
555.90	2192.85
556.26	2197.82
556.61	2202.53
556.97	2206.93
557.32	2211.10
557.68	2215.17
558.03	2219.41
558.39	2223.23
558.74	2227.96
559.10	2231.97
559.45	2235.64
559.81	2239.91
560.16	2243.80
560.52	2247.15
560.87	2250.52
561.23	2253.19
561.58	2256.20
561.94	2258.59
562.29	2260.97
562.64	2263.66
563.00	2266.20
563.35	2269.78
563.71	2272.89
564.06	2276.15
564.42	2278.94
564.77	2281.39
565.12	2283.78
565.48	2285.70
565.83	2287.72
566.19	2288.93
566.54	2289.75
566.89	2290.77
567.25	2291.51
567.60	2292.83
567.96	2294.43
568.31	2295.39
568.66	2296.64
569.02	2297.20
569.37	2297.78
569.72	2298.61
570.08	2298.91
570.43	2299.13
570.78	2298.64
571.14	2297.09
571.49	2295.71
571.84	2295.49
572.20	2294.39
572.55	2293.43
572.90	2291.86
573.26	2290.43
573.61	2288.79
573.96	2287.13
574.31	2284.32
574.67	2281.47
575.02	2277.85
575.37	2274.54
575.72	2270.67
576.08	2267.23
576.43	2264.03
576.78	2260.26
577.13	2257.19
577.49	2254.18
577.84	2250.72
578.19	2247.01
578.54	2243.52
578.90	2239.48
579.25	2233.91
579.60	2229.06
579.95	2223.90
580.30	2218.86
580.66	2213.49
581.01	2208.56
581.36	2203.68
581.71	2199.67
582.06	2195.11
582.42	2190.80
582.77	2185.55
583.12	2181.21
583.47	2176.60
583.82	2171.58
584.17	2166.38
584.53	2160.89
584.88	2155.20
585.23	2149.40
585.58	2143.94
585.93	2138.40
586.28	2133.56
586.63	2128.47
586.98	2123.46
587.34	2118.84
587.69	2114.13
588.04	2108.95
588.39	2103.43
588.74	2096.95
589.09	2090.67
589.44	2083.81
589.79	2077.80
590.14	2072.28
590.49	2065.70
590.84	2059.24
591.19	2053.23
591.54	2046.85
591.89	2039.58
592.25	2032.80
592.60	2025.55
592.95	2017.99
593.30	2010.68
593.65	2003.06
594.00	1996.08
594.35	1988.80
594.70	1980.66
595.05	1973.35
595.40	1966.29
595.75	1958.80
596.10	1952.76
596.45	1946.17
596.80	1940.14
597.15	1933.60
597.50	1926.46
597.85	1920.02
598.19	1913.57
598.54	1906.54
598.89	1899.82
599.24	1893.91
599.59	1887.24
599.94	1881.25
600.29	1874.97
600.64	1868.51
600.99	1861.19
601.34	1854.39
601.69	1847.62
602.04	1841.01
602.39	1833.83
602.74	1826.92
603.08	1820.19
603.43	1813.48
603.78	1806.00
604.13	1798.94
604.48	1791.51
604.83	1784.74
605.18	1777.84
605.53	1769.81
605.87	1761.83
606.22	1754.71
606.57	1746.77
606.92	1739.57
607.27	1732.31
607.62	1725.52
607.96	1718.24
608.31	1711.75
608.66	1704.16
609.01	1696.46
609.36	1688.88
609.70	1680.78
610.05	1672.82
610.40	1665.05
610.75	1656.73
611.10	1649.25
611.44	1640.67
611.79	1632.82
612.14	1624.13
612.49	1615.02
612.83	1606.73
613.18	1598.55
613.53	1590.40
613.88	1581.86
614.22	1573.50
614.57	1564.93
614.92	1556.75
615.27	1549.24
615.61	1540.82
615.96	1532.78
616.31	1525.13
616.65	1517.86
617.00	1510.29
617.35	1502.52
617.70	1494.25
618.04	1485.67
618.39	1477.44
618.74	1469.91
619.08	1461.68
619.43	1454.07
619.78	1447.10
620.12	1439.90
620.47	1432.38
620.82	1424.28
621.16	1416.98
621.51	1409.36
621.85	1401.74
622.20	1393.31
622.55	1384.91
622.89	1377.06
623.24	1369.41
623.59	1362.03
623.93	1354.43
624.28	1347.21
624.62	1339.76
624.97	1332.52
625.32	1325.80
625.66	1318.67
626.01	1311.53
626.35	1303.97
626.70	1296.32
627.04	1288.61
627.39	1280.75
627.73	1273.36
628.08	1266.50
628.43	1259.06
628.77	1251.77
629.12	1244.18
629.46	1237.02
629.81	1229.48
630.15	1222.23
630.50	1214.92
630.84	1206.81
631.19	1198.87
631.53	1191.35
631.88	1183.67
632.22	1176.07
632.57	1168.64
632.91	1161.08
633.26	1153.49
633.60	1146.08
633.95	1138.89
634.29	1131.83
634.64	1125.07
634.98	1117.79
635.32	1110.57
635.67	1103.97
636.01	1097.21
636.36	1090.42
636.70	1083.74
637.05	1077.21
637.39	1070.74
637.73	1064.20
638.08	1058.26
638.42	1052.13
638.77	1045.73
639.11	1039.20
639.45	1032.80
639.80	1026.17
640.14	1019.87
640.49	1013.42
640.83	1007.11
641.17	1000.80
641.52	994.49
641.86	988.06
642.20	982.12
642.55	975.79
642.89	969.37
643.23	962.87
643.58	957.13
643.92	950.98
644.26	944.89
644.61	938.83
644.95	932.82
645.29	926.18
645.64	919.44
645.98	913.07
646.32	907.28
646.66	901.24
647.01	895.46
647.35	889.65
647.69	883.86
648.04	878.30
648.38	872.58
648.72	866.50
649.06	860.45
649.41	854.62
649.75	848.65
650.09	842.69
650.43	836.93
650.78	830.76
651.12	824.86
651.46	819.14
651.80	813.39
652.14	808.01
652.49	802.66
652.83	797.56
653.17	791.91
653.51	786.08
653.85	780.69
654.20	775.05
654.54	769.15
654.88	763.41
655.22	757.57
655.56	751.89
655.90	746.48
656.25	741.35
656.59	735.89
656.93	730.89
657.27	725.71
657.61	720.31
657.95	715.23
658.29	710.05
658.64	704.84
658.98	699.62
659.32	694.14
659.66	689.04
660.00	683.67
660.34	678.73
660.68	673.87
661.02	668.85
661.36	664.17
661.70	659.60
662.05	655.22
662.39	650.80
662.73	646.28
663.07	641.85
663.41	637.30
663.75	632.83
664.09	628.19
664.43	623.76
664.77	619.60
665.11	615.32
665.45	611.19
665.79	607.07
666.13	602.92
666.47	598.77
666.81	594.51
667.15	590.39
667.49	586.48
667.83	582.69
668.17	578.70
668.51	574.57
668.85	570.51
669.19	566.66
669.53	562.88
669.87	559.04
670.21	555.30
670.55	551.64
670.89	548.20
671.23	544.76
671.57	541.27
671.91	537.66
672.25	534.17
672.58	530.69
672.92	527.28
673.26	524.03
673.60	520.90
673.94	517.75
674.28	514.79
674.62	511.78
674.96	508.61
675.30	505.72
675.64	502.77
675.97	499.99
676.31	497.07
676.65	494.11
676.99	491.39
677.33	488.59
677.67	485.82
678.01	482.78
678.34	479.80
678.68	476.83
679.02	474.06
679.36	471.24
679.70	468.50
680.04	465.73
680.37	462.86
680.71	460.08
681.05	457.48
681.39	454.79
681.73	452.13
682.06	449.61
682.40	446.99
682.74	444.47
683.08	441.92
683.42	439.31
683.75	436.84
684.09	434.22
684.43	431.69
684.77	429.15
685.10	426.81
685.44	424.52
685.78	422.27
686.12	420.02
686.45	417.74
686.79	415.43
687.13	413.18
687.46	411.01
687.80	408.78
688.14	406.60
688.48	404.55
688.81	402.27
689.15	400.08
689.49	397.98
689.82	395.90
690.16	393.82
690.50	391.86
690.83	389.90
691.17	387.97
691.51	386.10
691.84	384.30
692.18	382.38
692.52	380.39
692.85	378.51
693.19	376.64
693.52	374.83
693.86	373.02
694.20	371.26
694.53	369.48
694.87	367.67
695.21	365.84
695.54	364.04
695.88	362.36
696.21	360.68
696.55	359.00
696.88	357.33
697.22	355.66
697.56	354.04
697.89	352.38
698.23	350.80
698.56	349.20
698.90	347.65
699.23	346.02
699.57	344.47
699.90	342.94
700.24	341.38
700.58	339.84
700.91	338.37
701.25	336.95
701.58	335.60
701.92	334.23
702.25	332.83
702.59	331.43
702.92	330.14
703.26	328.82
703.59	327.55
703.93	326.35
704.26	325.17
704.60	323.87
704.93	322.62
705.26	321.34
705.60	320.14
705.93	318.93
706.27	317.87
706.60	316.80
706.94	315.70
707.27	314.55
707.61	313.50
707.94	312.46
708.27	311.32
708.61	310.24
708.94	309.28
709.28	308.35
709.61	307.39
709.94	306.42
710.28	305.40
710.61	304.36
710.95	303.29
711.28	302.35
711.61	301.42
711.95	300.52
712.28	299.52
712.61	298.57
712.95	297.64
713.28	296.75
713.61	295.86
713.95	294.94
714.28	294.13
714.61	293.26
714.95	292.42
715.28	291.58
715.61	290.69
715.95	289.81
716.28	288.90
716.61	288.05
716.95	287.24
717.28	286.51
717.61	285.77
717.94	285.00
718.28	284.17
718.61	283.43
718.94	282.75
719.27	282.14
719.61	281.48
719.94	280.81
720.27	280.11
720.60	279.42
720.94	278.82
721.27	278.14
721.60	277.58
721.93	276.90
722.27	276.34
722.60	275.82
722.93	275.23
723.26	274.69
723.59	274.18
723.93	273.61
724.26	273.01
724.59	272.47
724.92	271.95
725.25	271.43
725.59	270.89
725.92	270.32
726.25	269.79
726.58	269.25
726.91	268.74
727.24	268.26
727.57	267.80
727.91	267.29
728.24	266.88
728.57	266.37
728.90	265.97
729.23	265.47
729.56	265.02
729.89	264.55
730.22	264.07
730.55	263.56
730.89	263.12
731.22	262.68
731.55	262.24
731.88	261.82
732.21	261.39
732.54	260.97
732.87	260.56
733.20	260.14
733.53	259.80
733.86	259.43
734.19	259.02
734.52	258.64
734.85	258.32
735.18	257.90
735.51	257.53
735.84	257.16
736.17	256.81
736.50	256.39
736.83	256.15
737.16	255.82
737.49	255.51
737.82	255.15
738.15	254.82
738.48	254.45
738.81	254.12
739.14	253.80
739.47	253.52
739.80	253.21
740.13	252.92
740.46	252.61
740.79	252.31
741.12	252.03
741.45	251.70
741.78	251.38
742.11	251.07
742.44	250.76
742.77	250.47
743.10	250.21
743.43	249.93
743.75	249.56
744.08	249.43
744.41	249.15
744.74	248.88
745.07	248.59
745.40	248.36
745.73	248.14
746.06	247.87
746.39	247.62
746.71	247.32
747.04	247.05
747.37	246.78
747.70	246.54
748.03	246.29
748.36	246.09
748.68	245.82
749.01	245.60
749.34	245.40
749.67	245.16
750.00	244.92
750.33	244.77
750.65	244.55
750.98	244.21
751.31	243.98
751.64	243.78
751.97	243.62
752.29	243.42
752.62	243.17
752.95	242.95
753.28	242.71
753.60	242.55
753.93	242.33
754.26	242.13
754.59	241.88
754.91	241.67
755.24	241.47
755.57	241.25
755.90	241.06
756.22	240.85
756.55	240.66
756.88	240.45
757.20	240.22
757.53	239.99
757.86	239.81
758.19	239.67
758.51	239.51
758.84	239.29
759.17	239.13
759.49	238.98
759.82	238.86
760.15	238.72
760.47	238.57
760.80	238.44
761.13	238.30
761.45	238.16
761.78	238.01
762.11	237.87
762.43	237.71
762.76	237.59
763.08	237.46
763.41	237.32
763.74	237.23
764.06	237.09
764.39	236.94
764.71	236.81
765.04	236.65
765.37	236.51
765.69	236.39
766.02	236.26
766.34	236.09
766.67	235.93
767.00	235.83
767.32	235.77
767.65	235.69
767.97	235.54
768.30	235.43
768.62	235.32
768.95	235.19
769.27	235.08
769.60	234.95
769.92	234.82
770.25	234.70
770.57	234.55
770.90	234.44
771.22	234.36
771.55	234.25
771.87	234.17
772.20	234.08
772.52	234.06
772.85	234.07
773.17	233.99
773.50	233.89
773.82	233.80
774.15	233.62
774.47	233.46
774.80	233.39
775.12	233.31
775.45	233.22
775.77	233.16
776.09	233.09
776.42	233.02
776.74	232.95
777.07	232.88
777.39	232.81
777.72	232.73
778.04	232.66
778.36	232.58
778.69	232.53
779.01	232.47
779.33	232.30
779.66	232.09
779.98	232.01
780.31	231.96
780.63	231.94
780.95	231.93
781.28	231.88
781.60	231.82
781.92	231.74
782.25	231.69
782.57	231.64
782.89	231.57
783.22	231.54
783.54	231.47
783.86	231.42
784.19	231.36
784.51	231.36
784.83	231.31
785.16	231.27
785.48	231.21
785.80	231.15
786.12	231.12
786.45	231.10
786.77	231.08
787.09	231.05
