SpectraSuite Data File
++++++++++++++++++++++++++++++++++++
Date: Fri Feb 01 16:15:19 EST 2013
User: group
Dark Spectrum Present: No
Reference Spectrum Present: No
Number of Sampled Component Spectra: 1
Spectrometers: USB2E7196
Integration Time (usec): 35000 (USB2E7196)
Spectra Averaged: 100 (USB2E7196)
Boxcar Smoothing: 10 (USB2E7196)
Correct for Electrical Dark: No (USB2E7196)
Strobe/Lamp Enabled: No (USB2E7196)
Correct for Detector Non-linearity: No (USB2E7196)
Correct for Stray Light: No (USB2E7196)
Number of Pixels in Processed Spectrum: 2048
>>>>>Begin Processed Spectral Data<<<<<
339.09	0.00
339.48	214.75
339.86	215.49
340.24	216.95
340.63	218.81
341.01	221.71
341.39	221.55
341.78	222.77
342.16	224.14
342.54	224.28
342.93	212.80
343.31	223.57
343.69	224.07
344.07	224.55
344.46	224.99
344.84	225.35
345.22	225.56
345.60	225.79
345.99	225.97
346.37	226.08
346.75	226.19
347.13	226.26
347.52	226.30
347.90	226.39
348.28	226.40
348.66	226.43
349.05	226.42
349.43	226.43
349.81	226.47
350.19	226.48
350.57	226.52
350.96	226.61
351.34	226.66
351.72	226.74
352.10	226.83
352.48	226.87
352.87	226.90
353.25	226.95
353.63	227.00
354.01	227.08
354.39	227.13
354.77	227.20
355.15	227.31
355.54	227.35
355.92	227.38
356.30	227.48
356.68	227.58
357.06	227.65
357.44	227.71
357.82	227.75
358.20	227.82
358.58	227.87
358.97	227.94
359.35	228.01
359.73	228.08
360.11	228.15
360.49	228.25
360.87	228.33
361.25	228.41
361.63	228.47
362.01	228.52
362.39	228.57
362.77	228.61
363.15	228.63
363.53	228.64
363.91	228.64
364.29	228.68
364.67	228.64
365.05	228.69
365.43	228.72
365.81	228.75
366.19	228.78
366.57	228.86
366.95	228.83
367.33	228.81
367.71	228.81
368.09	228.79
368.47	228.74
368.85	228.73
369.23	228.67
369.61	228.61
369.99	228.61
370.37	228.59
370.75	228.55
371.13	228.49
371.51	228.45
371.89	228.41
372.27	228.33
372.65	228.27
373.03	228.22
373.41	228.18
373.78	228.10
374.16	228.01
374.54	227.89
374.92	227.83
375.30	227.81
375.68	227.74
376.06	227.68
376.44	227.60
376.82	227.54
377.19	227.52
377.57	227.46
377.95	227.34
378.33	227.29
378.71	227.17
379.09	227.11
379.47	227.06
379.84	226.99
380.22	226.90
380.60	226.81
380.98	226.73
381.36	226.63
381.73	226.59
382.11	226.53
382.49	226.50
382.87	226.44
383.25	226.37
383.62	226.41
384.00	226.38
384.38	226.34
384.76	226.32
385.13	226.28
385.51	226.23
385.89	226.18
386.27	226.12
386.64	226.11
387.02	226.06
387.40	226.01
387.78	225.99
388.15	225.96
388.53	225.97
388.91	225.93
389.29	225.89
389.66	225.85
390.04	225.81
390.42	225.82
390.79	225.80
391.17	225.75
391.55	225.62
391.92	225.58
392.30	225.58
392.68	225.54
393.05	225.54
393.43	225.55
393.81	225.56
394.18	225.58
394.56	225.58
394.94	225.62
395.31	225.62
395.69	225.67
396.06	225.72
396.44	225.73
396.82	225.72
397.19	225.83
397.57	225.87
397.95	225.95
398.32	225.95
398.70	226.01
399.07	226.07
399.45	226.14
399.82	226.22
400.20	226.23
400.58	226.32
400.95	226.33
401.33	226.43
401.70	226.57
402.08	226.65
402.45	226.73
402.83	226.85
403.20	226.95
403.58	227.01
403.95	227.11
404.33	227.23
404.71	227.39
405.08	227.53
405.46	227.63
405.83	227.72
406.21	227.86
406.58	228.03
406.96	228.19
407.33	228.34
407.70	228.52
408.08	228.81
408.45	229.02
408.83	229.25
409.20	229.43
409.58	229.57
409.95	229.82
410.33	230.10
410.70	230.35
411.08	230.64
411.45	230.96
411.82	231.27
412.20	231.62
412.57	232.03
412.95	232.33
413.32	232.79
413.69	233.21
414.07	233.64
414.44	234.12
414.82	234.60
415.19	235.14
415.56	235.66
415.94	236.21
416.31	236.81
416.68	237.45
417.06	238.15
417.43	238.86
417.81	239.65
418.18	240.39
418.55	241.24
418.93	242.11
419.30	243.03
419.67	244.00
420.04	244.97
420.42	246.00
420.79	247.16
421.16	248.30
421.54	249.54
421.91	250.75
422.28	252.02
422.66	253.36
423.03	254.69
423.40	256.03
423.77	257.45
424.15	258.89
424.52	260.40
424.89	262.04
425.26	263.57
425.64	265.02
426.01	266.66
426.38	268.30
426.75	269.99
427.13	271.69
427.50	273.50
427.87	275.36
428.24	277.22
428.61	278.99
428.99	280.93
429.36	282.99
429.73	285.09
430.10	287.08
430.47	289.13
430.85	291.23
431.22	293.49
431.59	295.90
431.96	298.13
432.33	300.57
432.70	302.92
433.08	305.79
433.45	308.40
433.82	311.02
434.19	313.87
434.56	316.70
434.93	319.33
435.30	321.94
435.68	324.82
436.05	327.63
436.42	330.42
436.79	332.92
437.16	335.57
437.53	338.36
437.90	341.16
438.27	343.93
438.64	346.76
439.01	349.36
439.38	351.55
439.75	353.74
440.13	356.24
440.50	358.55
440.87	360.32
441.24	362.24
441.61	364.36
441.98	365.87
442.35	367.64
442.72	369.49
443.09	371.30
443.46	372.26
443.83	372.83
444.20	373.29
444.57	374.12
444.94	374.44
445.31	374.77
445.68	375.15
446.05	375.22
446.42	374.83
446.79	374.40
447.16	373.93
447.53	373.60
447.90	372.43
448.27	371.28
448.64	369.76
449.01	368.60
449.37	366.63
449.74	364.73
450.11	362.46
450.48	359.99
450.85	357.42
451.22	355.26
451.59	353.26
451.96	351.35
452.33	348.73
452.70	346.36
453.07	343.48
453.43	340.53
453.80	337.73
454.17	335.01
454.54	332.48
454.91	329.75
455.28	327.04
455.65	324.55
456.02	322.10
456.38	319.90
456.75	317.28
457.12	315.05
457.49	312.81
457.86	310.69
458.23	308.83
458.59	306.79
458.96	304.74
459.33	302.87
459.70	301.01
460.07	299.51
460.43	297.82
460.80	296.26
461.17	294.81
461.54	293.36
461.91	291.97
462.27	290.52
462.64	289.30
463.01	287.97
463.38	286.73
463.74	285.39
464.11	284.25
464.48	283.24
464.85	282.15
465.21	281.30
465.58	280.36
465.95	279.30
466.32	278.45
466.68	277.59
467.05	276.68
467.42	275.82
467.78	274.91
468.15	274.08
468.52	273.44
468.88	272.64
469.25	271.86
469.62	271.26
469.98	270.61
470.35	269.99
470.72	269.42
471.08	268.76
471.45	268.24
471.82	267.73
472.18	267.15
472.55	266.73
472.92	266.24
473.28	265.82
473.65	265.40
474.02	264.95
474.38	264.59
474.75	264.33
475.11	264.00
475.48	263.74
475.85	263.52
476.21	263.31
476.58	263.13
476.94	263.02
477.31	262.86
477.67	262.76
478.04	262.66
478.41	262.60
478.77	262.62
479.14	262.55
479.50	262.58
479.87	262.67
480.23	262.76
480.60	262.86
480.96	262.97
481.33	263.18
481.69	263.42
482.06	263.64
482.42	263.86
482.79	264.13
483.15	264.45
483.52	264.84
483.88	265.19
484.25	265.59
484.61	266.02
484.98	266.47
485.34	266.98
485.71	267.55
486.07	268.17
486.44	268.78
486.80	269.47
487.17	270.19
487.53	270.99
487.90	271.79
488.26	272.71
488.62	273.71
488.99	274.65
489.35	275.69
489.72	276.74
490.08	277.88
490.44	279.11
490.81	280.46
491.17	281.80
491.54	283.29
491.90	284.81
492.26	286.43
492.63	288.14
492.99	289.92
493.36	291.84
493.72	293.89
494.08	295.98
494.45	298.24
494.81	300.62
495.17	303.08
495.54	305.68
495.90	308.36
496.26	311.07
496.63	314.04
496.99	317.10
497.35	320.40
497.72	323.80
498.08	327.31
498.44	330.94
498.80	334.87
499.17	338.89
499.53	343.06
499.89	347.43
500.26	351.93
500.62	356.64
500.98	361.63
501.34	366.72
501.71	372.05
502.07	377.51
502.43	383.09
502.79	388.88
503.16	394.99
503.52	401.29
503.88	407.74
504.24	414.35
504.60	421.26
504.97	428.42
505.33	435.72
505.69	443.47
506.05	451.24
506.41	459.12
506.78	467.27
507.14	475.79
507.50	484.50
507.86	493.59
508.22	502.75
508.59	511.94
508.95	521.51
509.31	531.39
509.67	541.50
510.03	551.83
510.39	562.42
510.75	573.24
511.12	584.08
511.48	595.40
511.84	606.89
512.20	618.46
512.56	630.36
512.92	642.64
513.28	655.00
513.64	667.51
514.00	680.31
514.37	693.30
514.73	706.26
515.09	719.26
515.45	732.58
515.81	746.18
516.17	760.11
516.53	774.29
516.89	788.35
517.25	802.50
517.61	816.91
517.97	831.36
518.33	845.77
518.69	860.56
519.05	875.56
519.41	890.70
519.77	906.19
520.13	921.66
520.49	936.95
520.85	952.31
521.21	967.97
521.57	984.09
521.93	999.74
522.29	1016.24
522.65	1032.53
523.01	1048.66
523.37	1064.69
523.73	1080.84
524.09	1096.91
524.45	1113.18
524.81	1129.80
525.17	1146.51
525.53	1163.33
525.89	1180.06
526.25	1196.84
526.61	1213.19
526.97	1229.88
527.33	1246.24
527.68	1262.70
528.04	1279.11
528.40	1295.72
528.76	1312.75
529.12	1329.29
529.48	1346.12
529.84	1361.94
530.20	1378.45
530.56	1395.28
530.91	1412.56
531.27	1429.30
531.63	1445.61
531.99	1462.18
532.35	1478.14
532.71	1494.00
533.07	1510.25
533.42	1526.08
533.78	1542.08
534.14	1558.35
534.50	1573.56
534.86	1589.37
535.21	1604.75
535.57	1620.57
535.93	1636.00
536.29	1650.74
536.65	1665.74
537.00	1680.45
537.36	1695.73
537.72	1710.18
538.08	1724.54
538.44	1738.28
538.79	1752.18
539.15	1765.74
539.51	1779.37
539.87	1793.58
540.22	1807.16
540.58	1820.72
540.94	1833.90
541.29	1846.75
541.65	1859.20
542.01	1872.42
542.37	1884.68
542.72	1896.92
543.08	1908.58
543.44	1920.84
543.79	1932.03
544.15	1942.89
544.51	1954.44
544.87	1965.28
545.22	1976.00
545.58	1986.24
545.94	1996.00
546.29	2005.62
546.65	2015.41
547.01	2024.72
547.36	2033.34
547.72	2041.72
548.07	2049.58
548.43	2057.76
548.79	2065.58
549.14	2073.07
549.50	2080.37
549.86	2088.00
550.21	2095.16
550.57	2102.48
550.92	2109.02
551.28	2116.04
551.64	2123.01
551.99	2129.55
552.35	2135.69
552.70	2141.92
553.06	2147.90
553.41	2154.12
553.77	2160.15
554.13	2166.24
554.48	2172.17
554.84	2177.68
555.19	2183.13
555.55	2188.40
555.90	2192.82
556.26	2197.89
556.61	2202.65
556.97	2207.11
557.32	2211.28
557.68	2215.41
558.03	2219.65
558.39	2223.27
558.74	2227.81
559.10	2231.84
559.45	2235.35
559.81	2239.65
560.16	2243.41
560.52	2246.59
560.87	2250.12
561.23	2252.72
561.58	2255.67
561.94	2258.15
562.29	2260.44
562.64	2263.00
563.00	2265.58
563.35	2269.14
563.71	2272.11
564.06	2275.34
564.42	2278.06
564.77	2280.59
565.12	2283.00
565.48	2284.91
565.83	2286.71
566.19	2288.00
566.54	2288.85
566.89	2290.06
567.25	2290.61
567.60	2291.82
567.96	2293.60
568.31	2294.36
568.66	2295.60
569.02	2296.14
569.37	2296.61
569.72	2297.68
570.08	2297.91
570.43	2297.82
570.78	2297.32
571.14	2295.87
571.49	2294.50
571.84	2294.26
572.20	2293.25
572.55	2292.09
572.90	2290.40
573.26	2289.13
573.61	2287.59
573.96	2285.95
574.31	2283.03
574.67	2280.22
575.02	2276.72
575.37	2273.23
575.72	2269.43
576.08	2266.08
576.43	2262.75
576.78	2259.19
577.13	2255.86
577.49	2252.74
577.84	2249.37
578.19	2245.65
578.54	2242.12
578.90	2238.03
579.25	2232.40
579.60	2227.41
579.95	2222.44
580.30	2217.53
580.66	2212.49
581.01	2207.50
581.36	2202.48
581.71	2198.30
582.06	2193.85
582.42	2189.48
582.77	2184.37
583.12	2179.91
583.47	2175.30
583.82	2170.44
584.17	2165.24
584.53	2159.77
584.88	2154.20
585.23	2148.39
585.58	2142.94
585.93	2137.51
586.28	2132.70
586.63	2127.73
586.98	2122.79
587.34	2118.21
587.69	2113.41
588.04	2108.20
588.39	2102.64
588.74	2096.38
589.09	2090.37
589.44	2083.51
589.79	2077.67
590.14	2072.17
590.49	2065.64
590.84	2059.29
591.19	2053.29
591.54	2046.78
591.89	2039.62
592.25	2032.86
592.60	2025.78
592.95	2018.35
593.30	2010.96
593.65	2003.57
594.00	1996.52
594.35	1989.14
594.70	1981.03
595.05	1973.88
595.40	1966.55
595.75	1958.94
596.10	1952.71
596.45	1945.99
596.80	1939.85
597.15	1933.11
597.50	1926.02
597.85	1919.52
598.19	1912.85
598.54	1905.76
598.89	1899.19
599.24	1893.29
599.59	1886.69
599.94	1880.48
600.29	1874.07
600.64	1867.41
600.99	1859.95
601.34	1853.21
601.69	1846.34
602.04	1839.55
602.39	1832.16
602.74	1825.35
603.08	1818.76
603.43	1811.98
603.78	1804.71
604.13	1797.69
604.48	1790.47
604.83	1783.55
605.18	1776.74
605.53	1768.77
605.87	1760.77
606.22	1753.66
606.57	1745.72
606.92	1738.33
607.27	1731.10
607.62	1724.23
607.96	1717.08
608.31	1710.42
608.66	1702.76
609.01	1695.22
609.36	1687.73
609.70	1679.76
610.05	1671.76
610.40	1664.04
610.75	1655.78
611.10	1648.18
611.44	1639.68
611.79	1631.73
612.14	1623.14
612.49	1613.88
612.83	1605.44
613.18	1597.33
613.53	1589.07
613.88	1580.47
614.22	1572.32
614.57	1563.79
614.92	1555.72
615.27	1548.17
615.61	1539.79
615.96	1531.71
616.31	1524.04
616.65	1516.66
617.00	1509.08
617.35	1501.42
617.70	1493.08
618.04	1484.56
618.39	1476.19
618.74	1468.60
619.08	1460.18
619.43	1452.64
619.78	1445.77
620.12	1438.73
620.47	1431.24
620.82	1423.14
621.16	1415.64
621.51	1408.10
621.85	1400.44
622.20	1391.98
622.55	1383.64
622.89	1375.84
623.24	1368.18
623.59	1360.86
623.93	1353.31
624.28	1346.20
624.62	1338.80
624.97	1331.58
625.32	1324.77
625.66	1317.77
626.01	1310.56
626.35	1303.14
626.70	1295.28
627.04	1287.59
627.39	1279.80
627.73	1272.42
628.08	1265.46
628.43	1258.30
628.77	1250.77
629.12	1243.21
629.46	1236.07
629.81	1228.62
630.15	1221.45
630.50	1214.09
630.84	1205.80
631.19	1197.87
631.53	1190.27
631.88	1182.59
632.22	1175.01
632.57	1167.67
632.91	1160.24
633.26	1152.83
633.60	1145.48
633.95	1138.33
634.29	1131.26
634.64	1124.57
634.98	1117.15
635.32	1109.96
635.67	1103.36
636.01	1096.80
636.36	1089.95
636.70	1083.37
637.05	1076.89
637.39	1070.33
637.73	1063.90
638.08	1057.98
638.42	1052.01
638.77	1045.49
639.11	1038.93
639.45	1032.49
639.80	1025.85
640.14	1019.34
640.49	1012.76
640.83	1006.51
641.17	1000.33
641.52	993.91
641.86	987.36
642.20	981.53
642.55	975.19
642.89	968.61
643.23	961.99
643.58	956.25
643.92	950.06
644.26	943.89
644.61	937.86
644.95	931.81
645.29	925.18
645.64	918.44
645.98	912.18
646.32	906.30
646.66	900.27
647.01	894.51
647.35	888.74
647.69	882.91
648.04	877.33
648.38	871.53
648.72	865.58
649.06	859.50
649.41	853.64
649.75	847.74
650.09	841.79
650.43	836.02
650.78	829.96
651.12	823.89
651.46	818.28
651.80	812.56
652.14	807.17
652.49	801.97
652.83	796.78
653.17	791.03
653.51	785.29
653.85	779.93
654.20	774.30
654.54	768.41
654.88	762.72
655.22	756.79
655.56	751.05
655.90	745.63
656.25	740.47
656.59	735.05
656.93	729.98
657.27	724.87
657.61	719.46
657.95	714.26
658.29	709.28
658.64	703.95
658.98	698.62
659.32	693.14
659.66	687.81
660.00	682.51
660.34	677.54
660.68	672.64
661.02	667.61
661.36	662.89
661.70	658.39
662.05	654.01
662.39	649.73
662.73	645.30
663.07	640.96
663.41	636.55
663.75	632.11
664.09	627.60
664.43	623.20
664.77	619.10
665.11	614.84
665.45	610.69
665.79	606.61
666.13	602.50
666.47	598.40
666.81	594.28
667.15	590.15
667.49	586.31
667.83	582.50
668.17	578.57
668.51	574.53
668.85	570.45
669.19	566.63
669.53	562.80
669.87	558.93
670.21	555.21
670.55	551.56
670.89	548.13
671.23	544.64
671.57	541.11
671.91	537.56
672.25	534.10
672.58	530.57
672.92	527.17
673.26	523.96
673.60	520.87
673.94	517.76
674.28	514.89
674.62	511.96
674.96	508.81
675.30	505.86
675.64	502.89
675.97	500.09
676.31	497.23
676.65	494.32
676.99	491.62
677.33	488.75
677.67	485.89
678.01	482.82
678.34	479.83
678.68	477.03
679.02	474.19
679.36	471.41
679.70	468.71
680.04	465.98
680.37	463.12
680.71	460.23
681.05	457.62
681.39	454.79
681.73	452.12
682.06	449.60
682.40	447.03
682.74	444.50
683.08	441.98
683.42	439.31
683.75	436.75
684.09	434.14
684.43	431.63
684.77	429.19
685.10	426.85
685.44	424.55
685.78	422.18
686.12	419.88
686.45	417.59
686.79	415.24
687.13	413.00
687.46	410.85
687.80	408.70
688.14	406.45
688.48	404.46
688.81	402.23
689.15	400.09
689.49	397.94
689.82	395.86
690.16	393.76
690.50	391.83
690.83	389.87
691.17	387.96
691.51	386.08
691.84	384.21
692.18	382.27
692.52	380.25
692.85	378.33
693.19	376.49
693.52	374.65
693.86	372.88
694.20	371.14
694.53	369.35
694.87	367.48
695.21	365.72
695.54	363.84
695.88	362.09
696.21	360.38
696.55	358.75
696.88	357.07
697.22	355.36
697.56	353.73
697.89	352.11
698.23	350.47
698.56	348.85
698.90	347.25
699.23	345.65
699.57	344.13
699.90	342.59
700.24	341.04
700.58	339.52
700.91	338.01
701.25	336.56
701.58	335.20
701.92	333.88
702.25	332.46
702.59	331.16
702.92	329.84
703.26	328.49
703.59	327.19
703.93	325.98
704.26	324.78
704.60	323.52
704.93	322.22
705.26	320.99
705.60	319.81
705.93	318.68
706.27	317.64
706.60	316.60
706.94	315.56
707.27	314.43
707.61	313.41
707.94	312.40
708.27	311.26
708.61	310.14
708.94	309.14
709.28	308.20
709.61	307.21
709.94	306.25
710.28	305.27
710.61	304.31
710.95	303.28
711.28	302.38
711.61	301.40
711.95	300.52
712.28	299.58
712.61	298.59
712.95	297.66
713.28	296.76
713.61	295.86
713.95	294.96
714.28	294.12
714.61	293.23
714.95	292.44
715.28	291.62
715.61	290.79
715.95	289.92
716.28	289.03
716.61	288.20
716.95	287.37
717.28	286.63
717.61	285.83
717.94	285.06
718.28	284.19
718.61	283.48
718.94	282.79
719.27	282.11
719.61	281.45
719.94	280.77
720.27	280.04
720.60	279.37
720.94	278.73
721.27	278.11
721.60	277.55
721.93	276.87
722.27	276.32
722.60	275.79
722.93	275.18
723.26	274.66
723.59	274.12
723.93	273.58
724.26	273.00
724.59	272.47
724.92	271.96
725.25	271.49
725.59	270.94
725.92	270.42
726.25	269.90
726.58	269.40
726.91	268.93
727.24	268.48
727.57	268.00
727.91	267.50
728.24	267.02
728.57	266.46
728.90	266.02
729.23	265.50
729.56	265.05
729.89	264.58
730.22	264.09
730.55	263.58
730.89	263.12
731.22	262.68
731.55	262.23
731.88	261.79
732.21	261.37
732.54	260.97
732.87	260.54
733.20	260.13
733.53	259.74
733.86	259.33
734.19	258.90
734.52	258.51
734.85	258.21
735.18	257.81
735.51	257.45
735.84	257.07
736.17	256.75
736.50	256.35
736.83	256.12
737.16	255.78
737.49	255.49
737.82	255.17
738.15	254.86
738.48	254.52
738.81	254.19
739.14	253.85
739.47	253.55
739.80	253.26
740.13	252.99
740.46	252.67
740.79	252.34
741.12	252.07
741.45	251.78
741.78	251.41
742.11	251.17
742.44	250.86
742.77	250.60
743.10	250.30
743.43	249.98
743.75	249.60
744.08	249.50
744.41	249.24
744.74	248.96
745.07	248.71
745.40	248.50
745.73	248.29
746.06	248.04
746.39	247.74
746.71	247.48
747.04	247.19
747.37	246.98
747.70	246.74
748.03	246.49
748.36	246.27
748.68	246.05
749.01	245.82
749.34	245.62
749.67	245.35
750.00	245.10
750.33	244.97
750.65	244.78
750.98	244.40
751.31	244.16
751.64	243.97
751.97	243.81
752.29	243.59
752.62	243.30
752.95	243.11
753.28	242.94
753.60	242.73
753.93	242.59
754.26	242.36
754.59	242.15
754.91	241.97
755.24	241.75
755.57	241.53
755.90	241.33
756.22	241.13
756.55	240.96
756.88	240.80
757.20	240.56
757.53	240.37
757.86	240.23
758.19	240.08
758.51	239.87
758.84	239.63
759.17	239.42
759.49	239.28
759.82	239.15
760.15	238.97
760.47	238.79
760.80	238.58
761.13	238.44
761.45	238.25
761.78	238.08
762.11	237.92
762.43	237.80
762.76	237.62
763.08	237.51
763.41	237.38
763.74	237.20
764.06	237.05
764.39	236.88
764.71	236.73
765.04	236.55
765.37	236.43
765.69	236.28
766.02	236.12
766.34	236.00
766.67	235.81
767.00	235.72
767.32	235.67
767.65	235.62
767.97	235.51
768.30	235.42
768.62	235.31
768.95	235.20
769.27	235.05
769.60	234.95
769.92	234.84
770.25	234.68
770.57	234.60
770.90	234.49
771.22	234.39
771.55	234.30
771.87	234.24
772.20	234.13
772.52	234.16
772.85	234.23
773.17	234.12
773.50	234.01
773.82	233.90
774.15	233.77
774.47	233.64
774.80	233.54
775.12	233.45
775.45	233.36
775.77	233.31
776.09	233.27
776.42	233.21
776.74	233.15
777.07	233.10
777.39	233.01
777.72	232.95
778.04	232.92
778.36	232.82
778.69	232.77
779.01	232.71
779.33	232.53
779.66	232.34
779.98	232.28
780.31	232.27
780.63	232.23
780.95	232.19
781.28	232.11
781.60	232.05
781.92	232.01
782.25	231.95
782.57	231.87
782.89	231.78
783.22	231.73
783.54	231.66
783.86	231.63
784.19	231.58
784.51	231.54
784.83	231.48
785.16	231.43
785.48	231.35
785.80	231.28
786.12	231.24
786.45	231.17
786.77	231.12
787.09	231.04
