SpectraSuite Data File
++++++++++++++++++++++++++++++++++++
Date: Fri Feb 01 15:44:13 EST 2013
User: group
Dark Spectrum Present: No
Reference Spectrum Present: No
Number of Sampled Component Spectra: 1
Spectrometers: USB2E7196
Integration Time (usec): 35000 (USB2E7196)
Spectra Averaged: 100 (USB2E7196)
Boxcar Smoothing: 10 (USB2E7196)
Correct for Electrical Dark: No (USB2E7196)
Strobe/Lamp Enabled: No (USB2E7196)
Correct for Detector Non-linearity: No (USB2E7196)
Correct for Stray Light: No (USB2E7196)
Number of Pixels in Processed Spectrum: 2048
>>>>>Begin Processed Spectral Data<<<<<
339.09	0.00
339.48	215.54
339.86	216.77
340.24	217.97
340.63	219.54
341.01	221.53
341.39	221.82
341.78	222.82
342.16	223.92
342.54	224.78
342.93	213.33
343.31	224.10
343.69	224.61
344.07	225.05
344.46	225.46
344.84	225.82
345.22	226.07
345.60	226.34
345.99	226.53
346.37	226.66
346.75	226.76
347.13	226.82
347.52	226.84
347.90	226.92
348.28	226.97
348.66	226.98
349.05	226.97
349.43	227.03
349.81	227.06
350.19	227.10
350.57	227.15
350.96	227.21
351.34	227.29
351.72	227.39
352.10	227.45
352.48	227.53
352.87	227.59
353.25	227.64
353.63	227.66
354.01	227.72
354.39	227.80
354.77	227.85
355.15	227.97
355.54	228.04
355.92	228.06
356.30	228.11
356.68	228.24
357.06	228.29
357.44	228.32
357.82	228.37
358.20	228.44
358.58	228.50
358.97	228.56
359.35	228.61
359.73	228.68
360.11	228.74
360.49	228.81
360.87	228.86
361.25	228.92
361.63	229.01
362.01	229.05
362.39	229.07
362.77	229.16
363.15	229.15
363.53	229.16
363.91	229.19
364.29	229.22
364.67	229.15
365.05	229.15
365.43	229.18
365.81	229.19
366.19	229.22
366.57	229.23
366.95	229.21
367.33	229.21
367.71	229.18
368.09	229.18
368.47	229.10
368.85	229.08
369.23	229.09
369.61	229.01
369.99	228.97
370.37	228.94
370.75	228.94
371.13	228.87
371.51	228.81
371.89	228.83
372.27	228.77
372.65	228.74
373.03	228.70
373.41	228.64
373.78	228.59
374.16	228.50
374.54	228.42
374.92	228.35
375.30	228.24
375.68	228.16
376.06	228.11
376.44	228.05
376.82	227.99
377.19	227.89
377.57	227.82
377.95	227.75
378.33	227.69
378.71	227.57
379.09	227.52
379.47	227.49
379.84	227.37
380.22	227.29
380.60	227.21
380.98	227.14
381.36	227.07
381.73	226.99
382.11	226.94
382.49	226.88
382.87	226.80
383.25	226.73
383.62	226.77
384.00	226.67
384.38	226.66
384.76	226.63
385.13	226.62
385.51	226.60
385.89	226.57
386.27	226.53
386.64	226.51
387.02	226.45
387.40	226.39
387.78	226.38
388.15	226.36
388.53	226.32
388.91	226.30
389.29	226.27
389.66	226.28
390.04	226.24
390.42	226.26
390.79	226.28
391.17	226.30
391.55	226.20
391.92	226.22
392.30	226.19
392.68	226.17
393.05	226.18
393.43	226.18
393.81	226.18
394.18	226.21
394.56	226.18
394.94	226.24
395.31	226.27
395.69	226.31
396.06	226.37
396.44	226.46
396.82	226.50
397.19	226.60
397.57	226.61
397.95	226.68
398.32	226.69
398.70	226.75
399.07	226.85
399.45	226.90
399.82	226.97
400.20	227.02
400.58	227.09
400.95	227.11
401.33	227.20
401.70	227.34
402.08	227.42
402.45	227.50
402.83	227.63
403.20	227.71
403.58	227.79
403.95	227.92
404.33	227.99
404.71	228.11
405.08	228.29
405.46	228.41
405.83	228.55
406.21	228.68
406.58	228.86
406.96	229.00
407.33	229.18
407.70	229.37
408.08	229.65
408.45	229.85
408.83	230.10
409.20	230.32
409.58	230.50
409.95	230.77
410.33	231.06
410.70	231.27
411.08	231.58
411.45	231.89
411.82	232.17
412.20	232.52
412.57	232.93
412.95	233.20
413.32	233.62
413.69	234.02
414.07	234.47
414.44	234.90
414.82	235.40
415.19	235.96
415.56	236.54
415.94	237.10
416.31	237.74
416.68	238.35
417.06	239.07
417.43	239.76
417.81	240.49
418.18	241.28
418.55	242.15
418.93	242.99
419.30	243.90
419.67	244.86
420.04	245.81
420.42	246.82
420.79	248.04
421.16	249.19
421.54	250.44
421.91	251.64
422.28	252.91
422.66	254.25
423.03	255.54
423.40	256.85
423.77	258.26
424.15	259.70
424.52	261.23
424.89	262.86
425.26	264.42
425.64	265.90
426.01	267.47
426.38	269.13
426.75	270.85
427.13	272.57
427.50	274.36
427.87	276.27
428.24	278.13
428.61	279.84
428.99	281.83
429.36	283.93
429.73	286.00
430.10	288.01
430.47	290.09
430.85	292.24
431.22	294.50
431.59	296.90
431.96	299.12
432.33	301.60
432.70	304.00
433.08	306.82
433.45	309.49
433.82	312.14
434.19	315.03
434.56	317.83
434.93	320.52
435.30	323.14
435.68	326.03
436.05	328.89
436.42	331.73
436.79	334.23
437.16	336.91
437.53	339.76
437.90	342.58
438.27	345.31
438.64	348.11
439.01	350.70
439.38	352.94
439.75	355.11
440.13	357.54
440.50	359.89
440.87	361.76
441.24	363.68
441.61	365.81
441.98	367.34
442.35	369.16
442.72	371.00
443.09	372.79
443.46	373.79
443.83	374.31
444.20	374.80
444.57	375.59
444.94	375.87
445.31	376.19
445.68	376.54
446.05	376.62
446.42	376.24
446.79	375.82
447.16	375.38
447.53	375.06
447.90	373.92
448.27	372.74
448.64	371.12
449.01	369.93
449.37	367.95
449.74	366.00
450.11	363.76
450.48	361.26
450.85	358.70
451.22	356.52
451.59	354.54
451.96	352.55
452.33	349.96
452.70	347.60
453.07	344.78
453.43	341.86
453.80	339.07
454.17	336.39
454.54	333.84
454.91	331.08
455.28	328.36
455.65	325.88
456.02	323.36
456.38	321.20
456.75	318.55
457.12	316.32
457.49	314.06
457.86	311.85
458.23	309.98
458.59	307.96
458.96	305.89
459.33	304.05
459.70	302.20
460.07	300.72
460.43	299.00
460.80	297.38
461.17	295.94
461.54	294.42
461.91	293.00
462.27	291.56
462.64	290.29
463.01	288.99
463.38	287.68
463.74	286.38
464.11	285.22
464.48	284.23
464.85	283.10
465.21	282.26
465.58	281.36
465.95	280.28
466.32	279.36
466.68	278.46
467.05	277.55
467.42	276.66
467.78	275.72
468.15	274.85
468.52	274.18
468.88	273.34
469.25	272.60
469.62	271.95
469.98	271.26
470.35	270.63
470.72	270.04
471.08	269.41
471.45	268.83
471.82	268.28
472.18	267.66
472.55	267.24
472.92	266.75
473.28	266.28
473.65	265.85
474.02	265.42
474.38	265.05
474.75	264.77
475.11	264.45
475.48	264.20
475.85	263.99
476.21	263.78
476.58	263.58
476.94	263.41
477.31	263.25
477.67	263.13
478.04	263.05
478.41	263.02
478.77	263.07
479.14	263.02
479.50	263.03
479.87	263.14
480.23	263.23
480.60	263.28
480.96	263.37
481.33	263.61
481.69	263.81
482.06	264.02
482.42	264.17
482.79	264.39
483.15	264.72
483.52	265.07
483.88	265.43
484.25	265.81
484.61	266.28
484.98	266.76
485.34	267.33
485.71	267.93
486.07	268.51
486.44	269.03
486.80	269.72
487.17	270.45
487.53	271.26
487.90	272.12
488.26	273.04
488.62	274.03
488.99	274.96
489.35	275.98
489.72	277.11
490.08	278.32
490.44	279.57
490.81	280.88
491.17	282.24
491.54	283.69
491.90	285.26
492.26	286.84
492.63	288.53
492.99	290.29
493.36	292.16
493.72	294.19
494.08	296.30
494.45	298.59
494.81	300.93
495.17	303.31
495.54	305.89
495.90	308.52
496.26	311.33
496.63	314.27
496.99	317.37
497.35	320.58
497.72	323.94
498.08	327.47
498.44	331.09
498.80	334.95
499.17	338.99
499.53	343.13
499.89	347.52
500.26	352.02
500.62	356.66
500.98	361.62
501.34	366.67
501.71	372.04
502.07	377.47
502.43	383.13
502.79	388.95
503.16	394.96
503.52	401.30
503.88	407.64
504.24	414.25
504.60	421.13
504.97	428.32
505.33	435.66
505.69	443.36
506.05	451.18
506.41	459.14
506.78	467.30
507.14	475.82
507.50	484.58
507.86	493.64
508.22	502.82
508.59	512.00
508.95	521.61
509.31	531.40
509.67	541.45
510.03	551.78
510.39	562.39
510.75	573.27
511.12	584.21
511.48	595.58
511.84	607.11
512.20	618.72
512.56	630.60
512.92	642.84
513.28	655.21
513.64	667.69
514.00	680.37
514.37	693.36
514.73	706.46
515.09	719.47
515.45	732.69
515.81	746.36
516.17	760.43
516.53	774.57
516.89	788.72
517.25	802.90
517.61	817.34
517.97	831.77
518.33	846.23
518.69	860.99
519.05	875.96
519.41	891.13
519.77	906.65
520.13	922.14
520.49	937.48
520.85	952.94
521.21	968.69
521.57	984.96
521.93	1000.70
522.29	1017.02
522.65	1033.29
523.01	1049.65
523.37	1065.69
523.73	1081.79
524.09	1097.81
524.45	1114.14
524.81	1130.86
525.17	1147.60
525.53	1164.48
525.89	1181.33
526.25	1198.25
526.61	1214.68
526.97	1231.46
527.33	1247.94
527.68	1264.58
528.04	1281.13
528.40	1297.71
528.76	1314.70
529.12	1331.28
529.48	1348.09
529.84	1364.21
530.20	1380.88
530.56	1397.87
530.91	1415.30
531.27	1432.08
531.63	1448.58
531.99	1465.33
532.35	1481.28
532.71	1497.15
533.07	1513.48
533.42	1529.43
533.78	1545.37
534.14	1561.57
534.50	1576.80
534.86	1592.68
535.21	1607.87
535.57	1623.79
535.93	1639.27
536.29	1654.09
536.65	1669.11
537.00	1684.04
537.36	1699.24
537.72	1713.79
538.08	1728.11
538.44	1741.73
538.79	1755.62
539.15	1769.32
539.51	1782.91
539.87	1797.20
540.22	1811.03
540.58	1824.71
540.94	1838.02
541.29	1850.94
541.65	1863.59
542.01	1876.78
542.37	1889.10
542.72	1901.52
543.08	1913.34
543.44	1925.70
543.79	1936.89
544.15	1947.89
544.51	1959.36
544.87	1970.46
545.22	1981.21
545.58	1991.26
545.94	2001.26
546.29	2011.12
546.65	2020.99
547.01	2030.24
547.36	2038.99
547.72	2047.34
548.07	2055.32
548.43	2063.26
548.79	2071.30
549.14	2078.94
549.50	2086.42
549.86	2094.06
550.21	2101.33
550.57	2108.40
550.92	2114.87
551.28	2121.91
551.64	2129.04
551.99	2135.54
552.35	2141.58
552.70	2147.75
553.06	2153.86
553.41	2160.18
553.77	2166.24
554.13	2172.24
554.48	2178.39
554.84	2183.96
555.19	2189.34
555.55	2194.33
555.90	2198.92
556.26	2203.70
556.61	2208.34
556.97	2212.58
557.32	2216.72
557.68	2220.88
558.03	2225.15
558.39	2228.97
558.74	2233.75
559.10	2237.67
559.45	2241.32
559.81	2245.65
560.16	2249.47
560.52	2252.67
560.87	2256.02
561.23	2258.65
561.58	2261.77
561.94	2264.36
562.29	2266.46
562.64	2269.11
563.00	2271.79
563.35	2275.42
563.71	2278.62
564.06	2282.01
564.42	2284.95
564.77	2287.43
565.12	2289.66
565.48	2291.60
565.83	2293.45
566.19	2294.65
566.54	2295.54
566.89	2296.66
567.25	2297.19
567.60	2298.47
567.96	2300.29
568.31	2301.12
568.66	2302.18
569.02	2302.72
569.37	2303.06
569.72	2304.02
570.08	2304.18
570.43	2304.22
570.78	2303.50
571.14	2301.82
571.49	2300.38
571.84	2300.00
572.20	2298.90
572.55	2297.83
572.90	2296.31
573.26	2294.80
573.61	2292.98
573.96	2291.11
574.31	2288.11
574.67	2285.17
575.02	2281.46
575.37	2278.04
575.72	2274.14
576.08	2270.92
576.43	2267.38
576.78	2263.54
577.13	2260.38
577.49	2257.43
577.84	2253.79
578.19	2250.14
578.54	2246.56
578.90	2242.26
579.25	2236.55
579.60	2231.46
579.95	2226.43
580.30	2221.25
580.66	2216.18
581.01	2211.34
581.36	2206.40
581.71	2202.12
582.06	2197.58
582.42	2193.13
582.77	2187.78
583.12	2183.26
583.47	2178.39
583.82	2173.46
584.17	2168.29
584.53	2162.81
584.88	2156.97
585.23	2151.08
585.58	2145.55
585.93	2140.10
586.28	2135.36
586.63	2130.34
586.98	2125.27
587.34	2120.69
587.69	2115.93
588.04	2110.67
588.39	2104.92
588.74	2098.52
589.09	2092.37
589.44	2085.57
589.79	2079.47
590.14	2073.97
590.49	2067.37
590.84	2060.98
591.19	2054.96
591.54	2048.37
591.89	2040.85
592.25	2034.02
592.60	2026.85
592.95	2019.16
593.30	2011.74
593.65	2004.06
594.00	1996.97
594.35	1989.68
594.70	1981.46
595.05	1974.10
595.40	1966.85
595.75	1959.39
596.10	1953.05
596.45	1946.28
596.80	1940.12
597.15	1933.53
597.50	1926.29
597.85	1919.91
598.19	1913.26
598.54	1905.98
598.89	1899.43
599.24	1893.51
599.59	1886.79
599.94	1880.74
600.29	1874.49
600.64	1867.97
600.99	1860.52
601.34	1853.66
601.69	1846.70
602.04	1839.94
602.39	1832.68
602.74	1825.72
603.08	1819.01
603.43	1812.27
603.78	1805.11
604.13	1797.90
604.48	1790.54
604.83	1783.63
605.18	1776.56
605.53	1768.57
605.87	1760.68
606.22	1753.50
606.57	1745.63
606.92	1738.40
607.27	1731.26
607.62	1724.31
607.96	1717.03
608.31	1710.42
608.66	1702.87
609.01	1695.28
609.36	1687.72
609.70	1679.68
610.05	1671.70
610.40	1663.91
610.75	1655.47
611.10	1647.76
611.44	1639.28
611.79	1631.39
612.14	1622.78
612.49	1613.67
612.83	1605.29
613.18	1597.15
613.53	1589.03
613.88	1580.42
614.22	1572.06
614.57	1563.45
614.92	1555.40
615.27	1547.79
615.61	1539.48
615.96	1531.50
616.31	1524.02
616.65	1516.53
617.00	1508.95
617.35	1501.25
617.70	1492.92
618.04	1484.55
618.39	1476.32
618.74	1468.76
619.08	1460.42
619.43	1452.72
619.78	1445.80
620.12	1438.59
620.47	1431.09
620.82	1422.84
621.16	1415.55
621.51	1407.96
621.85	1400.27
622.20	1391.76
622.55	1383.32
622.89	1375.51
623.24	1367.87
623.59	1360.47
623.93	1352.98
624.28	1345.81
624.62	1338.28
624.97	1331.15
625.32	1324.47
625.66	1317.50
626.01	1310.32
626.35	1302.88
626.70	1295.20
627.04	1287.47
627.39	1279.69
627.73	1272.31
628.08	1265.35
628.43	1257.93
628.77	1250.46
629.12	1242.92
629.46	1235.75
629.81	1228.40
630.15	1221.18
630.50	1213.73
630.84	1205.47
631.19	1197.61
631.53	1190.08
631.88	1182.43
632.22	1174.89
632.57	1167.51
632.91	1160.00
633.26	1152.54
633.60	1145.19
633.95	1138.15
634.29	1131.08
634.64	1124.33
634.98	1116.92
635.32	1109.82
635.67	1103.35
636.01	1096.81
636.36	1089.97
636.70	1083.46
637.05	1076.91
637.39	1070.43
637.73	1063.92
638.08	1057.96
638.42	1051.93
638.77	1045.37
639.11	1038.85
639.45	1032.32
639.80	1025.64
640.14	1019.10
640.49	1012.56
640.83	1006.24
641.17	999.93
641.52	993.59
641.86	987.23
642.20	981.40
642.55	975.01
642.89	968.49
643.23	962.03
643.58	956.28
643.92	950.08
644.26	943.97
644.61	937.97
644.95	931.90
645.29	925.34
645.64	918.57
645.98	912.34
646.32	906.56
646.66	900.63
647.01	894.86
647.35	889.18
647.69	883.41
648.04	877.94
648.38	872.21
648.72	866.18
649.06	860.10
649.41	854.30
649.75	848.42
650.09	842.54
650.43	836.66
650.78	830.46
651.12	824.53
651.46	818.85
651.80	813.11
652.14	807.76
652.49	802.44
652.83	797.27
653.17	791.56
653.51	785.80
653.85	780.33
654.20	774.65
654.54	768.65
654.88	762.88
655.22	756.94
655.56	751.32
655.90	745.88
656.25	740.65
656.59	735.22
656.93	730.14
657.27	724.85
657.61	719.45
657.95	714.34
658.29	709.23
658.64	703.97
658.98	698.59
659.32	693.10
659.66	687.86
660.00	682.56
660.34	677.63
660.68	672.68
661.02	667.69
661.36	662.97
661.70	658.48
662.05	654.11
662.39	649.80
662.73	645.26
663.07	640.94
663.41	636.52
663.75	632.03
664.09	627.47
664.43	623.10
664.77	618.99
665.11	614.79
665.45	610.67
665.79	606.62
666.13	602.55
666.47	598.43
666.81	594.24
667.15	590.09
667.49	586.18
667.83	582.42
668.17	578.40
668.51	574.34
668.85	570.38
669.19	566.56
669.53	562.69
669.87	558.83
670.21	555.07
670.55	551.43
670.89	547.97
671.23	544.51
671.57	541.00
671.91	537.44
672.25	533.94
672.58	530.39
672.92	526.97
673.26	523.80
673.60	520.69
673.94	517.62
674.28	514.74
674.62	511.81
674.96	508.68
675.30	505.79
675.64	502.90
675.97	500.08
676.31	497.22
676.65	494.27
676.99	491.61
677.33	488.76
677.67	485.89
678.01	482.85
678.34	479.87
678.68	477.01
679.02	474.17
679.36	471.37
679.70	468.68
680.04	465.88
680.37	462.99
680.71	460.21
681.05	457.62
681.39	454.91
681.73	452.19
682.06	449.64
682.40	447.09
682.74	444.53
683.08	441.96
683.42	439.34
683.75	436.83
684.09	434.23
684.43	431.78
684.77	429.32
685.10	427.04
685.44	424.78
685.78	422.52
686.12	420.30
686.45	418.02
686.79	415.72
687.13	413.54
687.46	411.40
687.80	409.24
688.14	407.06
688.48	405.02
688.81	402.79
689.15	400.67
689.49	398.57
689.82	396.54
690.16	394.47
690.50	392.53
690.83	390.61
691.17	388.65
691.51	386.76
691.84	384.92
692.18	382.95
692.52	380.96
692.85	379.08
693.19	377.20
693.52	375.37
693.86	373.55
694.20	371.76
694.53	369.97
694.87	368.12
695.21	366.32
695.54	364.53
695.88	362.85
696.21	361.13
696.55	359.46
696.88	357.74
697.22	356.11
697.56	354.47
697.89	352.81
698.23	351.21
698.56	349.60
698.90	348.00
699.23	346.41
699.57	344.84
699.90	343.23
700.24	341.72
700.58	340.19
700.91	338.73
701.25	337.28
701.58	335.92
701.92	334.57
702.25	333.19
702.59	331.78
702.92	330.42
703.26	329.12
703.59	327.79
703.93	326.67
704.26	325.43
704.60	324.15
704.93	322.89
705.26	321.60
705.60	320.38
705.93	319.25
706.27	318.22
706.60	317.18
706.94	316.13
707.27	315.00
707.61	313.96
707.94	312.95
708.27	311.87
708.61	310.76
708.94	309.77
709.28	308.80
709.61	307.86
709.94	306.95
710.28	305.90
710.61	304.94
710.95	303.85
711.28	302.93
711.61	301.97
711.95	301.07
712.28	300.16
712.61	299.21
712.95	298.26
713.28	297.35
713.61	296.42
713.95	295.52
714.28	294.66
714.61	293.77
714.95	292.86
715.28	291.99
715.61	291.09
715.95	290.23
716.28	289.32
716.61	288.47
716.95	287.62
717.28	286.87
717.61	286.11
717.94	285.35
718.28	284.53
718.61	283.84
718.94	283.13
719.27	282.48
719.61	281.86
719.94	281.19
720.27	280.45
720.60	279.78
720.94	279.16
721.27	278.55
721.60	277.99
721.93	277.43
722.27	276.90
722.60	276.34
722.93	275.73
723.26	275.19
723.59	274.65
723.93	274.11
724.26	273.59
724.59	273.03
724.92	272.53
725.25	272.03
725.59	271.50
725.92	271.00
726.25	270.48
726.58	269.95
726.91	269.47
727.24	269.01
727.57	268.55
727.91	268.04
728.24	267.56
728.57	267.09
728.90	266.62
729.23	266.11
729.56	265.74
729.89	265.33
730.22	264.87
730.55	264.41
730.89	263.96
731.22	263.51
731.55	263.07
731.88	262.64
732.21	262.21
732.54	261.78
732.87	261.37
733.20	260.98
733.53	260.61
733.86	260.21
734.19	259.83
734.52	259.48
734.85	259.16
735.18	258.77
735.51	258.39
735.84	258.01
736.17	257.67
736.50	257.24
736.83	256.99
737.16	256.66
737.49	256.30
737.82	255.94
738.15	255.64
738.48	255.33
738.81	255.00
739.14	254.68
739.47	254.36
739.80	254.04
740.13	253.74
740.46	253.39
740.79	253.05
741.12	252.76
741.45	252.43
741.78	252.11
742.11	251.85
742.44	251.58
742.77	251.31
743.10	251.02
743.43	250.74
743.75	250.37
744.08	250.20
744.41	249.93
744.74	249.67
745.07	249.39
745.40	249.13
745.73	248.92
746.06	248.65
746.39	248.39
746.71	248.11
747.04	247.84
747.37	247.59
747.70	247.37
748.03	247.12
748.36	246.88
748.68	246.62
749.01	246.33
749.34	246.05
749.67	245.80
750.00	245.59
750.33	245.42
750.65	245.24
750.98	244.90
751.31	244.68
751.64	244.45
751.97	244.28
752.29	244.04
752.62	243.76
752.95	243.54
753.28	243.33
753.60	243.09
753.93	242.89
754.26	242.72
754.59	242.48
754.91	242.22
755.24	242.03
755.57	241.85
755.90	241.66
756.22	241.48
756.55	241.30
756.88	241.06
757.20	240.77
757.53	240.57
757.86	240.41
758.19	240.25
758.51	240.10
758.84	239.86
759.17	239.69
759.49	239.51
759.82	239.38
760.15	239.20
760.47	239.07
760.80	238.89
761.13	238.72
761.45	238.57
761.78	238.44
762.11	238.30
762.43	238.13
762.76	238.00
763.08	237.86
763.41	237.70
763.74	237.61
764.06	237.50
764.39	237.35
764.71	237.20
765.04	237.07
765.37	236.92
765.69	236.80
766.02	236.72
766.34	236.61
766.67	236.45
767.00	236.40
767.32	236.35
767.65	236.29
767.97	236.19
768.30	236.07
768.62	235.97
768.95	235.86
769.27	235.79
769.60	235.65
769.92	235.55
770.25	235.47
770.57	235.34
770.90	235.25
771.22	235.13
771.55	235.04
771.87	234.95
772.20	234.87
772.52	234.87
772.85	234.89
773.17	234.80
773.50	234.71
773.82	234.59
774.15	234.45
774.47	234.32
774.80	234.25
775.12	234.19
775.45	234.13
775.77	234.04
776.09	233.94
776.42	233.92
776.74	233.86
777.07	233.75
777.39	233.72
777.72	233.64
778.04	233.59
778.36	233.53
778.69	233.46
779.01	233.35
779.33	233.19
779.66	233.01
779.98	232.97
780.31	232.94
780.63	232.93
780.95	232.88
781.28	232.82
781.60	232.74
781.92	232.69
782.25	232.60
782.57	232.54
782.89	232.49
783.22	232.39
783.54	232.33
783.86	232.30
784.19	232.23
784.51	232.20
784.83	232.15
785.16	232.10
785.48	232.05
785.80	232.04
786.12	232.03
786.45	231.98
786.77	231.94
787.09	231.87
