SpectraSuite Data File
++++++++++++++++++++++++++++++++++++
Date: Fri Feb 01 17:15:00 EST 2013
User: group
Dark Spectrum Present: No
Reference Spectrum Present: No
Number of Sampled Component Spectra: 1
Spectrometers: USB2E7196
Integration Time (usec): 35000 (USB2E7196)
Spectra Averaged: 100 (USB2E7196)
Boxcar Smoothing: 10 (USB2E7196)
Correct for Electrical Dark: No (USB2E7196)
Strobe/Lamp Enabled: No (USB2E7196)
Correct for Detector Non-linearity: No (USB2E7196)
Correct for Stray Light: No (USB2E7196)
Number of Pixels in Processed Spectrum: 2048
>>>>>Begin Processed Spectral Data<<<<<
339.09	0.00
339.48	213.71
339.86	214.30
340.24	215.73
340.63	217.39
341.01	220.78
341.39	219.78
341.78	221.73
342.16	223.07
342.54	222.91
342.93	211.70
343.31	222.41
343.69	222.94
344.07	223.43
344.46	223.88
344.84	224.25
345.22	224.46
345.60	224.75
345.99	224.93
346.37	225.03
346.75	225.15
347.13	225.23
347.52	225.28
347.90	225.34
348.28	225.36
348.66	225.36
349.05	225.35
349.43	225.41
349.81	225.46
350.19	225.48
350.57	225.55
350.96	225.63
351.34	225.71
351.72	225.80
352.10	225.92
352.48	225.99
352.87	226.06
353.25	226.13
353.63	226.18
354.01	226.25
354.39	226.32
354.77	226.41
355.15	226.51
355.54	226.56
355.92	226.61
356.30	226.70
356.68	226.86
357.06	226.95
357.44	227.00
357.82	227.08
358.20	227.17
358.58	227.23
358.97	227.29
359.35	227.35
359.73	227.43
360.11	227.42
360.49	227.48
360.87	227.51
361.25	227.55
361.63	227.64
362.01	227.67
362.39	227.71
362.77	227.72
363.15	227.74
363.53	227.79
363.91	227.79
364.29	227.83
364.67	227.74
365.05	227.73
365.43	227.72
365.81	227.72
366.19	227.78
366.57	227.82
366.95	227.80
367.33	227.78
367.71	227.75
368.09	227.78
368.47	227.77
368.85	227.76
369.23	227.74
369.61	227.67
369.99	227.67
370.37	227.65
370.75	227.68
371.13	227.60
371.51	227.52
371.89	227.50
372.27	227.45
372.65	227.42
373.03	227.41
373.41	227.37
373.78	227.31
374.16	227.21
374.54	227.12
374.92	227.05
375.30	226.98
375.68	226.90
376.06	226.85
376.44	226.79
376.82	226.74
377.19	226.72
377.57	226.66
377.95	226.58
378.33	226.51
378.71	226.38
379.09	226.33
379.47	226.32
379.84	226.22
380.22	226.11
380.60	226.07
380.98	225.97
381.36	225.90
381.73	225.83
382.11	225.79
382.49	225.72
382.87	225.69
383.25	225.65
383.62	225.72
384.00	225.64
384.38	225.57
384.76	225.51
385.13	225.47
385.51	225.43
385.89	225.38
386.27	225.34
386.64	225.30
387.02	225.26
387.40	225.21
387.78	225.19
388.15	225.16
388.53	225.11
388.91	225.08
389.29	225.06
389.66	225.05
390.04	224.99
390.42	224.95
390.79	224.91
391.17	224.87
391.55	224.76
391.92	224.74
392.30	224.76
392.68	224.76
393.05	224.77
393.43	224.77
393.81	224.75
394.18	224.73
394.56	224.74
394.94	224.81
395.31	224.80
395.69	224.87
396.06	224.90
396.44	224.90
396.82	224.94
397.19	225.00
397.57	225.01
397.95	225.10
398.32	225.16
398.70	225.23
399.07	225.33
399.45	225.33
399.82	225.38
400.20	225.40
400.58	225.47
400.95	225.49
401.33	225.57
401.70	225.73
402.08	225.82
402.45	225.87
402.83	225.95
403.20	226.04
403.58	226.12
403.95	226.25
404.33	226.36
404.71	226.49
405.08	226.66
405.46	226.83
405.83	226.92
406.21	227.06
406.58	227.20
406.96	227.30
407.33	227.50
407.70	227.69
408.08	228.00
408.45	228.19
408.83	228.42
409.20	228.64
409.58	228.82
409.95	229.09
410.33	229.38
410.70	229.60
411.08	229.93
411.45	230.24
411.82	230.52
412.20	230.90
412.57	231.31
412.95	231.60
413.32	231.98
413.69	232.42
414.07	232.84
414.44	233.32
414.82	233.84
415.19	234.39
415.56	234.95
415.94	235.49
416.31	236.10
416.68	236.76
417.06	237.49
417.43	238.18
417.81	238.94
418.18	239.75
418.55	240.61
418.93	241.45
419.30	242.37
419.67	243.34
420.04	244.32
420.42	245.34
420.79	246.55
421.16	247.72
421.54	248.93
421.91	250.19
422.28	251.45
422.66	252.83
423.03	254.15
423.40	255.54
423.77	256.99
424.15	258.51
424.52	260.00
424.89	261.65
425.26	263.23
425.64	264.73
426.01	266.36
426.38	268.08
426.75	269.85
427.13	271.61
427.50	273.44
427.87	275.35
428.24	277.24
428.61	278.98
428.99	280.99
429.36	283.16
429.73	285.29
430.10	287.35
430.47	289.45
430.85	291.61
431.22	293.91
431.59	296.32
431.96	298.60
432.33	301.12
432.70	303.53
433.08	306.40
433.45	309.11
433.82	311.75
434.19	314.68
434.56	317.51
434.93	320.25
435.30	322.95
435.68	325.92
436.05	328.83
436.42	331.72
436.79	334.31
437.16	337.04
437.53	339.96
437.90	342.89
438.27	345.71
438.64	348.61
439.01	351.22
439.38	353.52
439.75	355.73
440.13	358.29
440.50	360.65
440.87	362.56
441.24	364.58
441.61	366.81
441.98	368.38
442.35	370.23
442.72	372.12
443.09	373.98
443.46	375.00
443.83	375.62
444.20	376.16
444.57	377.02
444.94	377.35
445.31	377.67
445.68	378.04
446.05	378.09
446.42	377.72
446.79	377.35
447.16	376.95
447.53	376.65
447.90	375.52
448.27	374.36
448.64	372.74
449.01	371.56
449.37	369.56
449.74	367.67
450.11	365.43
450.48	362.91
450.85	360.33
451.22	358.17
451.59	356.12
451.96	354.13
452.33	351.48
452.70	349.07
453.07	346.18
453.43	343.17
453.80	340.38
454.17	337.64
454.54	335.05
454.91	332.25
455.28	329.53
455.65	326.96
456.02	324.49
456.38	322.31
456.75	319.59
457.12	317.29
457.49	314.98
457.86	312.71
458.23	310.78
458.59	308.71
458.96	306.54
459.33	304.63
459.70	302.75
460.07	301.17
460.43	299.40
460.80	297.76
461.17	296.32
461.54	294.77
461.91	293.33
462.27	291.83
462.64	290.52
463.01	289.11
463.38	287.78
463.74	286.38
464.11	285.20
464.48	284.12
464.85	282.96
465.21	282.08
465.58	281.16
465.95	280.05
466.32	279.11
466.68	278.21
467.05	277.31
467.42	276.34
467.78	275.39
468.15	274.51
468.52	273.84
468.88	272.96
469.25	272.16
469.62	271.50
469.98	270.82
470.35	270.18
470.72	269.57
471.08	268.90
471.45	268.35
471.82	267.78
472.18	267.21
472.55	266.77
472.92	266.21
473.28	265.75
473.65	265.31
474.02	264.86
474.38	264.47
474.75	264.12
475.11	263.82
475.48	263.60
475.85	263.35
476.21	263.08
476.58	262.91
476.94	262.78
477.31	262.62
477.67	262.45
478.04	262.35
478.41	262.28
478.77	262.34
479.14	262.25
479.50	262.26
479.87	262.32
480.23	262.39
480.60	262.42
480.96	262.47
481.33	262.65
481.69	262.87
482.06	263.05
482.42	263.25
482.79	263.46
483.15	263.75
483.52	264.11
483.88	264.47
484.25	264.82
484.61	265.24
484.98	265.72
485.34	266.25
485.71	266.82
486.07	267.42
486.44	267.98
486.80	268.70
487.17	269.42
487.53	270.22
487.90	271.06
488.26	272.03
488.62	273.03
488.99	274.01
489.35	275.03
489.72	276.16
490.08	277.40
490.44	278.66
490.81	280.00
491.17	281.37
491.54	282.85
491.90	284.40
492.26	286.03
492.63	287.71
492.99	289.50
493.36	291.41
493.72	293.47
494.08	295.58
494.45	297.81
494.81	300.15
495.17	302.60
495.54	305.20
495.90	307.87
496.26	310.72
496.63	313.67
496.99	316.77
497.35	320.03
497.72	323.40
498.08	326.91
498.44	330.54
498.80	334.47
499.17	338.51
499.53	342.67
499.89	347.03
500.26	351.57
500.62	356.23
500.98	361.19
501.34	366.17
501.71	371.49
502.07	376.97
502.43	382.61
502.79	388.38
503.16	394.41
503.52	400.68
503.88	406.97
504.24	413.52
504.60	420.36
504.97	427.41
505.33	434.65
505.69	442.33
506.05	450.02
506.41	457.80
506.78	465.89
507.14	474.32
507.50	482.94
507.86	491.80
508.22	500.89
508.59	509.96
508.95	519.44
509.31	529.14
509.67	539.14
510.03	549.25
510.39	559.76
510.75	570.34
511.12	581.09
511.48	592.29
511.84	603.59
512.20	614.91
512.56	626.74
512.92	638.71
513.28	650.88
513.64	663.18
514.00	675.72
514.37	688.45
514.73	701.25
515.09	714.05
515.45	727.13
515.81	740.49
516.17	754.28
516.53	768.23
516.89	782.19
517.25	796.01
517.61	810.20
517.97	824.39
518.33	838.66
518.69	853.20
519.05	867.82
519.41	882.72
519.77	897.97
520.13	913.03
520.49	928.30
520.85	943.29
521.21	958.68
521.57	974.58
521.93	990.01
522.29	1006.00
522.65	1022.05
523.01	1037.95
523.37	1053.68
523.73	1069.43
524.09	1085.22
524.45	1101.12
524.81	1117.44
525.17	1133.82
525.53	1150.20
525.89	1166.72
526.25	1183.21
526.61	1199.36
526.97	1215.76
527.33	1231.98
527.68	1248.23
528.04	1264.26
528.40	1280.54
528.76	1297.35
529.12	1313.56
529.48	1330.12
529.84	1345.81
530.20	1362.00
530.56	1378.64
530.91	1395.72
531.27	1412.25
531.63	1428.34
531.99	1444.70
532.35	1460.57
532.71	1476.32
533.07	1492.37
533.42	1508.01
533.78	1523.85
534.14	1539.79
534.50	1554.88
534.86	1570.48
535.21	1585.55
535.57	1601.12
535.93	1616.28
536.29	1630.76
536.65	1645.62
537.00	1660.06
537.36	1675.20
537.72	1689.53
538.08	1703.87
538.44	1717.36
538.79	1731.10
539.15	1744.45
539.51	1757.83
539.87	1771.85
540.22	1785.31
540.58	1798.80
540.94	1811.76
541.29	1824.24
541.65	1836.69
542.01	1849.61
542.37	1861.85
542.72	1874.04
543.08	1885.77
543.44	1898.06
543.79	1909.35
544.15	1920.32
544.51	1932.00
544.87	1942.94
545.22	1953.82
545.58	1963.87
545.94	1973.83
546.29	1983.67
546.65	1993.55
547.01	2002.89
547.36	2011.68
547.72	2020.23
548.07	2028.26
548.43	2036.58
548.79	2044.49
549.14	2052.31
549.50	2059.85
549.86	2067.43
550.21	2074.91
550.57	2082.30
550.92	2089.21
551.28	2096.30
551.64	2103.42
551.99	2109.95
552.35	2116.31
552.70	2122.52
553.06	2128.84
553.41	2135.15
553.77	2141.12
554.13	2147.45
554.48	2153.67
554.84	2159.48
555.19	2164.88
555.55	2170.27
555.90	2175.12
556.26	2180.63
556.61	2185.42
556.97	2190.06
557.32	2194.61
557.68	2198.92
558.03	2203.45
558.39	2207.21
558.74	2212.04
559.10	2216.21
559.45	2220.03
559.81	2224.36
560.16	2228.34
560.52	2231.82
560.87	2235.54
561.23	2238.60
561.58	2241.61
561.94	2244.65
562.29	2246.99
562.64	2250.10
563.00	2252.87
563.35	2256.48
563.71	2259.73
564.06	2263.11
564.42	2266.32
564.77	2269.06
565.12	2271.85
565.48	2274.15
565.83	2276.50
566.19	2278.01
566.54	2279.08
566.89	2280.74
567.25	2281.87
567.60	2283.54
567.96	2285.58
568.31	2286.68
568.66	2288.11
569.02	2289.21
569.37	2289.73
569.72	2290.98
570.08	2291.44
570.43	2291.79
570.78	2291.55
571.14	2290.47
571.49	2289.48
571.84	2289.20
572.20	2288.36
572.55	2287.30
572.90	2285.75
573.26	2284.57
573.61	2283.12
573.96	2281.90
574.31	2279.15
574.67	2276.27
575.02	2272.80
575.37	2269.40
575.72	2265.89
576.08	2262.70
576.43	2259.44
576.78	2256.11
577.13	2252.94
577.49	2249.79
577.84	2246.63
578.19	2243.07
578.54	2239.61
578.90	2235.73
579.25	2230.54
579.60	2225.93
579.95	2221.44
580.30	2216.64
580.66	2211.69
581.01	2206.84
581.36	2201.98
581.71	2198.06
582.06	2194.03
582.42	2190.08
582.77	2185.26
583.12	2181.01
583.47	2176.80
583.82	2172.25
584.17	2167.33
584.53	2162.33
584.88	2156.98
585.23	2151.50
585.58	2146.16
585.93	2140.85
586.28	2136.06
586.63	2131.32
586.98	2126.29
587.34	2121.52
587.69	2116.80
588.04	2111.85
588.39	2106.63
588.74	2100.34
589.09	2094.30
589.44	2087.81
589.79	2081.53
590.14	2075.92
590.49	2069.64
590.84	2063.18
591.19	2057.15
591.54	2050.69
591.89	2043.66
592.25	2037.29
592.60	2030.23
592.95	2023.10
593.30	2015.95
593.65	2008.51
594.00	2001.45
594.35	1994.46
594.70	1986.40
595.05	1979.70
595.40	1972.51
595.75	1965.16
596.10	1959.18
596.45	1952.72
596.80	1946.47
597.15	1940.09
597.50	1933.50
597.85	1926.97
598.19	1920.54
598.54	1913.90
598.89	1907.55
599.24	1901.54
599.59	1895.04
599.94	1888.69
600.29	1882.32
600.64	1875.87
600.99	1868.63
601.34	1861.93
601.69	1854.94
602.04	1848.46
602.39	1841.04
602.74	1834.41
603.08	1827.82
603.43	1821.05
603.78	1813.82
604.13	1806.66
604.48	1799.65
604.83	1792.81
605.18	1786.03
605.53	1778.12
605.87	1769.91
606.22	1762.38
606.57	1754.35
606.92	1746.60
607.27	1739.63
607.62	1732.81
607.96	1725.61
608.31	1719.18
608.66	1711.65
609.01	1704.21
609.36	1696.62
609.70	1688.54
610.05	1680.32
610.40	1672.56
610.75	1664.27
611.10	1656.57
611.44	1648.06
611.79	1639.84
612.14	1630.95
612.49	1621.62
612.83	1613.03
613.18	1604.87
613.53	1596.87
613.88	1588.38
614.22	1580.25
614.57	1571.55
614.92	1563.45
615.27	1555.94
615.61	1547.66
615.96	1539.58
616.31	1531.82
616.65	1524.41
617.00	1516.82
617.35	1509.12
617.70	1500.83
618.04	1492.31
618.39	1483.86
618.74	1476.35
619.08	1468.04
619.43	1460.40
619.78	1453.44
620.12	1446.34
620.47	1438.90
620.82	1430.68
621.16	1423.22
621.51	1415.55
621.85	1407.83
622.20	1399.07
622.55	1390.46
622.89	1382.38
623.24	1374.62
623.59	1366.95
623.93	1359.30
624.28	1351.97
624.62	1344.44
624.97	1337.09
625.32	1330.24
625.66	1323.19
626.01	1315.92
626.35	1308.67
626.70	1300.80
627.04	1293.10
627.39	1285.31
627.73	1277.70
628.08	1270.68
628.43	1263.44
628.77	1256.19
629.12	1248.66
629.46	1241.52
629.81	1234.04
630.15	1226.72
630.50	1219.28
630.84	1211.30
631.19	1203.32
631.53	1195.73
631.88	1188.01
632.22	1180.36
632.57	1172.92
632.91	1165.33
633.26	1157.85
633.60	1150.26
633.95	1143.08
634.29	1135.83
634.64	1128.99
634.98	1121.72
635.32	1114.56
635.67	1107.82
636.01	1101.04
636.36	1094.27
636.70	1087.68
637.05	1081.09
637.39	1074.68
637.73	1068.14
638.08	1062.18
638.42	1056.11
638.77	1049.66
639.11	1043.20
639.45	1036.82
639.80	1030.18
640.14	1023.81
640.49	1017.32
640.83	1010.92
641.17	1004.75
641.52	998.54
641.86	992.02
642.20	986.01
642.55	979.57
642.89	973.13
643.23	966.48
643.58	960.65
643.92	954.61
644.26	948.74
644.61	942.58
644.95	936.69
645.29	930.21
645.64	923.62
645.98	917.24
646.32	911.19
646.66	905.10
647.01	899.25
647.35	893.53
647.69	887.60
648.04	882.13
648.38	876.29
648.72	870.33
649.06	864.28
649.41	858.36
649.75	852.48
650.09	846.44
650.43	840.62
650.78	834.45
651.12	828.38
651.46	822.46
651.80	816.82
652.14	811.23
652.49	805.73
652.83	800.39
653.17	794.83
653.51	789.21
653.85	783.65
654.20	778.00
654.54	771.94
654.88	766.14
655.22	760.11
655.56	754.34
655.90	748.79
656.25	743.53
656.59	738.20
656.93	733.06
657.27	727.95
657.61	722.54
657.95	717.39
658.29	712.20
658.64	706.90
658.98	701.45
659.32	695.99
659.66	690.77
660.00	685.53
660.34	680.45
660.68	675.45
661.02	670.52
661.36	665.80
661.70	661.32
662.05	657.02
662.39	652.80
662.73	648.41
663.07	644.00
663.41	639.53
663.75	634.96
664.09	630.37
664.43	625.89
664.77	621.80
665.11	617.49
665.45	613.32
665.79	609.21
666.13	605.07
666.47	600.92
666.81	596.68
667.15	592.43
667.49	588.53
667.83	584.65
668.17	580.67
668.51	576.64
668.85	572.50
669.19	568.48
669.53	564.56
669.87	560.60
670.21	556.94
670.55	553.27
670.89	549.81
671.23	546.40
671.57	542.85
671.91	539.26
672.25	535.67
672.58	532.20
672.92	528.72
673.26	525.52
673.60	522.35
673.94	519.30
674.28	516.41
674.62	513.44
674.96	510.36
675.30	507.40
675.64	504.50
675.97	501.68
676.31	498.86
676.65	495.90
676.99	493.15
677.33	490.22
677.67	487.37
678.01	484.38
678.34	481.37
678.68	478.49
679.02	475.74
679.36	472.97
679.70	470.22
680.04	467.49
680.37	464.61
680.71	461.85
681.05	459.17
681.39	456.40
681.73	453.65
682.06	451.13
682.40	448.58
682.74	445.95
683.08	443.38
683.42	440.72
683.75	438.23
684.09	435.60
684.43	433.10
684.77	430.67
685.10	428.29
685.44	425.98
685.78	423.69
686.12	421.32
686.45	419.06
686.79	416.76
687.13	414.54
687.46	412.39
687.80	410.16
688.14	407.90
688.48	405.85
688.81	403.66
689.15	401.44
689.49	399.26
689.82	397.18
690.16	395.09
690.50	393.20
690.83	391.24
691.17	389.31
691.51	387.45
691.84	385.61
692.18	383.68
692.52	381.67
692.85	379.69
693.19	377.86
693.52	376.03
693.86	374.15
694.20	372.36
694.53	370.58
694.87	368.75
695.21	366.99
695.54	365.13
695.88	363.35
696.21	361.65
696.55	360.00
696.88	358.31
697.22	356.60
697.56	354.87
697.89	353.24
698.23	351.61
698.56	349.91
698.90	348.30
699.23	346.70
699.57	345.13
699.90	343.57
700.24	341.97
700.58	340.40
700.91	338.96
701.25	337.52
701.58	336.10
701.92	334.69
702.25	333.23
702.59	331.84
702.92	330.52
703.26	329.16
703.59	327.86
703.93	326.64
704.26	325.41
704.60	324.12
704.93	322.78
705.26	321.54
705.60	320.33
705.93	319.13
706.27	318.01
706.60	316.95
706.94	315.87
707.27	314.72
707.61	313.60
707.94	312.48
708.27	311.35
708.61	310.25
708.94	309.21
709.28	308.24
709.61	307.27
709.94	306.29
710.28	305.25
710.61	304.19
710.95	303.04
711.28	302.13
711.61	301.13
711.95	300.20
712.28	299.23
712.61	298.24
712.95	297.31
713.28	296.40
713.61	295.45
713.95	294.53
714.28	293.62
714.61	292.79
714.95	291.94
715.28	291.07
715.61	290.19
715.95	289.30
716.28	288.42
716.61	287.53
716.95	286.68
717.28	285.93
717.61	285.18
717.94	284.47
718.28	283.64
718.61	282.91
718.94	282.21
719.27	281.55
719.61	280.89
719.94	280.21
720.27	279.48
720.60	278.79
720.94	278.13
721.27	277.55
721.60	276.94
721.93	276.34
722.27	275.75
722.60	275.18
722.93	274.65
723.26	274.13
723.59	273.56
723.93	272.98
724.26	272.41
724.59	271.80
724.92	271.26
725.25	270.79
725.59	270.28
725.92	269.75
726.25	269.22
726.58	268.73
726.91	268.20
727.24	267.73
727.57	267.28
727.91	266.80
728.24	266.30
728.57	265.82
728.90	265.36
729.23	264.91
729.56	264.48
729.89	264.03
730.22	263.49
730.55	263.07
730.89	262.65
731.22	262.20
731.55	261.82
731.88	261.38
732.21	260.92
732.54	260.50
732.87	260.06
733.20	259.65
733.53	259.25
733.86	258.89
734.19	258.52
734.52	258.13
734.85	257.85
735.18	257.48
735.51	257.13
735.84	256.79
736.17	256.46
736.50	256.06
736.83	255.84
737.16	255.53
737.49	255.19
737.82	254.85
738.15	254.55
738.48	254.23
738.81	253.91
739.14	253.60
739.47	253.28
739.80	252.98
740.13	252.71
740.46	252.40
740.79	252.08
741.12	251.73
741.45	251.45
741.78	251.06
742.11	250.77
742.44	250.42
742.77	250.09
743.10	249.78
743.43	249.47
743.75	249.05
744.08	248.93
744.41	248.64
744.74	248.35
745.07	248.06
745.40	247.79
745.73	247.58
746.06	247.30
746.39	247.02
746.71	246.73
747.04	246.46
747.37	246.15
747.70	245.90
748.03	245.66
748.36	245.39
748.68	245.13
749.01	244.86
749.34	244.61
749.67	244.39
750.00	244.18
750.33	244.00
750.65	243.77
750.98	243.39
751.31	243.16
751.64	242.95
751.97	242.78
752.29	242.58
752.62	242.29
752.95	242.09
753.28	241.89
753.60	241.70
753.93	241.47
754.26	241.25
754.59	241.02
754.91	240.80
755.24	240.61
755.57	240.42
755.90	240.24
756.22	240.04
756.55	239.82
756.88	239.54
757.20	239.30
757.53	239.11
757.86	238.93
758.19	238.77
758.51	238.59
758.84	238.33
759.17	238.14
759.49	237.93
759.82	237.80
760.15	237.62
760.47	237.44
760.80	237.31
761.13	237.21
761.45	237.04
761.78	236.91
762.11	236.74
762.43	236.57
762.76	236.41
763.08	236.32
763.41	236.20
763.74	236.12
764.06	235.98
764.39	235.83
764.71	235.72
765.04	235.57
765.37	235.43
765.69	235.32
766.02	235.19
766.34	235.10
766.67	234.94
767.00	234.89
767.32	234.85
767.65	234.78
767.97	234.65
768.30	234.58
768.62	234.47
768.95	234.36
769.27	234.26
769.60	234.16
769.92	234.06
770.25	233.95
770.57	233.82
770.90	233.72
771.22	233.60
771.55	233.53
771.87	233.42
772.20	233.34
772.52	233.35
772.85	233.36
773.17	233.27
773.50	233.19
773.82	233.06
774.15	232.92
774.47	232.80
774.80	232.71
775.12	232.61
775.45	232.50
775.77	232.47
776.09	232.43
776.42	232.37
776.74	232.31
777.07	232.22
777.39	232.14
777.72	232.09
778.04	232.09
778.36	231.97
778.69	231.94
779.01	231.90
779.33	231.74
779.66	231.55
779.98	231.50
780.31	231.42
780.63	231.42
780.95	231.36
781.28	231.28
781.60	231.20
781.92	231.12
782.25	231.12
782.57	231.03
782.89	230.94
783.22	230.86
783.54	230.74
783.86	230.66
784.19	230.61
784.51	230.54
784.83	230.45
785.16	230.40
785.48	230.33
785.80	230.28
786.12	230.24
786.45	230.24
786.77	230.18
787.09	230.13
