SpectraSuite Data File
++++++++++++++++++++++++++++++++++++
Date: Fri Feb 01 16:08:05 EST 2013
User: group
Dark Spectrum Present: No
Reference Spectrum Present: No
Number of Sampled Component Spectra: 1
Spectrometers: USB2E7196
Integration Time (usec): 35000 (USB2E7196)
Spectra Averaged: 100 (USB2E7196)
Boxcar Smoothing: 10 (USB2E7196)
Correct for Electrical Dark: No (USB2E7196)
Strobe/Lamp Enabled: No (USB2E7196)
Correct for Detector Non-linearity: No (USB2E7196)
Correct for Stray Light: No (USB2E7196)
Number of Pixels in Processed Spectrum: 2048
>>>>>Begin Processed Spectral Data<<<<<
339.09	0.00
339.48	214.83
339.86	216.52
340.24	217.63
340.63	218.77
341.01	221.23
341.39	221.75
341.78	222.94
342.16	224.31
342.54	225.19
342.93	213.02
343.31	223.78
343.69	224.34
344.07	224.80
344.46	225.20
344.84	225.59
345.22	225.84
345.60	226.09
345.99	226.26
346.37	226.36
346.75	226.42
347.13	226.51
347.52	226.60
347.90	226.65
348.28	226.65
348.66	226.70
349.05	226.71
349.43	226.70
349.81	226.74
350.19	226.80
350.57	226.86
350.96	226.93
351.34	227.00
351.72	227.06
352.10	227.16
352.48	227.28
352.87	227.31
353.25	227.41
353.63	227.46
354.01	227.54
354.39	227.65
354.77	227.75
355.15	227.84
355.54	227.89
355.92	227.94
356.30	228.05
356.68	228.17
357.06	228.22
357.44	228.27
357.82	228.31
358.20	228.38
358.58	228.45
358.97	228.49
359.35	228.59
359.73	228.66
360.11	228.66
360.49	228.67
360.87	228.76
361.25	228.83
361.63	228.90
362.01	228.94
362.39	228.97
362.77	228.98
363.15	229.01
363.53	229.03
363.91	229.05
364.29	229.06
364.67	228.98
365.05	229.01
365.43	229.08
365.81	229.11
366.19	229.14
366.57	229.17
366.95	229.16
367.33	229.14
367.71	229.14
368.09	229.17
368.47	229.17
368.85	229.14
369.23	229.09
369.61	229.02
369.99	229.02
370.37	228.99
370.75	229.03
371.13	228.95
371.51	228.90
371.89	228.87
372.27	228.83
372.65	228.80
373.03	228.74
373.41	228.69
373.78	228.64
374.16	228.52
374.54	228.48
374.92	228.44
375.30	228.39
375.68	228.27
376.06	228.21
376.44	228.15
376.82	228.08
377.19	228.05
377.57	227.99
377.95	227.89
378.33	227.84
378.71	227.70
379.09	227.67
379.47	227.63
379.84	227.53
380.22	227.46
380.60	227.37
380.98	227.31
381.36	227.20
381.73	227.12
382.11	227.10
382.49	227.00
382.87	226.87
383.25	226.82
383.62	226.91
384.00	226.82
384.38	226.76
384.76	226.72
385.13	226.68
385.51	226.62
385.89	226.58
386.27	226.47
386.64	226.45
387.02	226.42
387.40	226.37
387.78	226.36
388.15	226.29
388.53	226.27
388.91	226.22
389.29	226.20
389.66	226.20
390.04	226.17
390.42	226.19
390.79	226.20
391.17	226.13
391.55	225.99
391.92	225.97
392.30	225.96
392.68	225.90
393.05	225.89
393.43	225.93
393.81	225.93
394.18	225.97
394.56	225.98
394.94	225.98
395.31	226.01
395.69	226.13
396.06	226.20
396.44	226.25
396.82	226.27
397.19	226.34
397.57	226.38
397.95	226.44
398.32	226.46
398.70	226.53
399.07	226.62
399.45	226.69
399.82	226.75
400.20	226.80
400.58	226.89
400.95	226.94
401.33	227.00
401.70	227.14
402.08	227.24
402.45	227.30
402.83	227.43
403.20	227.51
403.58	227.56
403.95	227.71
404.33	227.81
404.71	227.93
405.08	228.11
405.46	228.24
405.83	228.39
406.21	228.53
406.58	228.66
406.96	228.85
407.33	229.01
407.70	229.22
408.08	229.49
408.45	229.72
408.83	229.95
409.20	230.16
409.58	230.36
409.95	230.60
410.33	230.92
410.70	231.15
411.08	231.48
411.45	231.77
411.82	232.05
412.20	232.39
412.57	232.83
412.95	233.13
413.32	233.55
413.69	233.93
414.07	234.36
414.44	234.84
414.82	235.32
415.19	235.89
415.56	236.45
415.94	237.01
416.31	237.65
416.68	238.26
417.06	239.01
417.43	239.66
417.81	240.45
418.18	241.21
418.55	242.03
418.93	242.88
419.30	243.78
419.67	244.74
420.04	245.73
420.42	246.72
420.79	247.90
421.16	249.05
421.54	250.24
421.91	251.47
422.28	252.72
422.66	254.03
423.03	255.32
423.40	256.65
423.77	258.03
424.15	259.43
424.52	260.92
424.89	262.50
425.26	264.11
425.64	265.53
426.01	267.13
426.38	268.77
426.75	270.45
427.13	272.19
427.50	273.96
427.87	275.81
428.24	277.63
428.61	279.35
428.99	281.27
429.36	283.36
429.73	285.41
430.10	287.42
430.47	289.45
430.85	291.55
431.22	293.77
431.59	296.19
431.96	298.43
432.33	300.93
432.70	303.31
433.08	306.08
433.45	308.73
433.82	311.36
434.19	314.25
434.56	317.02
434.93	319.62
435.30	322.25
435.68	325.13
436.05	327.96
436.42	330.79
436.79	333.32
437.16	336.02
437.53	338.83
437.90	341.62
438.27	344.40
438.64	347.26
439.01	349.87
439.38	352.10
439.75	354.27
440.13	356.71
440.50	359.01
440.87	360.84
441.24	362.74
441.61	364.83
441.98	366.29
442.35	368.12
442.72	370.00
443.09	371.81
443.46	372.80
443.83	373.41
444.20	373.91
444.57	374.75
444.94	374.99
445.31	375.34
445.68	375.69
446.05	375.76
446.42	375.35
446.79	374.91
447.16	374.45
447.53	374.12
447.90	372.98
448.27	371.84
448.64	370.23
449.01	369.15
449.37	367.23
449.74	365.35
450.11	363.08
450.48	360.61
450.85	358.07
451.22	355.93
451.59	353.95
451.96	352.00
452.33	349.40
452.70	347.11
453.07	344.28
453.43	341.40
453.80	338.63
454.17	335.98
454.54	333.46
454.91	330.74
455.28	328.10
455.65	325.60
456.02	323.15
456.38	321.01
456.75	318.35
457.12	316.09
457.49	313.89
457.86	311.71
458.23	309.89
458.59	307.83
458.96	305.73
459.33	303.81
459.70	301.97
460.07	300.47
460.43	298.71
460.80	297.12
461.17	295.71
461.54	294.24
461.91	292.81
462.27	291.37
462.64	290.13
463.01	288.76
463.38	287.50
463.74	286.14
464.11	285.03
464.48	284.02
464.85	282.93
465.21	282.09
465.58	281.20
465.95	280.10
466.32	279.27
466.68	278.40
467.05	277.54
467.42	276.63
467.78	275.70
468.15	274.88
468.52	274.21
468.88	273.36
469.25	272.56
469.62	271.94
469.98	271.26
470.35	270.63
470.72	270.05
471.08	269.42
471.45	268.91
471.82	268.39
472.18	267.79
472.55	267.35
472.92	266.81
473.28	266.36
473.65	265.92
474.02	265.46
474.38	265.07
474.75	264.75
475.11	264.42
475.48	264.16
475.85	263.94
476.21	263.72
476.58	263.53
476.94	263.42
477.31	263.30
477.67	263.12
478.04	263.03
478.41	262.99
478.77	263.03
479.14	262.95
479.50	262.93
479.87	263.00
480.23	263.08
480.60	263.16
480.96	263.25
481.33	263.43
481.69	263.61
482.06	263.84
482.42	264.02
482.79	264.33
483.15	264.65
483.52	264.96
483.88	265.32
484.25	265.73
484.61	266.14
484.98	266.54
485.34	267.17
485.71	267.76
486.07	268.33
486.44	268.88
486.80	269.60
487.17	270.34
487.53	271.14
487.90	272.02
488.26	272.96
488.62	273.93
488.99	274.93
489.35	276.00
489.72	277.09
490.08	278.31
490.44	279.51
490.81	280.81
491.17	282.18
491.54	283.66
491.90	285.16
492.26	286.82
492.63	288.55
492.99	290.27
493.36	292.16
493.72	294.23
494.08	296.33
494.45	298.55
494.81	300.88
495.17	303.32
495.54	305.88
495.90	308.54
496.26	311.38
496.63	314.33
496.99	317.40
497.35	320.69
497.72	324.13
498.08	327.61
498.44	331.31
498.80	335.24
499.17	339.28
499.53	343.48
499.89	347.81
500.26	352.35
500.62	357.04
500.98	362.00
501.34	367.03
501.71	372.39
502.07	377.85
502.43	383.52
502.79	389.34
503.16	395.40
503.52	401.70
503.88	408.08
504.24	414.75
504.60	421.69
504.97	428.80
505.33	436.10
505.69	443.87
506.05	451.62
506.41	459.51
506.78	467.67
507.14	476.10
507.50	484.88
507.86	493.86
508.22	503.08
508.59	512.33
508.95	521.88
509.31	531.65
509.67	541.76
510.03	552.10
510.39	562.65
510.75	573.46
511.12	584.40
511.48	595.72
511.84	607.14
512.20	618.62
512.56	630.58
512.92	642.78
513.28	655.09
513.64	667.64
514.00	680.34
514.37	693.30
514.73	706.45
515.09	719.46
515.45	732.78
515.81	746.42
516.17	760.33
516.53	774.47
516.89	788.63
517.25	802.75
517.61	817.10
517.97	831.60
518.33	845.93
518.69	860.64
519.05	875.61
519.41	890.82
519.77	906.42
520.13	921.86
520.49	937.29
520.85	952.66
521.21	968.27
521.57	984.47
521.93	1000.16
522.29	1016.44
522.65	1032.54
523.01	1048.74
523.37	1064.71
523.73	1080.77
524.09	1096.91
524.45	1113.31
524.81	1129.93
525.17	1146.57
525.53	1163.28
525.89	1180.19
526.25	1197.10
526.61	1213.50
526.97	1230.15
527.33	1246.48
527.68	1263.00
528.04	1279.39
528.40	1295.90
528.76	1313.02
529.12	1329.65
529.48	1346.48
529.84	1362.42
530.20	1379.08
530.56	1396.05
530.91	1413.31
531.27	1430.16
531.63	1446.55
531.99	1462.92
532.35	1478.84
532.71	1494.80
533.07	1511.11
533.42	1527.06
533.78	1542.99
534.14	1559.12
534.50	1574.30
534.86	1590.06
535.21	1605.25
535.57	1621.04
535.93	1636.51
536.29	1651.22
536.65	1666.17
537.00	1680.84
537.36	1696.06
537.72	1710.54
538.08	1724.86
538.44	1738.64
538.79	1752.53
539.15	1766.07
539.51	1779.87
539.87	1794.15
540.22	1807.81
540.58	1821.42
540.94	1834.43
541.29	1847.17
541.65	1859.68
542.01	1872.86
542.37	1885.21
542.72	1897.56
543.08	1909.23
543.44	1921.55
543.79	1932.67
544.15	1943.63
544.51	1955.15
544.87	1966.08
545.22	1976.84
545.58	1986.96
545.94	1996.68
546.29	2006.36
546.65	2016.29
547.01	2025.38
547.36	2034.04
547.72	2042.40
548.07	2050.34
548.43	2058.63
548.79	2066.61
549.14	2074.14
549.50	2081.49
549.86	2089.04
550.21	2096.28
550.57	2103.37
550.92	2110.00
551.28	2117.04
551.64	2123.98
551.99	2130.52
552.35	2136.73
552.70	2142.84
553.06	2148.85
553.41	2155.19
553.77	2161.18
554.13	2167.18
554.48	2173.33
554.84	2178.86
555.19	2184.22
555.55	2189.37
555.90	2193.73
556.26	2198.75
556.61	2203.44
556.97	2207.70
557.32	2211.86
557.68	2216.01
558.03	2220.37
558.39	2223.84
558.74	2228.45
559.10	2232.27
559.45	2236.01
559.81	2240.13
560.16	2243.90
560.52	2247.15
560.87	2250.60
561.23	2253.22
561.58	2256.11
561.94	2258.66
562.29	2260.86
562.64	2263.57
563.00	2266.09
563.35	2269.64
563.71	2272.75
564.06	2276.08
564.42	2279.08
564.77	2281.73
565.12	2284.18
565.48	2286.12
565.83	2288.14
566.19	2289.52
566.54	2290.49
566.89	2291.58
567.25	2292.28
567.60	2293.65
567.96	2295.41
568.31	2296.12
568.66	2297.39
569.02	2297.97
569.37	2298.41
569.72	2299.50
570.08	2299.71
570.43	2299.75
570.78	2299.18
571.14	2297.60
571.49	2296.26
571.84	2295.89
572.20	2294.63
572.55	2293.53
572.90	2291.90
573.26	2290.55
573.61	2288.91
573.96	2287.23
574.31	2284.41
574.67	2281.49
575.02	2277.91
575.37	2274.49
575.72	2270.86
576.08	2267.43
576.43	2264.06
576.78	2260.34
577.13	2257.07
577.49	2253.98
577.84	2250.52
578.19	2246.75
578.54	2243.23
578.90	2239.11
579.25	2233.59
579.60	2228.79
579.95	2223.71
580.30	2218.71
580.66	2213.55
581.01	2208.54
581.36	2203.56
581.71	2199.30
582.06	2194.95
582.42	2190.50
582.77	2185.25
583.12	2180.64
583.47	2176.09
583.82	2171.25
584.17	2166.01
584.53	2160.53
584.88	2154.81
585.23	2149.10
585.58	2143.74
585.93	2138.18
586.28	2133.34
586.63	2128.30
586.98	2123.12
587.34	2118.37
587.69	2113.57
588.04	2108.36
588.39	2102.73
588.74	2096.26
589.09	2090.18
589.44	2083.24
589.79	2077.18
590.14	2071.53
590.49	2065.04
590.84	2058.54
591.19	2052.48
591.54	2046.18
591.89	2038.94
592.25	2032.17
592.60	2024.96
592.95	2017.41
593.30	2010.20
593.65	2002.64
594.00	1995.57
594.35	1988.44
594.70	1980.46
595.05	1973.41
595.40	1966.11
595.75	1958.53
596.10	1952.43
596.45	1945.75
596.80	1939.74
597.15	1933.20
597.50	1926.12
597.85	1919.70
598.19	1913.16
598.54	1906.13
598.89	1899.42
599.24	1893.34
599.59	1886.62
599.94	1880.51
600.29	1874.15
600.64	1867.56
600.99	1860.01
601.34	1853.22
601.69	1846.24
602.04	1839.41
602.39	1832.11
602.74	1825.42
603.08	1818.78
603.43	1812.09
603.78	1804.76
604.13	1797.52
604.48	1790.24
604.83	1783.52
605.18	1776.61
605.53	1768.62
605.87	1760.63
606.22	1753.29
606.57	1745.42
606.92	1738.27
607.27	1731.05
607.62	1724.24
607.96	1716.99
608.31	1710.60
608.66	1703.01
609.01	1695.56
609.36	1688.05
609.70	1679.93
610.05	1671.89
610.40	1664.22
610.75	1655.83
611.10	1648.13
611.44	1639.71
611.79	1631.70
612.14	1623.01
612.49	1613.81
612.83	1605.39
613.18	1597.38
613.53	1589.54
613.88	1581.03
614.22	1572.67
614.57	1564.11
614.92	1555.96
615.27	1548.44
615.61	1540.11
615.96	1532.01
616.31	1524.31
616.65	1516.92
617.00	1509.42
617.35	1501.66
617.70	1493.44
618.04	1485.01
618.39	1476.79
618.74	1469.20
619.08	1460.95
619.43	1453.37
619.78	1446.51
620.12	1439.40
620.47	1431.73
620.82	1423.52
621.16	1416.15
621.51	1408.51
621.85	1400.89
622.20	1392.40
622.55	1383.90
622.89	1376.04
623.24	1368.54
623.59	1361.18
623.93	1353.64
624.28	1346.37
624.62	1338.86
624.97	1331.57
625.32	1324.69
625.66	1317.60
626.01	1310.43
626.35	1302.95
626.70	1295.17
627.04	1287.35
627.39	1279.57
627.73	1272.16
628.08	1265.11
628.43	1257.77
628.77	1250.42
629.12	1242.76
629.46	1235.62
629.81	1228.17
630.15	1220.93
630.50	1213.42
630.84	1205.17
631.19	1197.17
631.53	1189.62
631.88	1182.04
632.22	1174.34
632.57	1167.03
632.91	1159.57
633.26	1152.19
633.60	1144.83
633.95	1137.67
634.29	1130.58
634.64	1123.86
634.98	1116.47
635.32	1109.31
635.67	1102.71
636.01	1096.06
636.36	1089.35
636.70	1082.81
637.05	1076.34
637.39	1069.84
637.73	1063.41
638.08	1057.52
638.42	1051.57
638.77	1045.11
639.11	1038.53
639.45	1032.19
639.80	1025.49
640.14	1019.06
640.49	1012.46
640.83	1006.19
641.17	1000.03
641.52	993.69
641.86	987.20
642.20	981.31
642.55	975.05
642.89	968.60
643.23	962.13
643.58	956.31
643.92	950.13
644.26	944.07
644.61	938.06
644.95	932.02
645.29	925.45
645.64	918.73
645.98	912.44
646.32	906.64
646.66	900.70
647.01	894.98
647.35	889.21
647.69	883.38
648.04	877.77
648.38	871.87
648.72	865.93
649.06	859.94
649.41	854.16
649.75	848.21
650.09	842.29
650.43	836.51
650.78	830.46
651.12	824.58
651.46	818.86
651.80	813.02
652.14	807.65
652.49	802.25
652.83	797.11
653.17	791.43
653.51	785.71
653.85	780.23
654.20	774.63
654.54	768.69
654.88	763.02
655.22	757.17
655.56	751.63
655.90	746.17
656.25	740.95
656.59	735.58
656.93	730.51
657.27	725.29
657.61	719.79
657.95	714.68
658.29	709.61
658.64	704.34
658.98	699.13
659.32	693.68
659.66	688.57
660.00	683.26
660.34	678.32
660.68	673.39
661.02	668.40
661.36	663.63
661.70	659.10
662.05	654.71
662.39	650.41
662.73	645.91
663.07	641.58
663.41	637.09
663.75	632.63
664.09	628.05
664.43	623.67
664.77	619.61
665.11	615.36
665.45	611.13
665.79	607.05
666.13	602.93
666.47	598.76
666.81	594.62
667.15	590.48
667.49	586.56
667.83	582.72
668.17	578.81
668.51	574.83
668.85	570.77
669.19	566.93
669.53	563.12
669.87	559.21
670.21	555.41
670.55	551.80
670.89	548.31
671.23	544.87
671.57	541.34
671.91	537.77
672.25	534.21
672.58	530.71
672.92	527.25
673.26	524.01
673.60	520.88
673.94	517.67
674.28	514.75
674.62	511.84
674.96	508.72
675.30	505.78
675.64	502.81
675.97	500.08
676.31	497.22
676.65	494.25
676.99	491.60
677.33	488.79
677.67	485.95
678.01	482.90
678.34	479.88
678.68	477.03
679.02	474.21
679.36	471.41
679.70	468.70
680.04	466.00
680.37	463.17
680.71	460.33
681.05	457.71
681.39	455.00
681.73	452.31
682.06	449.80
682.40	447.25
682.74	444.73
683.08	442.19
683.42	439.58
683.75	437.06
684.09	434.49
684.43	432.03
684.77	429.55
685.10	427.23
685.44	424.93
685.78	422.66
686.12	420.43
686.45	418.20
686.79	415.90
687.13	413.65
687.46	411.50
687.80	409.37
688.14	407.14
688.48	405.16
688.81	402.94
689.15	400.80
689.49	398.65
689.82	396.58
690.16	394.47
690.50	392.51
690.83	390.57
691.17	388.56
691.51	386.66
691.84	384.83
692.18	382.85
692.52	380.89
692.85	378.93
693.19	377.09
693.52	375.21
693.86	373.36
694.20	371.60
694.53	369.82
694.87	368.01
695.21	366.28
695.54	364.42
695.88	362.69
696.21	360.94
696.55	359.29
696.88	357.58
697.22	355.89
697.56	354.29
697.89	352.67
698.23	351.11
698.56	349.47
698.90	347.90
699.23	346.34
699.57	344.82
699.90	343.27
700.24	341.71
700.58	340.20
700.91	338.78
701.25	337.34
701.58	335.99
701.92	334.64
702.25	333.25
702.59	331.89
702.92	330.57
703.26	329.30
703.59	327.98
703.93	326.81
704.26	325.62
704.60	324.35
704.93	323.08
705.26	321.79
705.60	320.64
705.93	319.47
706.27	318.41
706.60	317.35
706.94	316.29
707.27	315.16
707.61	314.12
707.94	313.04
708.27	311.98
708.61	310.90
708.94	309.86
709.28	308.88
709.61	307.90
709.94	306.93
710.28	305.87
710.61	304.89
710.95	303.80
711.28	302.86
711.61	301.90
711.95	300.97
712.28	300.03
712.61	299.00
712.95	298.04
713.28	297.14
713.61	296.21
713.95	295.37
714.28	294.53
714.61	293.65
714.95	292.81
715.28	291.94
715.61	291.05
715.95	290.19
716.28	289.32
716.61	288.47
716.95	287.68
717.28	286.97
717.61	286.20
717.94	285.47
718.28	284.66
718.61	283.90
718.94	283.18
719.27	282.54
719.61	281.91
719.94	281.25
720.27	280.50
720.60	279.86
720.94	279.20
721.27	278.55
721.60	277.96
721.93	277.35
722.27	276.78
722.60	276.22
722.93	275.67
723.26	275.18
723.59	274.60
723.93	273.99
724.26	273.42
724.59	272.86
724.92	272.36
725.25	271.85
725.59	271.31
725.92	270.79
726.25	270.24
726.58	269.75
726.91	269.26
727.24	268.81
727.57	268.28
727.91	267.75
728.24	267.30
728.57	266.80
728.90	266.32
729.23	265.81
729.56	265.38
729.89	264.89
730.22	264.35
730.55	263.90
730.89	263.50
731.22	263.02
731.55	262.62
731.88	262.16
732.21	261.74
732.54	261.33
732.87	260.94
733.20	260.55
733.53	260.17
733.86	259.78
734.19	259.40
734.52	259.05
734.85	258.77
735.18	258.37
735.51	258.02
735.84	257.65
736.17	257.29
736.50	256.86
736.83	256.63
737.16	256.34
737.49	255.99
737.82	255.60
738.15	255.31
738.48	254.94
738.81	254.63
739.14	254.29
739.47	253.98
739.80	253.68
740.13	253.38
740.46	253.05
740.79	252.71
741.12	252.39
741.45	252.05
741.78	251.70
742.11	251.44
742.44	251.13
742.77	250.85
743.10	250.58
743.43	250.31
743.75	249.91
744.08	249.76
744.41	249.51
744.74	249.27
745.07	248.95
745.40	248.71
745.73	248.46
746.06	248.22
746.39	247.94
746.71	247.65
747.04	247.37
747.37	247.12
747.70	246.89
748.03	246.65
748.36	246.48
748.68	246.21
749.01	245.93
749.34	245.72
749.67	245.48
750.00	245.27
750.33	245.10
750.65	244.89
750.98	244.53
751.31	244.30
751.64	244.10
751.97	243.95
752.29	243.74
752.62	243.46
752.95	243.23
753.28	243.04
753.60	242.83
753.93	242.67
754.26	242.47
754.59	242.28
754.91	242.06
755.24	241.86
755.57	241.68
755.90	241.53
756.22	241.34
756.55	241.13
756.88	240.95
757.20	240.72
757.53	240.55
757.86	240.36
758.19	240.21
758.51	240.04
758.84	239.83
759.17	239.66
759.49	239.51
759.82	239.40
760.15	239.21
760.47	239.10
760.80	238.91
761.13	238.77
761.45	238.57
761.78	238.42
762.11	238.26
762.43	238.10
762.76	237.94
763.08	237.81
763.41	237.67
763.74	237.53
764.06	237.40
764.39	237.22
764.71	237.10
765.04	236.96
765.37	236.80
765.69	236.68
766.02	236.57
766.34	236.47
766.67	236.31
767.00	236.24
767.32	236.18
767.65	236.13
767.97	236.04
768.30	235.99
768.62	235.90
768.95	235.75
769.27	235.65
769.60	235.53
769.92	235.40
770.25	235.31
770.57	235.18
770.90	235.08
771.22	235.02
771.55	234.93
771.87	234.88
772.20	234.81
772.52	234.80
772.85	234.81
773.17	234.71
773.50	234.67
773.82	234.55
774.15	234.41
774.47	234.26
774.80	234.14
775.12	234.01
775.45	233.93
775.77	233.88
776.09	233.82
776.42	233.76
776.74	233.68
777.07	233.59
777.39	233.55
777.72	233.44
778.04	233.35
778.36	233.27
778.69	233.19
779.01	233.11
779.33	232.95
779.66	232.76
779.98	232.70
780.31	232.60
780.63	232.60
780.95	232.52
781.28	232.45
781.60	232.38
781.92	232.29
782.25	232.23
782.57	232.14
782.89	232.02
783.22	231.92
783.54	231.87
783.86	231.80
784.19	231.71
784.51	231.69
784.83	231.65
785.16	231.59
785.48	231.51
785.80	231.46
786.12	231.43
786.45	231.39
786.77	231.33
787.09	231.24
