SpectraSuite Data File
++++++++++++++++++++++++++++++++++++
Date: Fri Feb 01 15:48:46 EST 2013
User: group
Dark Spectrum Present: No
Reference Spectrum Present: No
Number of Sampled Component Spectra: 1
Spectrometers: USB2E7196
Integration Time (usec): 35000 (USB2E7196)
Spectra Averaged: 100 (USB2E7196)
Boxcar Smoothing: 10 (USB2E7196)
Correct for Electrical Dark: No (USB2E7196)
Strobe/Lamp Enabled: No (USB2E7196)
Correct for Detector Non-linearity: No (USB2E7196)
Correct for Stray Light: No (USB2E7196)
Number of Pixels in Processed Spectrum: 2048
>>>>>Begin Processed Spectral Data<<<<<
339.09	0.00
339.48	214.84
339.86	216.17
340.24	218.00
340.63	219.23
341.01	222.29
341.39	221.84
341.78	222.96
342.16	224.82
342.54	225.41
342.93	213.45
343.31	224.23
343.69	224.78
344.07	225.26
344.46	225.66
344.84	226.03
345.22	226.26
345.60	226.51
345.99	226.71
346.37	226.84
346.75	226.90
347.13	226.94
347.52	227.00
347.90	227.07
348.28	227.09
348.66	227.11
349.05	227.12
349.43	227.15
349.81	227.18
350.19	227.23
350.57	227.27
350.96	227.33
351.34	227.42
351.72	227.49
352.10	227.57
352.48	227.66
352.87	227.72
353.25	227.78
353.63	227.83
354.01	227.92
354.39	227.99
354.77	228.05
355.15	228.13
355.54	228.19
355.92	228.21
356.30	228.27
356.68	228.40
357.06	228.45
357.44	228.52
357.82	228.58
358.20	228.60
358.58	228.65
358.97	228.76
359.35	228.84
359.73	228.91
360.11	228.96
360.49	229.00
360.87	229.06
361.25	229.07
361.63	229.14
362.01	229.16
362.39	229.15
362.77	229.21
363.15	229.23
363.53	229.23
363.91	229.25
364.29	229.29
364.67	229.19
365.05	229.23
365.43	229.23
365.81	229.24
366.19	229.27
366.57	229.33
366.95	229.32
367.33	229.28
367.71	229.24
368.09	229.26
368.47	229.26
368.85	229.23
369.23	229.26
369.61	229.22
369.99	229.22
370.37	229.23
370.75	229.26
371.13	229.20
371.51	229.18
371.89	229.14
372.27	229.10
372.65	229.08
373.03	229.05
373.41	228.99
373.78	228.93
374.16	228.83
374.54	228.73
374.92	228.64
375.30	228.58
375.68	228.51
376.06	228.44
376.44	228.33
376.82	228.30
377.19	228.24
377.57	228.12
377.95	228.02
378.33	227.90
378.71	227.75
379.09	227.70
379.47	227.65
379.84	227.58
380.22	227.49
380.60	227.44
380.98	227.35
381.36	227.27
381.73	227.20
382.11	227.20
382.49	227.16
382.87	227.10
383.25	227.06
383.62	227.12
384.00	227.06
384.38	227.03
384.76	226.98
385.13	226.94
385.51	226.94
385.89	226.86
386.27	226.82
386.64	226.80
387.02	226.75
387.40	226.71
387.78	226.66
388.15	226.61
388.53	226.54
388.91	226.52
389.29	226.50
389.66	226.48
390.04	226.43
390.42	226.42
390.79	226.42
391.17	226.36
391.55	226.24
391.92	226.22
392.30	226.21
392.68	226.18
393.05	226.19
393.43	226.19
393.81	226.22
394.18	226.20
394.56	226.21
394.94	226.28
395.31	226.30
395.69	226.37
396.06	226.43
396.44	226.47
396.82	226.48
397.19	226.55
397.57	226.60
397.95	226.65
398.32	226.61
398.70	226.64
399.07	226.72
399.45	226.78
399.82	226.81
400.20	226.88
400.58	226.93
400.95	226.97
401.33	227.05
401.70	227.22
402.08	227.33
402.45	227.39
402.83	227.47
403.20	227.55
403.58	227.66
403.95	227.80
404.33	227.94
404.71	228.05
405.08	228.24
405.46	228.39
405.83	228.57
406.21	228.76
406.58	228.91
406.96	229.10
407.33	229.30
407.70	229.50
408.08	229.76
408.45	230.00
408.83	230.22
409.20	230.46
409.58	230.59
409.95	230.85
410.33	231.11
410.70	231.34
411.08	231.65
411.45	231.92
411.82	232.18
412.20	232.54
412.57	232.97
412.95	233.25
413.32	233.64
413.69	234.04
414.07	234.45
414.44	234.94
414.82	235.37
415.19	235.91
415.56	236.47
415.94	236.99
416.31	237.61
416.68	238.25
417.06	238.94
417.43	239.64
417.81	240.44
418.18	241.24
418.55	242.10
418.93	242.95
419.30	243.83
419.67	244.80
420.04	245.79
420.42	246.81
420.79	248.01
421.16	249.19
421.54	250.37
421.91	251.63
422.28	252.89
422.66	254.27
423.03	255.60
423.40	256.95
423.77	258.34
424.15	259.78
424.52	261.28
424.89	262.93
425.26	264.48
425.64	265.92
426.01	267.54
426.38	269.19
426.75	270.92
427.13	272.70
427.50	274.53
427.87	276.36
428.24	278.25
428.61	279.96
428.99	281.89
429.36	283.99
429.73	286.03
430.10	288.04
430.47	290.08
430.85	292.14
431.22	294.40
431.59	296.83
431.96	299.08
432.33	301.55
432.70	303.92
433.08	306.76
433.45	309.42
433.82	312.07
434.19	314.96
434.56	317.77
434.93	320.44
435.30	323.04
435.68	325.94
436.05	328.75
436.42	331.59
436.79	334.09
437.16	336.81
437.53	339.68
437.90	342.51
438.27	345.28
438.64	348.15
439.01	350.74
439.38	353.00
439.75	355.17
440.13	357.70
440.50	360.06
440.87	361.90
441.24	363.81
441.61	365.96
441.98	367.45
442.35	369.25
442.72	371.07
443.09	372.84
443.46	373.82
443.83	374.38
444.20	374.86
444.57	375.69
444.94	375.93
445.31	376.20
445.68	376.55
446.05	376.61
446.42	376.25
446.79	375.82
447.16	375.31
447.53	374.96
447.90	373.74
448.27	372.55
448.64	370.93
449.01	369.80
449.37	367.80
449.74	365.91
450.11	363.65
450.48	361.16
450.85	358.63
451.22	356.53
451.59	354.50
451.96	352.56
452.33	350.00
452.70	347.69
453.07	344.85
453.43	341.95
453.80	339.21
454.17	336.48
454.54	333.93
454.91	331.25
455.28	328.61
455.65	326.12
456.02	323.68
456.38	321.51
456.75	318.84
457.12	316.59
457.49	314.31
457.86	312.14
458.23	310.30
458.59	308.29
458.96	306.22
459.33	304.38
459.70	302.50
460.07	300.97
460.43	299.24
460.80	297.64
461.17	296.19
461.54	294.66
461.91	293.26
462.27	291.80
462.64	290.55
463.01	289.19
463.38	287.89
463.74	286.49
464.11	285.35
464.48	284.35
464.85	283.28
465.21	282.45
465.58	281.52
465.95	280.40
466.32	279.47
466.68	278.50
467.05	277.59
467.42	276.71
467.78	275.75
468.15	274.89
468.52	274.29
468.88	273.44
469.25	272.66
469.62	272.03
469.98	271.40
470.35	270.76
470.72	270.18
471.08	269.57
471.45	269.05
471.82	268.51
472.18	267.91
472.55	267.45
472.92	266.94
473.28	266.48
473.65	266.01
474.02	265.59
474.38	265.23
474.75	264.95
475.11	264.62
475.48	264.39
475.85	264.16
476.21	263.91
476.58	263.72
476.94	263.60
477.31	263.42
477.67	263.28
478.04	263.16
478.41	263.07
478.77	263.11
479.14	263.06
479.50	263.11
479.87	263.17
480.23	263.26
480.60	263.31
480.96	263.41
481.33	263.66
481.69	263.86
482.06	264.09
482.42	264.30
482.79	264.57
483.15	264.88
483.52	265.26
483.88	265.58
484.25	265.96
484.61	266.39
484.98	266.86
485.34	267.39
485.71	268.00
486.07	268.62
486.44	269.15
486.80	269.86
487.17	270.59
487.53	271.41
487.90	272.25
488.26	273.17
488.62	274.17
488.99	275.14
489.35	276.18
489.72	277.27
490.08	278.44
490.44	279.67
490.81	281.01
491.17	282.34
491.54	283.84
491.90	285.40
492.26	287.04
492.63	288.78
492.99	290.57
493.36	292.45
493.72	294.50
494.08	296.62
494.45	298.85
494.81	301.22
495.17	303.64
495.54	306.21
495.90	308.92
496.26	311.71
496.63	314.70
496.99	317.78
497.35	321.06
497.72	324.46
498.08	327.95
498.44	331.61
498.80	335.53
499.17	339.55
499.53	343.66
499.89	348.05
500.26	352.56
500.62	357.20
500.98	362.16
501.34	367.20
501.71	372.50
502.07	377.95
502.43	383.51
502.79	389.34
503.16	395.35
503.52	401.60
503.88	408.06
504.24	414.65
504.60	421.56
504.97	428.68
505.33	435.99
505.69	443.69
506.05	451.47
506.41	459.33
506.78	467.51
507.14	476.02
507.50	484.68
507.86	493.67
508.22	502.89
508.59	512.09
508.95	521.72
509.31	531.60
509.67	541.73
510.03	552.06
510.39	562.60
510.75	573.40
511.12	584.28
511.48	595.56
511.84	607.00
512.20	618.48
512.56	630.45
512.92	642.66
513.28	655.00
513.64	667.49
514.00	680.11
514.37	693.02
514.73	706.07
515.09	719.16
515.45	732.45
515.81	746.03
516.17	760.04
516.53	774.10
516.89	788.23
517.25	802.35
517.61	816.74
517.97	831.19
518.33	845.71
518.69	860.46
519.05	875.40
519.41	890.69
519.77	906.20
520.13	921.66
520.49	937.03
520.85	952.52
521.21	968.32
521.57	984.65
521.93	1000.43
522.29	1016.86
522.65	1033.19
523.01	1049.48
523.37	1065.56
523.73	1081.67
524.09	1097.80
524.45	1114.06
524.81	1130.71
525.17	1147.53
525.53	1164.45
525.89	1181.33
526.25	1198.15
526.61	1214.51
526.97	1231.17
527.33	1247.64
527.68	1264.24
528.04	1280.74
528.40	1297.28
528.76	1314.29
529.12	1330.88
529.48	1347.75
529.84	1363.64
530.20	1380.17
530.56	1397.13
530.91	1414.62
531.27	1431.30
531.63	1447.76
531.99	1464.40
532.35	1480.28
532.71	1496.25
533.07	1512.51
533.42	1528.35
533.78	1544.44
534.14	1560.70
534.50	1575.96
534.86	1591.90
535.21	1607.07
535.57	1623.02
535.93	1638.58
536.29	1653.35
536.65	1668.35
537.00	1683.11
537.36	1698.47
537.72	1712.93
538.08	1727.27
538.44	1741.03
538.79	1755.11
539.15	1768.72
539.51	1782.41
539.87	1796.81
540.22	1810.51
540.58	1824.27
540.94	1837.67
541.29	1850.53
541.65	1863.17
542.01	1876.50
542.37	1888.72
542.72	1901.06
543.08	1912.78
543.44	1925.19
543.79	1936.35
544.15	1947.50
544.51	1958.99
544.87	1969.81
545.22	1980.69
545.58	1990.88
545.94	2000.56
546.29	2010.28
546.65	2020.10
547.01	2029.36
547.36	2038.09
547.72	2046.39
548.07	2054.18
548.43	2062.27
548.79	2070.43
549.14	2077.98
549.50	2085.34
549.86	2093.02
550.21	2100.46
550.57	2107.62
550.92	2114.10
551.28	2121.13
551.64	2128.17
551.99	2134.78
552.35	2141.05
552.70	2147.18
553.06	2153.19
553.41	2159.53
553.77	2165.64
554.13	2171.87
554.48	2177.98
554.84	2183.33
555.19	2188.81
555.55	2193.93
555.90	2198.31
556.26	2203.07
556.61	2207.84
556.97	2212.00
557.32	2216.25
557.68	2220.35
558.03	2224.65
558.39	2228.36
558.74	2233.03
559.10	2236.79
559.45	2240.35
559.81	2244.76
560.16	2248.63
560.52	2251.69
560.87	2255.12
561.23	2257.80
561.58	2260.65
561.94	2263.23
562.29	2265.71
562.64	2268.25
563.00	2270.83
563.35	2274.48
563.71	2277.66
564.06	2280.95
564.42	2283.89
564.77	2286.40
565.12	2288.64
565.48	2290.51
565.83	2292.46
566.19	2293.67
566.54	2294.61
566.89	2295.70
567.25	2296.20
567.60	2297.46
567.96	2299.45
568.31	2300.31
568.66	2301.37
569.02	2301.91
569.37	2302.17
569.72	2303.10
570.08	2303.21
570.43	2303.24
570.78	2302.49
571.14	2300.71
571.49	2299.43
571.84	2299.07
572.20	2297.71
572.55	2296.66
572.90	2295.05
573.26	2293.60
573.61	2292.05
573.96	2290.19
574.31	2287.35
574.67	2284.49
575.02	2280.86
575.37	2277.51
575.72	2273.69
576.08	2270.48
576.43	2267.11
576.78	2263.53
577.13	2260.25
577.49	2257.27
577.84	2253.79
578.19	2250.25
578.54	2246.60
578.90	2242.28
579.25	2236.67
579.60	2231.73
579.95	2226.73
580.30	2221.85
580.66	2216.59
581.01	2211.73
581.36	2206.85
581.71	2202.60
582.06	2198.02
582.42	2193.49
582.77	2187.92
583.12	2183.30
583.47	2178.36
583.82	2173.44
584.17	2168.21
584.53	2162.70
584.88	2156.99
585.23	2151.31
585.58	2145.59
585.93	2140.29
586.28	2135.43
586.63	2130.40
586.98	2125.50
587.34	2120.62
587.69	2115.73
588.04	2110.54
588.39	2104.70
588.74	2098.27
589.09	2092.17
589.44	2085.32
589.79	2079.42
590.14	2074.08
590.49	2067.57
590.84	2061.22
591.19	2055.13
591.54	2048.53
591.89	2041.27
592.25	2034.49
592.60	2027.23
592.95	2019.82
593.30	2012.47
593.65	2004.88
594.00	1997.89
594.35	1990.45
594.70	1982.47
595.05	1975.11
595.40	1967.79
595.75	1960.39
596.10	1954.10
596.45	1947.33
596.80	1941.30
597.15	1934.52
597.50	1927.22
597.85	1920.68
598.19	1913.96
598.54	1906.85
598.89	1900.27
599.24	1894.32
599.59	1887.50
599.94	1881.21
600.29	1874.79
600.64	1868.21
600.99	1860.83
601.34	1853.86
601.69	1847.14
602.04	1840.35
602.39	1832.96
602.74	1826.10
603.08	1819.24
603.43	1812.53
603.78	1805.23
604.13	1797.88
604.48	1790.55
604.83	1783.76
605.18	1776.74
605.53	1768.74
605.87	1760.78
606.22	1753.54
606.57	1745.63
606.92	1738.35
607.27	1731.23
607.62	1724.32
607.96	1717.08
608.31	1710.33
608.66	1702.77
609.01	1695.03
609.36	1687.46
609.70	1679.42
610.05	1671.31
610.40	1663.58
610.75	1655.27
611.10	1647.49
611.44	1639.21
611.79	1631.37
612.14	1622.58
612.49	1613.53
612.83	1605.22
613.18	1597.08
613.53	1588.84
613.88	1580.18
614.22	1572.00
614.57	1563.35
614.92	1555.34
615.27	1547.67
615.61	1539.35
615.96	1531.27
616.31	1523.69
616.65	1516.35
617.00	1508.89
617.35	1501.29
617.70	1492.91
618.04	1484.35
618.39	1476.21
618.74	1468.40
619.08	1460.03
619.43	1452.51
619.78	1445.62
620.12	1438.49
620.47	1430.99
620.82	1422.92
621.16	1415.54
621.51	1407.87
621.85	1400.31
622.20	1391.75
622.55	1383.39
622.89	1375.64
623.24	1368.06
623.59	1360.65
623.93	1352.98
624.28	1345.71
624.62	1338.14
624.97	1331.00
625.32	1324.34
625.66	1317.33
626.01	1310.19
626.35	1302.72
626.70	1295.05
627.04	1287.20
627.39	1279.38
627.73	1271.89
628.08	1264.98
628.43	1257.66
628.77	1250.20
629.12	1242.56
629.46	1235.40
629.81	1228.12
630.15	1220.88
630.50	1213.53
630.84	1205.37
631.19	1197.52
631.53	1190.14
631.88	1182.66
632.22	1175.10
632.57	1167.70
632.91	1160.17
633.26	1152.74
633.60	1145.49
633.95	1138.43
634.29	1131.44
634.64	1124.75
634.98	1117.44
635.32	1110.34
635.67	1103.74
636.01	1097.22
636.36	1090.37
636.70	1083.97
637.05	1077.31
637.39	1070.87
637.73	1064.28
638.08	1058.45
638.42	1052.48
638.77	1045.84
639.11	1039.19
639.45	1032.76
639.80	1026.09
640.14	1019.78
640.49	1013.28
640.83	1006.83
641.17	1000.49
641.52	994.14
641.86	987.67
642.20	981.82
642.55	975.52
642.89	969.05
643.23	962.53
643.58	956.84
643.92	950.51
644.26	944.41
644.61	938.35
644.95	932.34
645.29	925.70
645.64	918.98
645.98	912.78
646.32	906.99
646.66	900.93
647.01	895.14
647.35	889.35
647.69	883.53
648.04	878.08
648.38	872.30
648.72	866.25
649.06	860.20
649.41	854.27
649.75	848.28
650.09	842.35
650.43	836.54
650.78	830.43
651.12	824.53
651.46	818.81
651.80	813.00
652.14	807.67
652.49	802.34
652.83	797.10
653.17	791.37
653.51	785.62
653.85	780.30
654.20	774.63
654.54	768.58
654.88	762.84
655.22	756.94
655.56	751.28
655.90	745.91
656.25	740.60
656.59	735.25
656.93	730.20
657.27	724.99
657.61	719.48
657.95	714.36
658.29	709.29
658.64	704.12
658.98	698.86
659.32	693.29
659.66	688.05
660.00	682.79
660.34	677.77
660.68	672.86
661.02	667.79
661.36	663.19
661.70	658.68
662.05	654.34
662.39	650.01
662.73	645.44
663.07	640.98
663.41	636.58
663.75	632.11
664.09	627.53
664.43	623.16
664.77	619.10
665.11	614.85
665.45	610.75
665.79	606.63
666.13	602.48
666.47	598.45
666.81	594.25
667.15	590.11
667.49	586.25
667.83	582.42
668.17	578.51
668.51	574.34
668.85	570.39
669.19	566.49
669.53	562.58
669.87	558.77
670.21	555.11
670.55	551.46
670.89	548.07
671.23	544.63
671.57	541.16
671.91	537.58
672.25	534.12
672.58	530.57
672.92	527.14
673.26	524.04
673.60	520.87
673.94	517.79
674.28	514.89
674.62	511.96
674.96	508.86
675.30	505.91
675.64	503.00
675.97	500.16
676.31	497.34
676.65	494.43
676.99	491.73
677.33	488.91
677.67	486.15
678.01	483.09
678.34	480.10
678.68	477.21
679.02	474.42
679.36	471.67
679.70	468.94
680.04	466.22
680.37	463.28
680.71	460.49
681.05	457.90
681.39	455.19
681.73	452.54
682.06	450.04
682.40	447.57
682.74	445.06
683.08	442.53
683.42	439.91
683.75	437.49
684.09	434.94
684.43	432.43
684.77	429.94
685.10	427.61
685.44	425.34
685.78	423.04
686.12	420.78
686.45	418.43
686.79	416.15
687.13	413.89
687.46	411.75
687.80	409.61
688.14	407.36
688.48	405.32
688.81	403.04
689.15	400.86
689.49	398.65
689.82	396.56
690.16	394.47
690.50	392.53
690.83	390.49
691.17	388.54
691.51	386.62
691.84	384.81
692.18	382.88
692.52	380.88
692.85	378.94
693.19	377.01
693.52	375.21
693.86	373.41
694.20	371.67
694.53	369.87
694.87	368.01
695.21	366.20
695.54	364.38
695.88	362.70
696.21	360.96
696.55	359.29
696.88	357.58
697.22	355.92
697.56	354.30
697.89	352.68
698.23	351.03
698.56	349.41
698.90	347.78
699.23	346.10
699.57	344.51
699.90	342.99
700.24	341.44
700.58	339.90
700.91	338.38
701.25	336.88
701.58	335.49
701.92	334.15
702.25	332.79
702.59	331.37
702.92	330.02
703.26	328.74
703.59	327.47
703.93	326.32
704.26	325.07
704.60	323.74
704.93	322.49
705.26	321.23
705.60	320.08
705.93	318.94
706.27	317.90
706.60	316.86
706.94	315.77
707.27	314.69
707.61	313.64
707.94	312.62
708.27	311.58
708.61	310.51
708.94	309.52
709.28	308.52
709.61	307.58
709.94	306.64
710.28	305.61
710.61	304.63
710.95	303.54
711.28	302.63
711.61	301.72
711.95	300.82
712.28	299.88
712.61	298.90
712.95	297.98
713.28	297.13
713.61	296.22
713.95	295.39
714.28	294.57
714.61	293.77
714.95	292.94
715.28	292.05
715.61	291.20
715.95	290.35
716.28	289.52
716.61	288.69
716.95	287.90
717.28	287.21
717.61	286.47
717.94	285.77
718.28	285.01
718.61	284.28
718.94	283.58
719.27	282.95
719.61	282.31
719.94	281.66
720.27	280.94
720.60	280.34
720.94	279.71
721.27	279.08
721.60	278.45
721.93	277.84
722.27	277.32
722.60	276.78
722.93	276.20
723.26	275.69
723.59	275.15
723.93	274.58
724.26	273.98
724.59	273.41
724.92	272.87
725.25	272.34
725.59	271.80
725.92	271.30
726.25	270.80
726.58	270.28
726.91	269.78
727.24	269.33
727.57	268.83
727.91	268.29
728.24	267.84
728.57	267.40
728.90	266.94
729.23	266.45
729.56	266.00
729.89	265.52
730.22	265.04
730.55	264.61
730.89	264.14
731.22	263.68
731.55	263.27
731.88	262.84
732.21	262.44
732.54	262.05
732.87	261.56
733.20	261.16
733.53	260.81
733.86	260.43
734.19	260.01
734.52	259.64
734.85	259.33
735.18	258.92
735.51	258.50
735.84	258.13
736.17	257.76
736.50	257.37
736.83	257.12
737.16	256.74
737.49	256.36
737.82	256.04
738.15	255.72
738.48	255.35
738.81	255.02
739.14	254.67
739.47	254.33
739.80	254.06
740.13	253.77
740.46	253.39
740.79	253.06
741.12	252.75
741.45	252.39
741.78	252.04
742.11	251.74
742.44	251.43
742.77	251.15
743.10	250.86
743.43	250.55
743.75	250.18
744.08	250.06
744.41	249.78
744.74	249.52
745.07	249.23
745.40	249.00
745.73	248.75
746.06	248.46
746.39	248.21
746.71	247.92
747.04	247.61
747.37	247.39
747.70	247.14
748.03	246.89
748.36	246.71
748.68	246.46
749.01	246.19
749.34	245.96
749.67	245.71
750.00	245.46
750.33	245.33
750.65	245.10
750.98	244.78
751.31	244.58
751.64	244.36
751.97	244.19
752.29	243.96
752.62	243.72
752.95	243.49
753.28	243.25
753.60	243.07
753.93	242.87
754.26	242.70
754.59	242.43
754.91	242.24
755.24	242.01
755.57	241.86
755.90	241.69
756.22	241.52
756.55	241.33
756.88	241.15
757.20	240.92
757.53	240.72
757.86	240.52
758.19	240.34
758.51	240.18
758.84	239.98
759.17	239.83
759.49	239.68
759.82	239.60
760.15	239.45
760.47	239.32
760.80	239.18
761.13	239.02
761.45	238.88
761.78	238.74
762.11	238.60
762.43	238.42
762.76	238.28
763.08	238.08
763.41	237.94
763.74	237.80
764.06	237.64
764.39	237.50
764.71	237.36
765.04	237.23
765.37	237.10
765.69	237.00
766.02	236.88
766.34	236.76
766.67	236.57
767.00	236.48
767.32	236.39
767.65	236.34
767.97	236.22
768.30	236.14
768.62	236.02
768.95	235.90
769.27	235.77
769.60	235.68
769.92	235.58
770.25	235.47
770.57	235.34
770.90	235.26
771.22	235.17
771.55	235.09
771.87	235.03
772.20	234.91
772.52	234.91
772.85	234.93
773.17	234.83
773.50	234.78
773.82	234.67
774.15	234.55
774.47	234.37
774.80	234.29
775.12	234.21
775.45	234.12
775.77	234.08
776.09	234.02
776.42	233.93
776.74	233.89
777.07	233.84
777.39	233.78
777.72	233.69
778.04	233.62
778.36	233.52
778.69	233.45
779.01	233.39
779.33	233.25
779.66	233.07
779.98	233.01
780.31	232.95
780.63	232.93
780.95	232.91
781.28	232.88
781.60	232.77
781.92	232.71
782.25	232.65
782.57	232.59
782.89	232.53
783.22	232.50
783.54	232.45
783.86	232.37
784.19	232.29
784.51	232.25
784.83	232.20
785.16	232.21
785.48	232.17
785.80	232.15
786.12	232.10
786.45	232.03
786.77	231.98
787.09	231.89
