SpectraSuite Data File
++++++++++++++++++++++++++++++++++++
Date: Fri Feb 01 16:59:32 EST 2013
User: group
Dark Spectrum Present: No
Reference Spectrum Present: No
Number of Sampled Component Spectra: 1
Spectrometers: USB2E7196
Integration Time (usec): 35000 (USB2E7196)
Spectra Averaged: 100 (USB2E7196)
Boxcar Smoothing: 10 (USB2E7196)
Correct for Electrical Dark: No (USB2E7196)
Strobe/Lamp Enabled: No (USB2E7196)
Correct for Detector Non-linearity: No (USB2E7196)
Correct for Stray Light: No (USB2E7196)
Number of Pixels in Processed Spectrum: 2048
>>>>>Begin Processed Spectral Data<<<<<
339.09	0.00
339.48	212.92
339.86	214.99
340.24	216.24
340.63	217.48
341.01	220.25
341.39	220.41
341.78	221.41
342.16	222.96
342.54	223.34
342.93	211.76
343.31	222.44
343.69	223.02
344.07	223.46
344.46	223.88
344.84	224.28
345.22	224.52
345.60	224.76
345.99	224.97
346.37	225.08
346.75	225.19
347.13	225.27
347.52	225.34
347.90	225.40
348.28	225.41
348.66	225.42
349.05	225.44
349.43	225.49
349.81	225.55
350.19	225.58
350.57	225.62
350.96	225.70
351.34	225.81
351.72	225.89
352.10	225.98
352.48	226.07
352.87	226.12
353.25	226.20
353.63	226.26
354.01	226.32
354.39	226.39
354.77	226.45
355.15	226.56
355.54	226.61
355.92	226.68
356.30	226.79
356.68	226.93
357.06	226.97
357.44	227.06
357.82	227.11
358.20	227.17
358.58	227.22
358.97	227.28
359.35	227.35
359.73	227.42
360.11	227.52
360.49	227.55
360.87	227.58
361.25	227.64
361.63	227.70
362.01	227.74
362.39	227.73
362.77	227.78
363.15	227.77
363.53	227.80
363.91	227.81
364.29	227.79
364.67	227.70
365.05	227.74
365.43	227.71
365.81	227.73
366.19	227.79
366.57	227.86
366.95	227.83
367.33	227.82
367.71	227.78
368.09	227.75
368.47	227.72
368.85	227.71
369.23	227.69
369.61	227.65
369.99	227.66
370.37	227.69
370.75	227.70
371.13	227.66
371.51	227.64
371.89	227.60
372.27	227.57
372.65	227.54
373.03	227.48
373.41	227.45
373.78	227.43
374.16	227.32
374.54	227.22
374.92	227.15
375.30	227.09
375.68	227.02
376.06	226.97
376.44	226.95
376.82	226.90
377.19	226.82
377.57	226.80
377.95	226.70
378.33	226.65
378.71	226.54
379.09	226.52
379.47	226.46
379.84	226.39
380.22	226.31
380.60	226.24
380.98	226.20
381.36	226.12
381.73	226.02
382.11	225.96
382.49	225.88
382.87	225.84
383.25	225.75
383.62	225.85
384.00	225.79
384.38	225.72
384.76	225.70
385.13	225.69
385.51	225.61
385.89	225.56
386.27	225.52
386.64	225.48
387.02	225.40
387.40	225.36
387.78	225.30
388.15	225.27
388.53	225.25
388.91	225.20
389.29	225.18
389.66	225.17
390.04	225.14
390.42	225.15
390.79	225.13
391.17	225.15
391.55	225.00
391.92	224.98
392.30	224.98
392.68	224.94
393.05	224.93
393.43	224.94
393.81	224.92
394.18	224.88
394.56	224.89
394.94	224.93
395.31	224.93
395.69	225.00
396.06	225.05
396.44	225.10
396.82	225.13
397.19	225.19
397.57	225.21
397.95	225.27
398.32	225.28
398.70	225.32
399.07	225.38
399.45	225.39
399.82	225.46
400.20	225.48
400.58	225.57
400.95	225.59
401.33	225.67
401.70	225.84
402.08	225.96
402.45	226.03
402.83	226.14
403.20	226.25
403.58	226.33
403.95	226.42
404.33	226.52
404.71	226.65
405.08	226.82
405.46	226.96
405.83	227.12
406.21	227.26
406.58	227.43
406.96	227.61
407.33	227.80
407.70	227.99
408.08	228.26
408.45	228.47
408.83	228.71
409.20	228.90
409.58	229.04
409.95	229.26
410.33	229.56
410.70	229.75
411.08	230.03
411.45	230.32
411.82	230.61
412.20	230.93
412.57	231.30
412.95	231.58
413.32	231.96
413.69	232.38
414.07	232.85
414.44	233.27
414.82	233.71
415.19	234.28
415.56	234.78
415.94	235.32
416.31	235.92
416.68	236.50
417.06	237.22
417.43	237.91
417.81	238.67
418.18	239.44
418.55	240.29
418.93	241.15
419.30	242.03
419.67	242.99
420.04	243.97
420.42	244.96
420.79	246.14
421.16	247.30
421.54	248.44
421.91	249.60
422.28	250.86
422.66	252.14
423.03	253.42
423.40	254.75
423.77	256.15
424.15	257.57
424.52	259.09
424.89	260.69
425.26	262.22
425.64	263.65
426.01	265.23
426.38	266.87
426.75	268.51
427.13	270.20
427.50	271.98
427.87	273.83
428.24	275.69
428.61	277.41
428.99	279.34
429.36	281.44
429.73	283.48
430.10	285.47
430.47	287.57
430.85	289.69
431.22	291.92
431.59	294.27
431.96	296.50
432.33	298.94
432.70	301.28
433.08	304.07
433.45	306.73
433.82	309.26
434.19	312.14
434.56	314.95
434.93	317.62
435.30	320.22
435.68	323.08
436.05	325.90
436.42	328.69
436.79	331.19
437.16	333.88
437.53	336.73
437.90	339.51
438.27	342.22
438.64	344.98
439.01	347.58
439.38	349.81
439.75	351.96
440.13	354.49
440.50	356.78
440.87	358.59
441.24	360.48
441.61	362.67
441.98	364.15
442.35	365.95
442.72	367.78
443.09	369.58
443.46	370.64
443.83	371.20
444.20	371.69
444.57	372.47
444.94	372.74
445.31	373.06
445.68	373.45
446.05	373.54
446.42	373.23
446.79	372.81
447.16	372.34
447.53	372.08
447.90	370.89
448.27	369.78
448.64	368.27
449.01	367.19
449.37	365.26
449.74	363.37
450.11	361.15
450.48	358.73
450.85	356.22
451.22	354.05
451.59	352.07
451.96	350.19
452.33	347.67
452.70	345.35
453.07	342.55
453.43	339.71
453.80	336.94
454.17	334.25
454.54	331.71
454.91	329.03
455.28	326.34
455.65	323.89
456.02	321.46
456.38	319.35
456.75	316.70
457.12	314.51
457.49	312.34
457.86	310.20
458.23	308.36
458.59	306.35
458.96	304.30
459.33	302.46
459.70	300.62
460.07	299.10
460.43	297.43
460.80	295.81
461.17	294.40
461.54	292.96
461.91	291.57
462.27	290.18
462.64	288.96
463.01	287.63
463.38	286.35
463.74	284.99
464.11	283.82
464.48	282.79
464.85	281.67
465.21	280.83
465.58	279.94
465.95	278.84
466.32	277.92
466.68	277.07
467.05	276.18
467.42	275.32
467.78	274.40
468.15	273.52
468.52	272.89
468.88	272.04
469.25	271.26
469.62	270.63
469.98	269.95
470.35	269.31
470.72	268.75
471.08	268.11
471.45	267.59
471.82	267.05
472.18	266.49
472.55	266.04
472.92	265.53
473.28	265.06
473.65	264.62
474.02	264.19
474.38	263.80
474.75	263.47
475.11	263.13
475.48	262.89
475.85	262.64
476.21	262.43
476.58	262.24
476.94	262.11
477.31	261.94
477.67	261.81
478.04	261.74
478.41	261.64
478.77	261.69
479.14	261.64
479.50	261.66
479.87	261.73
480.23	261.82
480.60	261.86
480.96	261.96
481.33	262.19
481.69	262.40
482.06	262.58
482.42	262.81
482.79	263.07
483.15	263.37
483.52	263.79
483.88	264.12
484.25	264.54
484.61	264.95
484.98	265.40
485.34	265.98
485.71	266.55
486.07	267.21
486.44	267.82
486.80	268.52
487.17	269.22
487.53	270.04
487.90	270.88
488.26	271.82
488.62	272.80
488.99	273.78
489.35	274.84
489.72	275.99
490.08	277.17
490.44	278.39
490.81	279.74
491.17	281.04
491.54	282.52
491.90	284.04
492.26	285.66
492.63	287.39
492.99	289.12
493.36	291.01
493.72	293.04
494.08	295.09
494.45	297.32
494.81	299.72
495.17	302.12
495.54	304.69
495.90	307.35
496.26	310.10
496.63	313.06
496.99	316.15
497.35	319.42
497.72	322.82
498.08	326.34
498.44	329.95
498.80	333.87
499.17	337.92
499.53	342.06
499.89	346.41
500.26	350.88
500.62	355.59
500.98	360.51
501.34	365.57
501.71	370.92
502.07	376.33
502.43	381.93
502.79	387.75
503.16	393.74
503.52	399.98
503.88	406.40
504.24	412.98
504.60	419.82
504.97	426.85
505.33	434.14
505.69	441.76
506.05	449.48
506.41	457.34
506.78	465.39
507.14	473.75
507.50	482.44
507.86	491.48
508.22	500.61
508.59	509.77
508.95	519.21
509.31	528.89
509.67	538.89
510.03	549.03
510.39	559.45
510.75	570.19
511.12	581.01
511.48	592.21
511.84	603.48
512.20	614.80
512.56	626.59
512.92	638.56
513.28	650.79
513.64	663.12
514.00	675.64
514.37	688.47
514.73	701.30
515.09	714.10
515.45	727.17
515.81	740.59
516.17	754.39
516.53	768.29
516.89	782.26
517.25	796.17
517.61	810.41
517.97	824.66
518.33	838.85
518.69	853.40
519.05	868.08
519.41	883.02
519.77	898.38
520.13	913.54
520.49	928.66
520.85	943.73
521.21	959.14
521.57	975.09
521.93	990.41
522.29	1006.46
522.65	1022.41
523.01	1038.24
523.37	1053.88
523.73	1069.70
524.09	1085.47
524.45	1101.37
524.81	1117.69
525.17	1134.10
525.53	1150.64
525.89	1167.20
526.25	1183.67
526.61	1199.76
526.97	1216.22
527.33	1232.35
527.68	1248.69
528.04	1264.84
528.40	1281.14
528.76	1297.92
529.12	1314.18
529.48	1330.87
529.84	1346.59
530.20	1362.92
530.56	1379.70
530.91	1396.79
531.27	1413.16
531.63	1429.28
531.99	1445.61
532.35	1461.28
532.71	1476.83
533.07	1492.74
533.42	1508.38
533.78	1524.18
534.14	1540.08
534.50	1555.13
534.86	1570.62
535.21	1585.43
535.57	1601.00
535.93	1616.15
536.29	1630.53
536.65	1645.25
537.00	1659.58
537.36	1674.69
537.72	1688.82
538.08	1702.86
538.44	1716.38
538.79	1730.01
539.15	1743.38
539.51	1756.75
539.87	1770.75
540.22	1784.22
540.58	1797.63
540.94	1810.55
541.29	1822.97
541.65	1835.40
542.01	1848.27
542.37	1860.37
542.72	1872.56
543.08	1884.17
543.44	1896.40
543.79	1907.47
544.15	1918.27
544.51	1929.64
544.87	1940.27
545.22	1951.01
545.58	1961.15
545.94	1970.68
546.29	1980.34
546.65	1990.00
547.01	1999.25
547.36	2007.85
547.72	2016.15
548.07	2023.85
548.43	2031.89
548.79	2039.76
549.14	2047.24
549.50	2054.53
549.86	2062.03
550.21	2069.24
550.57	2076.31
550.92	2082.73
551.28	2089.77
551.64	2096.69
551.99	2103.22
552.35	2109.37
552.70	2115.56
553.06	2121.34
553.41	2127.76
553.77	2133.73
554.13	2139.86
554.48	2145.96
554.84	2151.62
555.19	2156.87
555.55	2162.13
555.90	2166.72
556.26	2171.77
556.61	2176.55
556.97	2180.98
557.32	2185.21
557.68	2189.28
558.03	2193.63
558.39	2197.37
558.74	2202.06
559.10	2205.98
559.45	2209.67
559.81	2213.93
560.16	2217.61
560.52	2221.19
560.87	2224.48
561.23	2227.16
561.58	2230.18
561.94	2232.66
562.29	2234.95
562.64	2237.84
563.00	2240.44
563.35	2244.04
563.71	2247.25
564.06	2250.52
564.42	2253.41
564.77	2256.13
565.12	2258.62
565.48	2260.53
565.83	2262.70
566.19	2264.14
566.54	2265.25
566.89	2266.57
567.25	2267.37
567.60	2268.91
567.96	2270.59
568.31	2271.54
568.66	2273.09
569.02	2273.71
569.37	2274.19
569.72	2275.19
570.08	2275.53
570.43	2275.80
570.78	2275.34
571.14	2274.04
571.49	2272.83
571.84	2272.54
572.20	2271.55
572.55	2270.73
572.90	2269.26
573.26	2268.10
573.61	2266.50
573.96	2265.00
574.31	2262.36
574.67	2259.68
575.02	2256.26
575.37	2252.99
575.72	2249.64
576.08	2246.26
576.43	2243.18
576.78	2239.80
577.13	2236.89
577.49	2233.82
577.84	2230.57
578.19	2226.96
578.54	2223.59
578.90	2219.70
579.25	2214.46
579.60	2209.71
579.95	2204.93
580.30	2200.21
580.66	2195.07
581.01	2190.27
581.36	2185.47
581.71	2181.25
582.06	2176.87
582.42	2172.65
582.77	2167.69
583.12	2163.27
583.47	2158.78
583.82	2154.03
584.17	2149.12
584.53	2143.75
584.88	2138.43
585.23	2132.90
585.58	2127.66
585.93	2122.33
586.28	2117.54
586.63	2112.61
586.98	2107.81
587.34	2103.13
587.69	2098.45
588.04	2093.45
588.39	2088.05
588.74	2081.80
589.09	2076.07
589.44	2069.53
589.79	2063.53
590.14	2058.06
590.49	2051.63
590.84	2045.45
591.19	2039.49
591.54	2033.06
591.89	2025.95
592.25	2019.41
592.60	2012.43
592.95	2005.18
593.30	1998.00
593.65	1990.64
594.00	1983.86
594.35	1976.76
594.70	1969.02
595.05	1962.12
595.40	1955.01
595.75	1947.54
596.10	1941.59
596.45	1934.90
596.80	1928.97
597.15	1922.72
597.50	1915.91
597.85	1909.63
598.19	1903.10
598.54	1896.21
598.89	1889.76
599.24	1884.01
599.59	1877.49
599.94	1871.37
600.29	1865.02
600.64	1858.53
600.99	1851.26
601.34	1844.53
601.69	1837.54
602.04	1830.84
602.39	1823.57
602.74	1816.89
603.08	1810.50
603.43	1803.67
603.78	1796.51
604.13	1789.41
604.48	1782.14
604.83	1775.29
605.18	1768.55
605.53	1760.77
605.87	1752.89
606.22	1745.69
606.57	1737.81
606.92	1730.54
607.27	1723.49
607.62	1716.89
607.96	1709.74
608.31	1703.36
608.66	1695.82
609.01	1688.50
609.36	1681.10
609.70	1673.17
610.05	1665.24
610.40	1657.60
610.75	1649.51
611.10	1641.97
611.44	1633.56
611.79	1625.65
612.14	1617.12
612.49	1607.88
612.83	1599.46
613.18	1591.45
613.53	1583.42
613.88	1574.98
614.22	1566.72
614.57	1558.02
614.92	1549.87
615.27	1542.39
615.61	1534.03
615.96	1526.07
616.31	1518.44
616.65	1511.09
617.00	1503.59
617.35	1495.95
617.70	1487.72
618.04	1479.30
618.39	1471.02
618.74	1463.56
619.08	1455.31
619.43	1447.62
619.78	1440.83
620.12	1433.85
620.47	1426.45
620.82	1418.38
621.16	1410.95
621.51	1403.41
621.85	1395.90
622.20	1387.50
622.55	1379.16
622.89	1371.40
623.24	1363.78
623.59	1356.44
623.93	1348.84
624.28	1341.67
624.62	1334.21
624.97	1327.03
625.32	1320.07
625.66	1313.18
626.01	1306.05
626.35	1298.75
626.70	1291.04
627.04	1283.37
627.39	1275.60
627.73	1268.05
628.08	1261.11
628.43	1253.88
628.77	1246.62
629.12	1239.11
629.46	1231.90
629.81	1224.42
630.15	1217.21
630.50	1209.87
630.84	1201.68
631.19	1193.84
631.53	1186.36
631.88	1178.79
632.22	1171.15
632.57	1163.93
632.91	1156.32
633.26	1148.79
633.60	1141.26
633.95	1134.32
634.29	1127.27
634.64	1120.63
634.98	1113.41
635.32	1106.30
635.67	1099.79
636.01	1093.08
636.36	1086.40
636.70	1079.89
637.05	1073.47
637.39	1066.97
637.73	1060.48
638.08	1054.55
638.42	1048.62
638.77	1042.19
639.11	1035.57
639.45	1029.16
639.80	1022.60
640.14	1016.25
640.49	1009.82
640.83	1003.60
641.17	997.31
641.52	990.89
641.86	984.30
642.20	978.45
642.55	972.10
642.89	965.66
643.23	959.11
643.58	953.34
643.92	947.21
644.26	941.21
644.61	935.14
644.95	929.21
645.29	922.75
645.64	915.91
645.98	909.55
646.32	903.71
646.66	897.70
647.01	891.92
647.35	886.18
647.69	880.33
648.04	874.77
648.38	868.95
648.72	863.07
649.06	857.10
649.41	851.26
649.75	845.37
650.09	839.36
650.43	833.60
650.78	827.43
651.12	821.53
651.46	815.81
651.80	810.10
652.14	804.64
652.49	799.31
652.83	794.19
653.17	788.53
653.51	782.83
653.85	777.49
654.20	771.84
654.54	765.97
654.88	760.28
655.22	754.40
655.56	748.75
655.90	743.35
656.25	738.12
656.59	732.73
656.93	727.70
657.27	722.61
657.61	717.20
657.95	712.07
658.29	707.01
658.64	701.71
658.98	696.48
659.32	691.08
659.66	685.87
660.00	680.62
660.34	675.71
660.68	670.77
661.02	665.80
661.36	661.18
661.70	656.65
662.05	652.32
662.39	648.06
662.73	643.72
663.07	639.29
663.41	634.90
663.75	630.44
664.09	625.91
664.43	621.46
664.77	617.34
665.11	613.12
665.45	608.96
665.79	604.93
666.13	600.80
666.47	596.68
666.81	592.63
667.15	588.53
667.49	584.64
667.83	580.90
668.17	576.90
668.51	572.81
668.85	568.81
669.19	564.94
669.53	561.09
669.87	557.21
670.21	553.52
670.55	549.87
670.89	546.50
671.23	543.07
671.57	539.62
671.91	536.11
672.25	532.61
672.58	529.13
672.92	525.72
673.26	522.54
673.60	519.42
673.94	516.23
674.28	513.27
674.62	510.30
674.96	507.18
675.30	504.31
675.64	501.40
675.97	498.61
676.31	495.76
676.65	492.87
676.99	490.15
677.33	487.29
677.67	484.47
678.01	481.50
678.34	478.50
678.68	475.66
679.02	472.86
679.36	470.11
679.70	467.42
680.04	464.66
680.37	461.80
680.71	458.99
681.05	456.38
681.39	453.68
681.73	451.04
682.06	448.55
682.40	446.03
682.74	443.51
683.08	440.98
683.42	438.40
683.75	435.87
684.09	433.33
684.43	430.88
684.77	428.43
685.10	426.04
685.44	423.74
685.78	421.42
686.12	419.13
686.45	416.89
686.79	414.51
687.13	412.28
687.46	410.09
687.80	408.00
688.14	405.75
688.48	403.68
688.81	401.42
689.15	399.24
689.49	397.09
689.82	394.96
690.16	392.87
690.50	390.88
690.83	388.98
691.17	386.93
691.51	385.03
691.84	383.20
692.18	381.24
692.52	379.25
692.85	377.29
693.19	375.43
693.52	373.55
693.86	371.77
694.20	370.02
694.53	368.26
694.87	366.39
695.21	364.62
695.54	362.82
695.88	361.13
696.21	359.39
696.55	357.70
696.88	356.03
697.22	354.36
697.56	352.71
697.89	351.05
698.23	349.50
698.56	347.83
698.90	346.27
699.23	344.62
699.57	343.10
699.90	341.56
700.24	340.03
700.58	338.52
700.91	337.06
701.25	335.62
701.58	334.22
701.92	332.83
702.25	331.45
702.59	330.03
702.92	328.68
703.26	327.37
703.59	326.09
703.93	324.94
704.26	323.71
704.60	322.42
704.93	321.13
705.26	319.89
705.60	318.77
705.93	317.56
706.27	316.52
706.60	315.44
706.94	314.40
707.27	313.29
707.61	312.22
707.94	311.16
708.27	310.07
708.61	309.01
708.94	308.05
709.28	307.08
709.61	306.19
709.94	305.29
710.28	304.29
710.61	303.31
710.95	302.26
711.28	301.35
711.61	300.41
711.95	299.52
712.28	298.57
712.61	297.58
712.95	296.68
713.28	295.84
713.61	294.98
713.95	294.05
714.28	293.19
714.61	292.34
714.95	291.46
715.28	290.62
715.61	289.76
715.95	288.87
716.28	288.04
716.61	287.17
716.95	286.36
717.28	285.63
717.61	284.87
717.94	284.11
718.28	283.33
718.61	282.62
718.94	281.94
719.27	281.27
719.61	280.62
719.94	279.96
720.27	279.24
720.60	278.58
720.94	277.99
721.27	277.39
721.60	276.83
721.93	276.27
722.27	275.74
722.60	275.18
722.93	274.64
723.26	274.07
723.59	273.52
723.93	272.97
724.26	272.40
724.59	271.86
724.92	271.32
725.25	270.84
725.59	270.31
725.92	269.77
726.25	269.29
726.58	268.79
726.91	268.25
727.24	267.76
727.57	267.29
727.91	266.75
728.24	266.30
728.57	265.82
728.90	265.34
729.23	264.79
729.56	264.38
729.89	263.89
730.22	263.39
730.55	262.94
730.89	262.48
731.22	262.05
731.55	261.62
731.88	261.18
732.21	260.74
732.54	260.29
732.87	259.90
733.20	259.48
733.53	259.11
733.86	258.75
734.19	258.36
734.52	257.99
734.85	257.69
735.18	257.27
735.51	256.87
735.84	256.49
736.17	256.16
736.50	255.74
736.83	255.53
737.16	255.21
737.49	254.85
737.82	254.48
738.15	254.18
738.48	253.85
738.81	253.54
739.14	253.20
739.47	252.89
739.80	252.53
740.13	252.21
740.46	251.86
740.79	251.53
741.12	251.22
741.45	250.87
741.78	250.53
742.11	250.25
742.44	249.95
742.77	249.69
743.10	249.40
743.43	249.10
743.75	248.68
744.08	248.51
744.41	248.25
744.74	247.96
745.07	247.65
745.40	247.42
745.73	247.16
746.06	246.89
746.39	246.63
746.71	246.38
747.04	246.14
747.37	245.91
747.70	245.64
748.03	245.37
748.36	245.17
748.68	244.92
749.01	244.66
749.34	244.41
749.67	244.18
750.00	243.96
750.33	243.79
750.65	243.58
750.98	243.23
751.31	242.99
751.64	242.79
751.97	242.62
752.29	242.35
752.62	242.11
752.95	241.90
753.28	241.72
753.60	241.51
753.93	241.33
754.26	241.09
754.59	240.91
754.91	240.68
755.24	240.48
755.57	240.28
755.90	240.06
756.22	239.89
756.55	239.70
756.88	239.47
757.20	239.24
757.53	239.06
757.86	238.90
758.19	238.75
758.51	238.58
758.84	238.39
759.17	238.23
759.49	238.06
759.82	237.92
760.15	237.74
760.47	237.60
760.80	237.37
761.13	237.22
761.45	237.08
761.78	236.96
762.11	236.77
762.43	236.63
762.76	236.49
763.08	236.34
763.41	236.17
763.74	236.05
764.06	235.93
764.39	235.79
764.71	235.66
765.04	235.55
765.37	235.41
765.69	235.25
766.02	235.13
766.34	235.00
766.67	234.86
767.00	234.75
767.32	234.68
767.65	234.67
767.97	234.59
768.30	234.49
768.62	234.40
768.95	234.27
769.27	234.18
769.60	234.12
769.92	234.04
770.25	233.95
770.57	233.84
770.90	233.72
771.22	233.57
771.55	233.48
771.87	233.37
772.20	233.29
772.52	233.29
772.85	233.34
773.17	233.27
773.50	233.18
773.82	233.10
774.15	232.99
774.47	232.83
774.80	232.74
775.12	232.62
775.45	232.55
775.77	232.49
776.09	232.40
776.42	232.32
776.74	232.24
777.07	232.16
777.39	232.11
777.72	232.03
778.04	231.97
778.36	231.89
778.69	231.81
779.01	231.76
779.33	231.61
779.66	231.41
779.98	231.31
780.31	231.25
780.63	231.22
780.95	231.13
781.28	231.06
781.60	230.98
781.92	230.94
782.25	230.83
782.57	230.77
782.89	230.69
783.22	230.64
783.54	230.55
783.86	230.47
784.19	230.39
784.51	230.38
784.83	230.32
785.16	230.26
785.48	230.23
785.80	230.17
786.12	230.13
786.45	230.06
786.77	230.05
787.09	230.02
