SpectraSuite Data File
++++++++++++++++++++++++++++++++++++
Date: Fri Feb 01 16:02:51 EST 2013
User: group
Dark Spectrum Present: No
Reference Spectrum Present: No
Number of Sampled Component Spectra: 1
Spectrometers: USB2E7196
Integration Time (usec): 35000 (USB2E7196)
Spectra Averaged: 100 (USB2E7196)
Boxcar Smoothing: 10 (USB2E7196)
Correct for Electrical Dark: No (USB2E7196)
Strobe/Lamp Enabled: No (USB2E7196)
Correct for Detector Non-linearity: No (USB2E7196)
Correct for Stray Light: No (USB2E7196)
Number of Pixels in Processed Spectrum: 2048
>>>>>Begin Processed Spectral Data<<<<<
339.09	0.00
339.48	214.62
339.86	216.64
340.24	217.71
340.63	218.99
341.01	222.46
341.39	221.71
341.78	223.08
342.16	223.67
342.54	224.68
342.93	213.18
343.31	223.97
343.69	224.51
344.07	224.94
344.46	225.36
344.84	225.75
345.22	225.96
345.60	226.20
345.99	226.39
346.37	226.54
346.75	226.64
347.13	226.73
347.52	226.77
347.90	226.86
348.28	226.92
348.66	226.93
349.05	226.93
349.43	226.98
349.81	226.98
350.19	227.02
350.57	227.06
350.96	227.16
351.34	227.24
351.72	227.31
352.10	227.43
352.48	227.49
352.87	227.54
353.25	227.60
353.63	227.67
354.01	227.72
354.39	227.82
354.77	227.90
355.15	227.99
355.54	228.04
355.92	228.05
356.30	228.09
356.68	228.24
357.06	228.31
357.44	228.33
357.82	228.41
358.20	228.46
358.58	228.51
358.97	228.54
359.35	228.61
359.73	228.69
360.11	228.73
360.49	228.79
360.87	228.85
361.25	228.88
361.63	228.95
362.01	228.99
362.39	228.99
362.77	229.03
363.15	229.06
363.53	229.13
363.91	229.17
364.29	229.17
364.67	229.10
365.05	229.11
365.43	229.14
365.81	229.12
366.19	229.17
366.57	229.21
366.95	229.21
367.33	229.16
367.71	229.15
368.09	229.13
368.47	229.10
368.85	229.05
369.23	229.06
369.61	228.97
369.99	228.96
370.37	228.95
370.75	228.95
371.13	228.89
371.51	228.82
371.89	228.76
372.27	228.77
372.65	228.72
373.03	228.67
373.41	228.61
373.78	228.58
374.16	228.49
374.54	228.39
374.92	228.34
375.30	228.30
375.68	228.21
376.06	228.16
376.44	228.06
376.82	227.99
377.19	227.91
377.57	227.86
377.95	227.76
378.33	227.66
378.71	227.51
379.09	227.44
379.47	227.39
379.84	227.34
380.22	227.21
380.60	227.16
380.98	227.09
381.36	227.01
381.73	226.95
382.11	226.88
382.49	226.83
382.87	226.73
383.25	226.67
383.62	226.74
384.00	226.65
384.38	226.62
384.76	226.60
385.13	226.62
385.51	226.57
385.89	226.50
386.27	226.50
386.64	226.51
387.02	226.47
387.40	226.45
387.78	226.38
388.15	226.36
388.53	226.30
388.91	226.30
389.29	226.28
389.66	226.24
390.04	226.23
390.42	226.21
390.79	226.20
391.17	226.18
391.55	226.05
391.92	226.08
392.30	226.12
392.68	226.07
393.05	226.04
393.43	226.07
393.81	226.10
394.18	226.09
394.56	226.08
394.94	226.10
395.31	226.09
395.69	226.14
396.06	226.20
396.44	226.26
396.82	226.24
397.19	226.34
397.57	226.37
397.95	226.41
398.32	226.46
398.70	226.51
399.07	226.61
399.45	226.67
399.82	226.74
400.20	226.81
400.58	226.92
400.95	226.96
401.33	227.04
401.70	227.21
402.08	227.29
402.45	227.39
402.83	227.52
403.20	227.62
403.58	227.74
403.95	227.91
404.33	228.04
404.71	228.20
405.08	228.39
405.46	228.55
405.83	228.69
406.21	228.83
406.58	229.00
406.96	229.14
407.33	229.34
407.70	229.49
408.08	229.75
408.45	229.97
408.83	230.22
409.20	230.42
409.58	230.58
409.95	230.85
410.33	231.13
410.70	231.37
411.08	231.67
411.45	231.97
411.82	232.22
412.20	232.56
412.57	232.94
412.95	233.24
413.32	233.62
413.69	234.05
414.07	234.48
414.44	234.94
414.82	235.40
415.19	235.95
415.56	236.51
415.94	237.04
416.31	237.66
416.68	238.28
417.06	238.99
417.43	239.65
417.81	240.44
418.18	241.23
418.55	242.09
418.93	242.95
419.30	243.85
419.67	244.84
420.04	245.79
420.42	246.76
420.79	247.92
421.16	249.06
421.54	250.24
421.91	251.48
422.28	252.73
422.66	254.09
423.03	255.39
423.40	256.73
423.77	258.14
424.15	259.57
424.52	261.02
424.89	262.64
425.26	264.21
425.64	265.65
426.01	267.21
426.38	268.84
426.75	270.55
427.13	272.28
427.50	274.04
427.87	275.95
428.24	277.86
428.61	279.62
428.99	281.58
429.36	283.66
429.73	285.70
430.10	287.74
430.47	289.79
430.85	291.91
431.22	294.11
431.59	296.49
431.96	298.76
432.33	301.23
432.70	303.63
433.08	306.44
433.45	309.06
433.82	311.67
434.19	314.55
434.56	317.33
434.93	319.98
435.30	322.58
435.68	325.47
436.05	328.30
436.42	331.08
436.79	333.58
437.16	336.31
437.53	339.17
437.90	342.00
438.27	344.78
438.64	347.61
439.01	350.20
439.38	352.45
439.75	354.59
440.13	357.13
440.50	359.46
440.87	361.29
441.24	363.24
441.61	365.42
441.98	366.93
442.35	368.74
442.72	370.63
443.09	372.45
443.46	373.39
443.83	373.95
444.20	374.47
444.57	375.29
444.94	375.63
445.31	375.95
445.68	376.33
446.05	376.38
446.42	376.01
446.79	375.60
447.16	375.17
447.53	374.81
447.90	373.65
448.27	372.46
448.64	370.86
449.01	369.68
449.37	367.67
449.74	365.78
450.11	363.54
450.48	361.02
450.85	358.48
451.22	356.38
451.59	354.39
451.96	352.44
452.33	349.82
452.70	347.36
453.07	344.55
453.43	341.60
453.80	338.84
454.17	336.15
454.54	333.60
454.91	330.84
455.28	328.20
455.65	325.73
456.02	323.31
456.38	321.19
456.75	318.54
457.12	316.31
457.49	314.06
457.86	311.91
458.23	310.07
458.59	308.03
458.96	305.89
459.33	304.00
459.70	302.15
460.07	300.66
460.43	299.01
460.80	297.34
461.17	295.87
461.54	294.34
461.91	292.87
462.27	291.43
462.64	290.19
463.01	288.87
463.38	287.53
463.74	286.16
464.11	284.99
464.48	284.00
464.85	282.88
465.21	282.02
465.58	281.04
465.95	279.92
466.32	279.03
466.68	278.19
467.05	277.29
467.42	276.36
467.78	275.43
468.15	274.53
468.52	273.87
468.88	273.03
469.25	272.26
469.62	271.65
469.98	270.98
470.35	270.33
470.72	269.70
471.08	269.03
471.45	268.48
471.82	267.97
472.18	267.36
472.55	266.94
472.92	266.41
473.28	265.99
473.65	265.57
474.02	265.12
474.38	264.74
474.75	264.44
475.11	264.12
475.48	263.88
475.85	263.63
476.21	263.41
476.58	263.25
476.94	263.16
477.31	263.03
477.67	262.89
478.04	262.78
478.41	262.71
478.77	262.80
479.14	262.76
479.50	262.73
479.87	262.79
480.23	262.88
480.60	262.96
480.96	263.06
481.33	263.27
481.69	263.45
482.06	263.64
482.42	263.84
482.79	264.08
483.15	264.37
483.52	264.78
483.88	265.13
484.25	265.52
484.61	265.92
484.98	266.36
485.34	266.93
485.71	267.53
486.07	268.12
486.44	268.69
486.80	269.40
487.17	270.16
487.53	271.01
487.90	271.85
488.26	272.82
488.62	273.80
488.99	274.77
489.35	275.83
489.72	276.96
490.08	278.15
490.44	279.42
490.81	280.78
491.17	282.13
491.54	283.61
491.90	285.14
492.26	286.79
492.63	288.50
492.99	290.31
493.36	292.17
493.72	294.26
494.08	296.36
494.45	298.58
494.81	300.94
495.17	303.35
495.54	305.93
495.90	308.60
496.26	311.42
496.63	314.38
496.99	317.47
497.35	320.75
497.72	324.18
498.08	327.68
498.44	331.33
498.80	335.24
499.17	339.28
499.53	343.47
499.89	347.84
500.26	352.37
500.62	356.99
500.98	362.02
501.34	367.11
501.71	372.45
502.07	377.93
502.43	383.51
502.79	389.31
503.16	395.38
503.52	401.62
503.88	408.04
504.24	414.71
504.60	421.66
504.97	428.80
505.33	436.12
505.69	443.84
506.05	451.62
506.41	459.50
506.78	467.70
507.14	476.13
507.50	484.84
507.86	493.85
508.22	503.05
508.59	512.22
508.95	521.82
509.31	531.63
509.67	541.72
510.03	552.05
510.39	562.60
510.75	573.35
511.12	584.30
511.48	595.55
511.84	607.00
512.20	618.48
512.56	630.49
512.92	642.68
513.28	654.97
513.64	667.49
514.00	680.21
514.37	693.17
514.73	706.27
515.09	719.36
515.45	732.68
515.81	746.27
516.17	760.23
516.53	774.31
516.89	788.51
517.25	802.72
517.61	817.15
517.97	831.61
518.33	846.08
518.69	860.78
519.05	875.83
519.41	890.96
519.77	906.51
520.13	921.83
520.49	937.17
520.85	952.68
521.21	968.40
521.57	984.58
521.93	1000.29
522.29	1016.76
522.65	1032.95
523.01	1049.13
523.37	1065.20
523.73	1081.39
524.09	1097.43
524.45	1113.74
524.81	1130.27
525.17	1147.14
525.53	1164.02
525.89	1180.91
526.25	1197.77
526.61	1214.08
526.97	1230.84
527.33	1247.28
527.68	1263.89
528.04	1280.52
528.40	1297.14
528.76	1314.21
529.12	1330.87
529.48	1347.74
529.84	1363.67
530.20	1380.34
530.56	1397.48
530.91	1414.84
531.27	1431.56
531.63	1448.05
531.99	1464.54
532.35	1480.50
532.71	1496.38
533.07	1512.64
533.42	1528.56
533.78	1544.51
534.14	1560.84
534.50	1576.16
534.86	1592.10
535.21	1607.21
535.57	1622.94
535.93	1638.37
536.29	1653.00
536.65	1667.91
537.00	1682.69
537.36	1697.96
537.72	1712.44
538.08	1726.64
538.44	1740.27
538.79	1754.22
539.15	1767.86
539.51	1781.43
539.87	1795.75
540.22	1809.48
540.58	1823.24
540.94	1836.42
541.29	1849.41
541.65	1861.99
542.01	1875.13
542.37	1887.38
542.72	1899.70
543.08	1911.43
543.44	1923.79
543.79	1935.06
544.15	1946.10
544.51	1957.48
544.87	1968.36
545.22	1979.06
545.58	1989.32
545.94	1999.13
546.29	2008.87
546.65	2018.61
547.01	2027.96
547.36	2036.65
547.72	2044.97
548.07	2052.72
548.43	2060.94
548.79	2068.86
549.14	2076.25
549.50	2083.51
549.86	2091.14
550.21	2098.51
550.57	2105.67
550.92	2112.32
551.28	2119.32
551.64	2126.31
551.99	2132.97
552.35	2139.10
552.70	2145.24
553.06	2151.24
553.41	2157.60
553.77	2163.74
554.13	2169.92
554.48	2176.08
554.84	2181.50
555.19	2186.79
555.55	2191.96
555.90	2196.40
556.26	2201.35
556.61	2206.16
556.97	2210.45
557.32	2214.59
557.68	2218.72
558.03	2223.04
558.39	2226.69
558.74	2231.44
559.10	2235.35
559.45	2239.04
559.81	2243.50
560.16	2247.44
560.52	2250.50
560.87	2253.72
561.23	2256.25
561.58	2259.19
561.94	2261.69
562.29	2264.04
562.64	2266.78
563.00	2269.42
563.35	2272.95
563.71	2276.07
564.06	2279.34
564.42	2282.21
564.77	2284.73
565.12	2287.01
565.48	2289.03
565.83	2290.81
566.19	2291.99
566.54	2292.96
566.89	2293.95
567.25	2294.36
567.60	2295.51
567.96	2297.39
568.31	2298.48
568.66	2299.71
569.02	2300.24
569.37	2300.54
569.72	2301.60
570.08	2301.59
570.43	2301.61
570.78	2301.09
571.14	2299.62
571.49	2298.38
571.84	2298.13
572.20	2297.03
572.55	2296.09
572.90	2294.53
573.26	2293.17
573.61	2291.69
573.96	2289.89
574.31	2286.98
574.67	2284.08
575.02	2280.58
575.37	2277.15
575.72	2273.41
576.08	2269.98
576.43	2266.80
576.78	2263.27
577.13	2260.04
577.49	2257.09
577.84	2253.65
578.19	2249.84
578.54	2246.10
578.90	2241.86
579.25	2236.37
579.60	2231.32
579.95	2226.28
580.30	2221.21
580.66	2216.01
581.01	2211.05
581.36	2206.08
581.71	2201.96
582.06	2197.50
582.42	2193.00
582.77	2187.80
583.12	2183.16
583.47	2178.45
583.82	2173.33
584.17	2167.95
584.53	2162.46
584.88	2156.85
585.23	2151.01
585.58	2145.59
585.93	2140.24
586.28	2135.38
586.63	2130.29
586.98	2125.29
587.34	2120.62
587.69	2115.69
588.04	2110.41
588.39	2104.67
588.74	2098.19
589.09	2092.03
589.44	2085.24
589.79	2079.48
590.14	2073.92
590.49	2067.45
590.84	2061.20
591.19	2055.26
591.54	2048.91
591.89	2041.38
592.25	2034.48
592.60	2027.33
592.95	2019.68
593.30	2012.31
593.65	2004.77
594.00	1997.77
594.35	1990.60
594.70	1982.65
595.05	1975.41
595.40	1968.30
595.75	1960.86
596.10	1954.75
596.45	1948.08
596.80	1941.90
597.15	1935.17
597.50	1928.07
597.85	1921.59
598.19	1914.82
598.54	1907.60
598.89	1901.00
599.24	1895.20
599.59	1888.49
599.94	1882.37
600.29	1876.09
600.64	1869.59
600.99	1862.15
601.34	1855.23
601.69	1848.22
602.04	1841.27
602.39	1833.99
602.74	1827.13
603.08	1820.26
603.43	1813.48
603.78	1806.05
604.13	1798.80
604.48	1791.42
604.83	1784.44
605.18	1777.48
605.53	1769.36
605.87	1761.49
606.22	1754.18
606.57	1746.22
606.92	1739.08
607.27	1731.80
607.62	1724.91
607.96	1717.47
608.31	1710.91
608.66	1703.33
609.01	1695.82
609.36	1688.29
609.70	1680.21
610.05	1672.09
610.40	1664.46
610.75	1656.20
611.10	1648.57
611.44	1640.23
611.79	1632.15
612.14	1623.49
612.49	1614.28
612.83	1606.13
613.18	1598.11
613.53	1590.01
613.88	1581.55
614.22	1573.15
614.57	1564.47
614.92	1556.38
615.27	1548.86
615.61	1540.45
615.96	1532.48
616.31	1524.79
616.65	1517.36
617.00	1509.92
617.35	1502.28
617.70	1493.91
618.04	1485.42
618.39	1477.25
618.74	1469.70
619.08	1461.48
619.43	1453.89
619.78	1446.87
620.12	1439.63
620.47	1431.94
620.82	1423.88
621.16	1416.45
621.51	1408.96
621.85	1401.48
622.20	1393.02
622.55	1384.72
622.89	1376.95
623.24	1369.35
623.59	1362.04
623.93	1354.62
624.28	1347.32
624.62	1339.69
624.97	1332.46
625.32	1325.60
625.66	1318.49
626.01	1311.26
626.35	1303.70
626.70	1296.00
627.04	1288.32
627.39	1280.57
627.73	1273.25
628.08	1266.29
628.43	1258.83
628.77	1251.35
629.12	1243.77
629.46	1236.58
629.81	1229.10
630.15	1221.78
630.50	1214.33
630.84	1206.01
631.19	1198.06
631.53	1190.50
631.88	1183.06
632.22	1175.49
632.57	1168.25
632.91	1160.79
633.26	1153.31
633.60	1145.98
633.95	1138.89
634.29	1131.90
634.64	1125.18
634.98	1117.73
635.32	1110.51
635.67	1104.05
636.01	1097.48
636.36	1090.73
636.70	1084.15
637.05	1077.61
637.39	1071.08
637.73	1064.52
638.08	1058.66
638.42	1052.62
638.77	1046.13
639.11	1039.52
639.45	1033.18
639.80	1026.59
640.14	1020.16
640.49	1013.68
640.83	1007.42
641.17	1001.10
641.52	994.70
641.86	988.30
642.20	982.47
642.55	976.13
642.89	969.63
643.23	963.01
643.58	957.12
643.92	950.97
644.26	944.82
644.61	938.85
644.95	932.81
645.29	926.14
645.64	919.36
645.98	913.12
646.32	907.23
646.66	901.08
647.01	895.24
647.35	889.49
647.69	883.64
648.04	878.13
648.38	872.37
648.72	866.39
649.06	860.24
649.41	854.34
649.75	848.44
650.09	842.50
650.43	836.72
650.78	830.60
651.12	824.60
651.46	818.84
651.80	813.11
652.14	807.71
652.49	802.42
652.83	797.29
653.17	791.62
653.51	785.84
653.85	780.53
654.20	774.84
654.54	768.82
654.88	763.17
655.22	757.24
655.56	751.59
655.90	746.22
656.25	741.04
656.59	735.67
656.93	730.62
657.27	725.46
657.61	720.07
657.95	715.03
658.29	709.99
658.64	704.87
658.98	699.56
659.32	694.14
659.66	688.90
660.00	683.55
660.34	678.63
660.68	673.73
661.02	668.70
661.36	664.00
661.70	659.52
662.05	655.06
662.39	650.72
662.73	646.27
663.07	641.89
663.41	637.36
663.75	632.84
664.09	628.26
664.43	623.85
664.77	619.67
665.11	615.31
665.45	611.18
665.79	607.02
666.13	602.88
666.47	598.80
666.81	594.70
667.15	590.60
667.49	586.65
667.83	582.88
668.17	578.92
668.51	574.79
668.85	570.75
669.19	566.97
669.53	563.13
669.87	559.17
670.21	555.47
670.55	551.90
670.89	548.51
671.23	544.99
671.57	541.44
671.91	537.88
672.25	534.44
672.58	530.89
672.92	527.47
673.26	524.33
673.60	521.02
673.94	517.79
674.28	514.86
674.62	511.91
674.96	508.78
675.30	505.87
675.64	502.98
675.97	500.20
676.31	497.31
676.65	494.33
676.99	491.63
677.33	488.71
677.67	485.85
678.01	482.71
678.34	479.73
678.68	476.88
679.02	474.07
679.36	471.30
679.70	468.60
680.04	465.84
680.37	462.95
680.71	460.24
681.05	457.70
681.39	455.00
681.73	452.29
682.06	449.75
682.40	447.18
682.74	444.64
683.08	442.09
683.42	439.42
683.75	436.96
684.09	434.41
684.43	431.96
684.77	429.47
685.10	427.18
685.44	424.93
685.78	422.64
686.12	420.40
686.45	418.11
686.79	415.82
687.13	413.60
687.46	411.46
687.80	409.36
688.14	407.17
688.48	405.08
688.81	402.83
689.15	400.73
689.49	398.59
689.82	396.48
690.16	394.39
690.50	392.46
690.83	390.52
691.17	388.59
691.51	386.67
691.84	384.85
692.18	382.92
692.52	380.93
692.85	379.01
693.19	377.13
693.52	375.34
693.86	373.52
694.20	371.78
694.53	369.96
694.87	368.07
695.21	366.25
695.54	364.41
695.88	362.71
696.21	360.97
696.55	359.32
696.88	357.69
697.22	356.03
697.56	354.44
697.89	352.78
698.23	351.17
698.56	349.57
698.90	347.96
699.23	346.32
699.57	344.76
699.90	343.21
700.24	341.68
700.58	340.12
700.91	338.59
701.25	337.15
701.58	335.76
701.92	334.42
702.25	333.02
702.59	331.67
702.92	330.36
703.26	329.04
703.59	327.75
703.93	326.55
704.26	325.34
704.60	324.05
704.93	322.77
705.26	321.52
705.60	320.35
705.93	319.21
706.27	318.20
706.60	317.15
706.94	316.11
707.27	314.93
707.61	313.89
707.94	312.88
708.27	311.76
708.61	310.72
708.94	309.71
709.28	308.77
709.61	307.80
709.94	306.85
710.28	305.86
710.61	304.90
710.95	303.80
711.28	302.87
711.61	301.90
711.95	300.97
712.28	299.97
712.61	298.97
712.95	298.02
713.28	297.14
713.61	296.23
713.95	295.30
714.28	294.49
714.61	293.64
714.95	292.82
715.28	291.99
715.61	291.10
715.95	290.25
716.28	289.35
716.61	288.54
716.95	287.71
717.28	286.93
717.61	286.12
717.94	285.38
718.28	284.57
718.61	283.81
718.94	283.12
719.27	282.46
719.61	281.80
719.94	281.13
720.27	280.38
720.60	279.71
720.94	279.06
721.27	278.42
721.60	277.81
721.93	277.18
722.27	276.58
722.60	276.02
722.93	275.44
723.26	274.90
723.59	274.34
723.93	273.80
724.26	273.22
724.59	272.68
724.92	272.15
725.25	271.67
725.59	271.19
725.92	270.69
726.25	270.19
726.58	269.70
726.91	269.18
727.24	268.75
727.57	268.27
727.91	267.79
728.24	267.32
728.57	266.83
728.90	266.39
729.23	265.91
729.56	265.50
729.89	265.03
730.22	264.54
730.55	264.04
730.89	263.60
731.22	263.18
731.55	262.78
731.88	262.35
732.21	261.91
732.54	261.51
732.87	261.10
733.20	260.70
733.53	260.30
733.86	259.93
734.19	259.52
734.52	259.13
734.85	258.83
735.18	258.45
735.51	258.08
735.84	257.72
736.17	257.37
736.50	256.94
736.83	256.70
737.16	256.37
737.49	256.05
737.82	255.70
738.15	255.39
738.48	255.05
738.81	254.72
739.14	254.38
739.47	254.04
739.80	253.73
740.13	253.43
740.46	253.11
740.79	252.84
741.12	252.56
741.45	252.28
741.78	251.94
742.11	251.67
742.44	251.39
742.77	251.11
743.10	250.81
743.43	250.52
743.75	250.16
744.08	250.05
744.41	249.79
744.74	249.50
745.07	249.20
745.40	248.97
745.73	248.76
746.06	248.51
746.39	248.30
746.71	248.03
747.04	247.76
747.37	247.51
747.70	247.25
748.03	246.99
748.36	246.75
748.68	246.50
749.01	246.27
749.34	246.00
749.67	245.78
750.00	245.58
750.33	245.43
750.65	245.20
750.98	244.84
751.31	244.64
751.64	244.45
751.97	244.32
752.29	244.05
752.62	243.77
752.95	243.55
753.28	243.29
753.60	243.10
753.93	242.94
754.26	242.75
754.59	242.55
754.91	242.30
755.24	242.09
755.57	241.88
755.90	241.64
756.22	241.46
756.55	241.22
756.88	241.04
757.20	240.79
757.53	240.59
757.86	240.42
758.19	240.26
758.51	240.10
758.84	239.85
759.17	239.72
759.49	239.58
759.82	239.45
760.15	239.27
760.47	239.08
760.80	238.89
761.13	238.76
761.45	238.56
761.78	238.43
762.11	238.27
762.43	238.13
762.76	237.99
763.08	237.89
763.41	237.79
763.74	237.63
764.06	237.47
764.39	237.34
764.71	237.18
765.04	236.99
765.37	236.84
765.69	236.73
766.02	236.59
766.34	236.49
766.67	236.30
767.00	236.21
767.32	236.17
767.65	236.11
767.97	236.01
768.30	235.91
768.62	235.80
768.95	235.73
769.27	235.62
769.60	235.53
769.92	235.39
770.25	235.28
770.57	235.15
770.90	235.08
771.22	234.95
771.55	234.87
771.87	234.81
772.20	234.70
772.52	234.67
772.85	234.67
773.17	234.53
773.50	234.47
773.82	234.39
774.15	234.25
774.47	234.11
774.80	234.00
775.12	233.93
775.45	233.85
775.77	233.76
776.09	233.68
776.42	233.64
776.74	233.59
777.07	233.50
777.39	233.45
777.72	233.38
778.04	233.34
778.36	233.27
778.69	233.20
779.01	233.20
779.33	233.06
779.66	232.92
779.98	232.88
780.31	232.83
780.63	232.81
780.95	232.79
781.28	232.71
781.60	232.65
781.92	232.56
782.25	232.51
782.57	232.45
782.89	232.38
783.22	232.30
783.54	232.23
783.86	232.17
784.19	232.11
784.51	232.09
784.83	232.04
785.16	232.00
785.48	231.96
785.80	231.90
786.12	231.86
786.45	231.80
786.77	231.77
787.09	231.73
