SpectraSuite Data File
++++++++++++++++++++++++++++++++++++
Date: Fri Feb 01 15:02:07 EST 2013
User: group
Dark Spectrum Present: No
Reference Spectrum Present: No
Number of Sampled Component Spectra: 1
Spectrometers: USB2E7196
Integration Time (usec): 35000 (USB2E7196)
Spectra Averaged: 100 (USB2E7196)
Boxcar Smoothing: 10 (USB2E7196)
Correct for Electrical Dark: No (USB2E7196)
Strobe/Lamp Enabled: No (USB2E7196)
Correct for Detector Non-linearity: No (USB2E7196)
Correct for Stray Light: No (USB2E7196)
Number of Pixels in Processed Spectrum: 2048
>>>>>Begin Processed Spectral Data<<<<<
339.09	0.00
339.48	215.38
339.86	217.11
340.24	219.05
340.63	219.99
341.01	222.36
341.39	223.14
341.78	224.31
342.16	224.80
342.54	225.44
342.93	213.93
343.31	224.72
343.69	225.25
344.07	225.72
344.46	226.11
344.84	226.49
345.22	226.74
345.60	226.96
345.99	227.13
346.37	227.25
346.75	227.32
347.13	227.34
347.52	227.42
347.90	227.47
348.28	227.50
348.66	227.55
349.05	227.53
349.43	227.57
349.81	227.58
350.19	227.60
350.57	227.61
350.96	227.66
351.34	227.74
351.72	227.82
352.10	227.89
352.48	227.93
352.87	227.94
353.25	227.93
353.63	227.97
354.01	228.02
354.39	228.11
354.77	228.18
355.15	228.30
355.54	228.35
355.92	228.43
356.30	228.48
356.68	228.58
357.06	228.64
357.44	228.67
357.82	228.73
358.20	228.77
358.58	228.82
358.97	228.88
359.35	228.94
359.73	229.03
360.11	229.07
360.49	229.10
360.87	229.19
361.25	229.28
361.63	229.34
362.01	229.36
362.39	229.39
362.77	229.44
363.15	229.44
363.53	229.44
363.91	229.44
364.29	229.44
364.67	229.38
365.05	229.37
365.43	229.38
365.81	229.41
366.19	229.45
366.57	229.51
366.95	229.49
367.33	229.46
367.71	229.45
368.09	229.46
368.47	229.45
368.85	229.40
369.23	229.37
369.61	229.28
369.99	229.25
370.37	229.21
370.75	229.23
371.13	229.14
371.51	229.06
371.89	229.02
372.27	229.00
372.65	228.93
373.03	228.88
373.41	228.83
373.78	228.78
374.16	228.68
374.54	228.58
374.92	228.53
375.30	228.45
375.68	228.34
376.06	228.28
376.44	228.26
376.82	228.20
377.19	228.15
377.57	228.13
377.95	228.02
378.33	227.94
378.71	227.83
379.09	227.78
379.47	227.75
379.84	227.70
380.22	227.64
380.60	227.56
380.98	227.49
381.36	227.40
381.73	227.30
382.11	227.27
382.49	227.19
382.87	227.11
383.25	227.05
383.62	227.07
384.00	226.95
384.38	226.89
384.76	226.85
385.13	226.82
385.51	226.75
385.89	226.71
386.27	226.66
386.64	226.61
387.02	226.56
387.40	226.50
387.78	226.42
388.15	226.36
388.53	226.32
388.91	226.28
389.29	226.29
389.66	226.27
390.04	226.22
390.42	226.22
390.79	226.17
391.17	226.16
391.55	226.09
391.92	226.09
392.30	226.06
392.68	226.04
393.05	226.05
393.43	226.04
393.81	226.05
394.18	226.04
394.56	226.09
394.94	226.14
395.31	226.17
395.69	226.24
396.06	226.29
396.44	226.35
396.82	226.40
397.19	226.45
397.57	226.48
397.95	226.53
398.32	226.58
398.70	226.71
399.07	226.80
399.45	226.84
399.82	226.93
400.20	227.01
400.58	227.09
400.95	227.15
401.33	227.28
401.70	227.44
402.08	227.56
402.45	227.62
402.83	227.73
403.20	227.85
403.58	227.99
403.95	228.13
404.33	228.28
404.71	228.41
405.08	228.64
405.46	228.82
405.83	228.98
406.21	229.12
406.58	229.26
406.96	229.45
407.33	229.67
407.70	229.85
408.08	230.13
408.45	230.36
408.83	230.61
409.20	230.80
409.58	231.01
409.95	231.33
410.33	231.63
410.70	231.90
411.08	232.19
411.45	232.47
411.82	232.77
412.20	233.13
412.57	233.55
412.95	233.81
413.32	234.22
413.69	234.65
414.07	235.12
414.44	235.59
414.82	236.05
415.19	236.60
415.56	237.17
415.94	237.71
416.31	238.34
416.68	238.95
417.06	239.68
417.43	240.40
417.81	241.14
418.18	241.92
418.55	242.77
418.93	243.66
419.30	244.57
419.67	245.51
420.04	246.51
420.42	247.51
420.79	248.68
421.16	249.84
421.54	251.02
421.91	252.25
422.28	253.51
422.66	254.84
423.03	256.12
423.40	257.44
423.77	258.87
424.15	260.34
424.52	261.86
424.89	263.46
425.26	265.01
425.64	266.42
426.01	267.99
426.38	269.64
426.75	271.31
427.13	273.07
427.50	274.89
427.87	276.70
428.24	278.55
428.61	280.29
428.99	282.23
429.36	284.32
429.73	286.32
430.10	288.36
430.47	290.43
430.85	292.53
431.22	294.75
431.59	297.10
431.96	299.31
432.33	301.76
432.70	304.14
433.08	306.89
433.45	309.57
433.82	312.19
434.19	315.08
434.56	317.90
434.93	320.55
435.30	323.16
435.68	326.07
436.05	328.91
436.42	331.74
436.79	334.24
437.16	336.98
437.53	339.91
437.90	342.73
438.27	345.49
438.64	348.36
439.01	351.01
439.38	353.25
439.75	355.42
440.13	357.93
440.50	360.30
440.87	362.17
441.24	364.09
441.61	366.25
441.98	367.74
442.35	369.57
442.72	371.42
443.09	373.28
443.46	374.29
443.83	374.90
444.20	375.37
444.57	376.22
444.94	376.47
445.31	376.75
445.68	377.09
446.05	377.15
446.42	376.75
446.79	376.34
447.16	375.89
447.53	375.60
447.90	374.44
448.27	373.27
448.64	371.70
449.01	370.57
449.37	368.59
449.74	366.72
450.11	364.45
450.48	361.93
450.85	359.35
451.22	357.19
451.59	355.19
451.96	353.27
452.33	350.65
452.70	348.32
453.07	345.48
453.43	342.62
453.80	339.88
454.17	337.23
454.54	334.65
454.91	331.94
455.28	329.24
455.65	326.78
456.02	324.30
456.38	322.16
456.75	319.50
457.12	317.28
457.49	315.04
457.86	312.87
458.23	311.08
458.59	309.07
458.96	307.00
459.33	305.08
459.70	303.21
460.07	301.71
460.43	299.97
460.80	298.39
461.17	296.90
461.54	295.43
461.91	293.97
462.27	292.54
462.64	291.27
463.01	289.91
463.38	288.55
463.74	287.22
464.11	286.07
464.48	285.07
464.85	283.96
465.21	283.10
465.58	282.15
465.95	281.00
466.32	280.07
466.68	279.16
467.05	278.30
467.42	277.42
467.78	276.50
468.15	275.63
468.52	274.96
468.88	274.11
469.25	273.32
469.62	272.72
469.98	272.01
470.35	271.38
470.72	270.76
471.08	270.11
471.45	269.53
471.82	268.96
472.18	268.34
472.55	267.86
472.92	267.32
473.28	266.87
473.65	266.43
474.02	265.97
474.38	265.62
474.75	265.26
475.11	264.91
475.48	264.63
475.85	264.38
476.21	264.11
476.58	263.91
476.94	263.68
477.31	263.46
477.67	263.34
478.04	263.24
478.41	263.15
478.77	263.19
479.14	263.15
479.50	263.14
479.87	263.20
480.23	263.27
480.60	263.31
480.96	263.38
481.33	263.59
481.69	263.78
482.06	263.95
482.42	264.14
482.79	264.33
483.15	264.63
483.52	264.98
483.88	265.33
484.25	265.71
484.61	266.16
484.98	266.63
485.34	267.17
485.71	267.75
486.07	268.38
486.44	268.92
486.80	269.60
487.17	270.30
487.53	271.12
487.90	271.95
488.26	272.89
488.62	273.83
488.99	274.76
489.35	275.78
489.72	276.87
490.08	278.07
490.44	279.38
490.81	280.68
491.17	282.01
491.54	283.48
491.90	285.00
492.26	286.66
492.63	288.35
492.99	290.10
493.36	291.95
493.72	294.01
494.08	296.14
494.45	298.35
494.81	300.73
495.17	303.13
495.54	305.70
495.90	308.37
496.26	311.18
496.63	314.10
496.99	317.20
497.35	320.48
497.72	323.86
498.08	327.33
498.44	331.01
498.80	334.92
499.17	338.97
499.53	343.06
499.89	347.39
500.26	351.90
500.62	356.58
500.98	361.53
501.34	366.58
501.71	371.87
502.07	377.33
502.43	382.92
502.79	388.72
503.16	394.74
503.52	400.94
503.88	407.30
504.24	413.98
504.60	420.80
504.97	427.89
505.33	435.19
505.69	442.87
506.05	450.60
506.41	458.47
506.78	466.56
507.14	475.07
507.50	483.79
507.86	492.75
508.22	501.83
508.59	511.02
508.95	520.57
509.31	530.26
509.67	540.30
510.03	550.57
510.39	561.07
510.75	571.90
511.12	582.85
511.48	594.06
511.84	605.52
512.20	617.06
512.56	628.97
512.92	641.10
513.28	653.41
513.64	665.92
514.00	678.62
514.37	691.55
514.73	704.57
515.09	717.54
515.45	730.86
515.81	744.55
516.17	758.52
516.53	772.58
516.89	786.79
517.25	801.01
517.61	815.45
517.97	829.96
518.33	844.33
518.69	859.19
519.05	874.31
519.41	889.43
519.77	905.00
520.13	920.49
520.49	935.92
520.85	951.40
521.21	967.17
521.57	983.39
521.93	999.27
522.29	1015.71
522.65	1032.13
523.01	1048.44
523.37	1064.56
523.73	1080.85
524.09	1097.02
524.45	1113.45
524.81	1130.18
525.17	1146.99
525.53	1163.99
525.89	1180.92
526.25	1197.76
526.61	1214.23
526.97	1231.09
527.33	1247.59
527.68	1264.31
528.04	1280.85
528.40	1297.52
528.76	1314.65
529.12	1331.38
529.48	1348.31
529.84	1364.46
530.20	1380.99
530.56	1398.15
530.91	1415.43
531.27	1432.19
531.63	1448.73
531.99	1465.37
532.35	1481.39
532.71	1497.47
533.07	1513.88
533.42	1529.80
533.78	1545.89
534.14	1562.19
534.50	1577.60
534.86	1593.64
535.21	1608.88
535.57	1624.87
535.93	1640.45
536.29	1655.34
536.65	1670.53
537.00	1685.50
537.36	1700.86
537.72	1715.63
538.08	1730.16
538.44	1744.21
538.79	1758.24
539.15	1772.32
539.51	1786.29
539.87	1800.74
540.22	1814.46
540.58	1828.22
540.94	1841.82
541.29	1854.84
541.65	1867.64
542.01	1881.05
542.37	1893.41
542.72	1905.89
543.08	1917.79
543.44	1930.43
543.79	1941.70
544.15	1952.71
544.51	1964.15
544.87	1975.23
545.22	1986.05
545.58	1996.17
545.94	2005.99
546.29	2015.94
546.65	2025.51
547.01	2034.65
547.36	2043.41
547.72	2052.06
548.07	2059.99
548.43	2068.20
548.79	2076.39
549.14	2083.86
549.50	2091.16
549.86	2098.92
550.21	2106.26
550.57	2113.44
550.92	2120.02
551.28	2127.13
551.64	2134.21
551.99	2140.69
552.35	2146.89
552.70	2153.11
553.06	2159.20
553.41	2165.47
553.77	2171.55
554.13	2177.72
554.48	2183.93
554.84	2189.24
555.19	2194.60
555.55	2199.60
555.90	2203.94
556.26	2208.55
556.61	2213.36
556.97	2217.54
557.32	2221.67
557.68	2225.67
558.03	2230.02
558.39	2233.68
558.74	2238.16
559.10	2241.85
559.45	2245.57
559.81	2249.96
560.16	2253.61
560.52	2256.70
560.87	2260.19
561.23	2262.63
561.58	2265.54
561.94	2267.92
562.29	2270.39
562.64	2272.81
563.00	2275.44
563.35	2278.95
563.71	2282.17
564.06	2285.22
564.42	2288.04
564.77	2290.31
565.12	2292.66
565.48	2294.41
565.83	2295.99
566.19	2297.31
566.54	2298.32
566.89	2299.30
567.25	2299.45
567.60	2300.80
567.96	2302.45
568.31	2303.10
568.66	2304.10
569.02	2304.46
569.37	2304.77
569.72	2305.29
570.08	2305.21
570.43	2305.05
570.78	2304.27
571.14	2302.59
571.49	2301.10
571.84	2300.64
572.20	2299.40
572.55	2298.17
572.90	2296.39
573.26	2294.80
573.61	2292.97
573.96	2290.97
574.31	2287.87
574.67	2284.83
575.02	2280.93
575.37	2277.21
575.72	2273.21
576.08	2269.77
576.43	2266.42
576.78	2262.47
577.13	2259.24
577.49	2256.11
577.84	2252.53
578.19	2248.75
578.54	2244.87
578.90	2240.68
579.25	2235.02
579.60	2229.87
579.95	2224.67
580.30	2219.64
580.66	2214.39
581.01	2209.20
581.36	2204.16
581.71	2199.91
582.06	2195.30
582.42	2190.68
582.77	2185.43
583.12	2180.79
583.47	2175.89
583.82	2170.69
584.17	2165.29
584.53	2159.79
584.88	2153.98
585.23	2148.04
585.58	2142.38
585.93	2136.86
586.28	2131.92
586.63	2126.63
586.98	2121.55
587.34	2116.70
587.69	2111.75
588.04	2106.37
588.39	2100.60
588.74	2094.14
589.09	2087.79
589.44	2080.86
589.79	2074.97
590.14	2069.28
590.49	2062.55
590.84	2056.10
591.19	2049.97
591.54	2043.52
591.89	2035.83
592.25	2028.94
592.60	2021.62
592.95	2013.87
593.30	2006.38
593.65	1998.53
594.00	1991.35
594.35	1983.96
594.70	1975.84
595.05	1968.47
595.40	1961.19
595.75	1953.60
596.10	1947.22
596.45	1940.44
596.80	1934.22
597.15	1927.28
597.50	1919.98
597.85	1913.46
598.19	1906.81
598.54	1899.69
598.89	1893.10
599.24	1887.30
599.59	1880.43
599.94	1874.21
600.29	1867.73
600.64	1861.15
600.99	1853.73
601.34	1846.91
601.69	1839.82
602.04	1832.94
602.39	1825.56
602.74	1818.65
603.08	1811.96
603.43	1805.19
603.78	1797.87
604.13	1790.50
604.48	1783.17
604.83	1776.37
605.18	1769.36
605.53	1761.26
605.87	1753.23
606.22	1745.87
606.57	1737.91
606.92	1730.72
607.27	1723.51
607.62	1716.77
607.96	1709.47
608.31	1702.88
608.66	1695.20
609.01	1687.70
609.36	1680.18
609.70	1672.04
610.05	1663.92
610.40	1656.20
610.75	1647.97
611.10	1640.30
611.44	1632.14
611.79	1624.15
612.14	1615.46
612.49	1606.45
612.83	1598.14
613.18	1589.95
613.53	1581.91
613.88	1573.38
614.22	1565.17
614.57	1556.63
614.92	1548.56
615.27	1540.92
615.61	1532.64
615.96	1524.73
616.31	1517.23
616.65	1509.85
617.00	1502.40
617.35	1494.83
617.70	1486.41
618.04	1477.74
618.39	1469.56
618.74	1461.96
619.08	1453.67
619.43	1446.12
619.78	1439.29
620.12	1432.02
620.47	1424.63
620.82	1416.41
621.16	1409.11
621.51	1401.46
621.85	1393.91
622.20	1385.39
622.55	1377.18
622.89	1369.32
623.24	1361.78
623.59	1354.48
623.93	1346.94
624.28	1339.66
624.62	1332.21
624.97	1325.08
625.32	1318.49
625.66	1311.48
626.01	1304.26
626.35	1296.93
626.70	1289.24
627.04	1281.49
627.39	1273.79
627.73	1266.36
628.08	1259.46
628.43	1252.01
628.77	1244.63
629.12	1237.13
629.46	1230.00
629.81	1222.68
630.15	1215.48
630.50	1208.19
630.84	1199.96
631.19	1192.14
631.53	1184.74
631.88	1177.20
632.22	1169.66
632.57	1162.36
632.91	1154.91
633.26	1147.49
633.60	1140.22
633.95	1133.17
634.29	1126.13
634.64	1119.44
634.98	1112.09
635.32	1105.05
635.67	1098.72
636.01	1092.24
636.36	1085.42
636.70	1078.97
637.05	1072.40
637.39	1066.05
637.73	1059.48
638.08	1053.69
638.42	1047.69
638.77	1041.28
639.11	1034.71
639.45	1028.49
639.80	1021.80
640.14	1015.32
640.49	1008.88
640.83	1002.53
641.17	996.32
641.52	990.09
641.86	983.75
642.20	977.94
642.55	971.70
642.89	965.05
643.23	958.54
643.58	952.72
643.92	946.53
644.26	940.45
644.61	934.42
644.95	928.40
645.29	921.75
645.64	915.05
645.98	908.74
646.32	902.90
646.66	896.83
647.01	891.17
647.35	885.61
647.69	879.84
648.04	874.48
648.38	868.69
648.72	862.69
649.06	856.66
649.41	850.82
649.75	844.79
650.09	838.90
650.43	833.11
650.78	826.95
651.12	821.08
651.46	815.34
651.80	809.63
652.14	804.23
652.49	798.90
652.83	793.75
653.17	788.08
653.51	782.41
653.85	777.04
654.20	771.36
654.54	765.33
654.88	759.59
655.22	753.60
655.56	747.91
655.90	742.43
656.25	737.21
656.59	731.85
656.93	726.81
657.27	721.71
657.61	716.38
657.95	711.44
658.29	706.34
658.64	701.13
658.98	695.84
659.32	690.41
659.66	685.20
660.00	679.92
660.34	674.99
660.68	670.09
661.02	665.08
661.36	660.35
661.70	655.92
662.05	651.57
662.39	647.32
662.73	642.91
663.07	638.56
663.41	634.12
663.75	629.64
664.09	625.15
664.43	620.82
664.77	616.62
665.11	612.25
665.45	608.19
665.79	604.18
666.13	600.06
666.47	596.02
666.81	591.91
667.15	587.82
667.49	583.97
667.83	580.16
668.17	576.25
668.51	572.21
668.85	568.17
669.19	564.38
669.53	560.53
669.87	556.73
670.21	553.03
670.55	549.43
670.89	546.08
671.23	542.58
671.57	539.07
671.91	535.57
672.25	532.21
672.58	528.70
672.92	525.31
673.26	522.21
673.60	519.12
673.94	516.06
674.28	513.22
674.62	510.31
674.96	507.30
675.30	504.39
675.64	501.55
675.97	498.80
676.31	495.94
676.65	492.98
676.99	490.31
677.33	487.50
677.67	484.70
678.01	481.66
678.34	478.76
678.68	475.96
679.02	473.21
679.36	470.46
679.70	467.76
680.04	464.98
680.37	462.05
680.71	459.23
681.05	456.58
681.39	453.89
681.73	451.25
682.06	448.71
682.40	446.18
682.74	443.63
683.08	441.14
683.42	438.62
683.75	436.20
684.09	433.66
684.43	431.26
684.77	428.79
685.10	426.47
685.44	424.15
685.78	421.87
686.12	419.60
686.45	417.39
686.79	415.13
687.13	413.00
687.46	410.90
687.80	408.79
688.14	406.65
688.48	404.60
688.81	402.33
689.15	400.18
689.49	398.06
689.82	396.01
690.16	393.91
690.50	391.96
690.83	390.02
691.17	388.01
691.51	386.14
691.84	384.35
692.18	382.41
692.52	380.48
692.85	378.52
693.19	376.65
693.52	374.82
693.86	373.01
694.20	371.24
694.53	369.47
694.87	367.64
695.21	365.85
695.54	364.02
695.88	362.33
696.21	360.62
696.55	358.93
696.88	357.24
697.22	355.59
697.56	353.95
697.89	352.27
698.23	350.68
698.56	349.00
698.90	347.38
699.23	345.77
699.57	344.24
699.90	342.71
700.24	341.17
700.58	339.60
700.91	338.12
701.25	336.58
701.58	335.16
701.92	333.80
702.25	332.39
702.59	331.08
702.92	329.73
703.26	328.46
703.59	327.19
703.93	326.03
704.26	324.77
704.60	323.47
704.93	322.19
705.26	320.95
705.60	319.83
705.93	318.66
706.27	317.64
706.60	316.59
706.94	315.50
707.27	314.34
707.61	313.29
707.94	312.25
708.27	311.26
708.61	310.22
708.94	309.22
709.28	308.28
709.61	307.28
709.94	306.35
710.28	305.32
710.61	304.35
710.95	303.28
711.28	302.41
711.61	301.49
711.95	300.61
712.28	299.68
712.61	298.68
712.95	297.81
713.28	296.91
713.61	296.00
713.95	295.07
714.28	294.28
714.61	293.47
714.95	292.60
715.28	291.76
715.61	290.92
715.95	290.06
716.28	289.15
716.61	288.34
716.95	287.55
717.28	286.82
717.61	286.08
717.94	285.37
718.28	284.56
718.61	283.87
718.94	283.17
719.27	282.51
719.61	281.87
719.94	281.23
720.27	280.55
720.60	279.90
720.94	279.34
721.27	278.76
721.60	278.18
721.93	277.65
722.27	277.11
722.60	276.59
722.93	276.04
723.26	275.57
723.59	275.02
723.93	274.47
724.26	273.91
724.59	273.37
724.92	272.83
725.25	272.39
725.59	271.85
725.92	271.38
726.25	270.90
726.58	270.46
726.91	269.93
727.24	269.41
727.57	268.92
727.91	268.45
728.24	268.02
728.57	267.55
728.90	267.09
729.23	266.62
729.56	266.20
729.89	265.75
730.22	265.27
730.55	264.81
730.89	264.36
731.22	263.91
731.55	263.48
731.88	263.07
732.21	262.58
732.54	262.19
732.87	261.76
733.20	261.39
733.53	260.99
733.86	260.62
734.19	260.25
734.52	259.91
734.85	259.61
735.18	259.16
735.51	258.79
735.84	258.39
736.17	258.01
736.50	257.58
736.83	257.35
737.16	256.98
737.49	256.65
737.82	256.32
738.15	256.01
738.48	255.63
738.81	255.27
739.14	254.96
739.47	254.63
739.80	254.30
740.13	253.97
740.46	253.60
740.79	253.28
741.12	252.96
741.45	252.60
741.78	252.22
742.11	251.93
742.44	251.57
742.77	251.31
743.10	251.02
743.43	250.69
743.75	250.32
744.08	250.16
744.41	249.91
744.74	249.65
745.07	249.35
745.40	249.15
745.73	248.97
746.06	248.66
746.39	248.34
746.71	248.07
747.04	247.81
747.37	247.56
747.70	247.29
748.03	247.06
748.36	246.88
748.68	246.62
749.01	246.37
749.34	246.15
749.67	245.86
750.00	245.62
750.33	245.50
750.65	245.24
750.98	244.97
751.31	244.69
751.64	244.47
751.97	244.34
752.29	244.08
752.62	243.80
752.95	243.62
753.28	243.43
753.60	243.23
753.93	243.00
754.26	242.79
754.59	242.58
754.91	242.35
755.24	242.12
755.57	241.93
755.90	241.73
756.22	241.57
756.55	241.38
756.88	241.24
757.20	241.00
757.53	240.83
757.86	240.62
758.19	240.50
758.51	240.34
758.84	240.14
759.17	239.97
759.49	239.83
759.82	239.75
760.15	239.61
760.47	239.48
760.80	239.31
761.13	239.21
761.45	239.09
761.78	238.96
762.11	238.84
762.43	238.70
762.76	238.59
763.08	238.47
763.41	238.36
763.74	238.23
764.06	238.09
764.39	237.96
764.71	237.85
765.04	237.71
765.37	237.56
765.69	237.43
766.02	237.33
766.34	237.20
766.67	237.06
767.00	236.97
767.32	236.93
767.65	236.91
767.97	236.82
768.30	236.68
768.62	236.57
768.95	236.44
769.27	236.31
769.60	236.22
769.92	236.07
770.25	235.98
770.57	235.86
770.90	235.75
771.22	235.68
771.55	235.56
771.87	235.49
772.20	235.39
772.52	235.37
772.85	235.39
773.17	235.32
773.50	235.19
773.82	235.05
774.15	234.89
774.47	234.76
774.80	234.65
775.12	234.57
775.45	234.51
775.77	234.44
776.09	234.40
776.42	234.33
776.74	234.32
777.07	234.22
777.39	234.14
777.72	234.07
778.04	233.96
778.36	233.89
778.69	233.80
779.01	233.73
779.33	233.55
779.66	233.35
779.98	233.24
780.31	233.17
780.63	233.18
780.95	233.12
781.28	233.07
781.60	232.98
781.92	232.94
782.25	232.91
782.57	232.85
782.89	232.77
783.22	232.69
783.54	232.60
783.86	232.57
784.19	232.51
784.51	232.48
784.83	232.45
785.16	232.35
785.48	232.32
785.80	232.28
786.12	232.27
786.45	232.24
786.77	232.23
787.09	232.17
