SpectraSuite Data File
++++++++++++++++++++++++++++++++++++
Date: Fri Feb 01 15:33:38 EST 2013
User: group
Dark Spectrum Present: No
Reference Spectrum Present: No
Number of Sampled Component Spectra: 1
Spectrometers: USB2E7196
Integration Time (usec): 35000 (USB2E7196)
Spectra Averaged: 100 (USB2E7196)
Boxcar Smoothing: 10 (USB2E7196)
Correct for Electrical Dark: No (USB2E7196)
Strobe/Lamp Enabled: No (USB2E7196)
Correct for Detector Non-linearity: No (USB2E7196)
Correct for Stray Light: No (USB2E7196)
Number of Pixels in Processed Spectrum: 2048
>>>>>Begin Processed Spectral Data<<<<<
339.09	0.00
339.48	214.36
339.86	215.64
340.24	217.51
340.63	218.80
341.01	221.43
341.39	222.14
341.78	223.72
342.16	224.22
342.54	224.78
342.93	213.14
343.31	223.91
343.69	224.50
344.07	224.96
344.46	225.39
344.84	225.77
345.22	226.03
345.60	226.25
345.99	226.44
346.37	226.57
346.75	226.65
347.13	226.70
347.52	226.73
347.90	226.80
348.28	226.80
348.66	226.84
349.05	226.88
349.43	226.93
349.81	226.96
350.19	227.03
350.57	227.10
350.96	227.14
351.34	227.26
351.72	227.31
352.10	227.44
352.48	227.52
352.87	227.55
353.25	227.59
353.63	227.67
354.01	227.69
354.39	227.76
354.77	227.83
355.15	227.92
355.54	227.98
355.92	228.00
356.30	228.08
356.68	228.20
357.06	228.25
357.44	228.28
357.82	228.35
358.20	228.42
358.58	228.47
358.97	228.53
359.35	228.57
359.73	228.67
360.11	228.69
360.49	228.75
360.87	228.83
361.25	228.92
361.63	229.00
362.01	229.05
362.39	229.11
362.77	229.18
363.15	229.19
363.53	229.22
363.91	229.28
364.29	229.31
364.67	229.22
365.05	229.23
365.43	229.26
365.81	229.26
366.19	229.30
366.57	229.33
366.95	229.35
367.33	229.30
367.71	229.29
368.09	229.30
368.47	229.24
368.85	229.23
369.23	229.21
369.61	229.16
369.99	229.19
370.37	229.15
370.75	229.15
371.13	229.13
371.51	229.09
371.89	229.04
372.27	228.97
372.65	228.95
373.03	228.91
373.41	228.86
373.78	228.79
374.16	228.69
374.54	228.58
374.92	228.51
375.30	228.47
375.68	228.40
376.06	228.32
376.44	228.26
376.82	228.19
377.19	228.12
377.57	228.00
377.95	227.89
378.33	227.79
378.71	227.67
379.09	227.59
379.47	227.55
379.84	227.51
380.22	227.43
380.60	227.37
380.98	227.28
381.36	227.19
381.73	227.14
382.11	227.11
382.49	227.08
382.87	227.00
383.25	226.94
383.62	226.94
384.00	226.91
384.38	226.85
384.76	226.82
385.13	226.80
385.51	226.79
385.89	226.74
386.27	226.71
386.64	226.68
387.02	226.64
387.40	226.57
387.78	226.50
388.15	226.48
388.53	226.43
388.91	226.42
389.29	226.39
389.66	226.37
390.04	226.35
390.42	226.36
390.79	226.33
391.17	226.32
391.55	226.21
391.92	226.21
392.30	226.22
392.68	226.16
393.05	226.15
393.43	226.17
393.81	226.15
394.18	226.17
394.56	226.20
394.94	226.24
395.31	226.28
395.69	226.35
396.06	226.38
396.44	226.42
396.82	226.44
397.19	226.50
397.57	226.54
397.95	226.57
398.32	226.57
398.70	226.65
399.07	226.74
399.45	226.81
399.82	226.87
400.20	226.93
400.58	227.07
400.95	227.12
401.33	227.17
401.70	227.34
402.08	227.40
402.45	227.47
402.83	227.57
403.20	227.66
403.58	227.74
403.95	227.86
404.33	228.00
404.71	228.16
405.08	228.35
405.46	228.49
405.83	228.65
406.21	228.82
406.58	228.99
406.96	229.13
407.33	229.31
407.70	229.50
408.08	229.76
408.45	229.95
408.83	230.21
409.20	230.43
409.58	230.63
409.95	230.92
410.33	231.20
410.70	231.47
411.08	231.80
411.45	232.11
411.82	232.44
412.20	232.81
412.57	233.20
412.95	233.50
413.32	233.91
413.69	234.32
414.07	234.74
414.44	235.20
414.82	235.68
415.19	236.24
415.56	236.81
415.94	237.37
416.31	238.00
416.68	238.62
417.06	239.34
417.43	240.01
417.81	240.80
418.18	241.57
418.55	242.41
418.93	243.25
419.30	244.15
419.67	245.09
420.04	246.05
420.42	247.05
420.79	248.23
421.16	249.41
421.54	250.59
421.91	251.82
422.28	253.09
422.66	254.44
423.03	255.75
423.40	257.06
423.77	258.48
424.15	259.90
424.52	261.41
424.89	263.03
425.26	264.60
425.64	266.02
426.01	267.64
426.38	269.33
426.75	271.00
427.13	272.74
427.50	274.54
427.87	276.41
428.24	278.27
428.61	280.03
428.99	281.93
429.36	284.03
429.73	286.09
430.10	288.10
430.47	290.14
430.85	292.26
431.22	294.55
431.59	296.94
431.96	299.19
432.33	301.68
432.70	304.05
433.08	306.89
433.45	309.56
433.82	312.16
434.19	314.97
434.56	317.82
434.93	320.48
435.30	323.10
435.68	325.98
436.05	328.82
436.42	331.57
436.79	334.13
437.16	336.88
437.53	339.72
437.90	342.57
438.27	345.33
438.64	348.19
439.01	350.70
439.38	352.93
439.75	355.11
440.13	357.56
440.50	359.91
440.87	361.71
441.24	363.62
441.61	365.82
441.98	367.36
442.35	369.19
442.72	371.05
443.09	372.90
443.46	373.90
443.83	374.45
444.20	374.98
444.57	375.79
444.94	376.03
445.31	376.34
445.68	376.66
446.05	376.70
446.42	376.29
446.79	375.87
447.16	375.42
447.53	375.13
447.90	373.95
448.27	372.77
448.64	371.19
449.01	370.03
449.37	368.02
449.74	366.10
450.11	363.81
450.48	361.30
450.85	358.78
451.22	356.60
451.59	354.62
451.96	352.69
452.33	350.07
452.70	347.72
453.07	344.90
453.43	342.00
453.80	339.23
454.17	336.54
454.54	334.02
454.91	331.29
455.28	328.57
455.65	326.09
456.02	323.61
456.38	321.48
456.75	318.81
457.12	316.56
457.49	314.31
457.86	312.15
458.23	310.33
458.59	308.27
458.96	306.19
459.33	304.29
459.70	302.44
460.07	300.96
460.43	299.29
460.80	297.66
461.17	296.24
461.54	294.78
461.91	293.38
462.27	291.96
462.64	290.69
463.01	289.34
463.38	288.03
463.74	286.68
464.11	285.48
464.48	284.48
464.85	283.33
465.21	282.47
465.58	281.53
465.95	280.40
466.32	279.43
466.68	278.54
467.05	277.68
467.42	276.79
467.78	275.84
468.15	274.94
468.52	274.28
468.88	273.41
469.25	272.65
469.62	272.01
469.98	271.35
470.35	270.72
470.72	270.11
471.08	269.48
471.45	268.94
471.82	268.41
472.18	267.77
472.55	267.34
472.92	266.81
473.28	266.36
473.65	265.90
474.02	265.47
474.38	265.09
474.75	264.75
475.11	264.37
475.48	264.12
475.85	263.84
476.21	263.60
476.58	263.41
476.94	263.25
477.31	263.10
477.67	262.96
478.04	262.82
478.41	262.77
478.77	262.81
479.14	262.75
479.50	262.77
479.87	262.88
480.23	262.95
480.60	263.03
480.96	263.12
481.33	263.34
481.69	263.53
482.06	263.74
482.42	263.95
482.79	264.22
483.15	264.54
483.52	264.94
483.88	265.28
484.25	265.66
484.61	266.10
484.98	266.55
485.34	267.08
485.71	267.65
486.07	268.29
486.44	268.91
486.80	269.62
487.17	270.31
487.53	271.12
487.90	271.98
488.26	272.93
488.62	273.92
488.99	274.91
489.35	275.97
489.72	277.07
490.08	278.27
490.44	279.49
490.81	280.79
491.17	282.14
491.54	283.62
491.90	285.16
492.26	286.81
492.63	288.52
492.99	290.30
493.36	292.24
493.72	294.24
494.08	296.29
494.45	298.53
494.81	300.93
495.17	303.35
495.54	305.91
495.90	308.57
496.26	311.31
496.63	314.27
496.99	317.38
497.35	320.65
497.72	324.05
498.08	327.61
498.44	331.31
498.80	335.24
499.17	339.29
499.53	343.44
499.89	347.78
500.26	352.33
500.62	356.96
500.98	361.89
501.34	366.97
501.71	372.31
502.07	377.73
502.43	383.33
502.79	389.17
503.16	395.22
503.52	401.51
503.88	407.91
504.24	414.60
504.60	421.55
504.97	428.69
505.33	436.03
505.69	443.71
506.05	451.50
506.41	459.41
506.78	467.57
507.14	476.03
507.50	484.79
507.86	493.77
508.22	502.98
508.59	512.21
508.95	521.85
509.31	531.68
509.67	541.79
510.03	552.06
510.39	562.61
510.75	573.45
511.12	584.37
511.48	595.68
511.84	607.16
512.20	618.62
512.56	630.66
512.92	642.82
513.28	655.15
513.64	667.64
514.00	680.39
514.37	693.32
514.73	706.41
515.09	719.42
515.45	732.76
515.81	746.32
516.17	760.30
516.53	774.41
516.89	788.56
517.25	802.79
517.61	817.27
517.97	831.76
518.33	846.25
518.69	861.13
519.05	876.14
519.41	891.22
519.77	906.79
520.13	922.19
520.49	937.67
520.85	953.17
521.21	968.90
521.57	985.21
521.93	1001.04
522.29	1017.41
522.65	1033.68
523.01	1049.98
523.37	1066.12
523.73	1082.32
524.09	1098.38
524.45	1114.79
524.81	1131.43
525.17	1148.33
525.53	1165.34
525.89	1182.26
526.25	1199.09
526.61	1215.51
526.97	1232.31
527.33	1248.85
527.68	1265.57
528.04	1281.95
528.40	1298.56
528.76	1315.66
529.12	1332.10
529.48	1349.04
529.84	1365.17
530.20	1381.96
530.56	1398.99
530.91	1416.49
531.27	1433.29
531.63	1449.79
531.99	1466.48
532.35	1482.61
532.71	1498.54
533.07	1514.70
533.42	1530.57
533.78	1546.67
534.14	1563.04
534.50	1578.44
534.86	1594.41
535.21	1609.53
535.57	1625.54
535.93	1641.13
536.29	1656.09
536.65	1671.24
537.00	1686.02
537.36	1701.31
537.72	1715.78
538.08	1730.10
538.44	1743.81
538.79	1757.64
539.15	1771.42
539.51	1785.02
539.87	1799.23
540.22	1813.00
540.58	1826.83
540.94	1840.30
541.29	1853.23
541.65	1865.93
542.01	1879.32
542.37	1891.67
542.72	1904.08
543.08	1915.95
543.44	1928.36
543.79	1939.44
544.15	1950.52
544.51	1962.06
544.87	1973.16
545.22	1984.00
545.58	1994.39
545.94	2004.23
546.29	2014.22
546.65	2024.05
547.01	2033.42
547.36	2042.24
547.72	2050.66
548.07	2058.57
548.43	2066.79
548.79	2074.73
549.14	2082.20
549.50	2089.41
549.86	2097.11
550.21	2104.52
550.57	2111.79
550.92	2118.27
551.28	2125.36
551.64	2132.49
551.99	2139.16
552.35	2145.33
552.70	2151.54
553.06	2157.56
553.41	2163.90
553.77	2170.06
554.13	2176.21
554.48	2182.27
554.84	2187.58
555.19	2193.03
555.55	2198.13
555.90	2202.50
556.26	2207.43
556.61	2212.38
556.97	2216.72
557.32	2220.81
557.68	2224.99
558.03	2229.15
558.39	2232.98
558.74	2237.55
559.10	2241.39
559.45	2244.96
559.81	2249.15
560.16	2252.94
560.52	2256.09
560.87	2259.62
561.23	2262.25
561.58	2265.19
561.94	2267.72
562.29	2270.28
562.64	2272.82
563.00	2275.46
563.35	2279.04
563.71	2282.23
564.06	2285.36
564.42	2288.08
564.77	2290.49
565.12	2292.74
565.48	2294.62
565.83	2296.32
566.19	2297.66
566.54	2298.57
566.89	2299.73
567.25	2300.29
567.60	2301.62
567.96	2303.15
568.31	2303.89
568.66	2304.89
569.02	2305.40
569.37	2305.74
569.72	2306.50
570.08	2306.61
570.43	2306.64
570.78	2305.83
571.14	2304.23
571.49	2302.87
571.84	2302.48
572.20	2301.39
572.55	2300.15
572.90	2298.64
573.26	2297.42
573.61	2295.78
573.96	2293.86
574.31	2290.85
574.67	2287.92
575.02	2284.31
575.37	2281.06
575.72	2277.16
576.08	2273.91
576.43	2270.60
576.78	2266.80
577.13	2263.59
577.49	2260.50
577.84	2256.98
578.19	2253.31
578.54	2249.64
578.90	2245.33
579.25	2239.72
579.60	2234.59
579.95	2229.55
580.30	2224.47
580.66	2219.09
581.01	2213.97
581.36	2209.15
581.71	2204.89
582.06	2200.19
582.42	2195.45
582.77	2189.99
583.12	2185.36
583.47	2180.54
583.82	2175.39
584.17	2170.19
584.53	2164.68
584.88	2158.90
585.23	2153.01
585.58	2147.51
585.93	2141.97
586.28	2137.18
586.63	2132.21
586.98	2127.19
587.34	2122.42
587.69	2117.49
588.04	2112.19
588.39	2106.46
588.74	2099.93
589.09	2093.73
589.44	2087.01
589.79	2080.96
590.14	2075.46
590.49	2068.79
590.84	2062.31
591.19	2056.28
591.54	2049.82
591.89	2042.32
592.25	2035.52
592.60	2028.24
592.95	2020.50
593.30	2013.17
593.65	2005.48
594.00	1998.36
594.35	1991.08
594.70	1983.17
595.05	1975.72
595.40	1968.34
595.75	1960.86
596.10	1954.47
596.45	1947.58
596.80	1941.40
597.15	1934.77
597.50	1927.51
597.85	1921.18
598.19	1914.45
598.54	1907.33
598.89	1900.57
599.24	1894.75
599.59	1887.97
599.94	1881.64
600.29	1875.41
600.64	1868.68
600.99	1861.16
601.34	1854.24
601.69	1847.31
602.04	1840.33
602.39	1833.11
602.74	1826.37
603.08	1819.58
603.43	1812.84
603.78	1805.72
604.13	1798.41
604.48	1791.02
604.83	1784.27
605.18	1777.17
605.53	1769.16
605.87	1761.09
606.22	1753.75
606.57	1745.67
606.92	1738.40
607.27	1731.29
607.62	1724.32
607.96	1717.07
608.31	1710.38
608.66	1702.81
609.01	1695.17
609.36	1687.67
609.70	1679.65
610.05	1671.49
610.40	1663.74
610.75	1655.47
611.10	1647.73
611.44	1639.31
611.79	1631.41
612.14	1622.72
612.49	1613.63
612.83	1605.22
613.18	1597.09
613.53	1589.12
613.88	1580.57
614.22	1572.32
614.57	1563.80
614.92	1555.69
615.27	1548.08
615.61	1539.89
615.96	1531.78
616.31	1524.13
616.65	1516.67
617.00	1509.07
617.35	1501.44
617.70	1493.06
618.04	1484.47
618.39	1476.20
618.74	1468.68
619.08	1460.49
619.43	1452.87
619.78	1446.01
620.12	1438.92
620.47	1431.34
620.82	1423.13
621.16	1415.84
621.51	1408.19
621.85	1400.50
622.20	1392.05
622.55	1383.78
622.89	1375.78
623.24	1368.22
623.59	1360.85
623.93	1353.36
624.28	1346.04
624.62	1338.41
624.97	1331.42
625.32	1324.81
625.66	1317.79
626.01	1310.59
626.35	1303.05
626.70	1295.21
627.04	1287.31
627.39	1279.47
627.73	1272.09
628.08	1265.24
628.43	1257.80
628.77	1250.39
629.12	1242.84
629.46	1235.63
629.81	1228.08
630.15	1220.95
630.50	1213.56
630.84	1205.28
631.19	1197.21
631.53	1189.77
631.88	1182.29
632.22	1174.65
632.57	1167.28
632.91	1159.71
633.26	1152.25
633.60	1144.92
633.95	1137.83
634.29	1130.87
634.64	1124.27
634.98	1116.91
635.32	1109.76
635.67	1103.17
636.01	1096.57
636.36	1089.82
636.70	1083.32
637.05	1076.73
637.39	1070.27
637.73	1063.73
638.08	1057.93
638.42	1052.12
638.77	1045.70
639.11	1039.13
639.45	1032.63
639.80	1025.93
640.14	1019.46
640.49	1012.94
640.83	1006.62
641.17	1000.26
641.52	993.87
641.86	987.40
642.20	981.59
642.55	975.33
642.89	968.82
643.23	962.30
643.58	956.43
643.92	950.14
644.26	944.17
644.61	938.08
644.95	932.00
645.29	925.41
645.64	918.56
645.98	912.20
646.32	906.37
646.66	900.30
647.01	894.46
647.35	888.76
647.69	882.95
648.04	877.36
648.38	871.71
648.72	865.69
649.06	859.65
649.41	853.74
649.75	847.64
650.09	841.75
650.43	835.84
650.78	829.74
651.12	823.85
651.46	818.13
651.80	812.36
652.14	807.02
652.49	801.60
652.83	796.42
653.17	790.76
653.51	784.95
653.85	779.62
654.20	774.02
654.54	768.04
654.88	762.28
655.22	756.42
655.56	750.73
655.90	745.28
656.25	739.95
656.59	734.50
656.93	729.49
657.27	724.34
657.61	718.94
657.95	713.80
658.29	708.70
658.64	703.46
658.98	698.18
659.32	692.66
659.66	687.51
660.00	682.20
660.34	677.23
660.68	672.32
661.02	667.27
661.36	662.53
661.70	658.03
662.05	653.65
662.39	649.32
662.73	644.89
663.07	640.53
663.41	636.10
663.75	631.60
664.09	626.98
664.43	622.59
664.77	618.49
665.11	614.22
665.45	610.11
665.79	605.99
666.13	601.89
666.47	597.87
666.81	593.71
667.15	589.57
667.49	585.71
667.83	582.00
668.17	578.10
668.51	574.02
668.85	570.06
669.19	566.22
669.53	562.35
669.87	558.42
670.21	554.71
670.55	551.08
670.89	547.70
671.23	544.31
671.57	540.77
671.91	537.25
672.25	533.79
672.58	530.29
672.92	526.96
673.26	523.83
673.60	520.62
673.94	517.50
674.28	514.65
674.62	511.70
674.96	508.54
675.30	505.58
675.64	502.70
675.97	499.88
676.31	497.00
676.65	494.10
676.99	491.39
677.33	488.54
677.67	485.75
678.01	482.68
678.34	479.67
678.68	476.82
679.02	474.00
679.36	471.24
679.70	468.56
680.04	465.77
680.37	462.80
680.71	460.08
681.05	457.48
681.39	454.79
681.73	452.13
682.06	449.66
682.40	447.12
682.74	444.56
683.08	442.01
683.42	439.45
683.75	436.96
684.09	434.45
684.43	431.98
684.77	429.51
685.10	427.22
685.44	424.94
685.78	422.67
686.12	420.45
686.45	418.17
686.79	415.78
687.13	413.62
687.46	411.48
687.80	409.33
688.14	407.09
688.48	404.98
688.81	402.71
689.15	400.55
689.49	398.41
689.82	396.34
690.16	394.31
690.50	392.37
690.83	390.47
691.17	388.42
691.51	386.51
691.84	384.66
692.18	382.71
692.52	380.69
692.85	378.73
693.19	376.83
693.52	375.01
693.86	373.21
694.20	371.37
694.53	369.61
694.87	367.73
695.21	365.92
695.54	364.14
695.88	362.42
696.21	360.71
696.55	359.03
696.88	357.36
697.22	355.63
697.56	353.97
697.89	352.26
698.23	350.66
698.56	349.03
698.90	347.45
699.23	345.81
699.57	344.25
699.90	342.73
700.24	341.15
700.58	339.58
700.91	338.13
701.25	336.65
701.58	335.30
701.92	333.95
702.25	332.62
702.59	331.25
702.92	329.91
703.26	328.61
703.59	327.34
703.93	326.16
704.26	324.94
704.60	323.69
704.93	322.46
705.26	321.31
705.60	320.16
705.93	318.99
706.27	317.99
706.60	316.97
706.94	315.91
707.27	314.82
707.61	313.79
707.94	312.77
708.27	311.75
708.61	310.64
708.94	309.65
709.28	308.65
709.61	307.69
709.94	306.71
710.28	305.69
710.61	304.76
710.95	303.69
711.28	302.82
711.61	301.86
711.95	300.93
712.28	299.94
712.61	298.95
712.95	298.06
713.28	297.15
713.61	296.28
713.95	295.39
714.28	294.55
714.61	293.69
714.95	292.86
715.28	292.03
715.61	291.20
715.95	290.38
716.28	289.55
716.61	288.76
716.95	288.00
717.28	287.26
717.61	286.47
717.94	285.75
718.28	284.94
718.61	284.20
718.94	283.53
719.27	282.89
719.61	282.27
719.94	281.57
720.27	280.89
720.60	280.20
720.94	279.59
721.27	279.04
721.60	278.47
721.93	277.85
722.27	277.27
722.60	276.69
722.93	276.13
723.26	275.55
723.59	274.94
723.93	274.41
724.26	273.87
724.59	273.32
724.92	272.78
725.25	272.28
725.59	271.74
725.92	271.23
726.25	270.70
726.58	270.19
726.91	269.72
727.24	269.25
727.57	268.77
727.91	268.23
728.24	267.75
728.57	267.22
728.90	266.78
729.23	266.25
729.56	265.82
729.89	265.31
730.22	264.83
730.55	264.36
730.89	263.88
731.22	263.42
731.55	262.99
731.88	262.56
732.21	262.13
732.54	261.74
732.87	261.28
733.20	260.88
733.53	260.52
733.86	260.15
734.19	259.74
734.52	259.36
734.85	259.06
735.18	258.60
735.51	258.26
735.84	257.88
736.17	257.57
736.50	257.15
736.83	256.93
737.16	256.61
737.49	256.32
737.82	255.98
738.15	255.60
738.48	255.26
738.81	254.93
739.14	254.57
739.47	254.25
739.80	253.95
740.13	253.65
740.46	253.29
740.79	252.92
741.12	252.61
741.45	252.31
741.78	251.97
742.11	251.72
742.44	251.37
742.77	251.09
743.10	250.74
743.43	250.44
743.75	250.04
744.08	249.90
744.41	249.62
744.74	249.33
745.07	249.07
745.40	248.85
745.73	248.59
746.06	248.34
746.39	248.08
746.71	247.79
747.04	247.49
747.37	247.26
747.70	247.07
748.03	246.83
748.36	246.62
748.68	246.40
749.01	246.13
749.34	245.93
749.67	245.71
750.00	245.53
750.33	245.39
750.65	245.21
750.98	244.87
751.31	244.64
751.64	244.46
751.97	244.31
752.29	244.07
752.62	243.87
752.95	243.69
753.28	243.49
753.60	243.32
753.93	243.21
754.26	242.99
754.59	242.73
754.91	242.51
755.24	242.30
755.57	242.13
755.90	241.97
756.22	241.78
756.55	241.60
756.88	241.40
757.20	241.19
757.53	240.96
757.86	240.76
758.19	240.62
758.51	240.46
758.84	240.24
759.17	240.06
759.49	239.89
759.82	239.75
760.15	239.60
760.47	239.44
760.80	239.24
761.13	239.12
761.45	238.97
761.78	238.84
762.11	238.67
762.43	238.51
762.76	238.36
763.08	238.26
763.41	238.11
763.74	237.97
764.06	237.82
764.39	237.71
764.71	237.63
765.04	237.48
765.37	237.35
765.69	237.22
766.02	237.09
766.34	236.96
766.67	236.80
767.00	236.69
767.32	236.63
767.65	236.55
767.97	236.46
768.30	236.35
768.62	236.26
768.95	236.17
769.27	236.04
769.60	235.91
769.92	235.75
770.25	235.61
770.57	235.51
770.90	235.41
771.22	235.28
771.55	235.16
771.87	235.01
772.20	234.91
772.52	234.91
772.85	234.94
773.17	234.84
773.50	234.73
773.82	234.65
774.15	234.49
774.47	234.33
774.80	234.18
775.12	234.09
775.45	233.99
775.77	233.89
776.09	233.82
776.42	233.74
776.74	233.67
777.07	233.61
777.39	233.52
777.72	233.43
778.04	233.36
778.36	233.29
778.69	233.28
779.01	233.19
779.33	232.98
779.66	232.80
779.98	232.72
780.31	232.64
780.63	232.55
780.95	232.51
781.28	232.41
781.60	232.37
781.92	232.31
782.25	232.25
782.57	232.17
782.89	232.12
783.22	232.03
783.54	231.95
783.86	231.92
784.19	231.87
784.51	231.86
784.83	231.80
785.16	231.73
785.48	231.63
785.80	231.57
786.12	231.57
786.45	231.51
786.77	231.47
787.09	231.41
