SpectraSuite Data File
++++++++++++++++++++++++++++++++++++
Date: Fri Feb 01 16:51:55 EST 2013
User: group
Dark Spectrum Present: No
Reference Spectrum Present: No
Number of Sampled Component Spectra: 1
Spectrometers: USB2E7196
Integration Time (usec): 35000 (USB2E7196)
Spectra Averaged: 100 (USB2E7196)
Boxcar Smoothing: 10 (USB2E7196)
Correct for Electrical Dark: No (USB2E7196)
Strobe/Lamp Enabled: No (USB2E7196)
Correct for Detector Non-linearity: No (USB2E7196)
Correct for Stray Light: No (USB2E7196)
Number of Pixels in Processed Spectrum: 2048
>>>>>Begin Processed Spectral Data<<<<<
339.09	0.00
339.48	213.56
339.86	214.80
340.24	216.72
340.63	217.97
341.01	220.59
341.39	220.67
341.78	221.83
342.16	222.82
342.54	223.56
342.93	211.92
343.31	222.65
343.69	223.18
344.07	223.66
344.46	224.08
344.84	224.44
345.22	224.66
345.60	224.89
345.99	225.05
346.37	225.16
346.75	225.26
347.13	225.32
347.52	225.37
347.90	225.43
348.28	225.46
348.66	225.52
349.05	225.47
349.43	225.50
349.81	225.56
350.19	225.57
350.57	225.63
350.96	225.71
351.34	225.75
351.72	225.82
352.10	225.87
352.48	225.89
352.87	225.92
353.25	225.97
353.63	226.02
354.01	226.09
354.39	226.15
354.77	226.22
355.15	226.33
355.54	226.38
355.92	226.41
356.30	226.42
356.68	226.55
357.06	226.66
357.44	226.70
357.82	226.74
358.20	226.79
358.58	226.84
358.97	226.88
359.35	226.94
359.73	227.02
360.11	227.09
360.49	227.14
360.87	227.19
361.25	227.25
361.63	227.31
362.01	227.34
362.39	227.36
362.77	227.35
363.15	227.35
363.53	227.37
363.91	227.38
364.29	227.44
364.67	227.34
365.05	227.34
365.43	227.37
365.81	227.40
366.19	227.47
366.57	227.52
366.95	227.49
367.33	227.48
367.71	227.46
368.09	227.44
368.47	227.42
368.85	227.38
369.23	227.39
369.61	227.36
369.99	227.38
370.37	227.39
370.75	227.42
371.13	227.37
371.51	227.36
371.89	227.31
372.27	227.27
372.65	227.23
373.03	227.16
373.41	227.11
373.78	227.06
374.16	226.94
374.54	226.85
374.92	226.81
375.30	226.76
375.68	226.67
376.06	226.63
376.44	226.61
376.82	226.57
377.19	226.49
377.57	226.45
377.95	226.33
378.33	226.26
378.71	226.17
379.09	226.16
379.47	226.08
379.84	226.02
380.22	225.96
380.60	225.91
380.98	225.88
381.36	225.81
381.73	225.70
382.11	225.65
382.49	225.58
382.87	225.48
383.25	225.42
383.62	225.50
384.00	225.42
384.38	225.37
384.76	225.35
385.13	225.35
385.51	225.29
385.89	225.26
386.27	225.23
386.64	225.19
387.02	225.10
387.40	225.07
387.78	225.04
388.15	225.04
388.53	225.03
388.91	224.98
389.29	224.95
389.66	224.95
390.04	224.93
390.42	224.93
390.79	224.94
391.17	224.92
391.55	224.82
391.92	224.82
392.30	224.81
392.68	224.77
393.05	224.74
393.43	224.74
393.81	224.76
394.18	224.72
394.56	224.74
394.94	224.81
395.31	224.81
395.69	224.88
396.06	224.89
396.44	224.89
396.82	224.93
397.19	225.00
397.57	225.05
397.95	225.11
398.32	225.12
398.70	225.19
399.07	225.27
399.45	225.31
399.82	225.36
400.20	225.41
400.58	225.46
400.95	225.52
401.33	225.61
401.70	225.77
402.08	225.91
402.45	226.00
402.83	226.10
403.20	226.20
403.58	226.29
403.95	226.42
404.33	226.59
404.71	226.70
405.08	226.88
405.46	226.97
405.83	227.13
406.21	227.30
406.58	227.44
406.96	227.61
407.33	227.78
407.70	228.00
408.08	228.25
408.45	228.51
408.83	228.73
409.20	228.92
409.58	229.05
409.95	229.28
410.33	229.57
410.70	229.79
411.08	230.08
411.45	230.36
411.82	230.66
412.20	230.96
412.57	231.38
412.95	231.66
413.32	232.11
413.69	232.51
414.07	232.91
414.44	233.36
414.82	233.83
415.19	234.38
415.56	234.94
415.94	235.50
416.31	236.11
416.68	236.73
417.06	237.46
417.43	238.17
417.81	238.94
418.18	239.70
418.55	240.55
418.93	241.42
419.30	242.31
419.67	243.25
420.04	244.21
420.42	245.18
420.79	246.38
421.16	247.51
421.54	248.71
421.91	249.93
422.28	251.20
422.66	252.54
423.03	253.83
423.40	255.13
423.77	256.49
424.15	257.90
424.52	259.37
424.89	260.95
425.26	262.47
425.64	263.91
426.01	265.48
426.38	267.07
426.75	268.74
427.13	270.44
427.50	272.22
427.87	274.10
428.24	275.98
428.61	277.69
428.99	279.60
429.36	281.69
429.73	283.72
430.10	285.75
430.47	287.73
430.85	289.85
431.22	292.07
431.59	294.40
431.96	296.66
432.33	299.13
432.70	301.48
433.08	304.26
433.45	306.84
433.82	309.37
434.19	312.27
434.56	315.07
434.93	317.67
435.30	320.26
435.68	323.12
436.05	325.91
436.42	328.67
436.79	331.19
437.16	333.85
437.53	336.69
437.90	339.46
438.27	342.20
438.64	344.96
439.01	347.55
439.38	349.82
439.75	351.93
440.13	354.42
440.50	356.74
440.87	358.61
441.24	360.58
441.61	362.79
441.98	364.26
442.35	366.01
442.72	367.91
443.09	369.73
443.46	370.64
443.83	371.22
444.20	371.76
444.57	372.56
444.94	372.89
445.31	373.20
445.68	373.51
446.05	373.62
446.42	373.30
446.79	372.88
447.16	372.45
447.53	372.14
447.90	370.97
448.27	369.82
448.64	368.26
449.01	367.18
449.37	365.23
449.74	363.37
450.11	361.23
450.48	358.76
450.85	356.23
451.22	354.18
451.59	352.20
451.96	350.26
452.33	347.69
452.70	345.35
453.07	342.57
453.43	339.74
453.80	337.00
454.17	334.30
454.54	331.80
454.91	329.11
455.28	326.49
455.65	324.05
456.02	321.65
456.38	319.50
456.75	316.80
457.12	314.53
457.49	312.33
457.86	310.13
458.23	308.30
458.59	306.28
458.96	304.25
459.33	302.40
459.70	300.53
460.07	299.09
460.43	297.36
460.80	295.73
461.17	294.29
461.54	292.79
461.91	291.38
462.27	289.91
462.64	288.67
463.01	287.31
463.38	286.04
463.74	284.67
464.11	283.49
464.48	282.48
464.85	281.39
465.21	280.50
465.58	279.59
465.95	278.52
466.32	277.63
466.68	276.70
467.05	275.79
467.42	274.91
467.78	273.95
468.15	273.07
468.52	272.43
468.88	271.60
469.25	270.84
469.62	270.23
469.98	269.59
470.35	268.97
470.72	268.39
471.08	267.73
471.45	267.19
471.82	266.70
472.18	266.12
472.55	265.69
472.92	265.18
473.28	264.70
473.65	264.26
474.02	263.82
474.38	263.42
474.75	263.14
475.11	262.80
475.48	262.52
475.85	262.30
476.21	262.09
476.58	261.91
476.94	261.78
477.31	261.60
477.67	261.49
478.04	261.38
478.41	261.32
478.77	261.38
479.14	261.35
479.50	261.37
479.87	261.42
480.23	261.54
480.60	261.62
480.96	261.75
481.33	261.95
481.69	262.16
482.06	262.39
482.42	262.58
482.79	262.88
483.15	263.24
483.52	263.63
483.88	264.00
484.25	264.42
484.61	264.87
484.98	265.36
485.34	265.89
485.71	266.52
486.07	267.12
486.44	267.66
486.80	268.34
487.17	269.07
487.53	269.88
487.90	270.72
488.26	271.64
488.62	272.64
488.99	273.63
489.35	274.67
489.72	275.81
490.08	277.02
490.44	278.22
490.81	279.55
491.17	280.90
491.54	282.34
491.90	283.83
492.26	285.44
492.63	287.15
492.99	288.90
493.36	290.73
493.72	292.79
494.08	294.94
494.45	297.17
494.81	299.53
495.17	301.99
495.54	304.53
495.90	307.23
496.26	310.01
496.63	312.97
496.99	316.09
497.35	319.32
497.72	322.74
498.08	326.28
498.44	329.92
498.80	333.86
499.17	337.94
499.53	342.12
499.89	346.49
500.26	351.00
500.62	355.65
500.98	360.65
501.34	365.72
501.71	371.02
502.07	376.51
502.43	382.05
502.79	387.88
503.16	393.96
503.52	400.18
503.88	406.56
504.24	413.18
504.60	420.04
504.97	427.11
505.33	434.39
505.69	442.05
506.05	449.86
506.41	457.71
506.78	465.76
507.14	474.17
507.50	482.85
507.86	491.82
508.22	500.98
508.59	510.16
508.95	519.66
509.31	529.40
509.67	539.39
510.03	549.67
510.39	560.12
510.75	570.87
511.12	581.80
511.48	593.02
511.84	604.42
512.20	615.79
512.56	627.67
512.92	639.69
513.28	651.91
513.64	664.17
514.00	676.70
514.37	689.57
514.73	702.52
515.09	715.40
515.45	728.50
515.81	741.94
516.17	755.73
516.53	769.70
516.89	783.67
517.25	797.67
517.61	811.94
517.97	826.25
518.33	840.56
518.69	855.12
519.05	869.92
519.41	884.85
519.77	900.19
520.13	915.48
520.49	930.69
520.85	945.94
521.21	961.54
521.57	977.58
521.93	993.20
522.29	1009.35
522.65	1025.43
523.01	1041.46
523.37	1057.29
523.73	1073.24
524.09	1089.04
524.45	1105.17
524.81	1121.55
525.17	1138.01
525.53	1154.59
525.89	1171.13
526.25	1187.81
526.61	1204.04
526.97	1220.56
527.33	1236.80
527.68	1253.17
528.04	1269.43
528.40	1285.74
528.76	1302.51
529.12	1318.85
529.48	1335.50
529.84	1351.31
530.20	1367.64
530.56	1384.32
530.91	1401.53
531.27	1417.98
531.63	1434.29
531.99	1450.61
532.35	1466.46
532.71	1482.26
533.07	1498.32
533.42	1514.09
533.78	1529.93
534.14	1545.83
534.50	1560.99
534.86	1576.68
535.21	1591.57
535.57	1607.27
535.93	1622.57
536.29	1637.09
536.65	1651.87
537.00	1666.31
537.36	1681.33
537.72	1695.71
538.08	1710.02
538.44	1723.56
538.79	1737.27
539.15	1750.65
539.51	1764.20
539.87	1778.23
540.22	1791.56
540.58	1805.08
540.94	1818.07
541.29	1830.56
541.65	1843.23
542.01	1856.18
542.37	1868.40
542.72	1880.64
543.08	1892.32
543.44	1904.47
543.79	1915.63
544.15	1926.39
544.51	1937.71
544.87	1948.54
545.22	1959.18
545.58	1969.34
545.94	1979.04
546.29	1988.76
546.65	1998.52
547.01	2007.69
547.36	2016.32
547.72	2024.76
548.07	2032.55
548.43	2040.57
548.79	2048.46
549.14	2055.87
549.50	2063.10
549.86	2070.50
550.21	2077.70
550.57	2084.85
550.92	2091.54
551.28	2098.46
551.64	2105.69
551.99	2112.21
552.35	2118.36
552.70	2124.43
553.06	2130.29
553.41	2136.55
553.77	2142.72
554.13	2148.70
554.48	2154.81
554.84	2160.30
555.19	2165.54
555.55	2170.78
555.90	2175.33
556.26	2180.28
556.61	2185.01
556.97	2189.35
557.32	2193.49
557.68	2197.69
558.03	2201.78
558.39	2205.29
558.74	2210.05
559.10	2213.88
559.45	2217.67
559.81	2221.88
560.16	2225.85
560.52	2229.18
560.87	2232.62
561.23	2235.28
561.58	2238.22
561.94	2240.78
562.29	2243.18
562.64	2246.04
563.00	2248.52
563.35	2252.16
563.71	2255.33
564.06	2258.44
564.42	2261.44
564.77	2264.14
565.12	2266.40
565.48	2268.56
565.83	2270.68
566.19	2272.09
566.54	2272.97
566.89	2274.25
567.25	2275.05
567.60	2276.33
567.96	2278.17
568.31	2278.94
568.66	2280.17
569.02	2280.96
569.37	2281.39
569.72	2282.37
570.08	2282.72
570.43	2282.97
570.78	2282.51
571.14	2281.17
571.49	2280.03
571.84	2279.71
572.20	2278.82
572.55	2277.85
572.90	2276.27
573.26	2275.09
573.61	2273.44
573.96	2272.09
574.31	2269.25
574.67	2266.53
575.02	2263.17
575.37	2259.86
575.72	2256.57
576.08	2253.22
576.43	2250.08
576.78	2246.62
577.13	2243.47
577.49	2240.39
577.84	2237.08
578.19	2233.41
578.54	2229.98
578.90	2226.09
579.25	2220.91
579.60	2216.06
579.95	2211.43
580.30	2206.59
580.66	2201.50
581.01	2196.67
581.36	2191.84
581.71	2187.74
582.06	2183.34
582.42	2179.05
582.77	2173.88
583.12	2169.40
583.47	2164.99
583.82	2160.19
584.17	2155.05
584.53	2149.89
584.88	2144.36
585.23	2138.81
585.58	2133.45
585.93	2128.04
586.28	2123.26
586.63	2118.28
586.98	2113.43
587.34	2108.76
587.69	2104.05
588.04	2098.98
588.39	2093.55
588.74	2087.13
589.09	2081.10
589.44	2074.36
589.79	2068.26
590.14	2062.88
590.49	2056.32
590.84	2049.99
591.19	2044.06
591.54	2037.76
591.89	2030.64
592.25	2024.18
592.60	2017.08
592.95	2009.81
593.30	2002.72
593.65	1995.28
594.00	1988.31
594.35	1981.06
594.70	1973.18
595.05	1966.29
595.40	1959.01
595.75	1951.60
596.10	1945.66
596.45	1939.20
596.80	1933.36
597.15	1927.06
597.50	1920.21
597.85	1913.85
598.19	1907.33
598.54	1900.36
598.89	1893.82
599.24	1887.97
599.59	1881.42
599.94	1875.34
600.29	1868.94
600.64	1862.49
600.99	1855.24
601.34	1848.48
601.69	1841.67
602.04	1834.86
602.39	1827.54
602.74	1820.80
603.08	1814.08
603.43	1807.36
603.78	1800.08
604.13	1792.88
604.48	1785.71
604.83	1778.91
605.18	1772.17
605.53	1764.24
605.87	1756.42
606.22	1749.31
606.57	1741.35
606.92	1733.96
607.27	1726.88
607.62	1720.18
607.96	1713.06
608.31	1706.64
608.66	1699.21
609.01	1691.70
609.36	1684.25
609.70	1676.29
610.05	1668.44
610.40	1660.89
610.75	1652.60
611.10	1645.00
611.44	1636.46
611.79	1628.39
612.14	1619.69
612.49	1610.47
612.83	1602.01
613.18	1593.78
613.53	1585.63
613.88	1577.19
614.22	1569.05
614.57	1560.38
614.92	1552.48
615.27	1544.99
615.61	1536.53
615.96	1528.40
616.31	1520.90
616.65	1513.59
617.00	1505.97
617.35	1498.30
617.70	1490.05
618.04	1481.62
618.39	1473.47
618.74	1466.05
619.08	1457.79
619.43	1450.14
619.78	1443.24
620.12	1436.26
620.47	1428.87
620.82	1420.73
621.16	1413.28
621.51	1405.59
621.85	1397.92
622.20	1389.24
622.55	1380.71
622.89	1372.86
623.24	1365.25
623.59	1357.69
623.93	1350.17
624.28	1343.05
624.62	1335.53
624.97	1328.36
625.32	1321.51
625.66	1314.43
626.01	1307.25
626.35	1299.89
626.70	1292.24
627.04	1284.61
627.39	1276.85
627.73	1269.45
628.08	1262.63
628.43	1255.42
628.77	1248.10
629.12	1240.68
629.46	1233.62
629.81	1226.14
630.15	1218.95
630.50	1211.61
630.84	1203.56
631.19	1195.59
631.53	1188.01
631.88	1180.46
632.22	1172.86
632.57	1165.60
632.91	1158.01
633.26	1150.58
633.60	1143.23
633.95	1136.00
634.29	1128.88
634.64	1122.22
634.98	1114.83
635.32	1107.67
635.67	1100.88
636.01	1094.12
636.36	1087.33
636.70	1080.68
637.05	1074.20
637.39	1067.73
637.73	1061.25
638.08	1055.35
638.42	1049.41
638.77	1043.09
639.11	1036.52
639.45	1030.13
639.80	1023.55
640.14	1017.23
640.49	1010.82
640.83	1004.43
641.17	998.34
641.52	992.00
641.86	985.37
642.20	979.50
642.55	973.15
642.89	966.82
643.23	960.38
643.58	954.61
643.92	948.56
644.26	942.57
644.61	936.52
644.95	930.54
645.29	923.97
645.64	917.28
645.98	910.99
646.32	905.14
646.66	899.14
647.01	893.38
647.35	887.68
647.69	881.72
648.04	876.21
648.38	870.39
648.72	864.51
649.06	858.59
649.41	852.68
649.75	846.81
650.09	840.96
650.43	835.23
650.78	829.09
651.12	823.09
651.46	817.36
651.80	811.76
652.14	806.28
652.49	800.96
652.83	795.72
653.17	789.95
653.51	784.23
653.85	778.73
654.20	773.03
654.54	766.93
654.88	761.24
655.22	755.39
655.56	749.67
655.90	744.19
656.25	738.99
656.59	733.63
656.93	728.53
657.27	723.41
657.61	717.95
657.95	712.88
658.29	707.84
658.64	702.58
658.98	697.24
659.32	691.80
659.66	686.58
660.00	681.34
660.34	676.37
660.68	671.51
661.02	666.58
661.36	661.95
661.70	657.54
662.05	653.23
662.39	648.92
662.73	644.56
663.07	640.22
663.41	635.76
663.75	631.39
664.09	626.83
664.43	622.37
664.77	618.26
665.11	613.97
665.45	609.84
665.79	605.79
666.13	601.59
666.47	597.57
666.81	593.44
667.15	589.32
667.49	585.46
667.83	581.60
668.17	577.65
668.51	573.54
668.85	569.48
669.19	565.63
669.53	561.87
669.87	557.95
670.21	554.23
670.55	550.59
670.89	547.15
671.23	543.69
671.57	540.18
671.91	536.69
672.25	533.20
672.58	529.66
672.92	526.21
673.26	523.02
673.60	519.84
673.94	516.67
674.28	513.75
674.62	510.80
674.96	507.71
675.30	504.82
675.64	501.94
675.97	499.14
676.31	496.30
676.65	493.30
676.99	490.63
677.33	487.77
677.67	484.95
678.01	481.89
678.34	479.02
678.68	476.12
679.02	473.30
679.36	470.55
679.70	467.84
680.04	465.11
680.37	462.26
680.71	459.52
681.05	456.92
681.39	454.18
681.73	451.54
682.06	449.01
682.40	446.46
682.74	443.88
683.08	441.36
683.42	438.74
683.75	436.22
684.09	433.61
684.43	431.14
684.77	428.65
685.10	426.26
685.44	423.88
685.78	421.62
686.12	419.38
686.45	417.02
686.79	414.70
687.13	412.47
687.46	410.27
687.80	408.06
688.14	405.83
688.48	403.81
688.81	401.58
689.15	399.39
689.49	397.24
689.82	395.17
690.16	393.11
690.50	391.15
690.83	389.26
691.17	387.26
691.51	385.37
691.84	383.57
692.18	381.64
692.52	379.67
692.85	377.69
693.19	375.79
693.52	373.99
693.86	372.19
694.20	370.42
694.53	368.70
694.87	366.81
695.21	365.05
695.54	363.17
695.88	361.42
696.21	359.71
696.55	358.01
696.88	356.32
697.22	354.63
697.56	353.00
697.89	351.36
698.23	349.80
698.56	348.16
698.90	346.60
699.23	345.01
699.57	343.45
699.90	341.94
700.24	340.34
700.58	338.85
700.91	337.42
701.25	335.96
701.58	334.56
701.92	333.19
702.25	331.79
702.59	330.46
702.92	329.10
703.26	327.84
703.59	326.59
703.93	325.42
704.26	324.17
704.60	322.88
704.93	321.54
705.26	320.28
705.60	319.10
705.93	317.90
706.27	316.90
706.60	315.88
706.94	314.75
707.27	313.66
707.61	312.53
707.94	311.44
708.27	310.38
708.61	309.27
708.94	308.29
709.28	307.32
709.61	306.36
709.94	305.41
710.28	304.35
710.61	303.35
710.95	302.27
711.28	301.38
711.61	300.43
711.95	299.56
712.28	298.63
712.61	297.63
712.95	296.69
713.28	295.75
713.61	294.79
713.95	293.92
714.28	293.08
714.61	292.22
714.95	291.39
715.28	290.52
715.61	289.66
715.95	288.78
716.28	287.84
716.61	287.02
716.95	286.18
717.28	285.42
717.61	284.64
717.94	283.91
718.28	283.06
718.61	282.28
718.94	281.52
719.27	280.81
719.61	280.18
719.94	279.49
720.27	278.76
720.60	278.12
720.94	277.46
721.27	276.90
721.60	276.36
721.93	275.74
722.27	275.16
722.60	274.60
722.93	274.02
723.26	273.59
723.59	273.02
723.93	272.47
724.26	271.91
724.59	271.35
724.92	270.78
725.25	270.30
725.59	269.83
725.92	269.34
726.25	268.84
726.58	268.30
726.91	267.82
727.24	267.41
727.57	266.92
727.91	266.43
728.24	265.94
728.57	265.43
728.90	264.96
729.23	264.46
729.56	264.03
729.89	263.58
730.22	263.07
730.55	262.55
730.89	262.10
731.22	261.64
731.55	261.19
731.88	260.74
732.21	260.31
732.54	259.84
732.87	259.39
733.20	258.99
733.53	258.62
733.86	258.23
734.19	257.78
734.52	257.38
734.85	257.05
735.18	256.63
735.51	256.23
735.84	255.84
736.17	255.51
736.50	255.12
736.83	254.89
737.16	254.54
737.49	254.25
737.82	253.94
738.15	253.64
738.48	253.32
738.81	253.01
739.14	252.69
739.47	252.42
739.80	252.14
740.13	251.85
740.46	251.49
740.79	251.16
741.12	250.89
741.45	250.61
741.78	250.23
742.11	249.96
742.44	249.68
742.77	249.43
743.10	249.17
743.43	248.88
743.75	248.49
744.08	248.36
744.41	248.10
744.74	247.84
745.07	247.56
745.40	247.34
745.73	247.12
746.06	246.85
746.39	246.59
746.71	246.31
747.04	246.04
747.37	245.79
747.70	245.56
748.03	245.30
748.36	245.08
748.68	244.87
749.01	244.63
749.34	244.41
749.67	244.19
750.00	243.91
750.33	243.75
750.65	243.55
750.98	243.22
751.31	243.02
751.64	242.79
751.97	242.65
752.29	242.40
752.62	242.15
752.95	241.92
753.28	241.71
753.60	241.52
753.93	241.34
754.26	241.16
754.59	240.98
754.91	240.77
755.24	240.56
755.57	240.37
755.90	240.16
756.22	239.96
756.55	239.78
756.88	239.60
757.20	239.36
757.53	239.15
757.86	238.97
758.19	238.77
758.51	238.61
758.84	238.39
759.17	238.23
759.49	238.09
759.82	237.98
760.15	237.83
760.47	237.68
760.80	237.54
761.13	237.43
761.45	237.25
761.78	237.10
762.11	236.97
762.43	236.84
762.76	236.72
763.08	236.60
763.41	236.45
763.74	236.32
764.06	236.21
764.39	236.09
764.71	235.94
765.04	235.81
765.37	235.67
765.69	235.57
766.02	235.43
766.34	235.29
766.67	235.12
767.00	235.03
767.32	234.95
767.65	234.90
767.97	234.79
768.30	234.70
768.62	234.57
768.95	234.45
769.27	234.33
769.60	234.26
769.92	234.13
770.25	234.01
770.57	233.89
770.90	233.75
771.22	233.61
771.55	233.52
771.87	233.44
772.20	233.31
772.52	233.30
772.85	233.32
773.17	233.18
773.50	233.10
773.82	232.94
774.15	232.83
774.47	232.64
774.80	232.55
775.12	232.47
775.45	232.40
775.77	232.32
776.09	232.23
776.42	232.11
776.74	232.07
777.07	231.99
777.39	231.90
777.72	231.84
778.04	231.78
778.36	231.72
778.69	231.64
779.01	231.62
779.33	231.42
779.66	231.22
779.98	231.21
780.31	231.17
780.63	231.17
780.95	231.11
781.28	231.06
781.60	230.96
781.92	230.87
782.25	230.84
782.57	230.77
782.89	230.68
783.22	230.61
783.54	230.52
783.86	230.48
784.19	230.45
784.51	230.40
784.83	230.36
785.16	230.29
785.48	230.20
785.80	230.15
786.12	230.13
786.45	230.11
786.77	230.06
787.09	229.99
