SpectraSuite Data File
++++++++++++++++++++++++++++++++++++
Date: Fri Feb 01 15:51:33 EST 2013
User: group
Dark Spectrum Present: No
Reference Spectrum Present: No
Number of Sampled Component Spectra: 1
Spectrometers: USB2E7196
Integration Time (usec): 35000 (USB2E7196)
Spectra Averaged: 100 (USB2E7196)
Boxcar Smoothing: 10 (USB2E7196)
Correct for Electrical Dark: No (USB2E7196)
Strobe/Lamp Enabled: No (USB2E7196)
Correct for Detector Non-linearity: No (USB2E7196)
Correct for Stray Light: No (USB2E7196)
Number of Pixels in Processed Spectrum: 2048
>>>>>Begin Processed Spectral Data<<<<<
339.09	0.00
339.48	214.99
339.86	216.35
340.24	217.59
340.63	219.47
341.01	222.10
341.39	221.97
341.78	222.85
342.16	224.06
342.54	224.79
342.93	213.17
343.31	223.92
343.69	224.44
344.07	224.91
344.46	225.33
344.84	225.68
345.22	225.88
345.60	226.09
345.99	226.28
346.37	226.40
346.75	226.48
347.13	226.56
347.52	226.68
347.90	226.78
348.28	226.84
348.66	226.87
349.05	226.85
349.43	226.91
349.81	226.96
350.19	226.99
350.57	227.05
350.96	227.11
351.34	227.22
351.72	227.31
352.10	227.42
352.48	227.50
352.87	227.55
353.25	227.62
353.63	227.71
354.01	227.78
354.39	227.88
354.77	227.96
355.15	228.05
355.54	228.07
355.92	228.08
356.30	228.12
356.68	228.24
357.06	228.32
357.44	228.35
357.82	228.38
358.20	228.45
358.58	228.47
358.97	228.53
359.35	228.62
359.73	228.70
360.11	228.70
360.49	228.75
360.87	228.83
361.25	228.91
361.63	229.04
362.01	229.11
362.39	229.14
362.77	229.19
363.15	229.20
363.53	229.24
363.91	229.27
364.29	229.30
364.67	229.22
365.05	229.24
365.43	229.27
365.81	229.29
366.19	229.36
366.57	229.42
366.95	229.41
367.33	229.38
367.71	229.40
368.09	229.41
368.47	229.42
368.85	229.40
369.23	229.36
369.61	229.28
369.99	229.29
370.37	229.26
370.75	229.28
371.13	229.24
371.51	229.19
371.89	229.16
372.27	229.13
372.65	229.13
373.03	229.06
373.41	229.02
373.78	228.94
374.16	228.83
374.54	228.74
374.92	228.68
375.30	228.59
375.68	228.48
376.06	228.42
376.44	228.32
376.82	228.26
377.19	228.19
377.57	228.11
377.95	228.00
378.33	227.92
378.71	227.80
379.09	227.73
379.47	227.71
379.84	227.64
380.22	227.56
380.60	227.48
380.98	227.42
381.36	227.37
381.73	227.30
382.11	227.28
382.49	227.23
382.87	227.16
383.25	227.16
383.62	227.22
384.00	227.17
384.38	227.12
384.76	227.05
385.13	227.00
385.51	226.93
385.89	226.83
386.27	226.79
386.64	226.74
387.02	226.71
387.40	226.66
387.78	226.60
388.15	226.54
388.53	226.50
388.91	226.45
389.29	226.40
389.66	226.41
390.04	226.37
390.42	226.32
390.79	226.30
391.17	226.23
391.55	226.11
391.92	226.08
392.30	226.09
392.68	226.07
393.05	226.07
393.43	226.10
393.81	226.12
394.18	226.11
394.56	226.11
394.94	226.14
395.31	226.10
395.69	226.18
396.06	226.22
396.44	226.25
396.82	226.29
397.19	226.39
397.57	226.39
397.95	226.42
398.32	226.44
398.70	226.49
399.07	226.59
399.45	226.64
399.82	226.75
400.20	226.80
400.58	226.89
400.95	226.97
401.33	227.05
401.70	227.21
402.08	227.30
402.45	227.39
402.83	227.48
403.20	227.61
403.58	227.69
403.95	227.82
404.33	227.95
404.71	228.07
405.08	228.21
405.46	228.35
405.83	228.54
406.21	228.73
406.58	228.91
406.96	229.09
407.33	229.26
407.70	229.45
408.08	229.74
408.45	229.96
408.83	230.18
409.20	230.43
409.58	230.58
409.95	230.86
410.33	231.14
410.70	231.38
411.08	231.67
411.45	231.99
411.82	232.31
412.20	232.66
412.57	233.10
412.95	233.42
413.32	233.83
413.69	234.22
414.07	234.69
414.44	235.15
414.82	235.62
415.19	236.15
415.56	236.66
415.94	237.18
416.31	237.83
416.68	238.45
417.06	239.18
417.43	239.88
417.81	240.68
418.18	241.43
418.55	242.32
418.93	243.23
419.30	244.12
419.67	245.09
420.04	246.01
420.42	247.01
420.79	248.18
421.16	249.35
421.54	250.53
421.91	251.72
422.28	252.97
422.66	254.32
423.03	255.65
423.40	256.97
423.77	258.40
424.15	259.81
424.52	261.30
424.89	262.85
425.26	264.43
425.64	265.88
426.01	267.51
426.38	269.15
426.75	270.81
427.13	272.54
427.50	274.32
427.87	276.21
428.24	278.07
428.61	279.82
428.99	281.73
429.36	283.88
429.73	285.96
430.10	288.00
430.47	290.03
430.85	292.12
431.22	294.40
431.59	296.77
431.96	299.02
432.33	301.50
432.70	303.93
433.08	306.71
433.45	309.31
433.82	311.90
434.19	314.80
434.56	317.61
434.93	320.24
435.30	322.85
435.68	325.73
436.05	328.56
436.42	331.33
436.79	333.85
437.16	336.51
437.53	339.31
437.90	342.12
438.27	344.86
438.64	347.68
439.01	350.25
439.38	352.48
439.75	354.66
440.13	357.13
440.50	359.41
440.87	361.26
441.24	363.24
441.61	365.44
441.98	366.94
442.35	368.70
442.72	370.57
443.09	372.35
443.46	373.34
443.83	373.92
444.20	374.48
444.57	375.31
444.94	375.65
445.31	375.98
445.68	376.35
446.05	376.39
446.42	376.04
446.79	375.65
447.16	375.21
447.53	374.88
447.90	373.76
448.27	372.64
448.64	371.07
449.01	369.91
449.37	367.92
449.74	365.97
450.11	363.74
450.48	361.27
450.85	358.81
451.22	356.73
451.59	354.72
451.96	352.76
452.33	350.20
452.70	347.83
453.07	345.07
453.43	342.11
453.80	339.38
454.17	336.71
454.54	334.15
454.91	331.44
455.28	328.76
455.65	326.28
456.02	323.82
456.38	321.67
456.75	319.02
457.12	316.80
457.49	314.63
457.86	312.49
458.23	310.65
458.59	308.57
458.96	306.49
459.33	304.63
459.70	302.76
460.07	301.25
460.43	299.49
460.80	297.85
461.17	296.45
461.54	294.96
461.91	293.56
462.27	292.14
462.64	290.91
463.01	289.57
463.38	288.27
463.74	286.93
464.11	285.78
464.48	284.77
464.85	283.65
465.21	282.76
465.58	281.84
465.95	280.73
466.32	279.83
466.68	278.91
467.05	278.01
467.42	277.12
467.78	276.17
468.15	275.33
468.52	274.68
468.88	273.82
469.25	273.04
469.62	272.38
469.98	271.68
470.35	271.03
470.72	270.42
471.08	269.72
471.45	269.16
471.82	268.60
472.18	267.97
472.55	267.52
472.92	267.02
473.28	266.53
473.65	266.08
474.02	265.64
474.38	265.28
474.75	264.92
475.11	264.57
475.48	264.33
475.85	264.09
476.21	263.80
476.58	263.60
476.94	263.47
477.31	263.31
477.67	263.13
478.04	263.02
478.41	262.97
478.77	263.00
479.14	262.92
479.50	262.94
479.87	263.01
480.23	263.07
480.60	263.10
480.96	263.16
481.33	263.38
481.69	263.56
482.06	263.72
482.42	263.89
482.79	264.14
483.15	264.40
483.52	264.78
483.88	265.16
484.25	265.53
484.61	265.92
484.98	266.35
485.34	266.93
485.71	267.47
486.07	268.04
486.44	268.61
486.80	269.31
487.17	270.02
487.53	270.78
487.90	271.63
488.26	272.59
488.62	273.57
488.99	274.52
489.35	275.57
489.72	276.71
490.08	277.96
490.44	279.16
490.81	280.50
491.17	281.82
491.54	283.26
491.90	284.78
492.26	286.42
492.63	288.17
492.99	289.93
493.36	291.87
493.72	293.96
494.08	296.08
494.45	298.34
494.81	300.70
495.17	303.21
495.54	305.78
495.90	308.47
496.26	311.29
496.63	314.25
496.99	317.36
497.35	320.60
497.72	324.00
498.08	327.53
498.44	331.25
498.80	335.22
499.17	339.34
499.53	343.56
499.89	347.99
500.26	352.45
500.62	357.19
500.98	362.14
501.34	367.19
501.71	372.51
502.07	377.93
502.43	383.54
502.79	389.30
503.16	395.33
503.52	401.60
503.88	408.04
504.24	414.71
504.60	421.63
504.97	428.81
505.33	436.14
505.69	443.93
506.05	451.68
506.41	459.54
506.78	467.68
507.14	476.13
507.50	484.87
507.86	493.90
508.22	503.06
508.59	512.24
508.95	521.86
509.31	531.71
509.67	541.84
510.03	552.24
510.39	562.87
510.75	573.74
511.12	584.67
511.48	596.00
511.84	607.42
512.20	618.95
512.56	630.90
512.92	643.15
513.28	655.50
513.64	668.06
514.00	680.78
514.37	693.77
514.73	706.87
515.09	719.93
515.45	733.30
515.81	746.88
516.17	760.97
516.53	775.04
516.89	789.24
517.25	803.53
517.61	817.91
517.97	832.31
518.33	846.66
518.69	861.39
519.05	876.39
519.41	891.66
519.77	907.21
520.13	922.71
520.49	938.04
520.85	953.39
521.21	969.01
521.57	985.30
521.93	1000.97
522.29	1017.33
522.65	1033.51
523.01	1049.76
523.37	1065.75
523.73	1081.85
524.09	1097.95
524.45	1114.24
524.81	1130.75
525.17	1147.54
525.53	1164.51
525.89	1181.50
526.25	1198.33
526.61	1214.58
526.97	1231.17
527.33	1247.62
527.68	1264.15
528.04	1280.58
528.40	1297.24
528.76	1314.29
529.12	1330.85
529.48	1347.70
529.84	1363.66
530.20	1380.23
530.56	1397.17
530.91	1414.60
531.27	1431.28
531.63	1447.69
531.99	1464.19
532.35	1480.19
532.71	1496.01
533.07	1512.19
533.42	1527.96
533.78	1544.02
534.14	1560.40
534.50	1575.82
534.86	1591.73
535.21	1606.93
535.57	1622.89
535.93	1638.35
536.29	1653.10
536.65	1668.06
537.00	1682.84
537.36	1698.21
537.72	1712.82
538.08	1727.13
538.44	1740.88
538.79	1754.71
539.15	1768.47
539.51	1782.20
539.87	1796.45
540.22	1810.28
540.58	1824.08
540.94	1837.38
541.29	1850.26
541.65	1862.77
542.01	1876.05
542.37	1888.24
542.72	1900.74
543.08	1912.44
543.44	1924.71
543.79	1936.02
544.15	1946.93
544.51	1958.55
544.87	1969.44
545.22	1980.14
545.58	1990.38
545.94	2000.11
546.29	2009.95
546.65	2019.68
547.01	2028.86
547.36	2037.68
547.72	2046.11
548.07	2053.93
548.43	2062.08
548.79	2070.29
549.14	2077.93
549.50	2085.17
549.86	2092.82
550.21	2100.07
550.57	2107.20
550.92	2113.77
551.28	2120.79
551.64	2127.86
551.99	2134.38
552.35	2140.67
552.70	2146.82
553.06	2152.79
553.41	2159.22
553.77	2165.25
554.13	2171.37
554.48	2177.66
554.84	2182.95
555.19	2188.21
555.55	2193.26
555.90	2197.79
556.26	2202.49
556.61	2207.24
556.97	2211.46
557.32	2215.64
557.68	2219.60
558.03	2224.05
558.39	2227.79
558.74	2232.55
559.10	2236.59
559.45	2240.25
559.81	2244.49
560.16	2248.22
560.52	2251.42
560.87	2254.76
561.23	2257.55
561.58	2260.56
561.94	2262.98
562.29	2265.37
562.64	2268.07
563.00	2270.67
563.35	2274.09
563.71	2277.14
564.06	2280.36
564.42	2283.16
564.77	2285.56
565.12	2287.86
565.48	2289.64
565.83	2291.57
566.19	2292.73
566.54	2293.48
566.89	2294.47
567.25	2294.99
567.60	2296.47
567.96	2298.21
568.31	2299.15
568.66	2300.24
569.02	2300.74
569.37	2301.24
569.72	2302.09
570.08	2302.17
570.43	2302.34
570.78	2301.71
571.14	2300.20
571.49	2298.78
571.84	2298.60
572.20	2297.60
572.55	2296.62
572.90	2295.01
573.26	2293.60
573.61	2291.94
573.96	2290.14
574.31	2287.24
574.67	2284.26
575.02	2280.62
575.37	2277.26
575.72	2273.35
576.08	2270.06
576.43	2266.71
576.78	2262.89
577.13	2259.68
577.49	2256.65
577.84	2252.95
578.19	2249.36
578.54	2245.71
578.90	2241.41
579.25	2235.79
579.60	2230.82
579.95	2225.79
580.30	2220.74
580.66	2215.59
581.01	2210.64
581.36	2205.73
581.71	2201.67
582.06	2197.24
582.42	2192.62
582.77	2187.31
583.12	2182.69
583.47	2177.82
583.82	2172.80
584.17	2167.52
584.53	2162.09
584.88	2156.34
585.23	2150.73
585.58	2145.22
585.93	2139.87
586.28	2135.21
586.63	2130.26
586.98	2125.15
587.34	2120.44
587.69	2115.64
588.04	2110.23
588.39	2104.45
588.74	2098.05
589.09	2091.76
589.44	2084.88
589.79	2078.98
590.14	2073.53
590.49	2067.04
590.84	2060.73
591.19	2054.68
591.54	2048.18
591.89	2040.66
592.25	2033.89
592.60	2026.57
592.95	2018.96
593.30	2011.60
593.65	2003.94
594.00	1996.82
594.35	1989.48
594.70	1981.46
595.05	1974.28
595.40	1967.21
595.75	1959.77
596.10	1953.48
596.45	1946.82
596.80	1940.68
597.15	1934.01
597.50	1926.73
597.85	1920.30
598.19	1913.59
598.54	1906.45
598.89	1899.91
599.24	1894.25
599.59	1887.50
599.94	1881.46
600.29	1875.13
600.64	1868.46
600.99	1861.03
601.34	1854.24
601.69	1847.47
602.04	1840.63
602.39	1833.25
602.74	1826.42
603.08	1819.63
603.43	1812.99
603.78	1805.66
604.13	1798.42
604.48	1791.14
604.83	1784.40
605.18	1777.31
605.53	1769.32
605.87	1761.45
606.22	1754.22
606.57	1746.20
606.92	1738.98
607.27	1731.70
607.62	1724.77
607.96	1717.54
608.31	1710.91
608.66	1703.18
609.01	1695.60
609.36	1687.94
609.70	1679.84
610.05	1671.60
610.40	1663.92
610.75	1655.61
611.10	1647.79
611.44	1639.41
611.79	1631.48
612.14	1622.61
612.49	1613.57
612.83	1605.26
613.18	1597.10
613.53	1588.98
613.88	1580.46
614.22	1572.08
614.57	1563.54
614.92	1555.49
615.27	1547.83
615.61	1539.50
615.96	1531.52
616.31	1523.79
616.65	1516.50
617.00	1508.98
617.35	1501.34
617.70	1493.05
618.04	1484.52
618.39	1476.43
618.74	1468.79
619.08	1460.52
619.43	1453.10
619.78	1446.12
620.12	1438.89
620.47	1431.34
620.82	1423.13
621.16	1415.78
621.51	1408.23
621.85	1400.58
622.20	1392.16
622.55	1383.89
622.89	1376.02
623.24	1368.40
623.59	1361.06
623.93	1353.45
624.28	1346.25
624.62	1338.64
624.97	1331.48
625.32	1324.72
625.66	1317.56
626.01	1310.40
626.35	1302.86
626.70	1295.03
627.04	1287.24
627.39	1279.42
627.73	1272.04
628.08	1265.12
628.43	1257.74
628.77	1250.43
629.12	1242.85
629.46	1235.56
629.81	1228.17
630.15	1221.06
630.50	1213.68
630.84	1205.39
631.19	1197.51
631.53	1189.97
631.88	1182.54
632.22	1174.86
632.57	1167.52
632.91	1160.06
633.26	1152.64
633.60	1145.28
633.95	1138.23
634.29	1131.25
634.64	1124.69
634.98	1117.22
635.32	1110.17
635.67	1103.66
636.01	1097.05
636.36	1090.19
636.70	1083.66
637.05	1077.11
637.39	1070.55
637.73	1064.00
638.08	1058.19
638.42	1052.16
638.77	1045.71
639.11	1038.99
639.45	1032.65
639.80	1025.98
640.14	1019.55
640.49	1013.01
640.83	1006.62
641.17	1000.30
641.52	994.06
641.86	987.53
642.20	981.76
642.55	975.39
642.89	968.81
643.23	962.18
643.58	956.49
643.92	950.28
644.26	944.14
644.61	938.16
644.95	932.13
645.29	925.42
645.64	918.76
645.98	912.47
646.32	906.74
646.66	900.73
647.01	894.95
647.35	889.29
647.69	883.50
648.04	878.08
648.38	872.35
648.72	866.26
649.06	860.19
649.41	854.30
649.75	848.32
650.09	842.43
650.43	836.64
650.78	830.49
651.12	824.55
651.46	818.85
651.80	813.10
652.14	807.64
652.49	802.33
652.83	797.08
653.17	791.32
653.51	785.54
653.85	780.07
654.20	774.44
654.54	768.38
654.88	762.62
655.22	756.68
655.56	750.94
655.90	745.50
656.25	740.27
656.59	734.94
656.93	729.80
657.27	724.57
657.61	719.10
657.95	713.95
658.29	708.92
658.64	703.68
658.98	698.40
659.32	693.03
659.66	687.85
660.00	682.51
660.34	677.67
660.68	672.80
661.02	667.77
661.36	663.01
661.70	658.59
662.05	654.20
662.39	649.83
662.73	645.43
663.07	641.06
663.41	636.57
663.75	632.06
664.09	627.54
664.43	623.14
664.77	618.98
665.11	614.75
665.45	610.59
665.79	606.49
666.13	602.33
666.47	598.22
666.81	594.04
667.15	589.95
667.49	585.99
667.83	582.18
668.17	578.28
668.51	574.23
668.85	570.14
669.19	566.36
669.53	562.53
669.87	558.64
670.21	554.93
670.55	551.29
670.89	547.90
671.23	544.44
671.57	540.92
671.91	537.39
672.25	533.94
672.58	530.44
672.92	527.06
673.26	523.87
673.60	520.74
673.94	517.65
674.28	514.79
674.62	511.83
674.96	508.74
675.30	505.87
675.64	502.89
675.97	500.13
676.31	497.21
676.65	494.37
676.99	491.74
677.33	488.90
677.67	486.12
678.01	483.11
678.34	480.14
678.68	477.32
679.02	474.56
679.36	471.80
679.70	469.04
680.04	466.29
680.37	463.44
680.71	460.63
681.05	458.02
681.39	455.26
681.73	452.65
682.06	450.15
682.40	447.53
682.74	445.01
683.08	442.51
683.42	439.92
683.75	437.36
684.09	434.72
684.43	432.27
684.77	429.79
685.10	427.44
685.44	425.20
685.78	422.92
686.12	420.73
686.45	418.41
686.79	416.13
687.13	413.89
687.46	411.73
687.80	409.63
688.14	407.40
688.48	405.35
688.81	403.05
689.15	400.86
689.49	398.74
689.82	396.68
690.16	394.65
690.50	392.76
690.83	390.85
691.17	388.88
691.51	386.97
691.84	385.14
692.18	383.17
692.52	381.13
692.85	379.21
693.19	377.25
693.52	375.46
693.86	373.69
694.20	371.95
694.53	370.13
694.87	368.28
695.21	366.52
695.54	364.74
695.88	363.08
696.21	361.36
696.55	359.71
696.88	358.01
697.22	356.31
697.56	354.62
697.89	352.90
698.23	351.29
698.56	349.67
698.90	348.07
699.23	346.43
699.57	344.90
699.90	343.35
700.24	341.83
700.58	340.26
700.91	338.73
701.25	337.28
701.58	335.91
701.92	334.55
702.25	333.14
702.59	331.77
702.92	330.42
703.26	329.11
703.59	327.82
703.93	326.68
704.26	325.39
704.60	324.12
704.93	322.88
705.26	321.67
705.60	320.50
705.93	319.34
706.27	318.27
706.60	317.21
706.94	316.13
707.27	315.00
707.61	313.90
707.94	312.87
708.27	311.76
708.61	310.70
708.94	309.66
709.28	308.70
709.61	307.70
709.94	306.74
710.28	305.71
710.61	304.74
710.95	303.65
711.28	302.77
711.61	301.81
711.95	300.89
712.28	299.89
712.61	298.89
712.95	297.95
713.28	297.07
713.61	296.15
713.95	295.25
714.28	294.39
714.61	293.52
714.95	292.63
715.28	291.76
715.61	290.87
715.95	290.00
716.28	289.11
716.61	288.27
716.95	287.46
717.28	286.74
717.61	285.95
717.94	285.26
718.28	284.42
718.61	283.69
718.94	283.04
719.27	282.39
719.61	281.78
719.94	281.13
720.27	280.46
720.60	279.83
720.94	279.20
721.27	278.62
721.60	278.07
721.93	277.53
722.27	276.98
722.60	276.42
722.93	275.86
723.26	275.32
723.59	274.77
723.93	274.25
724.26	273.70
724.59	273.16
724.92	272.62
725.25	272.15
725.59	271.63
725.92	271.07
726.25	270.56
726.58	270.05
726.91	269.53
727.24	269.05
727.57	268.59
727.91	268.10
728.24	267.66
728.57	267.14
728.90	266.67
729.23	266.16
729.56	265.75
729.89	265.28
730.22	264.81
730.55	264.33
730.89	263.86
731.22	263.41
731.55	262.99
731.88	262.54
732.21	262.12
732.54	261.67
732.87	261.25
733.20	260.88
733.53	260.52
733.86	260.19
734.19	259.80
734.52	259.40
734.85	259.12
735.18	258.68
735.51	258.38
735.84	258.03
736.17	257.70
736.50	257.24
736.83	257.01
737.16	256.70
737.49	256.38
737.82	256.04
738.15	255.68
738.48	255.30
738.81	254.98
739.14	254.63
739.47	254.30
739.80	254.00
740.13	253.68
740.46	253.31
740.79	252.94
741.12	252.60
741.45	252.29
741.78	251.89
742.11	251.60
742.44	251.26
742.77	250.96
743.10	250.66
743.43	250.40
743.75	250.00
744.08	249.84
744.41	249.55
744.74	249.26
745.07	248.99
745.40	248.74
745.73	248.47
746.06	248.15
746.39	247.91
746.71	247.66
747.04	247.37
747.37	247.09
747.70	246.84
748.03	246.63
748.36	246.41
748.68	246.15
749.01	245.90
749.34	245.70
749.67	245.46
750.00	245.25
750.33	245.11
750.65	244.90
750.98	244.54
751.31	244.33
751.64	244.13
751.97	244.00
752.29	243.78
752.62	243.56
752.95	243.40
753.28	243.17
753.60	242.96
753.93	242.78
754.26	242.61
754.59	242.39
754.91	242.17
755.24	241.96
755.57	241.78
755.90	241.61
756.22	241.40
756.55	241.19
756.88	241.01
757.20	240.76
757.53	240.58
757.86	240.42
758.19	240.25
758.51	240.08
758.84	239.87
759.17	239.73
759.49	239.58
759.82	239.46
760.15	239.32
760.47	239.17
760.80	239.02
761.13	238.91
761.45	238.78
761.78	238.61
762.11	238.45
762.43	238.34
762.76	238.20
763.08	238.08
763.41	237.95
763.74	237.80
764.06	237.65
764.39	237.52
764.71	237.37
765.04	237.23
765.37	237.11
765.69	236.97
766.02	236.83
766.34	236.71
766.67	236.55
767.00	236.45
767.32	236.39
767.65	236.32
767.97	236.19
768.30	236.06
768.62	235.94
768.95	235.86
769.27	235.70
769.60	235.61
769.92	235.50
770.25	235.36
770.57	235.29
770.90	235.22
771.22	235.11
771.55	235.02
771.87	234.96
772.20	234.84
772.52	234.84
772.85	234.88
773.17	234.79
773.50	234.71
773.82	234.61
774.15	234.49
774.47	234.34
774.80	234.25
775.12	234.16
775.45	234.11
775.77	234.00
776.09	233.95
776.42	233.85
776.74	233.81
777.07	233.76
777.39	233.65
777.72	233.53
778.04	233.46
778.36	233.39
778.69	233.31
779.01	233.25
779.33	233.07
779.66	232.82
779.98	232.76
780.31	232.67
780.63	232.66
780.95	232.59
781.28	232.52
781.60	232.46
781.92	232.41
782.25	232.35
782.57	232.31
782.89	232.19
783.22	232.11
783.54	232.01
783.86	231.97
784.19	231.92
784.51	231.91
784.83	231.87
785.16	231.81
785.48	231.77
785.80	231.72
786.12	231.72
786.45	231.74
786.77	231.67
787.09	231.62
