SpectraSuite Data File
++++++++++++++++++++++++++++++++++++
Date: Fri Feb 01 16:54:12 EST 2013
User: group
Dark Spectrum Present: No
Reference Spectrum Present: No
Number of Sampled Component Spectra: 1
Spectrometers: USB2E7196
Integration Time (usec): 35000 (USB2E7196)
Spectra Averaged: 100 (USB2E7196)
Boxcar Smoothing: 10 (USB2E7196)
Correct for Electrical Dark: No (USB2E7196)
Strobe/Lamp Enabled: No (USB2E7196)
Correct for Detector Non-linearity: No (USB2E7196)
Correct for Stray Light: No (USB2E7196)
Number of Pixels in Processed Spectrum: 2048
>>>>>Begin Processed Spectral Data<<<<<
339.09	0.00
339.48	213.45
339.86	214.58
340.24	216.27
340.63	217.73
341.01	220.60
341.39	220.52
341.78	221.50
342.16	223.11
342.54	223.17
342.93	211.72
343.31	222.42
343.69	222.94
344.07	223.40
344.46	223.83
344.84	224.23
345.22	224.45
345.60	224.67
345.99	224.86
346.37	224.98
346.75	225.09
347.13	225.17
347.52	225.22
347.90	225.29
348.28	225.33
348.66	225.40
349.05	225.37
349.43	225.41
349.81	225.44
350.19	225.52
350.57	225.59
350.96	225.63
351.34	225.71
351.72	225.81
352.10	225.92
352.48	225.96
352.87	225.97
353.25	226.06
353.63	226.12
354.01	226.15
354.39	226.23
354.77	226.31
355.15	226.37
355.54	226.43
355.92	226.49
356.30	226.52
356.68	226.66
357.06	226.74
357.44	226.77
357.82	226.83
358.20	226.89
358.58	226.92
358.97	227.00
359.35	227.10
359.73	227.16
360.11	227.18
360.49	227.24
360.87	227.30
361.25	227.31
361.63	227.41
362.01	227.50
362.39	227.50
362.77	227.52
363.15	227.54
363.53	227.57
363.91	227.58
364.29	227.63
364.67	227.51
365.05	227.52
365.43	227.56
365.81	227.59
366.19	227.62
366.57	227.66
366.95	227.66
367.33	227.62
367.71	227.57
368.09	227.59
368.47	227.58
368.85	227.54
369.23	227.57
369.61	227.48
369.99	227.47
370.37	227.47
370.75	227.49
371.13	227.47
371.51	227.45
371.89	227.42
372.27	227.38
372.65	227.40
373.03	227.37
373.41	227.33
373.78	227.29
374.16	227.20
374.54	227.11
374.92	227.06
375.30	227.01
375.68	226.98
376.06	226.94
376.44	226.86
376.82	226.84
377.19	226.74
377.57	226.70
377.95	226.63
378.33	226.58
378.71	226.47
379.09	226.39
379.47	226.36
379.84	226.30
380.22	226.22
380.60	226.09
380.98	226.01
381.36	225.93
381.73	225.86
382.11	225.84
382.49	225.80
382.87	225.73
383.25	225.68
383.62	225.71
384.00	225.63
384.38	225.62
384.76	225.58
385.13	225.59
385.51	225.55
385.89	225.48
386.27	225.41
386.64	225.40
387.02	225.37
387.40	225.31
387.78	225.28
388.15	225.24
388.53	225.25
388.91	225.24
389.29	225.21
389.66	225.21
390.04	225.17
390.42	225.12
390.79	225.10
391.17	225.06
391.55	224.98
391.92	224.97
392.30	224.94
392.68	224.94
393.05	224.91
393.43	224.92
393.81	224.93
394.18	224.97
394.56	224.96
394.94	224.98
395.31	224.98
395.69	225.01
396.06	225.05
396.44	225.07
396.82	225.09
397.19	225.16
397.57	225.13
397.95	225.19
398.32	225.21
398.70	225.26
399.07	225.35
399.45	225.38
399.82	225.44
400.20	225.52
400.58	225.55
400.95	225.57
401.33	225.68
401.70	225.78
402.08	225.89
402.45	225.96
402.83	226.09
403.20	226.17
403.58	226.27
403.95	226.37
404.33	226.50
404.71	226.62
405.08	226.82
405.46	226.95
405.83	227.07
406.21	227.24
406.58	227.39
406.96	227.55
407.33	227.72
407.70	227.90
408.08	228.16
408.45	228.34
408.83	228.57
409.20	228.73
409.58	228.88
409.95	229.09
410.33	229.35
410.70	229.57
411.08	229.88
411.45	230.17
411.82	230.45
412.20	230.78
412.57	231.22
412.95	231.51
413.32	231.94
413.69	232.33
414.07	232.72
414.44	233.21
414.82	233.64
415.19	234.18
415.56	234.73
415.94	235.21
416.31	235.86
416.68	236.49
417.06	237.21
417.43	237.91
417.81	238.66
418.18	239.44
418.55	240.28
418.93	241.14
419.30	242.06
419.67	243.02
420.04	243.93
420.42	244.88
420.79	246.03
421.16	247.18
421.54	248.41
421.91	249.67
422.28	250.92
422.66	252.30
423.03	253.62
423.40	254.95
423.77	256.41
424.15	257.82
424.52	259.28
424.89	260.90
425.26	262.47
425.64	263.93
426.01	265.54
426.38	267.19
426.75	268.87
427.13	270.59
427.50	272.36
427.87	274.30
428.24	276.18
428.61	277.90
428.99	279.84
429.36	281.91
429.73	283.94
430.10	285.94
430.47	287.97
430.85	290.05
431.22	292.27
431.59	294.64
431.96	296.88
432.33	299.36
432.70	301.75
433.08	304.54
433.45	307.16
433.82	309.73
434.19	312.62
434.56	315.40
434.93	318.05
435.30	320.68
435.68	323.51
436.05	326.29
436.42	329.08
436.79	331.56
437.16	334.22
437.53	337.05
437.90	339.85
438.27	342.55
438.64	345.36
439.01	347.97
439.38	350.18
439.75	352.32
440.13	354.82
440.50	357.11
440.87	358.92
441.24	360.86
441.61	363.04
441.98	364.51
442.35	366.30
442.72	368.10
443.09	369.90
443.46	370.87
443.83	371.46
444.20	371.98
444.57	372.80
444.94	373.12
445.31	373.46
445.68	373.79
446.05	373.92
446.42	373.56
446.79	373.14
447.16	372.70
447.53	372.43
447.90	371.25
448.27	370.15
448.64	368.62
449.01	367.48
449.37	365.51
449.74	363.65
450.11	361.44
450.48	359.01
450.85	356.47
451.22	354.38
451.59	352.43
451.96	350.51
452.33	348.00
452.70	345.65
453.07	342.81
453.43	339.93
453.80	337.17
454.17	334.51
454.54	332.02
454.91	329.27
455.28	326.60
455.65	324.19
456.02	321.74
456.38	319.60
456.75	316.95
457.12	314.70
457.49	312.47
457.86	310.30
458.23	308.52
458.59	306.49
458.96	304.40
459.33	302.52
459.70	300.64
460.07	299.11
460.43	297.38
460.80	295.84
461.17	294.42
461.54	292.91
461.91	291.47
462.27	290.00
462.64	288.79
463.01	287.44
463.38	286.13
463.74	284.74
464.11	283.56
464.48	282.58
464.85	281.51
465.21	280.66
465.58	279.72
465.95	278.59
466.32	277.72
466.68	276.82
467.05	275.94
467.42	275.06
467.78	274.12
468.15	273.27
468.52	272.58
468.88	271.73
469.25	271.02
469.62	270.41
469.98	269.74
470.35	269.09
470.72	268.51
471.08	267.85
471.45	267.33
471.82	266.80
472.18	266.18
472.55	265.71
472.92	265.18
473.28	264.77
473.65	264.33
474.02	263.88
474.38	263.52
474.75	263.23
475.11	262.92
475.48	262.71
475.85	262.49
476.21	262.31
476.58	262.15
476.94	261.97
477.31	261.80
477.67	261.67
478.04	261.59
478.41	261.56
478.77	261.63
479.14	261.61
479.50	261.64
479.87	261.72
480.23	261.87
480.60	261.98
480.96	262.07
481.33	262.33
481.69	262.55
482.06	262.79
482.42	262.99
482.79	263.26
483.15	263.61
483.52	263.98
483.88	264.32
484.25	264.70
484.61	265.16
484.98	265.65
485.34	266.22
485.71	266.84
486.07	267.40
486.44	267.97
486.80	268.65
487.17	269.37
487.53	270.21
487.90	271.02
488.26	271.92
488.62	272.89
488.99	273.84
489.35	274.87
489.72	275.99
490.08	277.17
490.44	278.38
490.81	279.68
491.17	281.04
491.54	282.49
491.90	284.03
492.26	285.67
492.63	287.36
492.99	289.15
493.36	291.02
493.72	293.09
494.08	295.20
494.45	297.49
494.81	299.81
495.17	302.26
495.54	304.80
495.90	307.46
496.26	310.24
496.63	313.18
496.99	316.30
497.35	319.51
497.72	322.90
498.08	326.45
498.44	330.06
498.80	333.98
499.17	338.04
499.53	342.15
499.89	346.48
500.26	351.00
500.62	355.60
500.98	360.53
501.34	365.57
501.71	370.84
502.07	376.19
502.43	381.80
502.79	387.54
503.16	393.56
503.52	399.84
503.88	406.18
504.24	412.73
504.60	419.53
504.97	426.63
505.33	433.95
505.69	441.57
506.05	449.29
506.41	457.10
506.78	465.18
507.14	473.64
507.50	482.27
507.86	491.18
508.22	500.38
508.59	509.54
508.95	519.05
509.31	528.79
509.67	538.82
510.03	548.99
510.39	559.47
510.75	570.16
511.12	580.97
511.48	592.16
511.84	603.50
512.20	614.91
512.56	626.67
512.92	638.70
513.28	650.91
513.64	663.28
514.00	675.87
514.37	688.65
514.73	701.54
515.09	714.48
515.45	727.56
515.81	740.92
516.17	754.71
516.53	768.62
516.89	782.61
517.25	796.53
517.61	810.90
517.97	825.15
518.33	839.39
518.69	854.02
519.05	868.90
519.41	883.90
519.77	899.35
520.13	914.70
520.49	929.88
520.85	945.08
521.21	960.54
521.57	976.55
521.93	992.02
522.29	1008.10
522.65	1024.12
523.01	1040.15
523.37	1055.93
523.73	1071.81
524.09	1087.75
524.45	1103.79
524.81	1120.21
525.17	1136.73
525.53	1153.37
525.89	1169.98
526.25	1186.54
526.61	1202.68
526.97	1219.15
527.33	1235.25
527.68	1251.58
528.04	1267.80
528.40	1284.08
528.76	1300.89
529.12	1317.29
529.48	1333.94
529.84	1349.72
530.20	1366.03
530.56	1382.67
530.91	1399.92
531.27	1416.50
531.63	1432.62
531.99	1448.98
532.35	1464.79
532.71	1480.31
533.07	1496.26
533.42	1512.02
533.78	1527.84
534.14	1543.77
534.50	1558.88
534.86	1574.57
535.21	1589.50
535.57	1605.09
535.93	1620.24
536.29	1634.84
536.65	1649.46
537.00	1663.87
537.36	1678.94
537.72	1693.16
538.08	1707.42
538.44	1720.93
538.79	1734.64
539.15	1748.12
539.51	1761.52
539.87	1775.51
540.22	1788.99
540.58	1802.47
540.94	1815.27
541.29	1827.74
541.65	1840.15
542.01	1853.08
542.37	1865.06
542.72	1877.18
543.08	1888.68
543.44	1901.03
543.79	1911.96
544.15	1922.82
544.51	1934.35
544.87	1945.17
545.22	1955.89
545.58	1966.14
545.94	1975.64
546.29	1985.25
546.65	1994.91
547.01	2004.11
547.36	2012.74
547.72	2021.25
548.07	2029.14
548.43	2037.32
548.79	2045.33
549.14	2052.92
549.50	2060.09
549.86	2067.66
550.21	2074.92
550.57	2082.10
550.92	2088.52
551.28	2095.50
551.64	2102.51
551.99	2108.96
552.35	2114.97
552.70	2121.18
553.06	2126.98
553.41	2133.43
553.77	2139.40
554.13	2145.39
554.48	2151.49
554.84	2157.03
555.19	2162.04
555.55	2167.18
555.90	2171.85
556.26	2176.94
556.61	2181.54
556.97	2186.07
557.32	2190.14
557.68	2194.38
558.03	2198.62
558.39	2202.27
558.74	2206.94
559.10	2210.78
559.45	2214.52
559.81	2218.83
560.16	2222.65
560.52	2226.00
560.87	2229.38
561.23	2232.20
561.58	2235.10
561.94	2237.69
562.29	2239.98
562.64	2243.08
563.00	2245.54
563.35	2248.88
563.71	2251.88
564.06	2255.08
564.42	2257.96
564.77	2260.84
565.12	2263.20
565.48	2265.40
565.83	2267.48
566.19	2269.02
566.54	2270.05
566.89	2271.30
567.25	2272.24
567.60	2273.52
567.96	2275.38
568.31	2276.20
568.66	2277.45
569.02	2278.26
569.37	2278.79
569.72	2279.95
570.08	2280.12
570.43	2280.42
570.78	2280.22
571.14	2278.97
571.49	2277.86
571.84	2277.48
572.20	2276.52
572.55	2275.57
572.90	2273.90
573.26	2272.76
573.61	2271.09
573.96	2269.70
574.31	2266.94
574.67	2263.91
575.02	2260.57
575.37	2257.28
575.72	2253.99
576.08	2250.66
576.43	2247.47
576.78	2244.01
577.13	2240.71
577.49	2237.62
577.84	2234.40
578.19	2230.70
578.54	2227.26
578.90	2223.30
579.25	2218.19
579.60	2213.38
579.95	2208.68
580.30	2203.98
580.66	2198.96
581.01	2194.14
581.36	2189.23
581.71	2185.40
582.06	2181.25
582.42	2176.97
582.77	2171.85
583.12	2167.43
583.47	2163.01
583.82	2158.28
584.17	2153.36
584.53	2148.26
584.88	2143.03
585.23	2137.41
585.58	2132.04
585.93	2126.75
586.28	2121.99
586.63	2117.04
586.98	2111.97
587.34	2107.37
587.69	2102.60
588.04	2097.55
588.39	2092.12
588.74	2085.77
589.09	2079.56
589.44	2073.02
589.79	2066.94
590.14	2061.50
590.49	2054.87
590.84	2048.44
591.19	2042.53
591.54	2036.05
591.89	2028.96
592.25	2022.24
592.60	2015.10
592.95	2007.77
593.30	2000.53
593.65	1993.04
594.00	1986.00
594.35	1979.03
594.70	1971.06
595.05	1964.21
595.40	1956.98
595.75	1949.59
596.10	1943.69
596.45	1937.16
596.80	1931.06
597.15	1924.73
597.50	1917.99
597.85	1911.79
598.19	1905.52
598.54	1898.68
598.89	1892.24
599.24	1886.36
599.59	1879.84
599.94	1873.80
600.29	1867.63
600.64	1861.10
600.99	1854.03
601.34	1847.55
601.69	1840.60
602.04	1833.99
602.39	1826.55
602.74	1819.86
603.08	1813.25
603.43	1806.50
603.78	1799.25
604.13	1792.06
604.48	1784.93
604.83	1777.98
605.18	1771.16
605.53	1763.24
605.87	1755.18
606.22	1747.86
606.57	1740.02
606.92	1732.60
607.27	1725.56
607.62	1718.80
607.96	1711.70
608.31	1705.25
608.66	1697.57
609.01	1690.25
609.36	1682.73
609.70	1674.96
610.05	1667.09
610.40	1659.64
610.75	1651.41
611.10	1643.89
611.44	1635.54
611.79	1627.48
612.14	1618.87
612.49	1609.77
612.83	1601.31
613.18	1593.42
613.53	1585.41
613.88	1576.87
614.22	1568.76
614.57	1560.17
614.92	1551.95
615.27	1544.44
615.61	1536.07
615.96	1528.13
616.31	1520.37
616.65	1512.99
617.00	1505.35
617.35	1497.59
617.70	1489.22
618.04	1480.77
618.39	1472.43
618.74	1464.90
619.08	1456.77
619.43	1449.15
619.78	1442.14
620.12	1435.16
620.47	1427.58
620.82	1419.32
621.16	1411.87
621.51	1404.16
621.85	1396.45
622.20	1388.15
622.55	1379.79
622.89	1371.89
623.24	1364.15
623.59	1356.80
623.93	1349.25
624.28	1342.09
624.62	1334.70
624.97	1327.53
625.32	1320.67
625.66	1313.70
626.01	1306.58
626.35	1299.25
626.70	1291.49
627.04	1283.94
627.39	1276.02
627.73	1268.62
628.08	1261.86
628.43	1254.74
628.77	1247.52
629.12	1240.09
629.46	1232.90
629.81	1225.43
630.15	1218.26
630.50	1210.99
630.84	1202.80
631.19	1194.88
631.53	1187.35
631.88	1179.77
632.22	1172.15
632.57	1164.91
632.91	1157.37
633.26	1150.02
633.60	1142.51
633.95	1135.37
634.29	1128.19
634.64	1121.58
634.98	1114.31
635.32	1107.20
635.67	1100.47
636.01	1093.80
636.36	1087.02
636.70	1080.45
637.05	1073.91
637.39	1067.46
637.73	1061.00
638.08	1055.13
638.42	1049.17
638.77	1042.66
639.11	1036.13
639.45	1029.76
639.80	1023.21
640.14	1016.89
640.49	1010.34
640.83	1004.12
641.17	998.06
641.52	991.82
641.86	985.32
642.20	979.45
642.55	973.04
642.89	966.68
643.23	960.05
643.58	954.31
643.92	948.24
644.26	942.25
644.61	936.15
644.95	930.19
645.29	923.67
645.64	916.93
645.98	910.74
646.32	904.73
646.66	898.81
647.01	893.03
647.35	887.41
647.69	881.55
648.04	876.00
648.38	870.25
648.72	864.28
649.06	858.31
649.41	852.34
649.75	846.46
650.09	840.57
650.43	834.93
650.78	828.84
651.12	822.89
651.46	817.20
651.80	811.57
652.14	806.13
652.49	800.80
652.83	795.71
653.17	790.14
653.51	784.65
653.85	779.18
654.20	773.56
654.54	767.46
654.88	761.66
655.22	755.81
655.56	750.05
655.90	744.58
656.25	739.36
656.59	734.08
656.93	729.06
657.27	723.92
657.61	718.51
657.95	713.40
658.29	708.26
658.64	702.89
658.98	697.51
659.32	692.01
659.66	686.81
660.00	681.54
660.34	676.53
660.68	671.55
661.02	666.46
661.36	661.67
661.70	657.19
662.05	652.90
662.39	648.60
662.73	644.10
663.07	639.75
663.41	635.27
663.75	630.81
664.09	626.19
664.43	621.77
664.77	617.67
665.11	613.39
665.45	609.29
665.79	605.31
666.13	601.27
666.47	597.20
666.81	593.08
667.15	588.90
667.49	584.94
667.83	581.04
668.17	577.17
668.51	573.20
668.85	569.11
669.19	565.20
669.53	561.32
669.87	557.53
670.21	553.82
670.55	550.19
670.89	546.70
671.23	543.28
671.57	539.75
671.91	536.18
672.25	532.65
672.58	529.15
672.92	525.69
673.26	522.44
673.60	519.31
673.94	516.19
674.28	513.30
674.62	510.34
674.96	507.28
675.30	504.44
675.64	501.50
675.97	498.72
676.31	495.93
676.65	493.00
676.99	490.26
677.33	487.36
677.67	484.56
678.01	481.53
678.34	478.59
678.68	475.63
679.02	472.83
679.36	470.08
679.70	467.31
680.04	464.53
680.37	461.70
680.71	458.89
681.05	456.23
681.39	453.50
681.73	450.80
682.06	448.31
682.40	445.68
682.74	443.10
683.08	440.60
683.42	437.96
683.75	435.52
684.09	432.94
684.43	430.48
684.77	428.01
685.10	425.69
685.44	423.34
685.78	421.08
686.12	418.83
686.45	416.51
686.79	414.29
687.13	412.12
687.46	409.97
687.80	407.85
688.14	405.63
688.48	403.56
688.81	401.40
689.15	399.21
689.49	397.10
689.82	395.06
690.16	392.97
690.50	391.05
690.83	389.10
691.17	387.11
691.51	385.20
691.84	383.37
692.18	381.42
692.52	379.52
692.85	377.62
693.19	375.70
693.52	373.92
693.86	372.12
694.20	370.33
694.53	368.55
694.87	366.69
695.21	364.91
695.54	363.05
695.88	361.32
696.21	359.61
696.55	357.91
696.88	356.18
697.22	354.53
697.56	352.88
697.89	351.23
698.23	349.70
698.56	348.10
698.90	346.52
699.23	344.93
699.57	343.35
699.90	341.81
700.24	340.31
700.58	338.80
700.91	337.24
701.25	335.81
701.58	334.47
701.92	333.12
702.25	331.77
702.59	330.43
702.92	329.15
703.26	327.85
703.59	326.59
703.93	325.46
704.26	324.22
704.60	322.93
704.93	321.65
705.26	320.38
705.60	319.21
705.93	318.01
706.27	316.96
706.60	315.91
706.94	314.85
707.27	313.73
707.61	312.63
707.94	311.63
708.27	310.54
708.61	309.38
708.94	308.33
709.28	307.31
709.61	306.36
709.94	305.36
710.28	304.37
710.61	303.35
710.95	302.26
711.28	301.33
711.61	300.36
711.95	299.45
712.28	298.52
712.61	297.57
712.95	296.62
713.28	295.73
713.61	294.85
713.95	293.93
714.28	293.08
714.61	292.27
714.95	291.39
715.28	290.53
715.61	289.69
715.95	288.84
716.28	287.98
716.61	287.15
716.95	286.35
717.28	285.55
717.61	284.73
717.94	284.02
718.28	283.21
718.61	282.50
718.94	281.79
719.27	281.09
719.61	280.40
719.94	279.76
720.27	279.02
720.60	278.31
720.94	277.70
721.27	277.08
721.60	276.44
721.93	275.86
722.27	275.31
722.60	274.74
722.93	274.17
723.26	273.62
723.59	273.06
723.93	272.46
724.26	271.88
724.59	271.37
724.92	270.78
725.25	270.28
725.59	269.74
725.92	269.24
726.25	268.73
726.58	268.22
726.91	267.73
727.24	267.23
727.57	266.77
727.91	266.23
728.24	265.73
728.57	265.24
728.90	264.77
729.23	264.26
729.56	263.85
729.89	263.35
730.22	262.87
730.55	262.40
730.89	261.97
731.22	261.56
731.55	261.14
731.88	260.73
732.21	260.29
732.54	259.89
732.87	259.44
733.20	259.05
733.53	258.71
733.86	258.34
734.19	258.01
734.52	257.63
734.85	257.34
735.18	256.94
735.51	256.58
735.84	256.22
736.17	255.92
736.50	255.52
736.83	255.33
737.16	254.99
737.49	254.66
737.82	254.34
738.15	254.02
738.48	253.69
738.81	253.36
739.14	253.05
739.47	252.75
739.80	252.51
740.13	252.20
740.46	251.84
740.79	251.50
741.12	251.18
741.45	250.88
741.78	250.55
742.11	250.31
742.44	250.02
742.77	249.72
743.10	249.45
743.43	249.15
743.75	248.75
744.08	248.61
744.41	248.34
744.74	248.08
745.07	247.79
745.40	247.56
745.73	247.36
746.06	247.12
746.39	246.87
746.71	246.57
747.04	246.31
747.37	246.08
747.70	245.85
748.03	245.61
748.36	245.40
748.68	245.16
749.01	244.90
749.34	244.66
749.67	244.45
750.00	244.20
750.33	244.05
750.65	243.86
750.98	243.53
751.31	243.31
751.64	243.09
751.97	242.96
752.29	242.71
752.62	242.43
752.95	242.21
753.28	241.97
753.60	241.79
753.93	241.61
754.26	241.40
754.59	241.19
754.91	241.01
755.24	240.77
755.57	240.60
755.90	240.42
756.22	240.22
756.55	240.01
756.88	239.79
757.20	239.55
757.53	239.37
757.86	239.22
758.19	239.08
758.51	238.91
758.84	238.66
759.17	238.52
759.49	238.39
759.82	238.26
760.15	238.12
760.47	237.92
760.80	237.75
761.13	237.63
761.45	237.47
761.78	237.32
762.11	237.19
762.43	237.04
762.76	236.86
763.08	236.77
763.41	236.63
763.74	236.52
764.06	236.39
764.39	236.26
764.71	236.10
765.04	235.97
765.37	235.85
765.69	235.74
766.02	235.60
766.34	235.48
766.67	235.35
767.00	235.25
767.32	235.21
767.65	235.12
767.97	234.99
768.30	234.87
768.62	234.73
768.95	234.58
769.27	234.47
769.60	234.37
769.92	234.21
770.25	234.07
770.57	233.94
770.90	233.82
771.22	233.70
771.55	233.58
771.87	233.48
772.20	233.38
772.52	233.38
772.85	233.40
773.17	233.27
773.50	233.18
773.82	233.09
774.15	232.92
774.47	232.77
774.80	232.67
775.12	232.56
775.45	232.48
775.77	232.42
776.09	232.34
776.42	232.24
776.74	232.21
777.07	232.16
777.39	232.11
777.72	232.03
778.04	231.96
778.36	231.89
778.69	231.81
779.01	231.75
779.33	231.58
779.66	231.38
779.98	231.31
780.31	231.22
780.63	231.16
780.95	231.11
781.28	231.05
781.60	230.97
781.92	230.94
782.25	230.89
782.57	230.83
782.89	230.75
783.22	230.71
783.54	230.65
783.86	230.58
784.19	230.48
784.51	230.46
784.83	230.43
785.16	230.39
785.48	230.31
785.80	230.23
786.12	230.20
786.45	230.16
786.77	230.13
787.09	230.08
