SpectraSuite Data File
++++++++++++++++++++++++++++++++++++
Date: Fri Feb 01 17:58:08 EST 2013
User: group
Dark Spectrum Present: No
Reference Spectrum Present: No
Number of Sampled Component Spectra: 1
Spectrometers: USB2E7196
Integration Time (usec): 35000 (USB2E7196)
Spectra Averaged: 100 (USB2E7196)
Boxcar Smoothing: 10 (USB2E7196)
Correct for Electrical Dark: No (USB2E7196)
Strobe/Lamp Enabled: No (USB2E7196)
Correct for Detector Non-linearity: No (USB2E7196)
Correct for Stray Light: No (USB2E7196)
Number of Pixels in Processed Spectrum: 2048
>>>>>Begin Processed Spectral Data<<<<<
339.09	0.00
339.48	212.13
339.86	213.39
340.24	215.48
340.63	216.48
341.01	218.88
341.39	219.58
341.78	220.88
342.16	221.70
342.54	222.03
342.93	210.78
343.31	221.44
343.69	221.99
344.07	222.48
344.46	222.90
344.84	223.30
345.22	223.59
345.60	223.82
345.99	224.03
346.37	224.19
346.75	224.33
347.13	224.43
347.52	224.56
347.90	224.65
348.28	224.69
348.66	224.76
349.05	224.78
349.43	224.80
349.81	224.88
350.19	224.92
350.57	224.98
350.96	225.08
351.34	225.16
351.72	225.29
352.10	225.42
352.48	225.53
352.87	225.57
353.25	225.65
353.63	225.72
354.01	225.74
354.39	225.85
354.77	225.94
355.15	226.05
355.54	226.12
355.92	226.18
356.30	226.26
356.68	226.39
357.06	226.48
357.44	226.55
357.82	226.60
358.20	226.70
358.58	226.78
358.97	226.81
359.35	226.90
359.73	226.96
360.11	227.01
360.49	227.05
360.87	227.13
361.25	227.18
361.63	227.29
362.01	227.40
362.39	227.42
362.77	227.45
363.15	227.49
363.53	227.51
363.91	227.56
364.29	227.57
364.67	227.53
365.05	227.52
365.43	227.56
365.81	227.61
366.19	227.67
366.57	227.73
366.95	227.74
367.33	227.73
367.71	227.71
368.09	227.74
368.47	227.76
368.85	227.74
369.23	227.72
369.61	227.69
369.99	227.69
370.37	227.65
370.75	227.68
371.13	227.61
371.51	227.57
371.89	227.53
372.27	227.52
372.65	227.49
373.03	227.45
373.41	227.40
373.78	227.33
374.16	227.21
374.54	227.13
374.92	227.06
375.30	227.02
375.68	226.98
376.06	226.91
376.44	226.83
376.82	226.75
377.19	226.68
377.57	226.59
377.95	226.46
378.33	226.43
378.71	226.30
379.09	226.27
379.47	226.21
379.84	226.13
380.22	226.05
380.60	225.96
380.98	225.92
381.36	225.80
381.73	225.73
382.11	225.69
382.49	225.62
382.87	225.53
383.25	225.45
383.62	225.49
384.00	225.42
384.38	225.36
384.76	225.34
385.13	225.34
385.51	225.30
385.89	225.21
386.27	225.15
386.64	225.15
387.02	225.10
387.40	225.05
387.78	225.02
388.15	224.99
388.53	224.92
388.91	224.86
389.29	224.89
389.66	224.90
390.04	224.87
390.42	224.85
390.79	224.85
391.17	224.85
391.55	224.70
391.92	224.68
392.30	224.69
392.68	224.66
393.05	224.64
393.43	224.66
393.81	224.69
394.18	224.69
394.56	224.65
394.94	224.66
395.31	224.66
395.69	224.71
396.06	224.77
396.44	224.85
396.82	224.90
397.19	224.95
397.57	224.98
397.95	225.01
398.32	225.03
398.70	225.13
399.07	225.20
399.45	225.26
399.82	225.34
400.20	225.38
400.58	225.45
400.95	225.47
401.33	225.55
401.70	225.71
402.08	225.82
402.45	225.91
402.83	226.05
403.20	226.16
403.58	226.26
403.95	226.40
404.33	226.53
404.71	226.66
405.08	226.84
405.46	226.99
405.83	227.13
406.21	227.30
406.58	227.50
406.96	227.69
407.33	227.92
407.70	228.13
408.08	228.46
408.45	228.73
408.83	229.02
409.20	229.31
409.58	229.55
409.95	229.88
410.33	230.24
410.70	230.57
411.08	230.97
411.45	231.35
411.82	231.73
412.20	232.17
412.57	232.72
412.95	233.13
413.32	233.64
413.69	234.19
414.07	234.79
414.44	235.34
414.82	235.96
415.19	236.70
415.56	237.46
415.94	238.15
416.31	239.01
416.68	239.82
417.06	240.75
417.43	241.63
417.81	242.62
418.18	243.66
418.55	244.77
418.93	245.91
419.30	247.12
419.67	248.35
420.04	249.66
420.42	250.96
420.79	252.55
421.16	254.11
421.54	255.68
421.91	257.28
422.28	259.03
422.66	260.83
423.03	262.56
423.40	264.32
423.77	266.25
424.15	268.19
424.52	270.21
424.89	272.36
425.26	274.46
425.64	276.42
426.01	278.58
426.38	280.80
426.75	283.07
427.13	285.39
427.50	287.80
427.87	290.34
428.24	292.87
428.61	295.21
428.99	297.79
429.36	300.66
429.73	303.45
430.10	306.13
430.47	308.88
430.85	311.72
431.22	314.75
431.59	317.90
431.96	320.92
432.33	324.27
432.70	327.48
433.08	331.27
433.45	334.83
433.82	338.33
434.19	342.20
434.56	345.96
434.93	349.52
435.30	353.10
435.68	356.99
436.05	360.79
436.42	364.54
436.79	367.94
437.16	371.54
437.53	375.36
437.90	379.16
438.27	382.88
438.64	386.70
439.01	390.22
439.38	393.28
439.75	396.18
440.13	399.54
440.50	402.74
440.87	405.26
441.24	407.89
441.61	410.82
441.98	412.79
442.35	415.19
442.72	417.66
443.09	420.07
443.46	421.39
443.83	422.17
444.20	422.86
444.57	424.02
444.94	424.47
445.31	424.91
445.68	425.33
446.05	425.41
446.42	424.90
446.79	424.28
447.16	423.69
447.53	423.27
447.90	421.69
448.27	420.04
448.64	417.86
449.01	416.34
449.37	413.66
449.74	411.17
450.11	408.13
450.48	404.80
450.85	401.41
451.22	398.52
451.59	395.84
451.96	393.23
452.33	389.72
452.70	386.52
453.07	382.74
453.43	378.87
453.80	375.11
454.17	371.49
454.54	368.10
454.91	364.43
455.28	360.84
455.65	357.50
456.02	354.12
456.38	351.26
456.75	347.64
457.12	344.62
457.49	341.60
457.86	338.71
458.23	336.22
458.59	333.45
458.96	330.60
459.33	328.05
459.70	325.52
460.07	323.46
460.43	321.13
460.80	318.88
461.17	316.95
461.54	314.93
461.91	313.01
462.27	311.01
462.64	309.31
463.01	307.44
463.38	305.67
463.74	303.92
464.11	302.32
464.48	300.93
464.85	299.42
465.21	298.22
465.58	296.94
465.95	295.44
466.32	294.19
466.68	292.95
467.05	291.74
467.42	290.55
467.78	289.27
468.15	288.08
468.52	287.21
468.88	286.04
469.25	285.04
469.62	284.18
469.98	283.24
470.35	282.34
470.72	281.53
471.08	280.64
471.45	279.88
471.82	279.14
472.18	278.30
472.55	277.69
472.92	276.97
473.28	276.37
473.65	275.79
474.02	275.17
474.38	274.68
474.75	274.25
475.11	273.76
475.48	273.38
475.85	273.07
476.21	272.70
476.58	272.40
476.94	272.14
477.31	271.92
477.67	271.70
478.04	271.52
478.41	271.39
478.77	271.35
479.14	271.21
479.50	271.17
479.87	271.19
480.23	271.23
480.60	271.24
480.96	271.28
481.33	271.42
481.69	271.60
482.06	271.74
482.42	271.81
482.79	272.02
483.15	272.33
483.52	272.67
483.88	272.93
484.25	273.29
484.61	273.67
484.98	274.06
485.34	274.64
485.71	275.24
486.07	275.85
486.44	276.40
486.80	277.12
487.17	277.84
487.53	278.65
487.90	279.47
488.26	280.45
488.62	281.40
488.99	282.42
489.35	283.48
489.72	284.63
490.08	285.89
490.44	287.22
490.81	288.56
491.17	289.93
491.54	291.54
491.90	293.12
492.26	294.85
492.63	296.63
492.99	298.47
493.36	300.43
493.72	302.56
494.08	304.78
494.45	307.12
494.81	309.62
495.17	312.21
495.54	314.93
495.90	317.71
496.26	320.68
496.63	323.78
496.99	327.07
497.35	330.51
497.72	334.14
498.08	337.81
498.44	341.73
498.80	345.86
499.17	350.11
499.53	354.49
499.89	359.14
500.26	363.95
500.62	368.84
500.98	374.13
501.34	379.51
501.71	385.13
502.07	390.93
502.43	396.88
502.79	403.04
503.16	409.48
503.52	416.14
503.88	422.97
504.24	430.01
504.60	437.22
504.97	444.88
505.33	452.67
505.69	460.90
506.05	469.18
506.41	477.60
506.78	486.28
507.14	495.32
507.50	504.65
507.86	514.23
508.22	524.03
508.59	533.81
508.95	544.02
509.31	554.48
509.67	565.19
510.03	576.23
510.39	587.48
510.75	599.03
511.12	610.72
511.48	622.83
511.84	635.11
512.20	647.53
512.56	660.24
512.92	673.21
513.28	686.44
513.64	699.77
514.00	713.52
514.37	727.48
514.73	741.53
515.09	755.55
515.45	769.87
515.81	784.50
516.17	799.56
516.53	814.72
516.89	830.09
517.25	845.55
517.61	861.09
517.97	876.76
518.33	892.38
518.69	908.45
519.05	924.65
519.41	941.18
519.77	958.01
520.13	974.84
520.49	991.67
520.85	1008.42
521.21	1025.44
521.57	1042.97
521.93	1060.07
522.29	1077.96
522.65	1095.78
523.01	1113.42
523.37	1130.98
523.73	1148.61
524.09	1166.35
524.45	1184.20
524.81	1202.29
525.17	1220.69
525.53	1239.30
525.89	1257.83
526.25	1276.44
526.61	1294.47
526.97	1312.94
527.33	1331.19
527.68	1349.47
528.04	1367.62
528.40	1385.98
528.76	1405.07
529.12	1423.63
529.48	1442.54
529.84	1460.30
530.20	1478.65
530.56	1497.66
530.91	1517.11
531.27	1535.94
531.63	1554.43
531.99	1572.94
532.35	1591.00
532.71	1609.00
533.07	1627.34
533.42	1645.39
533.78	1663.39
534.14	1681.87
534.50	1699.26
534.86	1717.35
535.21	1734.71
535.57	1752.77
535.93	1770.45
536.29	1787.32
536.65	1804.49
537.00	1821.40
537.36	1839.01
537.72	1855.72
538.08	1872.28
538.44	1888.15
538.79	1904.25
539.15	1919.97
539.51	1935.96
539.87	1952.64
540.22	1968.49
540.58	1984.28
540.94	1999.64
541.29	2014.69
541.65	2029.52
542.01	2044.84
542.37	2059.34
542.72	2073.86
543.08	2088.00
543.44	2102.59
543.79	2116.03
544.15	2129.07
544.51	2142.77
544.87	2155.81
545.22	2168.83
545.58	2181.32
545.94	2193.34
546.29	2205.32
546.65	2217.43
547.01	2228.87
547.36	2239.52
547.72	2250.02
548.07	2260.17
548.43	2270.48
548.79	2280.53
549.14	2290.09
549.50	2299.28
549.86	2308.93
550.21	2318.28
550.57	2327.41
550.92	2335.87
551.28	2344.75
551.64	2353.82
551.99	2362.23
552.35	2370.30
552.70	2378.39
553.06	2386.09
553.41	2394.27
553.77	2402.03
554.13	2409.92
554.48	2418.08
554.84	2425.64
555.19	2432.58
555.55	2439.37
555.90	2445.56
556.26	2452.22
556.61	2458.60
556.97	2464.92
557.32	2470.59
557.68	2476.39
558.03	2482.20
558.39	2487.45
558.74	2493.88
559.10	2499.30
559.45	2504.50
559.81	2510.29
560.16	2515.62
560.52	2520.47
560.87	2525.18
561.23	2529.16
561.58	2533.20
561.94	2536.83
562.29	2540.12
562.64	2544.26
563.00	2548.15
563.35	2553.02
563.71	2557.38
564.06	2561.98
564.42	2566.08
564.77	2569.95
565.12	2573.46
565.48	2576.60
565.83	2579.82
566.19	2582.24
566.54	2584.27
566.89	2586.58
567.25	2588.18
567.60	2590.41
567.96	2593.20
568.31	2595.04
568.66	2597.29
569.02	2599.03
569.37	2600.26
569.72	2602.06
570.08	2602.99
570.43	2603.71
570.78	2603.84
571.14	2603.06
571.49	2602.04
571.84	2602.39
572.20	2601.91
572.55	2601.39
572.90	2600.23
573.26	2599.45
573.61	2597.98
573.96	2596.65
574.31	2593.79
574.67	2591.08
575.02	2587.67
575.37	2584.21
575.72	2580.61
576.08	2577.25
576.43	2574.04
576.78	2570.49
577.13	2567.42
577.49	2564.42
577.84	2561.19
578.19	2557.41
578.54	2553.75
578.90	2549.61
579.25	2543.71
579.60	2538.45
579.95	2533.18
580.30	2527.94
580.66	2522.28
581.01	2517.16
581.36	2511.96
581.71	2507.59
582.06	2503.03
582.42	2498.49
582.77	2492.93
583.12	2488.15
583.47	2483.18
583.82	2477.84
584.17	2472.13
584.53	2466.18
584.88	2460.08
585.23	2453.69
585.58	2447.62
585.93	2441.53
586.28	2436.26
586.63	2430.76
586.98	2424.99
587.34	2419.99
587.69	2414.63
588.04	2408.96
588.39	2402.63
588.74	2395.38
589.09	2388.66
589.44	2381.09
589.79	2374.18
590.14	2368.05
590.49	2360.60
590.84	2353.47
591.19	2346.72
591.54	2339.40
591.89	2331.27
592.25	2323.78
592.60	2315.59
592.95	2307.23
593.30	2299.04
593.65	2290.66
594.00	2282.68
594.35	2274.65
594.70	2265.34
595.05	2257.29
595.40	2248.83
595.75	2240.31
596.10	2233.39
596.45	2225.59
596.80	2218.58
597.15	2210.94
597.50	2203.01
597.85	2195.53
598.19	2187.97
598.54	2179.91
598.89	2172.35
599.24	2165.60
599.59	2157.99
599.94	2150.92
600.29	2143.57
600.64	2136.04
600.99	2127.51
601.34	2119.50
601.69	2111.51
602.04	2103.83
602.39	2095.20
602.74	2087.43
603.08	2079.67
603.43	2071.77
603.78	2063.34
604.13	2054.92
604.48	2046.69
604.83	2038.65
605.18	2030.81
605.53	2021.63
605.87	2012.24
606.22	2003.84
606.57	1994.45
606.92	1985.64
607.27	1977.33
607.62	1969.18
607.96	1960.71
608.31	1952.97
608.66	1944.20
609.01	1935.43
609.36	1926.55
609.70	1917.30
610.05	1907.91
610.40	1898.91
610.75	1889.16
611.10	1880.33
611.44	1870.46
611.79	1861.00
612.14	1850.80
612.49	1840.10
612.83	1830.18
613.18	1820.51
613.53	1811.00
613.88	1801.04
614.22	1791.38
614.57	1781.18
614.92	1771.93
615.27	1763.16
615.61	1753.28
615.96	1743.94
616.31	1734.93
616.65	1726.18
617.00	1717.33
617.35	1708.24
617.70	1698.47
618.04	1688.52
618.39	1678.79
618.74	1669.93
619.08	1660.25
619.43	1651.28
619.78	1643.05
620.12	1634.60
620.47	1625.99
620.82	1616.35
621.16	1607.64
621.51	1598.64
621.85	1589.69
622.20	1579.65
622.55	1569.77
622.89	1560.60
623.24	1551.49
623.59	1542.65
623.93	1533.76
624.28	1525.15
624.62	1516.34
624.97	1507.77
625.32	1499.68
625.66	1491.30
626.01	1482.86
626.35	1474.11
626.70	1464.97
627.04	1455.82
627.39	1446.60
627.73	1437.84
628.08	1429.80
628.43	1421.31
628.77	1412.84
629.12	1404.02
629.46	1395.51
629.81	1386.65
630.15	1378.00
630.50	1369.27
630.84	1359.63
631.19	1350.25
631.53	1341.44
631.88	1332.54
632.22	1323.68
632.57	1315.19
632.91	1306.43
633.26	1297.79
633.60	1289.08
633.95	1280.65
634.29	1272.41
634.64	1264.67
634.98	1256.07
635.32	1247.62
635.67	1239.70
636.01	1231.87
636.36	1223.91
636.70	1216.28
637.05	1208.63
637.39	1201.19
637.73	1193.67
638.08	1186.86
638.42	1179.93
638.77	1172.43
639.11	1164.84
639.45	1157.44
639.80	1149.72
640.14	1142.20
640.49	1134.52
640.83	1127.22
641.17	1120.10
641.52	1112.67
641.86	1105.14
642.20	1098.39
642.55	1091.03
642.89	1083.61
643.23	1076.02
643.58	1069.28
643.92	1062.04
644.26	1055.08
644.61	1048.05
644.95	1041.12
645.29	1033.56
645.64	1025.74
645.98	1018.27
646.32	1011.45
646.66	1004.42
647.01	997.73
647.35	991.05
647.69	984.25
648.04	977.74
648.38	971.02
648.72	964.18
649.06	957.16
649.41	950.24
649.75	943.44
650.09	936.52
650.43	929.85
650.78	922.81
651.12	915.96
651.46	909.25
651.80	902.59
652.14	896.27
652.49	889.98
652.83	883.99
653.17	877.52
653.51	870.89
653.85	864.65
654.20	858.09
654.54	851.31
654.88	844.68
655.22	837.89
655.56	831.29
655.90	824.96
656.25	818.99
656.59	812.75
656.93	806.82
657.27	800.87
657.61	794.52
657.95	788.63
658.29	782.82
658.64	776.72
658.98	770.66
659.32	764.43
659.66	758.46
660.00	752.34
660.34	746.60
660.68	740.91
661.02	735.14
661.36	729.72
661.70	724.38
662.05	719.37
662.39	714.45
662.73	709.33
663.07	704.33
663.41	699.13
663.75	693.99
664.09	688.69
664.43	683.64
664.77	678.97
665.11	674.02
665.45	669.16
665.79	664.59
666.13	659.86
666.47	655.06
666.81	650.32
667.15	645.61
667.49	641.11
667.83	636.70
668.17	632.15
668.51	627.48
668.85	622.83
669.19	618.43
669.53	613.93
669.87	609.46
670.21	605.16
670.55	600.96
670.89	596.98
671.23	593.04
671.57	588.92
671.91	584.80
672.25	580.73
672.58	576.70
672.92	572.68
673.26	568.93
673.60	565.32
673.94	561.70
674.28	558.32
674.62	554.93
674.96	551.39
675.30	548.09
675.64	544.67
675.97	541.49
676.31	538.15
676.65	534.81
676.99	531.69
677.33	528.36
677.67	525.12
678.01	521.68
678.34	518.27
678.68	514.98
679.02	511.73
679.36	508.57
679.70	505.46
680.04	502.25
680.37	499.01
680.71	495.75
681.05	492.73
681.39	489.60
681.73	486.50
682.06	483.58
682.40	480.61
682.74	477.67
683.08	474.69
683.42	471.66
683.75	468.81
684.09	465.84
684.43	462.95
684.77	460.12
685.10	457.40
685.44	454.71
685.78	452.09
686.12	449.45
686.45	446.79
686.79	444.08
687.13	441.53
687.46	438.97
687.80	436.46
688.14	433.86
688.48	431.48
688.81	428.93
689.15	426.44
689.49	423.92
689.82	421.54
690.16	419.18
690.50	416.92
690.83	414.67
691.17	412.36
691.51	410.20
691.84	408.05
692.18	405.84
692.52	403.61
692.85	401.33
693.19	399.18
693.52	397.04
693.86	394.97
694.20	392.95
694.53	390.90
694.87	388.82
695.21	386.74
695.54	384.58
695.88	382.61
696.21	380.61
696.55	378.68
696.88	376.72
697.22	374.81
697.56	372.92
697.89	371.05
698.23	369.16
698.56	367.32
698.90	365.50
699.23	363.60
699.57	361.77
699.90	360.02
700.24	358.26
700.58	356.58
700.91	354.87
701.25	353.14
701.58	351.59
701.92	349.99
702.25	348.47
702.59	346.95
702.92	345.39
703.26	343.90
703.59	342.42
703.93	341.06
704.26	339.64
704.60	338.17
704.93	336.73
705.26	335.30
705.60	333.87
705.93	332.51
706.27	331.27
706.60	330.05
706.94	328.81
707.27	327.43
707.61	326.15
707.94	324.97
708.27	323.74
708.61	322.46
708.94	321.26
709.28	320.09
709.61	318.95
709.94	317.85
710.28	316.66
710.61	315.47
710.95	314.24
711.28	313.16
711.61	312.02
711.95	310.90
712.28	309.83
712.61	308.74
712.95	307.63
713.28	306.63
713.61	305.60
713.95	304.55
714.28	303.61
714.61	302.59
714.95	301.59
715.28	300.59
715.61	299.56
715.95	298.55
716.28	297.58
716.61	296.60
716.95	295.62
717.28	294.72
717.61	293.86
717.94	292.97
718.28	292.01
718.61	291.17
718.94	290.34
719.27	289.55
719.61	288.78
719.94	288.01
720.27	287.15
720.60	286.33
720.94	285.59
721.27	284.89
721.60	284.23
721.93	283.48
722.27	282.82
722.60	282.18
722.93	281.51
723.26	280.88
723.59	280.23
723.93	279.60
724.26	278.93
724.59	278.26
724.92	277.66
725.25	277.09
725.59	276.48
725.92	275.85
726.25	275.27
726.58	274.64
726.91	274.06
727.24	273.50
727.57	272.96
727.91	272.39
728.24	271.83
728.57	271.25
728.90	270.72
729.23	270.15
729.56	269.64
729.89	269.11
730.22	268.52
730.55	267.98
730.89	267.43
731.22	266.94
731.55	266.46
731.88	265.94
732.21	265.43
732.54	264.91
732.87	264.48
733.20	264.01
733.53	263.58
733.86	263.15
734.19	262.72
734.52	262.26
734.85	261.90
735.18	261.43
735.51	260.98
735.84	260.53
736.17	260.11
736.50	259.66
736.83	259.36
737.16	259.01
737.49	258.61
737.82	258.22
738.15	257.84
738.48	257.47
738.81	257.09
739.14	256.72
739.47	256.38
739.80	256.01
740.13	255.67
740.46	255.29
740.79	254.92
741.12	254.57
741.45	254.24
741.78	253.84
742.11	253.54
742.44	253.18
742.77	252.89
743.10	252.60
743.43	252.28
743.75	251.91
744.08	251.72
744.41	251.42
744.74	251.14
745.07	250.85
745.40	250.55
745.73	250.31
746.06	250.02
746.39	249.72
746.71	249.40
747.04	249.06
747.37	248.78
747.70	248.52
748.03	248.22
748.36	247.96
748.68	247.67
749.01	247.40
749.34	247.14
749.67	246.91
750.00	246.61
750.33	246.41
750.65	246.13
750.98	245.73
751.31	245.48
751.64	245.22
751.97	244.98
752.29	244.71
752.62	244.41
752.95	244.14
753.28	243.89
753.60	243.67
753.93	243.49
754.26	243.26
754.59	243.00
754.91	242.76
755.24	242.52
755.57	242.32
755.90	242.07
756.22	241.86
756.55	241.60
756.88	241.39
757.20	241.11
757.53	240.85
757.86	240.67
758.19	240.48
758.51	240.29
758.84	240.05
759.17	239.88
759.49	239.72
759.82	239.58
760.15	239.42
760.47	239.26
760.80	239.06
761.13	238.90
761.45	238.70
761.78	238.50
762.11	238.32
762.43	238.11
762.76	237.97
763.08	237.80
763.41	237.63
763.74	237.47
764.06	237.30
764.39	237.15
764.71	236.95
765.04	236.76
765.37	236.57
765.69	236.41
766.02	236.25
766.34	236.08
766.67	235.90
767.00	235.77
767.32	235.69
767.65	235.57
767.97	235.44
768.30	235.32
768.62	235.22
768.95	235.09
769.27	234.97
769.60	234.85
769.92	234.73
770.25	234.60
770.57	234.46
770.90	234.37
771.22	234.26
771.55	234.16
771.87	234.09
772.20	233.99
772.52	233.97
772.85	233.96
773.17	233.83
773.50	233.72
773.82	233.62
774.15	233.45
774.47	233.29
774.80	233.17
775.12	233.09
775.45	232.96
775.77	232.88
776.09	232.80
776.42	232.71
776.74	232.61
777.07	232.51
777.39	232.44
777.72	232.31
778.04	232.24
778.36	232.16
778.69	232.06
779.01	232.00
779.33	231.84
779.66	231.64
779.98	231.56
780.31	231.45
780.63	231.38
780.95	231.30
781.28	231.21
781.60	231.15
781.92	231.08
782.25	231.03
782.57	230.95
782.89	230.87
783.22	230.76
783.54	230.70
783.86	230.67
784.19	230.61
784.51	230.58
784.83	230.52
785.16	230.43
785.48	230.39
785.80	230.34
786.12	230.28
786.45	230.26
