SpectraSuite Data File
++++++++++++++++++++++++++++++++++++
Date: Fri Feb 01 16:37:57 EST 2013
User: group
Dark Spectrum Present: No
Reference Spectrum Present: No
Number of Sampled Component Spectra: 1
Spectrometers: USB2E7196
Integration Time (usec): 35000 (USB2E7196)
Spectra Averaged: 100 (USB2E7196)
Boxcar Smoothing: 10 (USB2E7196)
Correct for Electrical Dark: No (USB2E7196)
Strobe/Lamp Enabled: No (USB2E7196)
Correct for Detector Non-linearity: No (USB2E7196)
Correct for Stray Light: No (USB2E7196)
Number of Pixels in Processed Spectrum: 2048
>>>>>Begin Processed Spectral Data<<<<<
339.09	0.00
339.48	213.76
339.86	215.09
340.24	216.70
340.63	218.55
341.01	221.35
341.39	220.57
341.78	222.45
342.16	223.06
342.54	224.47
342.93	212.41
343.31	223.12
343.69	223.67
344.07	224.14
344.46	224.55
344.84	224.92
345.22	225.11
345.60	225.36
345.99	225.51
346.37	225.66
346.75	225.71
347.13	225.78
347.52	225.81
347.90	225.86
348.28	225.92
348.66	225.97
349.05	225.93
349.43	225.92
349.81	225.94
350.19	225.99
350.57	226.01
350.96	226.07
351.34	226.15
351.72	226.22
352.10	226.33
352.48	226.40
352.87	226.45
353.25	226.52
353.63	226.57
354.01	226.65
354.39	226.71
354.77	226.78
355.15	226.89
355.54	226.95
355.92	226.97
356.30	227.02
356.68	227.10
357.06	227.16
357.44	227.24
357.82	227.28
358.20	227.34
358.58	227.40
358.97	227.47
359.35	227.53
359.73	227.58
360.11	227.62
360.49	227.69
360.87	227.72
361.25	227.78
361.63	227.89
362.01	227.92
362.39	227.96
362.77	228.03
363.15	228.05
363.53	228.09
363.91	228.13
364.29	228.18
364.67	228.12
365.05	228.17
365.43	228.21
365.81	228.23
366.19	228.26
366.57	228.30
366.95	228.28
367.33	228.29
367.71	228.27
368.09	228.26
368.47	228.23
368.85	228.20
369.23	228.21
369.61	228.15
369.99	228.18
370.37	228.16
370.75	228.18
371.13	228.15
371.51	228.09
371.89	228.05
372.27	228.00
372.65	228.01
373.03	227.97
373.41	227.86
373.78	227.83
374.16	227.74
374.54	227.63
374.92	227.56
375.30	227.47
375.68	227.43
376.06	227.41
376.44	227.39
376.82	227.32
377.19	227.27
377.57	227.19
377.95	227.06
378.33	226.98
378.71	226.84
379.09	226.77
379.47	226.74
379.84	226.67
380.22	226.62
380.60	226.51
380.98	226.44
381.36	226.41
381.73	226.34
382.11	226.33
382.49	226.32
382.87	226.27
383.25	226.23
383.62	226.29
384.00	226.23
384.38	226.16
384.76	226.13
385.13	226.11
385.51	226.05
385.89	226.00
386.27	226.00
386.64	225.97
387.02	225.91
387.40	225.85
387.78	225.82
388.15	225.77
388.53	225.75
388.91	225.73
389.29	225.69
389.66	225.66
390.04	225.62
390.42	225.59
390.79	225.59
391.17	225.59
391.55	225.44
391.92	225.42
392.30	225.43
392.68	225.40
393.05	225.36
393.43	225.40
393.81	225.43
394.18	225.37
394.56	225.39
394.94	225.45
395.31	225.47
395.69	225.50
396.06	225.51
396.44	225.55
396.82	225.54
397.19	225.60
397.57	225.65
397.95	225.69
398.32	225.70
398.70	225.74
399.07	225.78
399.45	225.85
399.82	225.89
400.20	225.94
400.58	226.02
400.95	226.02
401.33	226.10
401.70	226.20
402.08	226.32
402.45	226.39
402.83	226.46
403.20	226.53
403.58	226.64
403.95	226.78
404.33	226.91
404.71	227.03
405.08	227.22
405.46	227.32
405.83	227.44
406.21	227.59
406.58	227.74
406.96	227.90
407.33	228.06
407.70	228.26
408.08	228.53
408.45	228.75
408.83	229.05
409.20	229.25
409.58	229.46
409.95	229.69
410.33	229.93
410.70	230.20
411.08	230.52
411.45	230.83
411.82	231.14
412.20	231.48
412.57	231.86
412.95	232.17
413.32	232.56
413.69	232.97
414.07	233.39
414.44	233.85
414.82	234.34
415.19	234.88
415.56	235.41
415.94	235.94
416.31	236.57
416.68	237.14
417.06	237.86
417.43	238.56
417.81	239.36
418.18	240.16
418.55	240.97
418.93	241.86
419.30	242.73
419.67	243.68
420.04	244.61
420.42	245.66
420.79	246.82
421.16	247.99
421.54	249.18
421.91	250.43
422.28	251.68
422.66	252.98
423.03	254.30
423.40	255.66
423.77	257.06
424.15	258.48
424.52	259.98
424.89	261.56
425.26	263.10
425.64	264.52
426.01	266.10
426.38	267.74
426.75	269.41
427.13	271.13
427.50	272.92
427.87	274.82
428.24	276.64
428.61	278.32
428.99	280.24
429.36	282.37
429.73	284.39
430.10	286.42
430.47	288.51
430.85	290.61
431.22	292.79
431.59	295.14
431.96	297.38
432.33	299.81
432.70	302.21
433.08	304.95
433.45	307.56
433.82	310.13
434.19	313.04
434.56	315.79
434.93	318.41
435.30	321.00
435.68	323.87
436.05	326.70
436.42	329.50
436.79	331.98
437.16	334.63
437.53	337.42
437.90	340.18
438.27	342.87
438.64	345.62
439.01	348.23
439.38	350.46
439.75	352.57
440.13	355.04
440.50	357.32
440.87	359.16
441.24	361.04
441.61	363.18
441.98	364.62
442.35	366.41
442.72	368.16
443.09	369.98
443.46	370.92
443.83	371.45
444.20	371.91
444.57	372.73
444.94	373.00
445.31	373.34
445.68	373.70
446.05	373.75
446.42	373.43
446.79	373.04
447.16	372.58
447.53	372.25
447.90	371.11
448.27	369.94
448.64	368.39
449.01	367.31
449.37	365.38
449.74	363.51
450.11	361.26
450.48	358.92
450.85	356.32
451.22	354.22
451.59	352.23
451.96	350.37
452.33	347.81
452.70	345.48
453.07	342.68
453.43	339.81
453.80	337.08
454.17	334.45
454.54	331.89
454.91	329.17
455.28	326.53
455.65	324.09
456.02	321.66
456.38	319.50
456.75	316.86
457.12	314.64
457.49	312.41
457.86	310.31
458.23	308.45
458.59	306.47
458.96	304.41
459.33	302.58
459.70	300.70
460.07	299.23
460.43	297.54
460.80	295.95
461.17	294.49
461.54	293.02
461.91	291.61
462.27	290.18
462.64	288.98
463.01	287.61
463.38	286.34
463.74	285.01
464.11	283.88
464.48	282.89
464.85	281.82
465.21	280.97
465.58	280.03
465.95	278.98
466.32	278.12
466.68	277.24
467.05	276.36
467.42	275.49
467.78	274.54
468.15	273.70
468.52	273.04
468.88	272.24
469.25	271.49
469.62	270.89
469.98	270.22
470.35	269.63
470.72	269.09
471.08	268.46
471.45	267.98
471.82	267.49
472.18	266.89
472.55	266.48
472.92	265.99
473.28	265.58
473.65	265.12
474.02	264.71
474.38	264.36
474.75	264.09
475.11	263.75
475.48	263.54
475.85	263.28
476.21	263.06
476.58	262.90
476.94	262.78
477.31	262.61
477.67	262.49
478.04	262.38
478.41	262.33
478.77	262.36
479.14	262.27
479.50	262.27
479.87	262.34
480.23	262.40
480.60	262.48
480.96	262.56
481.33	262.76
481.69	262.96
482.06	263.16
482.42	263.38
482.79	263.61
483.15	263.94
483.52	264.32
483.88	264.66
484.25	265.02
484.61	265.41
484.98	265.86
485.34	266.37
485.71	266.97
486.07	267.55
486.44	268.13
486.80	268.82
487.17	269.53
487.53	270.36
487.90	271.18
488.26	272.06
488.62	273.05
488.99	274.03
489.35	275.07
489.72	276.14
490.08	277.31
490.44	278.57
490.81	279.87
491.17	281.22
491.54	282.71
491.90	284.22
492.26	285.88
492.63	287.59
492.99	289.38
493.36	291.28
493.72	293.32
494.08	295.43
494.45	297.70
494.81	300.06
495.17	302.40
495.54	305.01
495.90	307.72
496.26	310.48
496.63	313.42
496.99	316.54
497.35	319.79
497.72	323.20
498.08	326.68
498.44	330.40
498.80	334.30
499.17	338.32
499.53	342.51
499.89	346.88
500.26	351.41
500.62	356.08
500.98	361.01
501.34	366.11
501.71	371.41
502.07	376.89
502.43	382.48
502.79	388.41
503.16	394.48
503.52	400.75
503.88	407.19
504.24	413.87
504.60	420.69
504.97	427.87
505.33	435.16
505.69	442.97
506.05	450.77
506.41	458.67
506.78	466.89
507.14	475.33
507.50	484.03
507.86	493.04
508.22	502.25
508.59	511.47
508.95	521.01
509.31	530.82
509.67	540.90
510.03	551.26
510.39	561.80
510.75	572.57
511.12	583.46
511.48	594.72
511.84	606.12
512.20	617.65
512.56	629.57
512.92	641.68
513.28	653.98
513.64	666.41
514.00	679.18
514.37	692.06
514.73	705.13
515.09	718.20
515.45	731.48
515.81	745.14
516.17	759.06
516.53	773.10
516.89	787.22
517.25	801.33
517.61	815.72
517.97	830.12
518.33	844.47
518.69	859.24
519.05	874.13
519.41	889.22
519.77	904.69
520.13	920.10
520.49	935.51
520.85	950.79
521.21	966.34
521.57	982.42
521.93	998.13
522.29	1014.39
522.65	1030.53
523.01	1046.57
523.37	1062.46
523.73	1078.47
524.09	1094.59
524.45	1110.82
524.81	1127.34
525.17	1143.84
525.53	1160.67
525.89	1177.48
526.25	1194.24
526.61	1210.64
526.97	1227.37
527.33	1243.76
527.68	1260.13
528.04	1276.42
528.40	1292.77
528.76	1309.82
529.12	1326.30
529.48	1343.13
529.84	1358.97
530.20	1375.57
530.56	1392.42
530.91	1409.66
531.27	1426.44
531.63	1442.78
531.99	1459.22
532.35	1475.14
532.71	1491.05
533.07	1507.16
533.42	1522.92
533.78	1538.92
534.14	1555.05
534.50	1570.18
534.86	1585.84
535.21	1600.88
535.57	1616.63
535.93	1632.07
536.29	1646.65
536.65	1661.53
537.00	1676.01
537.36	1691.27
537.72	1705.58
538.08	1719.84
538.44	1733.52
538.79	1747.01
539.15	1760.32
539.51	1773.92
539.87	1788.13
540.22	1801.56
540.58	1815.03
540.94	1828.06
541.29	1840.60
541.65	1853.07
542.01	1866.08
542.37	1878.27
542.72	1890.55
543.08	1902.32
543.44	1914.70
543.79	1926.00
544.15	1936.87
544.51	1948.36
544.87	1959.18
545.22	1969.84
545.58	1980.04
545.94	1989.68
546.29	1999.67
546.65	2009.55
547.01	2018.68
547.36	2027.34
547.72	2035.96
548.07	2043.93
548.43	2052.16
548.79	2060.09
549.14	2067.61
549.50	2074.81
549.86	2082.42
550.21	2089.76
550.57	2096.91
550.92	2103.45
551.28	2110.32
551.64	2117.38
551.99	2123.76
552.35	2129.96
552.70	2136.12
553.06	2142.10
553.41	2148.42
553.77	2154.23
554.13	2160.25
554.48	2166.31
554.84	2171.81
555.19	2176.87
555.55	2182.05
555.90	2186.51
556.26	2191.43
556.61	2196.22
556.97	2200.83
557.32	2205.00
557.68	2209.16
558.03	2213.33
558.39	2216.82
558.74	2221.51
559.10	2225.38
559.45	2229.12
559.81	2233.26
560.16	2237.11
560.52	2240.25
560.87	2243.63
561.23	2246.39
561.58	2249.37
561.94	2252.08
562.29	2254.31
562.64	2257.29
563.00	2259.75
563.35	2263.30
563.71	2266.42
564.06	2269.53
564.42	2272.36
564.77	2275.11
565.12	2277.55
565.48	2279.66
565.83	2281.77
566.19	2283.19
566.54	2284.14
566.89	2285.39
567.25	2286.12
567.60	2287.42
567.96	2289.31
568.31	2290.12
568.66	2291.40
569.02	2292.02
569.37	2292.37
569.72	2293.37
570.08	2293.48
570.43	2293.71
570.78	2293.18
571.14	2291.81
571.49	2290.47
571.84	2289.98
572.20	2288.77
572.55	2287.61
572.90	2285.77
573.26	2284.49
573.61	2282.59
573.96	2280.94
574.31	2278.09
574.67	2275.13
575.02	2271.44
575.37	2268.04
575.72	2264.42
576.08	2260.94
576.43	2257.53
576.78	2253.92
577.13	2250.64
577.49	2247.43
577.84	2243.95
578.19	2240.22
578.54	2236.73
578.90	2232.72
579.25	2227.39
579.60	2222.57
579.95	2217.75
580.30	2212.95
580.66	2207.70
581.01	2202.82
581.36	2197.96
581.71	2193.92
582.06	2189.66
582.42	2185.35
582.77	2180.23
583.12	2175.81
583.47	2171.40
583.82	2166.67
584.17	2161.62
584.53	2156.26
584.88	2150.86
585.23	2145.12
585.58	2139.69
585.93	2134.21
586.28	2129.25
586.63	2124.24
586.98	2119.08
587.34	2114.33
587.69	2109.58
588.04	2104.52
588.39	2098.98
588.74	2092.40
589.09	2086.26
589.44	2079.51
589.79	2073.48
590.14	2067.73
590.49	2061.09
590.84	2054.58
591.19	2048.63
591.54	2042.07
591.89	2034.92
592.25	2028.23
592.60	2021.08
592.95	2013.72
593.30	2006.43
593.65	1998.92
594.00	1991.77
594.35	1984.57
594.70	1976.54
595.05	1969.49
595.40	1962.18
595.75	1954.78
596.10	1948.83
596.45	1942.23
596.80	1936.25
597.15	1929.83
597.50	1923.06
597.85	1916.71
598.19	1910.19
598.54	1903.30
598.89	1896.76
599.24	1890.81
599.59	1884.22
599.94	1878.03
600.29	1871.69
600.64	1865.08
600.99	1857.89
601.34	1851.25
601.69	1844.31
602.04	1837.71
602.39	1830.38
602.74	1823.64
603.08	1816.99
603.43	1810.25
603.78	1802.88
604.13	1795.51
604.48	1788.35
604.83	1781.55
605.18	1774.79
605.53	1766.92
605.87	1758.89
606.22	1751.55
606.57	1743.57
606.92	1736.04
607.27	1729.05
607.62	1722.21
607.96	1715.04
608.31	1708.58
608.66	1701.00
609.01	1693.73
609.36	1686.09
609.70	1678.12
610.05	1670.02
610.40	1662.39
610.75	1654.07
611.10	1646.46
611.44	1638.03
611.79	1630.02
612.14	1621.38
612.49	1612.19
612.83	1603.72
613.18	1595.48
613.53	1587.43
613.88	1579.05
614.22	1571.01
614.57	1562.27
614.92	1554.28
615.27	1546.92
615.61	1538.56
615.96	1530.51
616.31	1522.78
616.65	1515.39
617.00	1507.81
617.35	1500.23
617.70	1491.88
618.04	1483.47
618.39	1475.22
618.74	1467.74
619.08	1459.29
619.43	1451.57
619.78	1444.50
620.12	1437.52
620.47	1430.08
620.82	1421.98
621.16	1414.49
621.51	1406.76
621.85	1399.15
622.20	1390.56
622.55	1382.01
622.89	1374.11
623.24	1366.51
623.59	1359.07
623.93	1351.54
624.28	1344.33
624.62	1336.82
624.97	1329.72
625.32	1322.93
625.66	1315.91
626.01	1308.74
626.35	1301.47
626.70	1293.77
627.04	1286.08
627.39	1278.15
627.73	1270.76
628.08	1263.79
628.43	1256.61
628.77	1249.30
629.12	1241.77
629.46	1234.77
629.81	1227.37
630.15	1220.13
630.50	1212.94
630.84	1204.73
631.19	1196.75
631.53	1189.08
631.88	1181.53
632.22	1173.84
632.57	1166.42
632.91	1158.96
633.26	1151.52
633.60	1143.97
633.95	1136.77
634.29	1129.73
634.64	1123.03
634.98	1115.62
635.32	1108.57
635.67	1101.83
636.01	1095.14
636.36	1088.41
636.70	1081.75
637.05	1075.22
637.39	1068.78
637.73	1062.10
638.08	1056.20
638.42	1050.29
638.77	1043.99
639.11	1037.47
639.45	1031.21
639.80	1024.59
640.14	1018.23
640.49	1011.86
640.83	1005.74
641.17	999.65
641.52	993.41
641.86	987.01
642.20	981.17
642.55	974.74
642.89	968.33
643.23	961.77
643.58	956.01
643.92	949.86
644.26	943.81
644.61	937.76
644.95	931.82
645.29	925.32
645.64	918.62
645.98	912.33
646.32	906.34
646.66	900.29
647.01	894.49
647.35	888.80
647.69	882.84
648.04	877.30
648.38	871.43
648.72	865.46
649.06	859.47
649.41	853.56
649.75	847.74
650.09	841.79
650.43	836.10
650.78	829.93
651.12	823.96
651.46	818.22
651.80	812.54
652.14	807.07
652.49	801.79
652.83	796.60
653.17	791.05
653.51	785.45
653.85	779.95
654.20	774.36
654.54	768.34
654.88	762.51
655.22	756.56
655.56	750.92
655.90	745.43
656.25	740.16
656.59	734.90
656.93	729.85
657.27	724.74
657.61	719.31
657.95	714.22
658.29	709.20
658.64	703.96
658.98	698.60
659.32	693.12
659.66	687.79
660.00	682.58
660.34	677.48
660.68	672.57
661.02	667.54
661.36	662.84
661.70	658.28
662.05	654.01
662.39	649.76
662.73	645.32
663.07	641.02
663.41	636.56
663.75	632.08
664.09	627.47
664.43	623.09
664.77	618.97
665.11	614.75
665.45	610.51
665.79	606.50
666.13	602.39
666.47	598.32
666.81	594.22
667.15	590.09
667.49	586.18
667.83	582.25
668.17	578.44
668.51	574.42
668.85	570.37
669.19	566.46
669.53	562.53
669.87	558.66
670.21	554.92
670.55	551.23
670.89	547.74
671.23	544.28
671.57	540.73
671.91	537.20
672.25	533.67
672.58	530.18
672.92	526.67
673.26	523.45
673.60	520.31
673.94	517.16
674.28	514.21
674.62	511.23
674.96	508.22
675.30	505.23
675.64	502.29
675.97	499.49
676.31	496.64
676.65	493.77
676.99	490.99
677.33	488.06
677.67	485.26
678.01	482.26
678.34	479.32
678.68	476.43
679.02	473.66
679.36	470.88
679.70	468.18
680.04	465.47
680.37	462.65
680.71	459.86
681.05	457.18
681.39	454.45
681.73	451.83
682.06	449.29
682.40	446.72
682.74	444.11
683.08	441.58
683.42	438.97
683.75	436.48
684.09	433.93
684.43	431.50
684.77	429.03
685.10	426.68
685.44	424.37
685.78	422.06
686.12	419.73
686.45	417.46
686.79	415.17
687.13	412.94
687.46	410.80
687.80	408.62
688.14	406.50
688.48	404.47
688.81	402.25
689.15	400.10
689.49	397.98
689.82	395.97
690.16	393.82
690.50	391.87
690.83	389.93
691.17	387.96
691.51	386.07
691.84	384.25
692.18	382.29
692.52	380.31
692.85	378.40
693.19	376.61
693.52	374.75
693.86	372.93
694.20	371.18
694.53	369.36
694.87	367.57
695.21	365.73
695.54	363.87
695.88	362.13
696.21	360.37
696.55	358.69
696.88	356.98
697.22	355.35
697.56	353.71
697.89	352.10
698.23	350.52
698.56	348.90
698.90	347.36
699.23	345.77
699.57	344.28
699.90	342.73
700.24	341.13
700.58	339.63
700.91	338.13
701.25	336.65
701.58	335.31
701.92	333.92
702.25	332.57
702.59	331.23
702.92	329.90
703.26	328.60
703.59	327.30
703.93	326.11
704.26	324.89
704.60	323.61
704.93	322.30
705.26	321.06
705.60	319.86
705.93	318.65
706.27	317.58
706.60	316.46
706.94	315.36
707.27	314.23
707.61	313.14
707.94	312.09
708.27	310.98
708.61	309.86
708.94	308.87
709.28	307.89
709.61	306.91
709.94	305.94
710.28	304.93
710.61	303.91
710.95	302.83
711.28	301.93
711.61	301.01
711.95	300.13
712.28	299.15
712.61	298.16
712.95	297.22
713.28	296.35
713.61	295.46
713.95	294.54
714.28	293.69
714.61	292.81
714.95	291.99
715.28	291.19
715.61	290.32
715.95	289.43
716.28	288.54
716.61	287.69
716.95	286.85
717.28	286.07
717.61	285.29
717.94	284.55
718.28	283.73
718.61	282.95
718.94	282.19
719.27	281.54
719.61	280.89
719.94	280.24
720.27	279.53
720.60	278.88
720.94	278.31
721.27	277.72
721.60	277.18
721.93	276.57
722.27	275.98
722.60	275.43
722.93	274.88
723.26	274.37
723.59	273.85
723.93	273.31
724.26	272.79
724.59	272.25
724.92	271.70
725.25	271.21
725.59	270.72
725.92	270.24
726.25	269.69
726.58	269.23
726.91	268.73
727.24	268.25
727.57	267.75
727.91	267.26
728.24	266.79
728.57	266.25
728.90	265.82
729.23	265.35
729.56	264.90
729.89	264.42
730.22	263.94
730.55	263.47
730.89	263.01
731.22	262.58
731.55	262.17
731.88	261.77
732.21	261.31
732.54	260.86
732.87	260.47
733.20	260.12
733.53	259.70
733.86	259.31
734.19	258.89
734.52	258.57
734.85	258.24
735.18	257.79
735.51	257.45
735.84	257.05
736.17	256.72
736.50	256.34
736.83	256.11
737.16	255.81
737.49	255.47
737.82	255.13
738.15	254.80
738.48	254.46
738.81	254.10
739.14	253.81
739.47	253.52
739.80	253.16
740.13	252.88
740.46	252.58
740.79	252.25
741.12	251.97
741.45	251.62
741.78	251.25
742.11	250.97
742.44	250.65
742.77	250.38
743.10	250.10
743.43	249.78
743.75	249.40
744.08	249.19
744.41	248.91
744.74	248.66
745.07	248.35
745.40	248.13
745.73	247.93
746.06	247.64
746.39	247.36
746.71	247.11
747.04	246.78
747.37	246.53
747.70	246.28
748.03	246.01
748.36	245.79
748.68	245.58
749.01	245.36
749.34	245.13
749.67	244.87
750.00	244.59
750.33	244.44
750.65	244.23
750.98	243.89
751.31	243.65
751.64	243.43
751.97	243.26
752.29	243.01
752.62	242.73
752.95	242.53
753.28	242.29
753.60	242.07
753.93	241.88
754.26	241.65
754.59	241.44
754.91	241.23
755.24	241.01
755.57	240.77
755.90	240.56
756.22	240.40
756.55	240.24
756.88	240.04
757.20	239.79
757.53	239.60
757.86	239.42
758.19	239.25
758.51	239.07
758.84	238.87
759.17	238.71
759.49	238.57
759.82	238.45
760.15	238.34
760.47	238.22
760.80	238.08
761.13	237.99
761.45	237.84
761.78	237.70
762.11	237.53
762.43	237.37
762.76	237.21
763.08	237.07
763.41	236.93
763.74	236.83
764.06	236.71
764.39	236.57
764.71	236.43
765.04	236.31
765.37	236.17
765.69	236.04
766.02	235.90
766.34	235.77
766.67	235.62
767.00	235.50
767.32	235.44
767.65	235.36
767.97	235.22
768.30	235.09
768.62	235.01
768.95	234.95
769.27	234.88
769.60	234.79
769.92	234.68
770.25	234.53
770.57	234.46
770.90	234.36
771.22	234.26
771.55	234.18
771.87	234.09
772.20	234.02
772.52	234.00
772.85	234.02
773.17	233.95
773.50	233.84
773.82	233.75
774.15	233.61
774.47	233.48
774.80	233.37
775.12	233.31
775.45	233.22
775.77	233.15
776.09	233.08
776.42	233.00
776.74	232.93
777.07	232.86
777.39	232.78
777.72	232.70
778.04	232.60
778.36	232.54
778.69	232.49
779.01	232.40
779.33	232.26
779.66	232.09
779.98	231.99
780.31	231.94
780.63	231.90
780.95	231.85
781.28	231.79
781.60	231.72
781.92	231.67
782.25	231.57
782.57	231.47
782.89	231.41
783.22	231.35
783.54	231.27
783.86	231.23
784.19	231.16
784.51	231.11
784.83	231.04
785.16	230.99
785.48	230.94
785.80	230.91
786.12	230.88
786.45	230.86
786.77	230.83
787.09	230.78
