SpectraSuite Data File
++++++++++++++++++++++++++++++++++++
Date: Fri Feb 01 14:54:40 EST 2013
User: group
Dark Spectrum Present: No
Reference Spectrum Present: No
Number of Sampled Component Spectra: 1
Spectrometers: USB2E7196
Integration Time (usec): 35000 (USB2E7196)
Spectra Averaged: 100 (USB2E7196)
Boxcar Smoothing: 10 (USB2E7196)
Correct for Electrical Dark: No (USB2E7196)
Strobe/Lamp Enabled: No (USB2E7196)
Correct for Detector Non-linearity: No (USB2E7196)
Correct for Stray Light: No (USB2E7196)
Number of Pixels in Processed Spectrum: 2048
>>>>>Begin Processed Spectral Data<<<<<
339.09	0.00
339.48	215.63
339.86	217.18
340.24	218.03
340.63	219.42
341.01	222.17
341.39	222.28
341.78	223.75
342.16	224.60
342.54	225.11
342.93	213.75
343.31	224.57
343.69	225.10
344.07	225.57
344.46	226.00
344.84	226.38
345.22	226.64
345.60	226.90
345.99	227.09
346.37	227.25
346.75	227.35
347.13	227.40
347.52	227.41
347.90	227.45
348.28	227.46
348.66	227.48
349.05	227.48
349.43	227.53
349.81	227.56
350.19	227.55
350.57	227.58
350.96	227.67
351.34	227.76
351.72	227.83
352.10	227.91
352.48	227.97
352.87	228.06
353.25	228.10
353.63	228.16
354.01	228.21
354.39	228.28
354.77	228.37
355.15	228.48
355.54	228.55
355.92	228.61
356.30	228.70
356.68	228.87
357.06	228.91
357.44	228.94
357.82	229.00
358.20	229.11
358.58	229.19
358.97	229.25
359.35	229.31
359.73	229.40
360.11	229.44
360.49	229.50
360.87	229.51
361.25	229.57
361.63	229.64
362.01	229.69
362.39	229.73
362.77	229.77
363.15	229.77
363.53	229.82
363.91	229.87
364.29	229.89
364.67	229.82
365.05	229.88
365.43	229.91
365.81	229.94
366.19	229.97
366.57	230.02
366.95	229.99
367.33	229.98
367.71	229.97
368.09	229.98
368.47	229.95
368.85	229.92
369.23	229.92
369.61	229.83
369.99	229.86
370.37	229.78
370.75	229.78
371.13	229.71
371.51	229.66
371.89	229.61
372.27	229.56
372.65	229.50
373.03	229.42
373.41	229.39
373.78	229.31
374.16	229.21
374.54	229.07
374.92	229.02
375.30	228.93
375.68	228.81
376.06	228.72
376.44	228.66
376.82	228.58
377.19	228.50
377.57	228.45
377.95	228.31
378.33	228.25
378.71	228.13
379.09	228.08
379.47	228.01
379.84	227.92
380.22	227.84
380.60	227.76
380.98	227.68
381.36	227.59
381.73	227.50
382.11	227.42
382.49	227.39
382.87	227.29
383.25	227.22
383.62	227.27
384.00	227.20
384.38	227.15
384.76	227.11
385.13	227.07
385.51	226.98
385.89	226.92
386.27	226.89
386.64	226.85
387.02	226.78
387.40	226.70
387.78	226.64
388.15	226.61
388.53	226.56
388.91	226.49
389.29	226.44
389.66	226.40
390.04	226.37
390.42	226.32
390.79	226.33
391.17	226.29
391.55	226.17
391.92	226.16
392.30	226.13
392.68	226.12
393.05	226.11
393.43	226.12
393.81	226.16
394.18	226.13
394.56	226.16
394.94	226.20
395.31	226.26
395.69	226.32
396.06	226.36
396.44	226.42
396.82	226.49
397.19	226.58
397.57	226.63
397.95	226.71
398.32	226.76
398.70	226.84
399.07	226.92
399.45	227.00
399.82	227.08
400.20	227.16
400.58	227.22
400.95	227.27
401.33	227.42
401.70	227.58
402.08	227.69
402.45	227.78
402.83	227.91
403.20	228.02
403.58	228.14
403.95	228.27
404.33	228.40
404.71	228.53
405.08	228.73
405.46	228.89
405.83	229.06
406.21	229.26
406.58	229.46
406.96	229.70
407.33	229.89
407.70	230.11
408.08	230.43
408.45	230.71
408.83	230.96
409.20	231.17
409.58	231.36
409.95	231.59
410.33	231.87
410.70	232.15
411.08	232.45
411.45	232.74
411.82	233.07
412.20	233.44
412.57	233.89
412.95	234.21
413.32	234.63
413.69	235.03
414.07	235.44
414.44	235.89
414.82	236.34
415.19	236.89
415.56	237.42
415.94	237.96
416.31	238.59
416.68	239.24
417.06	239.98
417.43	240.67
417.81	241.48
418.18	242.27
418.55	243.10
418.93	243.96
419.30	244.87
419.67	245.79
420.04	246.75
420.42	247.70
420.79	248.87
421.16	250.00
421.54	251.20
421.91	252.43
422.28	253.67
422.66	254.98
423.03	256.26
423.40	257.60
423.77	258.98
424.15	260.37
424.52	261.86
424.89	263.44
425.26	264.95
425.64	266.41
426.01	267.97
426.38	269.60
426.75	271.26
427.13	272.98
427.50	274.80
427.87	276.65
428.24	278.50
428.61	280.24
428.99	282.19
429.36	284.27
429.73	286.32
430.10	288.34
430.47	290.40
430.85	292.49
431.22	294.75
431.59	297.13
431.96	299.36
432.33	301.85
432.70	304.23
433.08	307.03
433.45	309.69
433.82	312.34
434.19	315.26
434.56	318.09
434.93	320.74
435.30	323.36
435.68	326.26
436.05	329.14
436.42	331.92
436.79	334.41
437.16	337.08
437.53	339.93
437.90	342.70
438.27	345.45
438.64	348.32
439.01	350.89
439.38	353.14
439.75	355.29
440.13	357.74
440.50	360.09
440.87	361.97
441.24	363.89
441.61	366.01
441.98	367.50
442.35	369.24
442.72	371.14
443.09	372.93
443.46	373.94
443.83	374.50
444.20	375.03
444.57	375.88
444.94	376.23
445.31	376.59
445.68	377.00
446.05	377.11
446.42	376.76
446.79	376.35
447.16	375.95
447.53	375.65
447.90	374.51
448.27	373.33
448.64	371.75
449.01	370.63
449.37	368.68
449.74	366.81
450.11	364.62
450.48	362.14
450.85	359.62
451.22	357.53
451.59	355.51
451.96	353.60
452.33	351.01
452.70	348.62
453.07	345.75
453.43	342.83
453.80	340.05
454.17	337.37
454.54	334.84
454.91	332.09
455.28	329.47
455.65	327.00
456.02	324.58
456.38	322.46
456.75	319.79
457.12	317.55
457.49	315.31
457.86	313.13
458.23	311.27
458.59	309.27
458.96	307.17
459.33	305.32
459.70	303.41
460.07	301.94
460.43	300.24
460.80	298.64
461.17	297.21
461.54	295.71
461.91	294.28
462.27	292.80
462.64	291.53
463.01	290.12
463.38	288.80
463.74	287.41
464.11	286.23
464.48	285.18
464.85	284.05
465.21	283.19
465.58	282.24
465.95	281.15
466.32	280.19
466.68	279.24
467.05	278.30
467.42	277.38
467.78	276.40
468.15	275.51
468.52	274.86
468.88	274.00
469.25	273.19
469.62	272.51
469.98	271.85
470.35	271.21
470.72	270.64
471.08	269.97
471.45	269.39
471.82	268.82
472.18	268.20
472.55	267.75
472.92	267.18
473.28	266.75
473.65	266.26
474.02	265.79
474.38	265.45
474.75	265.09
475.11	264.74
475.48	264.47
475.85	264.20
476.21	263.97
476.58	263.76
476.94	263.61
477.31	263.44
477.67	263.24
478.04	263.10
478.41	262.97
478.77	262.99
479.14	262.92
479.50	262.91
479.87	262.97
480.23	263.03
480.60	263.09
480.96	263.16
481.33	263.35
481.69	263.56
482.06	263.71
482.42	263.91
482.79	264.18
483.15	264.46
483.52	264.85
483.88	265.17
484.25	265.48
484.61	265.90
484.98	266.36
485.34	266.94
485.71	267.51
486.07	268.14
486.44	268.69
486.80	269.36
487.17	270.11
487.53	270.89
487.90	271.70
488.26	272.66
488.62	273.61
488.99	274.57
489.35	275.59
489.72	276.71
490.08	277.92
490.44	279.13
490.81	280.50
491.17	281.83
491.54	283.34
491.90	284.89
492.26	286.55
492.63	288.27
492.99	290.04
493.36	291.93
493.72	293.98
494.08	296.04
494.45	298.33
494.81	300.68
495.17	303.12
495.54	305.70
495.90	308.36
496.26	311.16
496.63	314.14
496.99	317.27
497.35	320.50
497.72	323.87
498.08	327.38
498.44	330.99
498.80	334.93
499.17	338.92
499.53	343.09
499.89	347.41
500.26	351.89
500.62	356.53
500.98	361.47
501.34	366.51
501.71	371.80
502.07	377.20
502.43	382.81
502.79	388.59
503.16	394.63
503.52	400.87
503.88	407.21
504.24	413.78
504.60	420.64
504.97	427.72
505.33	435.05
505.69	442.73
506.05	450.49
506.41	458.34
506.78	466.39
507.14	474.77
507.50	483.48
507.86	492.49
508.22	501.62
508.59	510.78
508.95	520.38
509.31	530.20
509.67	540.24
510.03	550.47
510.39	560.95
510.75	571.74
511.12	582.60
511.48	593.94
511.84	605.36
512.20	616.84
512.56	628.79
512.92	640.89
513.28	653.21
513.64	665.70
514.00	678.38
514.37	691.31
514.73	704.35
515.09	717.31
515.45	730.59
515.81	744.21
516.17	758.33
516.53	772.37
516.89	786.51
517.25	800.66
517.61	815.04
517.97	829.56
518.33	843.95
518.69	858.73
519.05	873.75
519.41	888.90
519.77	904.40
520.13	919.86
520.49	935.17
520.85	950.56
521.21	966.21
521.57	982.48
521.93	998.34
522.29	1014.81
522.65	1031.06
523.01	1047.37
523.37	1063.39
523.73	1079.48
524.09	1095.64
524.45	1112.01
524.81	1128.72
525.17	1145.67
525.53	1162.67
525.89	1179.69
526.25	1196.58
526.61	1212.90
526.97	1229.79
527.33	1246.27
527.68	1263.01
528.04	1279.63
528.40	1296.41
528.76	1313.62
529.12	1330.21
529.48	1347.25
529.84	1363.39
530.20	1380.17
530.56	1397.16
530.91	1414.69
531.27	1431.47
531.63	1447.95
531.99	1464.57
532.35	1480.56
532.71	1496.58
533.07	1512.76
533.42	1528.76
533.78	1544.92
534.14	1561.38
534.50	1576.78
534.86	1592.90
535.21	1608.08
535.57	1624.16
535.93	1639.69
536.29	1654.53
536.65	1669.84
537.00	1684.65
537.36	1700.10
537.72	1714.79
538.08	1729.21
538.44	1743.07
538.79	1757.18
539.15	1771.01
539.51	1784.91
539.87	1799.48
540.22	1813.18
540.58	1827.12
540.94	1840.53
541.29	1853.68
541.65	1866.49
542.01	1879.85
542.37	1892.16
542.72	1904.67
543.08	1916.61
543.44	1929.07
543.79	1940.35
544.15	1951.33
544.51	1962.97
544.87	1973.98
545.22	1984.64
545.58	1995.07
545.94	2004.93
546.29	2014.68
546.65	2024.46
547.01	2033.70
547.36	2042.48
547.72	2051.08
548.07	2059.04
548.43	2067.23
548.79	2075.06
549.14	2082.54
549.50	2089.86
549.86	2097.59
550.21	2104.94
550.57	2112.11
550.92	2118.63
551.28	2125.69
551.64	2132.69
551.99	2139.29
552.35	2145.43
552.70	2151.57
553.06	2157.44
553.41	2163.66
553.77	2169.75
554.13	2175.87
554.48	2181.86
554.84	2187.29
555.19	2192.59
555.55	2197.50
555.90	2201.77
556.26	2206.55
556.61	2211.18
556.97	2215.22
557.32	2219.33
557.68	2223.40
558.03	2227.59
558.39	2231.33
558.74	2235.83
559.10	2239.64
559.45	2243.11
559.81	2247.25
560.16	2251.06
560.52	2254.24
560.87	2257.60
561.23	2260.09
561.58	2262.99
561.94	2265.49
562.29	2267.70
562.64	2270.19
563.00	2272.76
563.35	2276.15
563.71	2279.20
564.06	2282.32
564.42	2285.10
564.77	2287.46
565.12	2289.53
565.48	2291.20
565.83	2292.88
566.19	2293.95
566.54	2294.77
566.89	2295.73
567.25	2296.01
567.60	2297.29
567.96	2298.72
568.31	2299.29
568.66	2300.23
569.02	2300.63
569.37	2300.79
569.72	2301.34
570.08	2301.19
570.43	2300.98
570.78	2300.21
571.14	2298.46
571.49	2296.88
571.84	2296.45
572.20	2295.01
572.55	2293.84
572.90	2292.02
573.26	2290.29
573.61	2288.50
573.96	2286.38
574.31	2283.08
574.67	2279.96
575.02	2275.92
575.37	2272.40
575.72	2268.54
576.08	2265.07
576.43	2261.59
576.78	2257.81
577.13	2254.53
577.49	2251.25
577.84	2247.61
578.19	2243.85
578.54	2239.99
578.90	2235.63
579.25	2229.93
579.60	2224.79
579.95	2219.59
580.30	2214.43
580.66	2208.98
581.01	2203.95
581.36	2198.99
581.71	2194.74
582.06	2190.16
582.42	2185.58
582.77	2180.18
583.12	2175.46
583.47	2170.56
583.82	2165.34
584.17	2160.04
584.53	2154.25
584.88	2148.54
585.23	2142.73
585.58	2137.03
585.93	2131.57
586.28	2126.70
586.63	2121.56
586.98	2116.44
587.34	2111.66
587.69	2106.69
588.04	2101.40
588.39	2095.62
588.74	2089.08
589.09	2082.80
589.44	2075.77
589.79	2069.66
590.14	2063.96
590.49	2057.27
590.84	2050.70
591.19	2044.56
591.54	2037.89
591.89	2030.59
592.25	2023.65
592.60	2016.35
592.95	2008.60
593.30	2001.07
593.65	1993.23
594.00	1985.95
594.35	1978.55
594.70	1970.35
595.05	1963.00
595.40	1955.81
595.75	1948.24
596.10	1941.76
596.45	1934.93
596.80	1928.77
597.15	1922.04
597.50	1914.90
597.85	1908.42
598.19	1901.82
598.54	1894.67
598.89	1887.87
599.24	1881.94
599.59	1875.20
599.94	1868.92
600.29	1862.65
600.64	1856.12
600.99	1848.72
601.34	1841.92
601.69	1834.97
602.04	1827.90
602.39	1820.54
602.74	1813.67
603.08	1806.90
603.43	1800.30
603.78	1793.03
604.13	1785.84
604.48	1778.55
604.83	1771.60
605.18	1764.59
605.53	1756.54
605.87	1748.55
606.22	1741.38
606.57	1733.24
606.92	1726.01
607.27	1718.72
607.62	1711.70
607.96	1704.37
608.31	1697.71
608.66	1690.04
609.01	1682.47
609.36	1675.01
609.70	1667.07
610.05	1658.98
610.40	1651.17
610.75	1642.86
611.10	1635.19
611.44	1626.88
611.79	1618.93
612.14	1610.16
612.49	1600.95
612.83	1592.73
613.18	1584.62
613.53	1576.57
613.88	1568.12
614.22	1559.85
614.57	1551.47
614.92	1543.54
615.27	1536.01
615.61	1527.75
615.96	1519.81
616.31	1512.23
616.65	1505.07
617.00	1497.46
617.35	1489.85
617.70	1481.61
618.04	1473.08
618.39	1464.92
618.74	1457.31
619.08	1449.10
619.43	1441.69
619.78	1434.93
620.12	1427.70
620.47	1420.17
620.82	1412.17
621.16	1404.88
621.51	1397.43
621.85	1389.77
622.20	1381.30
622.55	1373.05
622.89	1365.29
623.24	1357.77
623.59	1350.51
623.93	1342.91
624.28	1335.80
624.62	1328.35
624.97	1321.19
625.32	1314.58
625.66	1307.61
626.01	1300.43
626.35	1293.03
626.70	1285.37
627.04	1277.70
627.39	1270.08
627.73	1262.78
628.08	1255.81
628.43	1248.62
628.77	1241.17
629.12	1233.73
629.46	1226.69
629.81	1219.39
630.15	1212.33
630.50	1204.97
630.84	1196.79
631.19	1188.96
631.53	1181.63
631.88	1174.25
632.22	1166.86
632.57	1159.68
632.91	1152.25
633.26	1144.99
633.60	1137.80
633.95	1130.82
634.29	1123.84
634.64	1117.22
634.98	1109.95
635.32	1102.99
635.67	1096.53
636.01	1090.04
636.36	1083.26
636.70	1076.86
637.05	1070.30
637.39	1063.91
637.73	1057.43
638.08	1051.73
638.42	1045.80
638.77	1039.34
639.11	1032.77
639.45	1026.42
639.80	1019.77
640.14	1013.40
640.49	1006.94
640.83	1000.67
641.17	994.46
641.52	988.21
641.86	981.84
642.20	976.13
642.55	969.85
642.89	963.37
643.23	956.94
643.58	951.31
643.92	945.04
644.26	939.05
644.61	933.11
644.95	927.16
645.29	920.53
645.64	913.86
645.98	907.59
646.32	901.80
646.66	895.79
647.01	890.08
647.35	884.42
647.69	878.62
648.04	873.11
648.38	867.37
648.72	861.33
649.06	855.29
649.41	849.37
649.75	843.38
650.09	837.45
650.43	831.61
650.78	825.35
651.12	819.50
651.46	813.75
651.80	807.83
652.14	802.46
652.49	797.08
652.83	791.94
653.17	786.25
653.51	780.47
653.85	775.14
654.20	769.42
654.54	763.45
654.88	757.83
655.22	751.94
655.56	746.25
655.90	740.92
656.25	735.63
656.59	730.32
656.93	725.28
657.27	720.11
657.61	714.70
657.95	709.77
658.29	704.68
658.64	699.52
658.98	694.35
659.32	688.95
659.66	683.82
660.00	678.57
660.34	673.66
660.68	668.83
661.02	663.85
661.36	659.21
661.70	654.73
662.05	650.32
662.39	646.02
662.73	641.65
663.07	637.29
663.41	632.88
663.75	628.36
664.09	623.82
664.43	619.55
664.77	615.47
665.11	611.16
665.45	607.11
665.79	603.12
666.13	599.08
666.47	594.97
666.81	590.82
667.15	586.66
667.49	582.88
667.83	579.11
668.17	575.18
668.51	571.14
668.85	567.17
669.19	563.34
669.53	559.60
669.87	555.72
670.21	552.07
670.55	548.51
670.89	545.17
671.23	541.79
671.57	538.31
671.91	534.84
672.25	531.44
672.58	528.02
672.92	524.61
673.26	521.46
673.60	518.43
673.94	515.41
674.28	512.60
674.62	509.66
674.96	506.59
675.30	503.75
675.64	500.89
675.97	498.18
676.31	495.34
676.65	492.39
676.99	489.79
677.33	486.99
677.67	484.21
678.01	481.21
678.34	478.26
678.68	475.40
679.02	472.65
679.36	469.96
679.70	467.22
680.04	464.51
680.37	461.63
680.71	458.87
681.05	456.29
681.39	453.63
681.73	451.02
682.06	448.55
682.40	445.97
682.74	443.47
683.08	440.98
683.42	438.47
683.75	436.06
684.09	433.52
684.43	431.10
684.77	428.69
685.10	426.39
685.44	424.14
685.78	421.89
686.12	419.64
686.45	417.33
686.79	415.02
687.13	412.85
687.46	410.75
687.80	408.62
688.14	406.42
688.48	404.39
688.81	402.14
689.15	399.98
689.49	397.91
689.82	395.82
690.16	393.74
690.50	391.78
690.83	389.81
691.17	387.86
691.51	385.94
691.84	384.10
692.18	382.12
692.52	380.09
692.85	378.20
693.19	376.35
693.52	374.54
693.86	372.80
694.20	371.03
694.53	369.22
694.87	367.43
695.21	365.62
695.54	363.80
695.88	362.10
696.21	360.35
696.55	358.61
696.88	356.91
697.22	355.24
697.56	353.59
697.89	351.93
698.23	350.30
698.56	348.68
698.90	347.05
699.23	345.42
699.57	343.86
699.90	342.28
700.24	340.72
700.58	339.16
700.91	337.60
701.25	336.17
701.58	334.79
701.92	333.40
702.25	332.03
702.59	330.65
702.92	329.34
703.26	328.07
703.59	326.82
703.93	325.67
704.26	324.47
704.60	323.22
704.93	322.01
705.26	320.79
705.60	319.68
705.93	318.54
706.27	317.56
706.60	316.57
706.94	315.55
707.27	314.43
707.61	313.39
707.94	312.43
708.27	311.36
708.61	310.26
708.94	309.28
709.28	308.29
709.61	307.41
709.94	306.48
710.28	305.47
710.61	304.53
710.95	303.47
711.28	302.54
711.61	301.60
711.95	300.66
712.28	299.69
712.61	298.67
712.95	297.77
713.28	296.88
713.61	296.01
713.95	295.11
714.28	294.31
714.61	293.46
714.95	292.62
715.28	291.78
715.61	290.93
715.95	290.09
716.28	289.32
716.61	288.47
716.95	287.68
717.28	286.96
717.61	286.22
717.94	285.49
718.28	284.71
718.61	284.00
718.94	283.29
719.27	282.70
719.61	282.07
719.94	281.44
720.27	280.75
720.60	280.09
720.94	279.49
721.27	278.89
721.60	278.32
721.93	277.70
722.27	277.13
722.60	276.59
722.93	276.00
723.26	275.50
723.59	274.95
723.93	274.42
724.26	273.88
724.59	273.33
724.92	272.80
725.25	272.34
725.59	271.84
725.92	271.37
726.25	270.84
726.58	270.34
726.91	269.85
727.24	269.36
727.57	268.90
727.91	268.39
728.24	267.94
728.57	267.46
728.90	267.03
729.23	266.56
729.56	266.17
729.89	265.74
730.22	265.20
730.55	264.73
730.89	264.26
731.22	263.81
731.55	263.38
731.88	262.97
732.21	262.54
732.54	262.09
732.87	261.65
733.20	261.25
733.53	260.87
733.86	260.47
734.19	260.10
734.52	259.74
734.85	259.40
735.18	258.95
735.51	258.59
735.84	258.20
736.17	257.84
736.50	257.41
736.83	257.14
737.16	256.82
737.49	256.48
737.82	256.12
738.15	255.77
738.48	255.40
738.81	255.05
739.14	254.72
739.47	254.38
739.80	254.08
740.13	253.78
740.46	253.43
740.79	253.15
741.12	252.81
741.45	252.49
741.78	252.17
742.11	251.90
742.44	251.58
742.77	251.30
743.10	251.00
743.43	250.69
743.75	250.29
744.08	250.15
744.41	249.86
744.74	249.57
745.07	249.32
745.40	249.08
745.73	248.88
746.06	248.61
746.39	248.34
746.71	248.10
747.04	247.82
747.37	247.61
747.70	247.35
748.03	247.13
748.36	246.88
748.68	246.62
749.01	246.38
749.34	246.19
749.67	245.94
750.00	245.70
750.33	245.57
750.65	245.38
750.98	245.02
751.31	244.78
751.64	244.62
751.97	244.48
752.29	244.31
752.62	244.04
752.95	243.85
753.28	243.67
753.60	243.47
753.93	243.31
754.26	243.14
754.59	242.95
754.91	242.72
755.24	242.55
755.57	242.39
755.90	242.23
756.22	242.04
756.55	241.90
756.88	241.77
757.20	241.53
757.53	241.40
757.86	241.25
758.19	241.13
758.51	240.98
758.84	240.76
759.17	240.59
759.49	240.45
759.82	240.36
760.15	240.23
760.47	240.10
760.80	239.92
761.13	239.77
761.45	239.64
761.78	239.54
762.11	239.43
762.43	239.26
762.76	239.11
763.08	238.98
763.41	238.84
763.74	238.69
764.06	238.56
764.39	238.39
764.71	238.26
765.04	238.09
765.37	237.98
765.69	237.85
766.02	237.71
766.34	237.55
766.67	237.36
767.00	237.24
767.32	237.18
767.65	237.11
767.97	236.98
768.30	236.81
768.62	236.68
768.95	236.56
769.27	236.48
769.60	236.39
769.92	236.27
770.25	236.18
770.57	236.07
770.90	235.94
771.22	235.81
771.55	235.72
771.87	235.67
772.20	235.53
772.52	235.51
772.85	235.55
773.17	235.46
773.50	235.35
773.82	235.23
774.15	235.08
774.47	234.87
774.80	234.77
775.12	234.66
775.45	234.60
775.77	234.51
776.09	234.38
776.42	234.27
776.74	234.23
777.07	234.11
777.39	234.04
777.72	233.96
778.04	233.92
778.36	233.84
778.69	233.75
779.01	233.69
779.33	233.52
779.66	233.31
779.98	233.23
780.31	233.17
780.63	233.18
780.95	233.10
781.28	233.09
781.60	233.03
781.92	232.97
782.25	232.89
782.57	232.83
782.89	232.77
783.22	232.72
783.54	232.62
783.86	232.54
784.19	232.46
784.51	232.43
784.83	232.35
785.16	232.27
785.48	232.22
785.80	232.15
786.12	232.15
786.45	232.08
786.77	232.05
787.09	232.00
