SpectraSuite Data File
++++++++++++++++++++++++++++++++++++
Date: Fri Feb 01 16:58:31 EST 2013
User: group
Dark Spectrum Present: No
Reference Spectrum Present: No
Number of Sampled Component Spectra: 1
Spectrometers: USB2E7196
Integration Time (usec): 35000 (USB2E7196)
Spectra Averaged: 100 (USB2E7196)
Boxcar Smoothing: 10 (USB2E7196)
Correct for Electrical Dark: No (USB2E7196)
Strobe/Lamp Enabled: No (USB2E7196)
Correct for Detector Non-linearity: No (USB2E7196)
Correct for Stray Light: No (USB2E7196)
Number of Pixels in Processed Spectrum: 2048
>>>>>Begin Processed Spectral Data<<<<<
339.09	0.00
339.48	213.52
339.86	214.79
340.24	216.22
340.63	217.67
341.01	220.74
341.39	220.44
341.78	221.77
342.16	222.70
342.54	223.33
342.93	211.75
343.31	222.45
343.69	222.97
344.07	223.44
344.46	223.87
344.84	224.25
345.22	224.45
345.60	224.67
345.99	224.87
346.37	225.01
346.75	225.10
347.13	225.16
347.52	225.21
347.90	225.27
348.28	225.28
348.66	225.34
349.05	225.33
349.43	225.36
349.81	225.39
350.19	225.45
350.57	225.47
350.96	225.51
351.34	225.55
351.72	225.63
352.10	225.70
352.48	225.75
352.87	225.77
353.25	225.81
353.63	225.87
354.01	225.89
354.39	225.96
354.77	226.01
355.15	226.12
355.54	226.18
355.92	226.24
356.30	226.34
356.68	226.46
357.06	226.52
357.44	226.58
357.82	226.66
358.20	226.74
358.58	226.79
358.97	226.81
359.35	226.91
359.73	226.99
360.11	227.05
360.49	227.12
360.87	227.17
361.25	227.27
361.63	227.37
362.01	227.42
362.39	227.43
362.77	227.48
363.15	227.49
363.53	227.52
363.91	227.51
364.29	227.52
364.67	227.41
365.05	227.46
365.43	227.51
365.81	227.54
366.19	227.60
366.57	227.68
366.95	227.71
367.33	227.70
367.71	227.69
368.09	227.72
368.47	227.68
368.85	227.68
369.23	227.66
369.61	227.62
369.99	227.64
370.37	227.66
370.75	227.69
371.13	227.64
371.51	227.59
371.89	227.58
372.27	227.53
372.65	227.55
373.03	227.48
373.41	227.42
373.78	227.37
374.16	227.26
374.54	227.17
374.92	227.12
375.30	227.04
375.68	226.97
376.06	226.93
376.44	226.88
376.82	226.84
377.19	226.76
377.57	226.68
377.95	226.56
378.33	226.45
378.71	226.35
379.09	226.32
379.47	226.29
379.84	226.23
380.22	226.17
380.60	226.07
380.98	226.00
381.36	225.94
381.73	225.84
382.11	225.82
382.49	225.80
382.87	225.73
383.25	225.68
383.62	225.74
384.00	225.63
384.38	225.57
384.76	225.53
385.13	225.56
385.51	225.52
385.89	225.48
386.27	225.47
386.64	225.41
387.02	225.34
387.40	225.29
387.78	225.27
388.15	225.21
388.53	225.19
388.91	225.16
389.29	225.12
389.66	225.09
390.04	225.06
390.42	225.01
390.79	224.99
391.17	224.97
391.55	224.84
391.92	224.86
392.30	224.90
392.68	224.86
393.05	224.83
393.43	224.85
393.81	224.86
394.18	224.86
394.56	224.88
394.94	224.96
395.31	225.00
395.69	225.04
396.06	225.09
396.44	225.12
396.82	225.12
397.19	225.18
397.57	225.24
397.95	225.31
398.32	225.33
398.70	225.36
399.07	225.43
399.45	225.49
399.82	225.50
400.20	225.54
400.58	225.59
400.95	225.62
401.33	225.70
401.70	225.82
402.08	225.89
402.45	225.98
402.83	226.07
403.20	226.16
403.58	226.23
403.95	226.33
404.33	226.44
404.71	226.59
405.08	226.77
405.46	226.86
405.83	226.96
406.21	227.08
406.58	227.24
406.96	227.41
407.33	227.57
407.70	227.78
408.08	228.03
408.45	228.29
408.83	228.51
409.20	228.70
409.58	228.87
409.95	229.14
410.33	229.41
410.70	229.62
411.08	229.91
411.45	230.22
411.82	230.53
412.20	230.89
412.57	231.31
412.95	231.60
413.32	232.04
413.69	232.46
414.07	232.94
414.44	233.46
414.82	233.91
415.19	234.48
415.56	235.02
415.94	235.55
416.31	236.13
416.68	236.78
417.06	237.51
417.43	238.21
417.81	238.97
418.18	239.71
418.55	240.56
418.93	241.47
419.30	242.35
419.67	243.28
420.04	244.22
420.42	245.17
420.79	246.35
421.16	247.50
421.54	248.67
421.91	249.90
422.28	251.08
422.66	252.40
423.03	253.70
423.40	255.03
423.77	256.45
424.15	257.90
424.52	259.33
424.89	260.89
425.26	262.45
425.64	263.89
426.01	265.49
426.38	267.15
426.75	268.76
427.13	270.49
427.50	272.30
427.87	274.18
428.24	276.06
428.61	277.77
428.99	279.67
429.36	281.76
429.73	283.80
430.10	285.87
430.47	287.93
430.85	290.04
431.22	292.29
431.59	294.64
431.96	296.84
432.33	299.31
432.70	301.70
433.08	304.45
433.45	307.08
433.82	309.67
434.19	312.52
434.56	315.29
434.93	317.94
435.30	320.53
435.68	323.40
436.05	326.17
436.42	328.97
436.79	331.49
437.16	334.16
437.53	336.96
437.90	339.66
438.27	342.41
438.64	345.19
439.01	347.69
439.38	349.92
439.75	352.10
440.13	354.56
440.50	356.85
440.87	358.67
441.24	360.58
441.61	362.71
441.98	364.18
442.35	365.95
442.72	367.74
443.09	369.52
443.46	370.56
443.83	371.19
444.20	371.70
444.57	372.55
444.94	372.84
445.31	373.19
445.68	373.60
446.05	373.68
446.42	373.32
446.79	372.95
447.16	372.56
447.53	372.29
447.90	371.20
448.27	370.07
448.64	368.53
449.01	367.46
449.37	365.57
449.74	363.72
450.11	361.56
450.48	359.16
450.85	356.68
451.22	354.50
451.59	352.46
451.96	350.55
452.33	347.97
452.70	345.62
453.07	342.82
453.43	339.95
453.80	337.18
454.17	334.54
454.54	332.00
454.91	329.29
455.28	326.61
455.65	324.10
456.02	321.70
456.38	319.57
456.75	316.88
457.12	314.61
457.49	312.38
457.86	310.22
458.23	308.35
458.59	306.34
458.96	304.26
459.33	302.48
459.70	300.63
460.07	299.10
460.43	297.40
460.80	295.79
461.17	294.38
461.54	292.92
461.91	291.45
462.27	290.02
462.64	288.76
463.01	287.39
463.38	286.12
463.74	284.76
464.11	283.62
464.48	282.65
464.85	281.55
465.21	280.72
465.58	279.83
465.95	278.73
466.32	277.79
466.68	276.87
467.05	275.97
467.42	275.08
467.78	274.19
468.15	273.40
468.52	272.75
468.88	271.90
469.25	271.13
469.62	270.59
469.98	269.95
470.35	269.34
470.72	268.77
471.08	268.13
471.45	267.58
471.82	267.05
472.18	266.46
472.55	266.04
472.92	265.50
473.28	265.02
473.65	264.63
474.02	264.21
474.38	263.90
474.75	263.59
475.11	263.28
475.48	263.02
475.85	262.75
476.21	262.51
476.58	262.33
476.94	262.21
477.31	262.01
477.67	261.86
478.04	261.75
478.41	261.76
478.77	261.78
479.14	261.74
479.50	261.77
479.87	261.84
480.23	261.92
480.60	262.00
480.96	262.13
481.33	262.32
481.69	262.54
482.06	262.75
482.42	262.90
482.79	263.14
483.15	263.44
483.52	263.82
483.88	264.19
484.25	264.55
484.61	264.98
484.98	265.46
485.34	266.03
485.71	266.61
486.07	267.16
486.44	267.75
486.80	268.45
487.17	269.16
487.53	269.95
487.90	270.80
488.26	271.74
488.62	272.70
488.99	273.71
489.35	274.73
489.72	275.84
490.08	277.09
490.44	278.31
490.81	279.64
491.17	280.97
491.54	282.44
491.90	284.01
492.26	285.62
492.63	287.34
492.99	289.12
493.36	291.00
493.72	293.06
494.08	295.12
494.45	297.37
494.81	299.74
495.17	302.22
495.54	304.83
495.90	307.47
496.26	310.27
496.63	313.17
496.99	316.27
497.35	319.52
497.72	322.93
498.08	326.47
498.44	330.16
498.80	334.05
499.17	338.07
499.53	342.23
499.89	346.59
500.26	351.06
500.62	355.71
500.98	360.65
501.34	365.68
501.71	371.02
502.07	376.43
502.43	382.01
502.79	387.80
503.16	393.81
503.52	400.04
503.88	406.41
504.24	413.01
504.60	419.86
504.97	426.90
505.33	434.11
505.69	441.74
506.05	449.45
506.41	457.30
506.78	465.39
507.14	473.72
507.50	482.36
507.86	491.32
508.22	500.43
508.59	509.56
508.95	519.08
509.31	528.78
509.67	538.74
510.03	548.90
510.39	559.27
510.75	569.91
511.12	580.73
511.48	591.87
511.84	603.23
512.20	614.57
512.56	626.35
512.92	638.42
513.28	650.60
513.64	662.95
514.00	675.51
514.37	688.30
514.73	701.15
515.09	713.96
515.45	727.02
515.81	740.46
516.17	754.23
516.53	768.13
516.89	782.09
517.25	796.07
517.61	810.30
517.97	824.52
518.33	838.78
518.69	853.33
519.05	868.04
519.41	882.89
519.77	898.24
520.13	913.56
520.49	928.63
520.85	943.77
521.21	959.09
521.57	975.02
521.93	990.44
522.29	1006.53
522.65	1022.54
523.01	1038.47
523.37	1054.20
523.73	1069.98
524.09	1085.73
524.45	1101.76
524.81	1117.97
525.17	1134.39
525.53	1151.02
525.89	1167.61
526.25	1184.12
526.61	1200.21
526.97	1216.61
527.33	1232.65
527.68	1248.78
528.04	1264.98
528.40	1281.16
528.76	1297.85
529.12	1314.14
529.48	1330.80
529.84	1346.51
530.20	1362.80
530.56	1379.37
530.91	1396.38
531.27	1412.87
531.63	1428.99
531.99	1445.25
532.35	1461.06
532.71	1476.65
533.07	1492.55
533.42	1508.12
533.78	1523.84
534.14	1539.75
534.50	1554.97
534.86	1570.58
535.21	1585.58
535.57	1601.12
535.93	1616.45
536.29	1631.10
536.65	1645.83
537.00	1660.24
537.36	1675.34
537.72	1689.63
538.08	1703.95
538.44	1717.49
538.79	1731.14
539.15	1744.66
539.51	1758.07
539.87	1772.17
540.22	1785.62
540.58	1799.08
540.94	1812.00
541.29	1824.59
541.65	1837.00
542.01	1849.73
542.37	1861.83
542.72	1873.95
543.08	1885.60
543.44	1897.77
543.79	1908.71
544.15	1919.56
544.51	1930.99
544.87	1941.76
545.22	1952.38
545.58	1962.54
545.94	1972.16
546.29	1981.80
546.65	1991.45
547.01	2000.53
547.36	2008.96
547.72	2017.30
548.07	2025.21
548.43	2033.12
548.79	2041.07
549.14	2048.64
549.50	2055.92
549.86	2063.46
550.21	2070.68
550.57	2077.90
550.92	2084.30
551.28	2091.35
551.64	2098.35
551.99	2104.79
552.35	2110.85
552.70	2116.94
553.06	2122.72
553.41	2128.95
553.77	2134.96
554.13	2141.03
554.48	2147.35
554.84	2153.03
555.19	2158.32
555.55	2163.41
555.90	2168.12
556.26	2173.04
556.61	2177.62
556.97	2182.10
557.32	2186.26
557.68	2190.37
558.03	2194.59
558.39	2198.40
558.74	2203.04
559.10	2206.92
559.45	2210.59
559.81	2214.89
560.16	2218.81
560.52	2222.22
560.87	2225.63
561.23	2228.41
561.58	2231.19
561.94	2233.71
562.29	2235.97
562.64	2238.88
563.00	2241.58
563.35	2245.16
563.71	2248.38
564.06	2251.64
564.42	2254.57
564.77	2257.29
565.12	2259.85
565.48	2261.80
565.83	2263.71
566.19	2265.18
566.54	2266.13
566.89	2267.43
567.25	2268.18
567.60	2269.60
567.96	2271.54
568.31	2272.54
568.66	2273.82
569.02	2274.74
569.37	2275.20
569.72	2276.25
570.08	2276.56
570.43	2276.76
570.78	2276.55
571.14	2275.08
571.49	2274.04
571.84	2273.75
572.20	2272.97
572.55	2271.97
572.90	2270.59
573.26	2269.68
573.61	2268.26
573.96	2266.84
574.31	2264.16
574.67	2261.34
575.02	2257.83
575.37	2254.31
575.72	2250.84
576.08	2247.63
576.43	2244.43
576.78	2241.07
577.13	2237.97
577.49	2234.97
577.84	2231.66
578.19	2227.88
578.54	2224.70
578.90	2220.82
579.25	2215.58
579.60	2210.64
579.95	2205.97
580.30	2201.24
580.66	2195.95
581.01	2191.08
581.36	2186.26
581.71	2182.32
582.06	2178.18
582.42	2174.05
582.77	2169.10
583.12	2164.91
583.47	2160.42
583.82	2155.70
584.17	2150.49
584.53	2145.41
584.88	2139.85
585.23	2134.37
585.58	2129.06
585.93	2123.60
586.28	2118.94
586.63	2114.05
586.98	2109.26
587.34	2104.66
587.69	2099.86
588.04	2094.95
588.39	2089.59
588.74	2083.17
589.09	2077.13
589.44	2070.55
589.79	2064.51
590.14	2058.90
590.49	2052.36
590.84	2046.13
591.19	2040.27
591.54	2033.99
591.89	2026.86
592.25	2020.39
592.60	2013.23
592.95	2005.88
593.30	1998.82
593.65	1991.25
594.00	1984.24
594.35	1977.21
594.70	1969.21
595.05	1962.38
595.40	1955.23
595.75	1947.67
596.10	1941.83
596.45	1935.24
596.80	1929.26
597.15	1922.97
597.50	1916.34
597.85	1909.96
598.19	1903.60
598.54	1896.75
598.89	1890.22
599.24	1884.36
599.59	1877.84
599.94	1871.77
600.29	1865.70
600.64	1859.09
600.99	1851.93
601.34	1845.36
601.69	1838.42
602.04	1831.71
602.39	1824.35
602.74	1817.63
603.08	1811.13
603.43	1804.39
603.78	1797.20
604.13	1790.03
604.48	1782.84
604.83	1775.99
605.18	1769.33
605.53	1761.41
605.87	1753.44
606.22	1746.43
606.57	1738.49
606.92	1731.17
607.27	1724.19
607.62	1717.33
607.96	1710.22
608.31	1703.71
608.66	1696.23
609.01	1688.73
609.36	1681.36
609.70	1673.47
610.05	1665.60
610.40	1657.96
610.75	1649.79
611.10	1642.26
611.44	1633.80
611.79	1625.79
612.14	1617.23
612.49	1608.15
612.83	1599.73
613.18	1591.74
613.53	1583.69
613.88	1575.27
614.22	1567.15
614.57	1558.50
614.92	1550.52
615.27	1543.17
615.61	1534.90
615.96	1526.93
616.31	1519.36
616.65	1511.98
617.00	1504.52
617.35	1496.80
617.70	1488.58
618.04	1480.21
618.39	1471.97
618.74	1464.47
619.08	1456.23
619.43	1448.64
619.78	1441.62
620.12	1434.59
620.47	1426.94
620.82	1418.80
621.16	1411.43
621.51	1403.78
621.85	1396.21
622.20	1387.69
622.55	1379.24
622.89	1371.40
623.24	1363.68
623.59	1356.19
623.93	1348.70
624.28	1341.44
624.62	1333.98
624.97	1326.80
625.32	1319.99
625.66	1312.97
626.01	1305.88
626.35	1298.59
626.70	1290.85
627.04	1283.15
627.39	1275.31
627.73	1267.99
628.08	1261.12
628.43	1253.94
628.77	1246.61
629.12	1239.10
629.46	1232.05
629.81	1224.55
630.15	1217.33
630.50	1209.99
630.84	1201.96
631.19	1194.09
631.53	1186.56
631.88	1179.01
632.22	1171.37
632.57	1164.08
632.91	1156.43
633.26	1149.10
633.60	1141.67
633.95	1134.54
634.29	1127.53
634.64	1120.86
634.98	1113.53
635.32	1106.37
635.67	1099.64
636.01	1092.97
636.36	1086.15
636.70	1079.58
637.05	1073.13
637.39	1066.75
637.73	1060.37
638.08	1054.43
638.42	1048.43
638.77	1041.98
639.11	1035.39
639.45	1028.98
639.80	1022.39
640.14	1016.20
640.49	1009.63
640.83	1003.36
641.17	997.19
641.52	990.85
641.86	984.37
642.20	978.55
642.55	972.10
642.89	965.76
643.23	959.22
643.58	953.52
643.92	947.40
644.26	941.44
644.61	935.28
644.95	929.22
645.29	922.68
645.64	915.99
645.98	909.71
646.32	903.86
646.66	897.90
647.01	892.09
647.35	886.31
647.69	880.43
648.04	874.86
648.38	869.13
648.72	863.22
649.06	857.27
649.41	851.34
649.75	845.54
650.09	839.60
650.43	833.89
650.78	827.64
651.12	821.67
651.46	815.93
651.80	810.36
652.14	805.00
652.49	799.61
652.83	794.39
653.17	788.80
653.51	783.14
653.85	777.75
654.20	772.13
654.54	766.25
654.88	760.52
655.22	754.66
655.56	748.99
655.90	743.44
656.25	738.24
656.59	732.91
656.93	727.81
657.27	722.64
657.61	717.18
657.95	712.15
658.29	707.08
658.64	701.85
658.98	696.53
659.32	691.10
659.66	685.98
660.00	680.80
660.34	675.85
660.68	670.96
661.02	666.00
661.36	661.28
661.70	656.75
662.05	652.46
662.39	648.14
662.73	643.67
663.07	639.35
663.41	634.91
663.75	630.50
664.09	625.92
664.43	621.55
664.77	617.48
665.11	613.26
665.45	609.10
665.79	605.03
666.13	600.91
666.47	596.84
666.81	592.71
667.15	588.60
667.49	584.67
667.83	580.81
668.17	576.91
668.51	572.84
668.85	568.83
669.19	564.95
669.53	561.09
669.87	557.25
670.21	553.58
670.55	549.97
670.89	546.49
671.23	543.12
671.57	539.58
671.91	536.09
672.25	532.57
672.58	529.09
672.92	525.65
673.26	522.47
673.60	519.31
673.94	516.21
674.28	513.26
674.62	510.33
674.96	507.25
675.30	504.35
675.64	501.44
675.97	498.60
676.31	495.73
676.65	492.85
676.99	490.13
677.33	487.24
677.67	484.39
678.01	481.41
678.34	478.45
678.68	475.64
679.02	472.85
679.36	470.12
679.70	467.42
680.04	464.69
680.37	461.82
680.71	459.03
681.05	456.39
681.39	453.69
681.73	451.03
682.06	448.51
682.40	445.96
682.74	443.42
683.08	440.88
683.42	438.34
683.75	435.87
684.09	433.33
684.43	430.92
684.77	428.45
685.10	426.08
685.44	423.76
685.78	421.44
686.12	419.15
686.45	416.88
686.79	414.54
687.13	412.35
687.46	410.20
687.80	408.05
688.14	405.82
688.48	403.72
688.81	401.47
689.15	399.29
689.49	397.16
689.82	395.12
690.16	393.08
690.50	391.10
690.83	389.20
691.17	387.21
691.51	385.30
691.84	383.49
692.18	381.55
692.52	379.59
692.85	377.66
693.19	375.83
693.52	373.98
693.86	372.19
694.20	370.36
694.53	368.59
694.87	366.73
695.21	364.96
695.54	363.17
695.88	361.43
696.21	359.70
696.55	358.03
696.88	356.33
697.22	354.67
697.56	353.08
697.89	351.40
698.23	349.81
698.56	348.18
698.90	346.55
699.23	344.95
699.57	343.40
699.90	341.87
700.24	340.31
700.58	338.79
700.91	337.30
701.25	335.88
701.58	334.52
701.92	333.18
702.25	331.80
702.59	330.41
702.92	329.12
703.26	327.86
703.59	326.56
703.93	325.37
704.26	324.15
704.60	322.83
704.93	321.58
705.26	320.30
705.60	319.13
705.93	317.95
706.27	316.91
706.60	315.86
706.94	314.81
707.27	313.70
707.61	312.59
707.94	311.58
708.27	310.48
708.61	309.38
708.94	308.33
709.28	307.36
709.61	306.45
709.94	305.45
710.28	304.45
710.61	303.44
710.95	302.33
711.28	301.42
711.61	300.48
711.95	299.53
712.28	298.55
712.61	297.55
712.95	296.64
713.28	295.72
713.61	294.82
713.95	293.90
714.28	293.08
714.61	292.26
714.95	291.41
715.28	290.56
715.61	289.67
715.95	288.82
716.28	287.94
716.61	287.08
716.95	286.30
717.28	285.56
717.61	284.78
717.94	284.09
718.28	283.28
718.61	282.52
718.94	281.82
719.27	281.22
719.61	280.58
719.94	279.93
720.27	279.23
720.60	278.58
720.94	277.99
721.27	277.34
721.60	276.74
721.93	276.13
722.27	275.60
722.60	275.07
722.93	274.52
723.26	273.99
723.59	273.43
723.93	272.90
724.26	272.26
724.59	271.71
724.92	271.18
725.25	270.65
725.59	270.15
725.92	269.68
726.25	269.14
726.58	268.70
726.91	268.21
727.24	267.73
727.57	267.23
727.91	266.70
728.24	266.23
728.57	265.75
728.90	265.31
729.23	264.80
729.56	264.36
729.89	263.87
730.22	263.39
730.55	262.93
730.89	262.46
731.22	262.04
731.55	261.59
731.88	261.16
732.21	260.73
732.54	260.29
732.87	259.86
733.20	259.41
733.53	259.01
733.86	258.65
734.19	258.26
734.52	257.87
734.85	257.54
735.18	257.13
735.51	256.80
735.84	256.41
736.17	256.09
736.50	255.68
736.83	255.45
737.16	255.13
737.49	254.78
737.82	254.44
738.15	254.13
738.48	253.83
738.81	253.51
739.14	253.19
739.47	252.87
739.80	252.53
740.13	252.26
740.46	251.92
740.79	251.58
741.12	251.28
741.45	250.99
741.78	250.66
742.11	250.42
742.44	250.07
742.77	249.76
743.10	249.44
743.43	249.17
743.75	248.82
744.08	248.68
744.41	248.44
744.74	248.17
745.07	247.90
745.40	247.66
745.73	247.42
746.06	247.17
746.39	246.93
746.71	246.69
747.04	246.45
747.37	246.19
747.70	245.96
748.03	245.71
748.36	245.50
748.68	245.28
749.01	245.02
749.34	244.82
749.67	244.61
750.00	244.36
750.33	244.19
750.65	243.96
750.98	243.62
751.31	243.37
751.64	243.14
751.97	242.96
752.29	242.71
752.62	242.50
752.95	242.29
753.28	242.06
753.60	241.85
753.93	241.63
754.26	241.47
754.59	241.24
754.91	241.03
755.24	240.79
755.57	240.57
755.90	240.35
756.22	240.11
756.55	239.88
756.88	239.73
757.20	239.49
757.53	239.28
757.86	239.11
758.19	238.96
758.51	238.80
758.84	238.59
759.17	238.41
759.49	238.18
759.82	238.00
760.15	237.87
760.47	237.68
760.80	237.47
761.13	237.32
761.45	237.13
761.78	236.98
762.11	236.82
762.43	236.66
762.76	236.50
763.08	236.40
763.41	236.30
763.74	236.13
764.06	236.00
764.39	235.84
764.71	235.67
765.04	235.50
765.37	235.38
765.69	235.23
766.02	235.10
766.34	234.98
766.67	234.86
767.00	234.75
767.32	234.71
767.65	234.66
767.97	234.53
768.30	234.43
768.62	234.31
768.95	234.21
769.27	234.08
769.60	234.00
769.92	233.87
770.25	233.71
770.57	233.59
770.90	233.47
771.22	233.37
771.55	233.27
771.87	233.17
772.20	233.04
772.52	233.04
772.85	233.07
773.17	233.01
773.50	232.91
773.82	232.79
774.15	232.63
774.47	232.47
774.80	232.34
775.12	232.26
775.45	232.15
775.77	232.06
776.09	232.00
776.42	231.92
776.74	231.86
777.07	231.83
777.39	231.77
777.72	231.69
778.04	231.66
778.36	231.59
778.69	231.55
779.01	231.52
779.33	231.38
779.66	231.21
779.98	231.13
780.31	231.07
780.63	231.01
780.95	230.97
781.28	230.94
781.60	230.86
781.92	230.80
782.25	230.75
782.57	230.70
782.89	230.66
783.22	230.59
783.54	230.50
783.86	230.41
784.19	230.35
784.51	230.34
784.83	230.30
785.16	230.26
785.48	230.25
785.80	230.20
786.12	230.15
786.45	230.09
786.77	230.04
787.09	230.02
