SpectraSuite Data File
++++++++++++++++++++++++++++++++++++
Date: Fri Feb 01 18:11:02 EST 2013
User: group
Dark Spectrum Present: No
Reference Spectrum Present: No
Number of Sampled Component Spectra: 1
Spectrometers: USB2E7196
Integration Time (usec): 35000 (USB2E7196)
Spectra Averaged: 100 (USB2E7196)
Boxcar Smoothing: 10 (USB2E7196)
Correct for Electrical Dark: No (USB2E7196)
Strobe/Lamp Enabled: No (USB2E7196)
Correct for Detector Non-linearity: No (USB2E7196)
Correct for Stray Light: No (USB2E7196)
Number of Pixels in Processed Spectrum: 2048
>>>>>Begin Processed Spectral Data<<<<<
339.09	0.00
339.48	213.46
339.86	214.47
340.24	216.14
340.63	217.34
341.01	220.90
341.39	219.54
341.78	221.28
342.16	222.71
342.54	222.43
342.93	211.34
343.31	222.00
343.69	222.53
344.07	222.99
344.46	223.39
344.84	223.75
345.22	223.95
345.60	224.22
345.99	224.41
346.37	224.52
346.75	224.65
347.13	224.74
347.52	224.78
347.90	224.89
348.28	224.92
348.66	224.96
349.05	225.00
349.43	225.05
349.81	225.11
350.19	225.14
350.57	225.21
350.96	225.32
351.34	225.41
351.72	225.48
352.10	225.56
352.48	225.64
352.87	225.69
353.25	225.75
353.63	225.81
354.01	225.86
354.39	225.91
354.77	226.00
355.15	226.09
355.54	226.13
355.92	226.15
356.30	226.21
356.68	226.35
357.06	226.40
357.44	226.44
357.82	226.49
358.20	226.59
358.58	226.63
358.97	226.66
359.35	226.74
359.73	226.82
360.11	226.89
360.49	226.94
360.87	226.99
361.25	227.04
361.63	227.11
362.01	227.16
362.39	227.19
362.77	227.20
363.15	227.24
363.53	227.29
363.91	227.35
364.29	227.36
364.67	227.33
365.05	227.35
365.43	227.40
365.81	227.45
366.19	227.49
366.57	227.54
366.95	227.56
367.33	227.55
367.71	227.56
368.09	227.59
368.47	227.57
368.85	227.58
369.23	227.58
369.61	227.54
369.99	227.55
370.37	227.57
370.75	227.60
371.13	227.54
371.51	227.50
371.89	227.48
372.27	227.47
372.65	227.42
373.03	227.39
373.41	227.34
373.78	227.29
374.16	227.21
374.54	227.15
374.92	227.05
375.30	227.01
375.68	226.90
376.06	226.83
376.44	226.81
376.82	226.76
377.19	226.71
377.57	226.65
377.95	226.58
378.33	226.53
378.71	226.41
379.09	226.39
379.47	226.35
379.84	226.30
380.22	226.21
380.60	226.15
380.98	226.11
381.36	226.06
381.73	225.97
382.11	225.89
382.49	225.85
382.87	225.84
383.25	225.77
383.62	225.82
384.00	225.78
384.38	225.69
384.76	225.66
385.13	225.65
385.51	225.61
385.89	225.56
386.27	225.50
386.64	225.51
387.02	225.41
387.40	225.34
387.78	225.28
388.15	225.26
388.53	225.19
388.91	225.13
389.29	225.09
389.66	225.09
390.04	225.07
390.42	225.04
390.79	225.03
391.17	225.04
391.55	224.95
391.92	224.90
392.30	224.89
392.68	224.91
393.05	224.87
393.43	224.88
393.81	224.87
394.18	224.86
394.56	224.86
394.94	224.93
395.31	224.93
395.69	225.00
396.06	225.06
396.44	225.09
396.82	225.11
397.19	225.17
397.57	225.20
397.95	225.27
398.32	225.29
398.70	225.35
399.07	225.41
399.45	225.44
399.82	225.54
400.20	225.61
400.58	225.65
400.95	225.69
401.33	225.82
401.70	225.98
402.08	226.08
402.45	226.15
402.83	226.25
403.20	226.39
403.58	226.48
403.95	226.61
404.33	226.76
404.71	226.93
405.08	227.11
405.46	227.24
405.83	227.43
406.21	227.62
406.58	227.79
406.96	227.94
407.33	228.17
407.70	228.40
408.08	228.73
408.45	228.98
408.83	229.31
409.20	229.53
409.58	229.76
409.95	230.10
410.33	230.48
410.70	230.84
411.08	231.22
411.45	231.62
411.82	232.03
412.20	232.50
412.57	233.04
412.95	233.48
413.32	234.03
413.69	234.56
414.07	235.16
414.44	235.80
414.82	236.48
415.19	237.21
415.56	237.93
415.94	238.68
416.31	239.58
416.68	240.42
417.06	241.44
417.43	242.38
417.81	243.44
418.18	244.49
418.55	245.65
418.93	246.86
419.30	248.13
419.67	249.45
420.04	250.78
420.42	252.16
420.79	253.76
421.16	255.37
421.54	257.03
421.91	258.68
422.28	260.44
422.66	262.32
423.03	264.14
423.40	266.03
423.77	267.99
424.15	269.98
424.52	272.09
424.89	274.33
425.26	276.49
425.64	278.54
426.01	280.81
426.38	283.15
426.75	285.49
427.13	287.88
427.50	290.37
427.87	293.02
428.24	295.63
428.61	298.12
428.99	300.88
429.36	303.86
429.73	306.75
430.10	309.59
430.47	312.49
430.85	315.52
431.22	318.68
431.59	321.99
431.96	325.15
432.33	328.63
432.70	331.99
433.08	335.96
433.45	339.65
433.82	343.32
434.19	347.42
434.56	351.34
434.93	355.05
435.30	358.80
435.68	362.88
436.05	366.86
436.42	370.80
436.79	374.26
437.16	378.07
437.53	382.10
437.90	386.05
438.27	389.86
438.64	393.79
439.01	397.40
439.38	400.58
439.75	403.64
440.13	407.15
440.50	410.42
440.87	413.01
441.24	415.74
441.61	418.76
441.98	420.76
442.35	423.35
442.72	425.97
443.09	428.44
443.46	429.82
443.83	430.65
444.20	431.37
444.57	432.63
444.94	432.99
445.31	433.47
445.68	433.93
446.05	434.10
446.42	433.59
446.79	433.02
447.16	432.42
447.53	431.95
447.90	430.34
448.27	428.72
448.64	426.50
449.01	424.94
449.37	422.12
449.74	419.46
450.11	416.24
450.48	412.77
450.85	409.23
451.22	406.21
451.59	403.42
451.96	400.65
452.33	397.01
452.70	393.70
453.07	389.72
453.43	385.68
453.80	381.78
454.17	378.01
454.54	374.45
454.91	370.59
455.28	366.86
455.65	363.36
456.02	359.81
456.38	356.80
456.75	353.02
457.12	349.91
457.49	346.79
457.86	343.76
458.23	341.13
458.59	338.28
458.96	335.34
459.33	332.70
459.70	330.09
460.07	327.94
460.43	325.53
460.80	323.20
461.17	321.16
461.54	319.00
461.91	316.98
462.27	314.96
462.64	313.21
463.01	311.26
463.38	309.37
463.74	307.52
464.11	305.87
464.48	304.39
464.85	302.82
465.21	301.61
465.58	300.30
465.95	298.74
466.32	297.44
466.68	296.13
467.05	294.83
467.42	293.56
467.78	292.24
468.15	291.00
468.52	290.06
468.88	288.85
469.25	287.79
469.62	286.90
469.98	285.91
470.35	284.97
470.72	284.15
471.08	283.24
471.45	282.46
471.82	281.66
472.18	280.85
472.55	280.20
472.92	279.43
473.28	278.76
473.65	278.13
474.02	277.48
474.38	276.94
474.75	276.49
475.11	275.98
475.48	275.55
475.85	275.19
476.21	274.83
476.58	274.51
476.94	274.23
477.31	273.91
477.67	273.62
478.04	273.41
478.41	273.24
478.77	273.19
479.14	273.04
479.50	272.95
479.87	272.93
480.23	272.90
480.60	272.88
480.96	272.89
481.33	273.03
481.69	273.20
482.06	273.33
482.42	273.46
482.79	273.68
483.15	273.99
483.52	274.32
483.88	274.62
484.25	275.00
484.61	275.39
484.98	275.80
485.34	276.34
485.71	276.90
486.07	277.51
486.44	278.08
486.80	278.82
487.17	279.57
487.53	280.37
487.90	281.27
488.26	282.27
488.62	283.29
488.99	284.33
489.35	285.38
489.72	286.60
490.08	287.85
490.44	289.13
490.81	290.48
491.17	291.89
491.54	293.45
491.90	295.04
492.26	296.84
492.63	298.73
492.99	300.70
493.36	302.75
493.72	304.93
494.08	307.17
494.45	309.53
494.81	312.08
495.17	314.69
495.54	317.41
495.90	320.29
496.26	323.31
496.63	326.46
496.99	329.84
497.35	333.32
497.72	336.95
498.08	340.72
498.44	344.70
498.80	348.94
499.17	353.29
499.53	357.76
499.89	362.46
500.26	367.26
500.62	372.27
500.98	377.57
501.34	383.00
501.71	388.73
502.07	394.55
502.43	400.60
502.79	406.87
503.16	413.41
503.52	420.10
503.88	426.96
504.24	434.06
504.60	441.44
504.97	449.07
505.33	456.98
505.69	465.28
506.05	473.63
506.41	482.17
506.78	491.01
507.14	500.19
507.50	509.53
507.86	519.29
508.22	529.16
508.59	539.11
508.95	549.50
509.31	560.13
509.67	571.07
510.03	582.16
510.39	593.64
510.75	605.32
511.12	617.26
511.48	629.46
511.84	642.01
512.20	654.55
512.56	667.60
512.92	680.79
513.28	694.33
513.64	707.95
514.00	721.75
514.37	735.84
514.73	750.01
515.09	764.23
515.45	778.71
515.81	793.65
516.17	808.94
516.53	824.44
516.89	840.06
517.25	855.64
517.61	871.58
517.97	887.36
518.33	903.20
518.69	919.44
519.05	936.02
519.41	952.71
519.77	969.79
520.13	986.90
520.49	1004.05
520.85	1020.97
521.21	1038.29
521.57	1056.33
521.93	1073.81
522.29	1092.14
522.65	1110.27
523.01	1128.30
523.37	1146.15
523.73	1164.26
524.09	1182.16
524.45	1200.28
524.81	1218.89
525.17	1237.59
525.53	1256.64
525.89	1275.62
526.25	1294.51
526.61	1313.02
526.97	1331.93
527.33	1350.59
527.68	1369.27
528.04	1387.79
528.40	1406.60
528.76	1425.95
529.12	1444.77
529.48	1464.07
529.84	1482.16
530.20	1501.04
530.56	1520.35
530.91	1540.17
531.27	1559.27
531.63	1578.15
531.99	1597.12
532.35	1615.53
532.71	1633.93
533.07	1652.64
533.42	1671.04
533.78	1689.66
534.14	1708.30
534.50	1725.96
534.86	1744.22
535.21	1761.87
535.57	1780.31
535.93	1798.27
536.29	1815.58
536.65	1833.15
537.00	1850.35
537.36	1868.37
537.72	1885.37
538.08	1902.36
538.44	1918.67
538.79	1935.03
539.15	1951.03
539.51	1967.40
539.87	1984.39
540.22	2000.58
540.58	2016.91
540.94	2032.68
541.29	2047.92
541.65	2063.24
542.01	2079.14
542.37	2094.13
542.72	2109.21
543.08	2123.83
543.44	2138.81
543.79	2152.62
544.15	2166.15
544.51	2180.22
544.87	2193.58
545.22	2207.14
545.58	2220.00
545.94	2232.32
546.29	2244.83
546.65	2257.39
547.01	2269.14
547.36	2280.27
547.72	2291.24
548.07	2301.45
548.43	2312.02
548.79	2322.38
549.14	2332.38
549.50	2341.82
549.86	2351.78
550.21	2361.31
550.57	2370.58
550.92	2379.54
551.28	2388.93
551.64	2398.28
551.99	2407.03
552.35	2415.51
552.70	2423.68
553.06	2431.78
553.41	2440.16
553.77	2448.20
554.13	2456.34
554.48	2464.52
554.84	2472.13
555.19	2479.23
555.55	2486.36
555.90	2492.87
556.26	2500.03
556.61	2506.71
556.97	2513.19
557.32	2519.22
557.68	2525.20
558.03	2531.28
558.39	2536.53
558.74	2543.00
559.10	2548.51
559.45	2553.96
559.81	2559.92
560.16	2565.50
560.52	2570.41
560.87	2575.32
561.23	2579.42
561.58	2583.71
561.94	2587.76
562.29	2591.16
562.64	2595.54
563.00	2599.54
563.35	2604.49
563.71	2608.87
564.06	2613.27
564.42	2617.43
564.77	2621.43
565.12	2625.22
565.48	2628.42
565.83	2631.70
566.19	2634.30
566.54	2636.26
566.89	2638.59
567.25	2640.30
567.60	2642.64
567.96	2645.63
568.31	2647.57
568.66	2650.06
569.02	2651.78
569.37	2653.15
569.72	2655.34
570.08	2656.38
570.43	2657.29
570.78	2657.53
571.14	2656.61
571.49	2655.91
571.84	2656.36
572.20	2655.82
572.55	2655.25
572.90	2654.10
573.26	2653.29
573.61	2651.82
573.96	2650.69
574.31	2647.85
574.67	2645.01
575.02	2641.42
575.37	2637.94
575.72	2634.37
576.08	2630.76
576.43	2627.41
576.78	2623.77
577.13	2620.53
577.49	2617.27
577.84	2613.90
578.19	2609.82
578.54	2606.25
578.90	2601.91
579.25	2595.88
579.60	2590.72
579.95	2585.39
580.30	2579.97
580.66	2574.34
581.01	2569.01
581.36	2563.62
581.71	2559.16
582.06	2554.63
582.42	2550.07
582.77	2544.37
583.12	2539.44
583.47	2534.49
583.82	2529.25
584.17	2523.44
584.53	2517.34
584.88	2511.28
585.23	2504.95
585.58	2499.11
585.93	2492.96
586.28	2487.65
586.63	2482.15
586.98	2476.34
587.34	2470.85
587.69	2465.43
588.04	2459.63
588.39	2453.38
588.74	2445.98
589.09	2439.12
589.44	2431.20
589.79	2424.12
590.14	2417.67
590.49	2410.00
590.84	2402.57
591.19	2395.52
591.54	2387.99
591.89	2379.61
592.25	2371.90
592.60	2363.45
592.95	2354.75
593.30	2346.30
593.65	2337.44
594.00	2329.09
594.35	2320.59
594.70	2311.34
595.05	2303.15
595.40	2294.55
595.75	2285.61
596.10	2278.46
596.45	2270.53
596.80	2263.52
597.15	2255.93
597.50	2247.95
597.85	2240.29
598.19	2232.58
598.54	2224.52
598.89	2216.71
599.24	2209.73
599.59	2201.93
599.94	2194.51
600.29	2186.96
600.64	2179.08
600.99	2170.33
601.34	2162.42
601.69	2154.11
602.04	2146.12
602.39	2137.38
602.74	2129.30
603.08	2121.43
603.43	2113.32
603.78	2104.61
604.13	2095.80
604.48	2087.19
604.83	2078.91
605.18	2070.96
605.53	2061.49
605.87	2051.75
606.22	2043.08
606.57	2033.50
606.92	2024.45
607.27	2016.01
607.62	2007.83
607.96	1999.19
608.31	1991.43
608.66	1982.41
609.01	1973.61
609.36	1964.65
609.70	1955.04
610.05	1945.45
610.40	1936.27
610.75	1926.34
611.10	1917.24
611.44	1907.12
611.79	1897.33
612.14	1886.88
612.49	1875.71
612.83	1865.61
613.18	1856.03
613.53	1846.28
613.88	1836.14
614.22	1826.37
614.57	1815.95
614.92	1806.39
615.27	1797.47
615.61	1787.73
615.96	1777.89
616.31	1768.63
616.65	1759.62
617.00	1750.53
617.35	1741.35
617.70	1731.32
618.04	1721.23
618.39	1711.23
618.74	1702.36
619.08	1692.51
619.43	1683.38
619.78	1675.03
620.12	1666.57
620.47	1657.43
620.82	1647.62
621.16	1638.62
621.51	1629.24
621.85	1620.06
622.20	1609.78
622.55	1599.60
622.89	1589.95
623.24	1580.72
623.59	1571.67
623.93	1562.70
624.28	1553.96
624.62	1544.88
624.97	1536.24
625.32	1527.94
625.66	1519.50
626.01	1510.65
626.35	1501.86
626.70	1492.51
627.04	1483.33
627.39	1473.87
627.73	1464.96
628.08	1456.70
628.43	1448.15
628.77	1439.53
629.12	1430.60
629.46	1421.92
629.81	1412.85
630.15	1404.07
630.50	1395.32
630.84	1385.55
631.19	1375.86
631.53	1366.73
631.88	1357.59
632.22	1348.60
632.57	1339.87
632.91	1330.92
633.26	1322.21
633.60	1313.18
633.95	1304.58
634.29	1296.04
634.64	1287.99
634.98	1279.09
635.32	1270.55
635.67	1262.50
636.01	1254.47
636.36	1246.26
636.70	1238.40
637.05	1230.60
637.39	1222.90
637.73	1215.06
638.08	1208.00
638.42	1200.88
638.77	1193.26
639.11	1185.63
639.45	1177.98
639.80	1170.12
640.14	1162.48
640.49	1154.67
640.83	1147.23
641.17	1139.93
641.52	1132.46
641.86	1124.75
642.20	1117.91
642.55	1110.28
642.89	1102.62
643.23	1094.79
643.58	1087.90
643.92	1080.62
644.26	1073.64
644.61	1066.36
644.95	1059.26
645.29	1051.57
645.64	1043.59
645.98	1036.09
646.32	1028.89
646.66	1021.61
647.01	1014.72
647.35	1007.85
647.69	1000.87
648.04	994.23
648.38	987.33
648.72	980.31
649.06	973.23
649.41	966.16
649.75	959.25
650.09	952.19
650.43	945.27
650.78	938.01
651.12	930.97
651.46	924.08
651.80	917.48
652.14	911.07
652.49	904.59
652.83	898.56
653.17	891.90
653.51	885.30
653.85	878.94
654.20	872.29
654.54	865.15
654.88	858.33
655.22	851.39
655.56	844.60
655.90	838.04
656.25	831.77
656.59	825.42
656.93	819.40
657.27	813.38
657.61	807.05
657.95	801.00
658.29	794.95
658.64	788.65
658.98	782.19
659.32	775.70
659.66	769.57
660.00	763.30
660.34	757.41
660.68	751.52
661.02	745.56
661.36	740.00
661.70	734.81
662.05	729.67
662.39	724.60
662.73	719.34
663.07	714.15
663.41	708.89
663.75	703.69
664.09	698.21
664.43	692.99
664.77	688.18
665.11	683.19
665.45	678.30
665.79	673.62
666.13	668.84
666.47	664.05
666.81	659.26
667.15	654.36
667.49	649.76
667.83	645.23
668.17	640.66
668.51	635.86
668.85	631.03
669.19	626.46
669.53	621.92
669.87	617.45
670.21	613.11
670.55	608.87
670.89	604.76
671.23	600.80
671.57	596.65
671.91	592.48
672.25	588.38
672.58	584.19
672.92	580.08
673.26	576.34
673.60	572.60
673.94	568.97
674.28	565.60
674.62	562.16
674.96	558.57
675.30	555.16
675.64	551.74
675.97	548.49
676.31	545.22
676.65	541.86
676.99	538.65
677.33	535.28
677.67	532.00
678.01	528.53
678.34	525.06
678.68	521.67
679.02	518.34
679.36	515.03
679.70	511.89
680.04	508.73
680.37	505.45
680.71	502.19
681.05	499.09
681.39	495.90
681.73	492.75
682.06	489.78
682.40	486.79
682.74	483.77
683.08	480.71
683.42	477.56
683.75	474.60
684.09	471.56
684.43	468.66
684.77	465.74
685.10	462.89
685.44	460.09
685.78	457.38
686.12	454.71
686.45	451.97
686.79	449.24
687.13	446.60
687.46	443.97
687.80	441.38
688.14	438.72
688.48	436.27
688.81	433.66
689.15	431.06
689.49	428.46
689.82	425.94
690.16	423.50
690.50	421.18
690.83	418.86
691.17	416.51
691.51	414.25
691.84	412.00
692.18	409.72
692.52	407.43
692.85	405.08
693.19	402.81
693.52	400.67
693.86	398.49
694.20	396.38
694.53	394.27
694.87	392.07
695.21	389.92
695.54	387.70
695.88	385.56
696.21	383.53
696.55	381.54
696.88	379.56
697.22	377.57
697.56	375.62
697.89	373.71
698.23	371.81
698.56	369.90
698.90	368.07
699.23	366.13
699.57	364.28
699.90	362.48
700.24	360.69
700.58	358.90
700.91	357.17
701.25	355.43
701.58	353.83
701.92	352.26
702.25	350.65
702.59	349.08
702.92	347.57
703.26	346.02
703.59	344.52
703.93	343.12
704.26	341.67
704.60	340.18
704.93	338.64
705.26	337.19
705.60	335.76
705.93	334.38
706.27	333.17
706.60	331.92
706.94	330.64
707.27	329.29
707.61	327.97
707.94	326.77
708.27	325.47
708.61	324.14
708.94	322.91
709.28	321.73
709.61	320.57
709.94	319.43
710.28	318.24
710.61	317.05
710.95	315.83
711.28	314.74
711.61	313.62
711.95	312.54
712.28	311.47
712.61	310.31
712.95	309.19
713.28	308.15
713.61	307.08
713.95	306.05
714.28	305.09
714.61	304.10
714.95	303.08
715.28	302.09
715.61	301.10
715.95	300.07
716.28	299.05
716.61	298.09
716.95	297.13
717.28	296.23
717.61	295.31
717.94	294.42
718.28	293.45
718.61	292.56
718.94	291.72
719.27	290.90
719.61	290.15
719.94	289.36
720.27	288.48
720.60	287.71
720.94	286.99
721.27	286.30
721.60	285.64
721.93	284.94
722.27	284.29
722.60	283.65
722.93	283.02
723.26	282.43
723.59	281.73
723.93	281.08
724.26	280.42
724.59	279.76
724.92	279.16
725.25	278.58
725.59	277.97
725.92	277.39
726.25	276.79
726.58	276.19
726.91	275.60
727.24	275.06
727.57	274.49
727.91	273.91
728.24	273.32
728.57	272.71
728.90	272.16
729.23	271.59
729.56	271.04
729.89	270.46
730.22	269.83
730.55	269.31
730.89	268.77
731.22	268.24
731.55	267.75
731.88	267.21
732.21	266.68
732.54	266.20
732.87	265.67
733.20	265.17
733.53	264.71
733.86	264.27
734.19	263.77
734.52	263.33
734.85	262.89
735.18	262.40
735.51	261.96
735.84	261.49
736.17	261.04
736.50	260.57
736.83	260.31
737.16	259.96
737.49	259.57
737.82	259.15
738.15	258.75
738.48	258.31
738.81	257.92
739.14	257.54
739.47	257.14
739.80	256.77
740.13	256.40
740.46	256.00
740.79	255.58
741.12	255.23
741.45	254.85
741.78	254.44
742.11	254.11
742.44	253.74
742.77	253.39
743.10	253.03
743.43	252.66
743.75	252.21
744.08	251.97
744.41	251.62
744.74	251.28
745.07	250.96
745.40	250.70
745.73	250.41
746.06	250.11
746.39	249.81
746.71	249.49
747.04	249.16
747.37	248.87
747.70	248.59
748.03	248.28
748.36	247.98
748.68	247.72
749.01	247.47
749.34	247.20
749.67	246.95
750.00	246.68
750.33	246.52
750.65	246.25
750.98	245.89
751.31	245.66
751.64	245.44
751.97	245.25
752.29	244.96
752.62	244.68
752.95	244.42
753.28	244.15
753.60	243.93
753.93	243.74
754.26	243.50
754.59	243.27
754.91	243.04
755.24	242.84
755.57	242.55
755.90	242.32
756.22	242.09
756.55	241.88
756.88	241.64
757.20	241.34
757.53	241.15
757.86	240.96
758.19	240.75
758.51	240.56
758.84	240.30
759.17	240.09
759.49	239.91
759.82	239.78
760.15	239.63
760.47	239.44
760.80	239.24
761.13	239.13
761.45	238.98
761.78	238.82
762.11	238.64
762.43	238.51
762.76	238.32
763.08	238.18
763.41	238.01
763.74	237.90
764.06	237.76
764.39	237.58
764.71	237.41
765.04	237.27
765.37	237.12
765.69	237.01
766.02	236.85
766.34	236.70
766.67	236.48
767.00	236.35
767.32	236.28
767.65	236.20
767.97	236.04
768.30	235.89
768.62	235.72
768.95	235.58
769.27	235.44
769.60	235.32
769.92	235.19
770.25	235.05
770.57	234.86
770.90	234.72
771.22	234.58
771.55	234.45
771.87	234.33
772.20	234.20
772.52	234.13
772.85	234.16
773.17	234.03
773.50	233.90
773.82	233.76
774.15	233.60
774.47	233.43
774.80	233.32
775.12	233.19
775.45	233.13
775.77	233.04
776.09	232.95
776.42	232.86
776.74	232.78
777.07	232.68
777.39	232.60
777.72	232.50
778.04	232.45
778.36	232.36
778.69	232.26
779.01	232.18
779.33	232.01
779.66	231.80
779.98	231.70
780.31	231.67
780.63	231.66
780.95	231.60
781.28	231.51
781.60	231.43
781.92	231.37
782.25	231.26
782.57	231.19
782.89	231.10
783.22	231.04
783.54	230.95
783.86	230.91
784.19	230.83
784.51	230.82
784.83	230.71
785.16	230.59
785.48	230.53
785.80	230.46
786.12	230.42
786.45	230.41
