SpectraSuite Data File
++++++++++++++++++++++++++++++++++++
Date: Fri Feb 01 18:15:14 EST 2013
User: group
Dark Spectrum Present: No
Reference Spectrum Present: No
Number of Sampled Component Spectra: 1
Spectrometers: USB2E7196
Integration Time (usec): 35000 (USB2E7196)
Spectra Averaged: 100 (USB2E7196)
Boxcar Smoothing: 10 (USB2E7196)
Correct for Electrical Dark: No (USB2E7196)
Strobe/Lamp Enabled: No (USB2E7196)
Correct for Detector Non-linearity: No (USB2E7196)
Correct for Stray Light: No (USB2E7196)
Number of Pixels in Processed Spectrum: 2048
>>>>>Begin Processed Spectral Data<<<<<
339.09	0.00
339.48	212.48
339.86	214.67
340.24	215.73
340.63	217.38
341.01	219.95
341.39	220.38
341.78	221.20
342.16	222.09
342.54	223.75
342.93	211.58
343.31	222.26
343.69	222.81
344.07	223.27
344.46	223.68
344.84	224.08
345.22	224.32
345.60	224.56
345.99	224.76
346.37	224.93
346.75	224.99
347.13	225.05
347.52	225.11
347.90	225.17
348.28	225.22
348.66	225.23
349.05	225.22
349.43	225.23
349.81	225.27
350.19	225.34
350.57	225.38
350.96	225.41
351.34	225.51
351.72	225.61
352.10	225.72
352.48	225.81
352.87	225.84
353.25	225.89
353.63	225.94
354.01	225.99
354.39	226.05
354.77	226.11
355.15	226.22
355.54	226.26
355.92	226.27
356.30	226.35
356.68	226.49
357.06	226.55
357.44	226.62
357.82	226.66
358.20	226.74
358.58	226.77
358.97	226.85
359.35	226.93
359.73	227.03
360.11	227.06
360.49	227.12
360.87	227.18
361.25	227.24
361.63	227.30
362.01	227.38
362.39	227.42
362.77	227.49
363.15	227.52
363.53	227.54
363.91	227.59
364.29	227.62
364.67	227.55
365.05	227.58
365.43	227.63
365.81	227.64
366.19	227.68
366.57	227.75
366.95	227.74
367.33	227.69
367.71	227.63
368.09	227.62
368.47	227.64
368.85	227.64
369.23	227.63
369.61	227.61
369.99	227.61
370.37	227.62
370.75	227.65
371.13	227.57
371.51	227.55
371.89	227.53
372.27	227.47
372.65	227.44
373.03	227.39
373.41	227.33
373.78	227.29
374.16	227.23
374.54	227.12
374.92	227.07
375.30	227.06
375.68	227.03
376.06	227.01
376.44	226.96
376.82	226.89
377.19	226.84
377.57	226.78
377.95	226.68
378.33	226.57
378.71	226.41
379.09	226.35
379.47	226.31
379.84	226.23
380.22	226.14
380.60	226.07
380.98	226.02
381.36	225.99
381.73	225.92
382.11	225.85
382.49	225.86
382.87	225.80
383.25	225.77
383.62	225.81
384.00	225.76
384.38	225.68
384.76	225.63
385.13	225.62
385.51	225.58
385.89	225.55
386.27	225.55
386.64	225.56
387.02	225.54
387.40	225.49
387.78	225.46
388.15	225.47
388.53	225.44
388.91	225.40
389.29	225.34
389.66	225.35
390.04	225.34
390.42	225.29
390.79	225.27
391.17	225.26
391.55	225.10
391.92	225.10
392.30	225.11
392.68	225.13
393.05	225.11
393.43	225.11
393.81	225.08
394.18	225.07
394.56	225.08
394.94	225.14
395.31	225.15
395.69	225.21
396.06	225.25
396.44	225.25
396.82	225.27
397.19	225.37
397.57	225.39
397.95	225.45
398.32	225.50
398.70	225.60
399.07	225.64
399.45	225.71
399.82	225.73
400.20	225.78
400.58	225.84
400.95	225.92
401.33	226.00
401.70	226.15
402.08	226.22
402.45	226.28
402.83	226.39
403.20	226.50
403.58	226.59
403.95	226.71
404.33	226.90
404.71	227.04
405.08	227.21
405.46	227.35
405.83	227.49
406.21	227.63
406.58	227.79
406.96	227.97
407.33	228.18
407.70	228.44
408.08	228.76
408.45	229.01
408.83	229.31
409.20	229.58
409.58	229.84
409.95	230.23
410.33	230.58
410.70	230.90
411.08	231.29
411.45	231.71
411.82	232.11
412.20	232.55
412.57	233.12
412.95	233.55
413.32	234.12
413.69	234.69
414.07	235.33
414.44	235.98
414.82	236.67
415.19	237.44
415.56	238.19
415.94	238.96
416.31	239.85
416.68	240.71
417.06	241.68
417.43	242.61
417.81	243.67
418.18	244.79
418.55	245.97
418.93	247.20
419.30	248.43
419.67	249.76
420.04	251.11
420.42	252.51
420.79	254.14
421.16	255.76
421.54	257.38
421.91	259.07
422.28	260.86
422.66	262.73
423.03	264.55
423.40	266.42
423.77	268.41
424.15	270.41
424.52	272.52
424.89	274.79
425.26	276.96
425.64	279.02
426.01	281.28
426.38	283.61
426.75	285.95
427.13	288.41
427.50	290.96
427.87	293.59
428.24	296.17
428.61	298.70
428.99	301.45
429.36	304.46
429.73	307.36
430.10	310.19
430.47	313.13
430.85	316.13
431.22	319.31
431.59	322.64
431.96	325.78
432.33	329.27
432.70	332.65
433.08	336.66
433.45	340.34
433.82	343.99
434.19	348.03
434.56	352.00
434.93	355.70
435.30	359.46
435.68	363.57
436.05	367.61
436.42	371.53
436.79	375.04
437.16	378.81
437.53	382.84
437.90	386.82
438.27	390.63
438.64	394.65
439.01	398.31
439.38	401.50
439.75	404.60
440.13	408.16
440.50	411.43
440.87	414.08
441.24	416.85
441.61	419.95
441.98	422.10
442.35	424.67
442.72	427.30
443.09	429.83
443.46	431.29
443.83	432.10
444.20	432.77
444.57	433.94
444.94	434.34
445.31	434.82
445.68	435.28
446.05	435.45
446.42	434.90
446.79	434.32
447.16	433.71
447.53	433.24
447.90	431.58
448.27	429.96
448.64	427.67
449.01	426.05
449.37	423.23
449.74	420.56
450.11	417.38
450.48	413.93
450.85	410.34
451.22	407.25
451.59	404.38
451.96	401.69
452.33	398.09
452.70	394.80
453.07	390.76
453.43	386.66
453.80	382.73
454.17	378.95
454.54	375.36
454.91	371.47
455.28	367.68
455.65	364.17
456.02	360.62
456.38	357.63
456.75	353.89
457.12	350.68
457.49	347.54
457.86	344.47
458.23	341.80
458.59	338.93
458.96	335.95
459.33	333.35
459.70	330.68
460.07	328.49
460.43	326.04
460.80	323.75
461.17	321.71
461.54	319.55
461.91	317.50
462.27	315.40
462.64	313.64
463.01	311.72
463.38	309.85
463.74	307.98
464.11	306.31
464.48	304.85
464.85	303.32
465.21	302.07
465.58	300.73
465.95	299.18
466.32	297.82
466.68	296.54
467.05	295.26
467.42	294.01
467.78	292.67
468.15	291.44
468.52	290.49
468.88	289.28
469.25	288.16
469.62	287.29
469.98	286.33
470.35	285.40
470.72	284.55
471.08	283.60
471.45	282.82
471.82	282.03
472.18	281.12
472.55	280.48
472.92	279.69
473.28	279.01
473.65	278.36
474.02	277.73
474.38	277.16
474.75	276.66
475.11	276.11
475.48	275.73
475.85	275.35
476.21	274.98
476.58	274.66
476.94	274.42
477.31	274.10
477.67	273.80
478.04	273.59
478.41	273.45
478.77	273.41
479.14	273.25
479.50	273.15
479.87	273.11
480.23	273.10
480.60	273.14
480.96	273.13
481.33	273.29
481.69	273.44
482.06	273.60
482.42	273.73
482.79	273.96
483.15	274.23
483.52	274.56
483.88	274.84
484.25	275.21
484.61	275.60
484.98	276.08
485.34	276.69
485.71	277.28
486.07	277.86
486.44	278.42
486.80	279.12
487.17	279.87
487.53	280.73
487.90	281.56
488.26	282.52
488.62	283.59
488.99	284.62
489.35	285.70
489.72	286.88
490.08	288.15
490.44	289.45
490.81	290.84
491.17	292.22
491.54	293.80
491.90	295.40
492.26	297.14
492.63	298.91
492.99	300.74
493.36	302.73
493.72	304.90
494.08	307.15
494.45	309.54
494.81	312.04
495.17	314.63
495.54	317.40
495.90	320.22
496.26	323.18
496.63	326.34
496.99	329.68
497.35	333.17
497.72	336.82
498.08	340.63
498.44	344.61
498.80	348.93
499.17	353.24
499.53	357.70
499.89	362.40
500.26	367.27
500.62	372.27
500.98	377.59
501.34	383.03
501.71	388.70
502.07	394.58
502.43	400.65
502.79	406.96
503.16	413.44
503.52	420.21
503.88	427.09
504.24	434.22
504.60	441.65
504.97	449.32
505.33	457.21
505.69	465.52
506.05	473.86
506.41	482.30
506.78	491.14
507.14	500.29
507.50	509.79
507.86	519.53
508.22	529.50
508.59	539.53
508.95	549.93
509.31	560.65
509.67	571.58
510.03	582.70
510.39	594.18
510.75	606.01
511.12	617.90
511.48	630.24
511.84	642.73
512.20	655.23
512.56	668.23
512.92	681.53
513.28	694.99
513.64	708.70
514.00	722.60
514.37	736.81
514.73	751.19
515.09	765.48
515.45	780.10
515.81	795.09
516.17	810.38
516.53	825.87
516.89	841.45
517.25	857.03
517.61	872.93
517.97	888.76
518.33	904.66
518.69	920.89
519.05	937.45
519.41	954.20
519.77	971.41
520.13	988.52
520.49	1005.55
520.85	1022.55
521.21	1039.91
521.57	1057.92
521.93	1075.35
522.29	1093.54
522.65	1111.67
523.01	1129.71
523.37	1147.62
523.73	1165.71
524.09	1183.78
524.45	1201.95
524.81	1220.63
525.17	1239.52
525.53	1258.53
525.89	1277.42
526.25	1296.43
526.61	1314.86
526.97	1333.77
527.33	1352.36
527.68	1371.10
528.04	1389.80
528.40	1408.62
528.76	1427.91
529.12	1446.78
529.48	1466.00
529.84	1484.17
530.20	1502.98
530.56	1522.27
530.91	1542.10
531.27	1561.29
531.63	1580.10
531.99	1599.16
532.35	1617.47
532.71	1635.76
533.07	1654.44
533.42	1672.79
533.78	1691.39
534.14	1710.19
534.50	1728.03
534.86	1746.47
535.21	1764.28
535.57	1782.67
535.93	1800.74
536.29	1818.09
536.65	1835.71
537.00	1852.96
537.36	1870.89
537.72	1887.99
538.08	1905.13
538.44	1921.44
538.79	1937.85
539.15	1953.94
539.51	1970.27
539.87	1987.37
540.22	2003.67
540.58	2020.06
540.94	2036.15
541.29	2051.57
541.65	2066.90
542.01	2082.77
542.37	2097.71
542.72	2112.64
543.08	2127.09
543.44	2142.12
543.79	2155.92
544.15	2169.57
544.51	2183.86
544.87	2197.58
545.22	2211.08
545.58	2223.79
545.94	2235.99
546.29	2248.44
546.65	2260.92
547.01	2272.73
547.36	2283.79
547.72	2294.72
548.07	2305.00
548.43	2315.43
548.79	2325.71
549.14	2335.75
549.50	2345.29
549.86	2355.26
550.21	2364.87
550.57	2374.32
550.92	2383.21
551.28	2392.63
551.64	2401.87
551.99	2410.49
552.35	2418.69
552.70	2427.01
553.06	2435.17
553.41	2443.61
553.77	2451.69
554.13	2459.80
554.48	2468.05
554.84	2475.86
555.19	2483.16
555.55	2490.45
555.90	2496.85
556.26	2504.05
556.61	2510.57
556.97	2516.98
557.32	2522.82
557.68	2528.76
558.03	2534.92
558.39	2540.40
558.74	2546.88
559.10	2552.59
559.45	2558.07
559.81	2564.05
560.16	2569.49
560.52	2574.53
560.87	2579.49
561.23	2583.70
561.58	2588.16
561.94	2592.21
562.29	2595.75
562.64	2599.98
563.00	2604.02
563.35	2609.15
563.71	2613.35
564.06	2618.00
564.42	2622.19
564.77	2626.35
565.12	2630.16
565.48	2633.31
565.83	2636.45
566.19	2639.06
566.54	2641.14
566.89	2643.58
567.25	2645.41
567.60	2647.82
567.96	2650.69
568.31	2652.71
568.66	2655.03
569.02	2656.68
569.37	2657.91
569.72	2659.77
570.08	2660.80
570.43	2661.59
570.78	2661.85
571.14	2661.19
571.49	2660.45
571.84	2660.87
572.20	2660.36
572.55	2659.93
572.90	2658.90
573.26	2658.05
573.61	2656.63
573.96	2655.31
574.31	2652.53
574.67	2649.80
575.02	2646.33
575.37	2643.00
575.72	2639.43
576.08	2635.97
576.43	2632.74
576.78	2629.12
577.13	2626.01
577.49	2622.98
577.84	2619.56
578.19	2615.68
578.54	2611.95
578.90	2607.63
579.25	2601.59
579.60	2596.28
579.95	2590.90
580.30	2585.51
580.66	2580.02
581.01	2574.76
581.36	2569.31
581.71	2564.85
582.06	2560.02
582.42	2555.25
582.77	2549.40
583.12	2544.48
583.47	2539.52
583.82	2534.14
584.17	2528.43
584.53	2522.34
584.88	2516.08
585.23	2509.71
585.58	2503.66
585.93	2497.64
586.28	2492.20
586.63	2486.74
586.98	2481.16
587.34	2475.82
587.69	2470.40
588.04	2464.50
588.39	2458.05
588.74	2450.60
589.09	2443.46
589.44	2435.76
589.79	2428.80
590.14	2422.39
590.49	2414.74
590.84	2407.31
591.19	2400.33
591.54	2392.83
591.89	2384.58
592.25	2376.82
592.60	2368.46
592.95	2359.90
593.30	2351.26
593.65	2342.57
594.00	2334.26
594.35	2325.71
594.70	2316.20
595.05	2307.89
595.40	2299.15
595.75	2290.43
596.10	2283.33
596.45	2275.61
596.80	2268.48
597.15	2260.79
597.50	2252.69
597.85	2245.14
598.19	2237.40
598.54	2229.29
598.89	2221.56
599.24	2214.61
599.59	2206.94
599.94	2199.54
600.29	2191.83
600.64	2184.06
600.99	2175.32
601.34	2167.36
601.69	2159.18
602.04	2151.27
602.39	2142.49
602.74	2134.63
603.08	2126.50
603.43	2118.35
603.78	2109.64
604.13	2100.98
604.48	2092.39
604.83	2084.04
605.18	2075.88
605.53	2066.30
605.87	2056.55
606.22	2047.95
606.57	2038.25
606.92	2029.09
607.27	2020.45
607.62	2012.19
607.96	2003.48
608.31	1995.58
608.66	1986.44
609.01	1977.45
609.36	1968.39
609.70	1958.85
610.05	1949.13
610.40	1940.07
610.75	1930.18
611.10	1920.95
611.44	1910.62
611.79	1900.81
612.14	1890.39
612.49	1879.26
612.83	1869.22
613.18	1859.44
613.53	1849.60
613.88	1839.36
614.22	1829.46
614.57	1819.11
614.92	1809.52
615.27	1800.59
615.61	1790.67
615.96	1781.04
616.31	1771.75
616.65	1762.75
617.00	1753.66
617.35	1744.49
617.70	1734.53
618.04	1724.38
618.39	1714.45
618.74	1705.58
619.08	1695.74
619.43	1686.60
619.78	1678.30
620.12	1669.85
620.47	1660.92
620.82	1650.95
621.16	1641.93
621.51	1632.80
621.85	1623.63
622.20	1613.18
622.55	1602.98
622.89	1593.36
623.24	1584.02
623.59	1574.99
623.93	1565.90
624.28	1557.00
624.62	1547.80
624.97	1538.98
625.32	1530.82
625.66	1522.25
626.01	1513.60
626.35	1504.63
626.70	1495.31
627.04	1486.02
627.39	1476.44
627.73	1467.43
628.08	1459.18
628.43	1450.53
628.77	1441.75
629.12	1432.78
629.46	1424.25
629.81	1415.25
630.15	1406.45
630.50	1397.53
630.84	1387.70
631.19	1378.10
631.53	1369.10
631.88	1360.07
632.22	1351.00
632.57	1342.13
632.91	1333.08
633.26	1324.11
633.60	1315.18
633.95	1306.61
634.29	1298.02
634.64	1289.90
634.98	1281.05
635.32	1272.46
635.67	1264.43
636.01	1256.30
636.36	1248.10
636.70	1240.23
637.05	1232.39
637.39	1224.72
637.73	1216.98
638.08	1209.96
638.42	1202.93
638.77	1195.21
639.11	1187.32
639.45	1179.63
639.80	1171.73
640.14	1164.16
640.49	1156.25
640.83	1148.78
641.17	1141.46
641.52	1133.84
641.86	1126.14
642.20	1119.16
642.55	1111.54
642.89	1103.85
643.23	1096.09
643.58	1089.18
643.92	1081.79
644.26	1074.68
644.61	1067.35
644.95	1060.27
645.29	1052.48
645.64	1044.46
645.98	1036.93
646.32	1029.85
646.66	1022.80
647.01	1015.88
647.35	1009.00
647.69	1002.07
648.04	995.48
648.38	988.55
648.72	981.61
649.06	974.54
649.41	967.61
649.75	960.63
650.09	953.67
650.43	946.80
650.78	939.53
651.12	932.40
651.46	925.50
651.80	918.79
652.14	912.34
652.49	905.95
652.83	899.70
653.17	893.03
653.51	886.33
653.85	879.84
654.20	873.21
654.54	866.18
654.88	859.47
655.22	852.47
655.56	845.65
655.90	839.09
656.25	832.85
656.59	826.44
656.93	820.46
657.27	814.30
657.61	807.82
657.95	801.70
658.29	795.77
658.64	789.49
658.98	783.13
659.32	776.67
659.66	770.51
660.00	764.34
660.34	758.42
660.68	752.68
661.02	746.77
661.36	741.18
661.70	735.88
662.05	730.68
662.39	725.58
662.73	720.30
663.07	715.13
663.41	709.86
663.75	704.59
664.09	699.07
664.43	693.84
664.77	689.03
665.11	684.12
665.45	679.26
665.79	674.56
666.13	669.73
666.47	664.90
666.81	660.00
667.15	655.13
667.49	650.57
667.83	645.98
668.17	641.30
668.51	636.48
668.85	631.68
669.19	627.18
669.53	622.64
669.87	618.19
670.21	613.76
670.55	609.44
670.89	605.40
671.23	601.36
671.57	597.28
671.91	593.15
672.25	588.94
672.58	584.77
672.92	580.69
673.26	576.98
673.60	573.20
673.94	569.56
674.28	566.04
674.62	562.51
674.96	558.89
675.30	555.49
675.64	552.08
675.97	548.80
676.31	545.36
676.65	541.90
676.99	538.63
677.33	535.30
677.67	532.01
678.01	528.40
678.34	524.98
678.68	521.55
679.02	518.19
679.36	514.92
679.70	511.72
680.04	508.47
680.37	505.09
680.71	501.79
681.05	498.71
681.39	495.54
681.73	492.45
682.06	489.54
682.40	486.52
682.74	483.54
683.08	480.56
683.42	477.51
683.75	474.61
684.09	471.63
684.43	468.79
684.77	465.89
685.10	463.13
685.44	460.40
685.78	457.77
686.12	455.07
686.45	452.42
686.79	449.69
687.13	447.13
687.46	444.56
687.80	442.00
688.14	439.34
688.48	436.91
688.81	434.28
689.15	431.67
689.49	429.09
689.82	426.60
690.16	424.15
690.50	421.81
690.83	419.48
691.17	417.10
691.51	414.81
691.84	412.64
692.18	410.35
692.52	407.98
692.85	405.68
693.19	403.48
693.52	401.27
693.86	399.15
694.20	397.00
694.53	394.91
694.87	392.74
695.21	390.65
695.54	388.48
695.88	386.42
696.21	384.35
696.55	382.34
696.88	380.33
697.22	378.34
697.56	376.38
697.89	374.43
698.23	372.57
698.56	370.66
698.90	368.80
699.23	366.91
699.57	365.08
699.90	363.21
700.24	361.37
700.58	359.58
700.91	357.82
701.25	356.13
701.58	354.47
701.92	352.85
702.25	351.21
702.59	349.61
702.92	348.08
703.26	346.59
703.59	345.11
703.93	343.68
704.26	342.24
704.60	340.75
704.93	339.25
705.26	337.74
705.60	336.34
705.93	334.92
706.27	333.63
706.60	332.37
706.94	331.09
707.27	329.77
707.61	328.50
707.94	327.20
708.27	325.83
708.61	324.52
708.94	323.31
709.28	322.15
709.61	320.98
709.94	319.76
710.28	318.49
710.61	317.32
710.95	316.06
711.28	314.94
711.61	313.82
711.95	312.75
712.28	311.64
712.61	310.47
712.95	309.35
713.28	308.31
713.61	307.25
713.95	306.20
714.28	305.18
714.61	304.15
714.95	303.17
715.28	302.21
715.61	301.17
715.95	300.15
716.28	299.13
716.61	298.13
716.95	297.17
717.28	296.30
717.61	295.40
717.94	294.55
718.28	293.60
718.61	292.72
718.94	291.85
719.27	291.07
719.61	290.32
719.94	289.52
720.27	288.66
720.60	287.84
720.94	287.11
721.27	286.37
721.60	285.69
721.93	284.99
722.27	284.32
722.60	283.71
722.93	283.07
723.26	282.47
723.59	281.83
723.93	281.21
724.26	280.54
724.59	279.87
724.92	279.22
725.25	278.63
725.59	278.04
725.92	277.47
726.25	276.87
726.58	276.28
726.91	275.74
727.24	275.19
727.57	274.67
727.91	274.04
728.24	273.53
728.57	272.98
728.90	272.44
729.23	271.87
729.56	271.33
729.89	270.74
730.22	270.15
730.55	269.59
730.89	269.08
731.22	268.57
731.55	268.04
731.88	267.55
732.21	267.06
732.54	266.53
732.87	265.99
733.20	265.51
733.53	265.09
733.86	264.61
734.19	264.15
734.52	263.71
734.85	263.32
735.18	262.81
735.51	262.33
735.84	261.87
736.17	261.44
736.50	260.97
736.83	260.67
737.16	260.25
737.49	259.86
737.82	259.39
738.15	258.98
738.48	258.61
738.81	258.21
739.14	257.80
739.47	257.42
739.80	257.07
740.13	256.67
740.46	256.20
740.79	255.81
741.12	255.42
741.45	255.02
741.78	254.66
742.11	254.35
742.44	253.94
742.77	253.61
743.10	253.22
743.43	252.88
743.75	252.49
744.08	252.31
744.41	251.98
744.74	251.68
745.07	251.34
745.40	251.02
745.73	250.75
746.06	250.44
746.39	250.13
746.71	249.81
747.04	249.51
747.37	249.23
747.70	248.96
748.03	248.70
748.36	248.44
748.68	248.16
749.01	247.82
749.34	247.60
749.67	247.35
750.00	247.09
750.33	246.89
750.65	246.61
750.98	246.22
751.31	245.93
751.64	245.69
751.97	245.51
752.29	245.28
752.62	244.97
752.95	244.71
753.28	244.49
753.60	244.25
753.93	244.05
754.26	243.82
754.59	243.54
754.91	243.26
755.24	243.00
755.57	242.75
755.90	242.56
756.22	242.33
756.55	242.13
756.88	241.91
757.20	241.64
757.53	241.41
757.86	241.23
758.19	241.04
758.51	240.86
758.84	240.60
759.17	240.38
759.49	240.16
759.82	240.01
760.15	239.82
760.47	239.62
760.80	239.38
761.13	239.24
761.45	239.08
761.78	238.92
762.11	238.77
762.43	238.57
762.76	238.40
763.08	238.22
763.41	238.01
763.74	237.88
764.06	237.73
764.39	237.55
764.71	237.37
765.04	237.24
765.37	237.03
765.69	236.90
766.02	236.73
766.34	236.61
766.67	236.46
767.00	236.32
767.32	236.27
767.65	236.21
767.97	236.07
768.30	235.92
768.62	235.79
768.95	235.62
769.27	235.52
769.60	235.37
769.92	235.26
770.25	235.13
770.57	234.97
770.90	234.85
771.22	234.73
771.55	234.61
771.87	234.44
772.20	234.36
772.52	234.33
772.85	234.34
773.17	234.24
773.50	234.12
773.82	234.01
774.15	233.86
774.47	233.70
774.80	233.57
775.12	233.47
775.45	233.35
775.77	233.27
776.09	233.15
776.42	233.11
776.74	233.05
777.07	232.97
777.39	232.89
777.72	232.81
778.04	232.73
778.36	232.63
778.69	232.59
779.01	232.50
779.33	232.34
779.66	232.17
779.98	232.06
780.31	231.98
780.63	231.94
780.95	231.85
781.28	231.76
781.60	231.69
781.92	231.61
782.25	231.59
782.57	231.52
782.89	231.45
783.22	231.32
783.54	231.26
783.86	231.22
784.19	231.13
784.51	231.09
784.83	231.02
785.16	230.96
785.48	230.93
785.80	230.89
786.12	230.84
786.45	230.79
