SpectraSuite Data File
++++++++++++++++++++++++++++++++++++
Date: Fri Feb 01 15:16:19 EST 2013
User: group
Dark Spectrum Present: No
Reference Spectrum Present: No
Number of Sampled Component Spectra: 1
Spectrometers: USB2E7196
Integration Time (usec): 35000 (USB2E7196)
Spectra Averaged: 100 (USB2E7196)
Boxcar Smoothing: 10 (USB2E7196)
Correct for Electrical Dark: No (USB2E7196)
Strobe/Lamp Enabled: No (USB2E7196)
Correct for Detector Non-linearity: No (USB2E7196)
Correct for Stray Light: No (USB2E7196)
Number of Pixels in Processed Spectrum: 2048
>>>>>Begin Processed Spectral Data<<<<<
339.09	0.00
339.48	214.60
339.86	216.47
340.24	218.05
340.63	219.22
341.01	222.02
341.39	221.96
341.78	222.85
342.16	224.13
342.54	224.94
342.93	213.19
343.31	223.95
343.69	224.49
344.07	224.98
344.46	225.41
344.84	225.80
345.22	226.05
345.60	226.29
345.99	226.50
346.37	226.66
346.75	226.77
347.13	226.85
347.52	226.89
347.90	226.96
348.28	227.03
348.66	227.08
349.05	227.11
349.43	227.14
349.81	227.20
350.19	227.24
350.57	227.30
350.96	227.37
351.34	227.48
351.72	227.61
352.10	227.66
352.48	227.71
352.87	227.75
353.25	227.79
353.63	227.84
354.01	227.92
354.39	228.01
354.77	228.11
355.15	228.21
355.54	228.32
355.92	228.38
356.30	228.45
356.68	228.59
357.06	228.67
357.44	228.74
357.82	228.80
358.20	228.90
358.58	229.01
358.97	229.11
359.35	229.18
359.73	229.26
360.11	229.35
360.49	229.47
360.87	229.53
361.25	229.62
361.63	229.72
362.01	229.75
362.39	229.79
362.77	229.80
363.15	229.83
363.53	229.86
363.91	229.91
364.29	229.97
364.67	229.91
365.05	229.93
365.43	229.93
365.81	229.96
366.19	229.97
366.57	229.99
366.95	229.96
367.33	229.95
367.71	229.92
368.09	229.89
368.47	229.84
368.85	229.81
369.23	229.81
369.61	229.78
369.99	229.80
370.37	229.77
370.75	229.80
371.13	229.72
371.51	229.65
371.89	229.55
372.27	229.48
372.65	229.44
373.03	229.38
373.41	229.35
373.78	229.33
374.16	229.21
374.54	229.12
374.92	229.05
375.30	228.96
375.68	228.84
376.06	228.73
376.44	228.64
376.82	228.56
377.19	228.47
377.57	228.34
377.95	228.21
378.33	228.09
378.71	227.92
379.09	227.84
379.47	227.76
379.84	227.70
380.22	227.60
380.60	227.50
380.98	227.41
381.36	227.33
381.73	227.22
382.11	227.15
382.49	227.04
382.87	226.96
383.25	226.87
383.62	226.95
384.00	226.89
384.38	226.80
384.76	226.80
385.13	226.78
385.51	226.73
385.89	226.65
386.27	226.60
386.64	226.59
387.02	226.53
387.40	226.51
387.78	226.46
388.15	226.43
388.53	226.36
388.91	226.35
389.29	226.32
389.66	226.29
390.04	226.27
390.42	226.28
390.79	226.25
391.17	226.25
391.55	226.11
391.92	226.12
392.30	226.14
392.68	226.07
393.05	226.07
393.43	226.08
393.81	226.10
394.18	226.10
394.56	226.12
394.94	226.19
395.31	226.17
395.69	226.25
396.06	226.28
396.44	226.33
396.82	226.35
397.19	226.40
397.57	226.44
397.95	226.50
398.32	226.51
398.70	226.57
399.07	226.67
399.45	226.76
399.82	226.85
400.20	226.93
400.58	227.03
400.95	227.07
401.33	227.19
401.70	227.36
402.08	227.49
402.45	227.60
402.83	227.71
403.20	227.86
403.58	227.94
403.95	228.12
404.33	228.26
404.71	228.42
405.08	228.61
405.46	228.77
405.83	228.93
406.21	229.09
406.58	229.29
406.96	229.46
407.33	229.62
407.70	229.84
408.08	230.16
408.45	230.38
408.83	230.63
409.20	230.88
409.58	231.06
409.95	231.35
410.33	231.61
410.70	231.86
411.08	232.18
411.45	232.51
411.82	232.77
412.20	233.14
412.57	233.57
412.95	233.89
413.32	234.29
413.69	234.75
414.07	235.18
414.44	235.67
414.82	236.16
415.19	236.76
415.56	237.27
415.94	237.81
416.31	238.44
416.68	239.04
417.06	239.76
417.43	240.43
417.81	241.20
418.18	241.99
418.55	242.84
418.93	243.68
419.30	244.58
419.67	245.57
420.04	246.51
420.42	247.49
420.79	248.66
421.16	249.82
421.54	250.96
421.91	252.18
422.28	253.41
422.66	254.74
423.03	256.02
423.40	257.34
423.77	258.74
424.15	260.17
424.52	261.68
424.89	263.28
425.26	264.82
425.64	266.22
426.01	267.77
426.38	269.43
426.75	271.14
427.13	272.83
427.50	274.63
427.87	276.51
428.24	278.36
428.61	280.10
428.99	282.01
429.36	284.13
429.73	286.18
430.10	288.20
430.47	290.26
430.85	292.39
431.22	294.66
431.59	297.01
431.96	299.25
432.33	301.72
432.70	304.06
433.08	306.85
433.45	309.51
433.82	312.18
434.19	315.03
434.56	317.80
434.93	320.44
435.30	323.00
435.68	325.91
436.05	328.73
436.42	331.52
436.79	334.05
437.16	336.77
437.53	339.62
437.90	342.43
438.27	345.20
438.64	348.03
439.01	350.65
439.38	352.85
439.75	355.00
440.13	357.51
440.50	359.84
440.87	361.75
441.24	363.72
441.61	365.86
441.98	367.40
442.35	369.21
442.72	371.11
443.09	372.92
443.46	373.90
443.83	374.54
444.20	375.06
444.57	375.90
444.94	376.19
445.31	376.57
445.68	376.95
446.05	376.97
446.42	376.58
446.79	376.20
447.16	375.78
447.53	375.45
447.90	374.30
448.27	373.14
448.64	371.53
449.01	370.38
449.37	368.40
449.74	366.46
450.11	364.25
450.48	361.79
450.85	359.31
451.22	357.18
451.59	355.13
451.96	353.22
452.33	350.60
452.70	348.24
453.07	345.40
453.43	342.49
453.80	339.78
454.17	337.10
454.54	334.48
454.91	331.79
455.28	329.15
455.65	326.68
456.02	324.27
456.38	322.15
456.75	319.51
457.12	317.28
457.49	315.08
457.86	312.89
458.23	311.01
458.59	308.98
458.96	306.88
459.33	305.07
459.70	303.21
460.07	301.76
460.43	300.03
460.80	298.39
461.17	296.93
461.54	295.43
461.91	293.99
462.27	292.57
462.64	291.30
463.01	289.97
463.38	288.67
463.74	287.27
464.11	286.12
464.48	285.08
464.85	283.93
465.21	283.05
465.58	282.16
465.95	281.08
466.32	280.14
466.68	279.26
467.05	278.31
467.42	277.39
467.78	276.41
468.15	275.52
468.52	274.85
468.88	274.00
469.25	273.19
469.62	272.55
469.98	271.87
470.35	271.25
470.72	270.61
471.08	269.94
471.45	269.38
471.82	268.81
472.18	268.17
472.55	267.73
472.92	267.19
473.28	266.67
473.65	266.21
474.02	265.74
474.38	265.32
474.75	265.02
475.11	264.63
475.48	264.37
475.85	264.15
476.21	263.88
476.58	263.65
476.94	263.50
477.31	263.32
477.67	263.14
478.04	262.99
478.41	262.93
478.77	262.93
479.14	262.85
479.50	262.83
479.87	262.89
480.23	262.95
480.60	263.01
480.96	263.10
481.33	263.27
481.69	263.47
482.06	263.66
482.42	263.85
482.79	264.13
483.15	264.37
483.52	264.69
483.88	265.05
484.25	265.46
484.61	265.87
484.98	266.30
485.34	266.86
485.71	267.43
486.07	268.01
486.44	268.55
486.80	269.24
487.17	269.96
487.53	270.77
487.90	271.63
488.26	272.56
488.62	273.54
488.99	274.54
489.35	275.55
489.72	276.67
490.08	277.84
490.44	279.10
490.81	280.52
491.17	281.90
491.54	283.40
491.90	284.93
492.26	286.58
492.63	288.33
492.99	290.10
493.36	291.99
493.72	294.03
494.08	296.16
494.45	298.43
494.81	300.85
495.17	303.29
495.54	305.82
495.90	308.52
496.26	311.34
496.63	314.27
496.99	317.41
497.35	320.69
497.72	324.10
498.08	327.62
498.44	331.23
498.80	335.12
499.17	339.12
499.53	343.28
499.89	347.67
500.26	352.24
500.62	356.91
500.98	361.87
501.34	366.94
501.71	372.30
502.07	377.73
502.43	383.30
502.79	389.08
503.16	395.18
503.52	401.42
503.88	407.82
504.24	414.51
504.60	421.37
504.97	428.47
505.33	435.79
505.69	443.48
506.05	451.29
506.41	459.27
506.78	467.47
507.14	475.90
507.50	484.58
507.86	493.53
508.22	502.79
508.59	512.03
508.95	521.67
509.31	531.44
509.67	541.55
510.03	551.89
510.39	562.52
510.75	573.35
511.12	584.30
511.48	595.71
511.84	607.16
512.20	618.66
512.56	630.64
512.92	642.74
513.28	655.03
513.64	667.52
514.00	680.19
514.37	693.13
514.73	706.27
515.09	719.37
515.45	732.79
515.81	746.39
516.17	760.40
516.53	774.53
516.89	788.71
517.25	802.90
517.61	817.29
517.97	831.66
518.33	846.10
518.69	860.90
519.05	875.85
519.41	891.00
519.77	906.67
520.13	922.08
520.49	937.63
520.85	953.07
521.21	968.84
521.57	985.11
521.93	1000.87
522.29	1017.21
522.65	1033.45
523.01	1049.60
523.37	1065.62
523.73	1081.84
524.09	1097.94
524.45	1114.33
524.81	1131.02
525.17	1147.87
525.53	1164.91
525.89	1181.83
526.25	1198.65
526.61	1215.05
526.97	1231.79
527.33	1248.27
527.68	1264.95
528.04	1281.44
528.40	1298.20
528.76	1315.25
529.12	1331.89
529.48	1348.94
529.84	1365.02
530.20	1381.78
530.56	1398.86
530.91	1416.27
531.27	1433.03
531.63	1449.52
531.99	1466.21
532.35	1482.31
532.71	1498.28
533.07	1514.57
533.42	1530.55
533.78	1546.71
534.14	1563.01
534.50	1578.44
534.86	1594.35
535.21	1609.55
535.57	1625.58
535.93	1641.17
536.29	1655.99
536.65	1671.14
537.00	1685.95
537.36	1701.38
537.72	1715.88
538.08	1730.41
538.44	1744.40
538.79	1758.44
539.15	1772.27
539.51	1786.09
539.87	1800.41
540.22	1814.13
540.58	1828.02
540.94	1841.49
541.29	1854.55
541.65	1867.38
542.01	1880.82
542.37	1893.12
542.72	1905.67
543.08	1917.47
543.44	1929.87
543.79	1941.22
544.15	1952.19
544.51	1963.83
544.87	1974.83
545.22	1985.74
545.58	1996.04
545.94	2005.83
546.29	2015.66
546.65	2025.57
547.01	2034.70
547.36	2043.48
547.72	2052.04
548.07	2059.86
548.43	2067.96
548.79	2076.03
549.14	2083.62
549.50	2090.99
549.86	2098.88
550.21	2106.26
550.57	2113.50
550.92	2120.16
551.28	2127.26
551.64	2134.30
551.99	2140.81
552.35	2146.99
552.70	2153.20
553.06	2159.08
553.41	2165.35
553.77	2171.46
554.13	2177.44
554.48	2183.67
554.84	2189.15
555.19	2194.66
555.55	2199.85
555.90	2204.34
556.26	2209.04
556.61	2213.81
556.97	2218.00
557.32	2222.16
557.68	2226.26
558.03	2230.50
558.39	2234.10
558.74	2238.64
559.10	2242.53
559.45	2246.23
559.81	2250.65
560.16	2254.49
560.52	2257.74
560.87	2261.35
561.23	2263.84
561.58	2266.75
561.94	2269.23
562.29	2271.67
562.64	2274.15
563.00	2276.67
563.35	2280.23
563.71	2283.30
564.06	2286.39
564.42	2289.19
564.77	2291.51
565.12	2293.66
565.48	2295.41
565.83	2297.21
566.19	2298.62
566.54	2299.64
566.89	2300.68
567.25	2300.99
567.60	2302.26
567.96	2303.70
568.31	2304.42
568.66	2305.55
569.02	2306.11
569.37	2306.36
569.72	2306.98
570.08	2307.02
570.43	2306.89
570.78	2306.01
571.14	2304.49
571.49	2303.17
571.84	2302.67
572.20	2301.37
572.55	2300.38
572.90	2298.89
573.26	2297.58
573.61	2295.83
573.96	2293.90
574.31	2290.73
574.67	2287.72
575.02	2283.96
575.37	2280.69
575.72	2276.73
576.08	2273.34
576.43	2269.90
576.78	2266.22
577.13	2263.08
577.49	2260.00
577.84	2256.62
578.19	2252.88
578.54	2249.17
578.90	2244.69
579.25	2239.15
579.60	2234.18
579.95	2228.91
580.30	2223.76
580.66	2218.47
581.01	2213.30
581.36	2208.29
581.71	2204.02
582.06	2199.46
582.42	2194.74
582.77	2189.32
583.12	2184.53
583.47	2179.55
583.82	2174.49
584.17	2169.15
584.53	2163.46
584.88	2157.62
585.23	2151.60
585.58	2146.12
585.93	2140.57
586.28	2135.82
586.63	2130.56
586.98	2125.40
587.34	2120.84
587.69	2115.90
588.04	2110.47
588.39	2104.68
588.74	2098.12
589.09	2091.98
589.44	2085.09
589.79	2079.12
590.14	2073.45
590.49	2066.91
590.84	2060.59
591.19	2054.38
591.54	2047.88
591.89	2040.39
592.25	2033.52
592.60	2026.32
592.95	2018.64
593.30	2011.10
593.65	2003.34
594.00	1996.36
594.35	1989.11
594.70	1980.95
595.05	1973.54
595.40	1966.21
595.75	1958.66
596.10	1952.29
596.45	1945.43
596.80	1939.28
597.15	1932.53
597.50	1925.26
597.85	1918.70
598.19	1911.96
598.54	1904.98
598.89	1898.16
599.24	1892.39
599.59	1885.65
599.94	1879.44
600.29	1873.07
600.64	1866.57
600.99	1859.18
601.34	1852.37
601.69	1845.29
602.04	1838.16
602.39	1830.87
602.74	1823.97
603.08	1817.21
603.43	1810.46
603.78	1803.21
604.13	1795.86
604.48	1788.61
604.83	1781.92
605.18	1775.03
605.53	1766.97
605.87	1758.79
606.22	1751.57
606.57	1743.53
606.92	1736.24
607.27	1729.03
607.62	1722.01
607.96	1714.65
608.31	1707.93
608.66	1700.11
609.01	1692.48
609.36	1684.98
609.70	1676.99
610.05	1668.89
610.40	1661.23
610.75	1652.89
611.10	1645.16
611.44	1636.78
611.79	1628.74
612.14	1619.93
612.49	1610.78
612.83	1602.50
613.18	1594.43
613.53	1586.35
613.88	1577.78
614.22	1569.48
614.57	1560.83
614.92	1552.84
615.27	1545.30
615.61	1536.93
615.96	1528.95
616.31	1521.42
616.65	1514.13
617.00	1506.54
617.35	1498.90
617.70	1490.44
618.04	1481.96
618.39	1473.67
618.74	1466.04
619.08	1457.76
619.43	1450.23
619.78	1443.24
620.12	1435.98
620.47	1428.55
620.82	1420.43
621.16	1413.06
621.51	1405.45
621.85	1397.90
622.20	1389.50
622.55	1381.18
622.89	1373.32
623.24	1365.71
623.59	1358.30
623.93	1350.74
624.28	1343.45
624.62	1335.98
624.97	1328.92
625.32	1322.25
625.66	1315.27
626.01	1308.10
626.35	1300.53
626.70	1292.73
627.04	1284.91
627.39	1277.24
627.73	1269.74
628.08	1262.72
628.43	1255.32
628.77	1247.79
629.12	1240.24
629.46	1232.94
629.81	1225.48
630.15	1218.32
630.50	1211.00
630.84	1202.81
631.19	1194.96
631.53	1187.42
631.88	1179.72
632.22	1172.12
632.57	1164.75
632.91	1157.23
633.26	1149.88
633.60	1142.68
633.95	1135.76
634.29	1128.82
634.64	1122.13
634.98	1114.82
635.32	1107.79
635.67	1101.30
636.01	1094.80
636.36	1087.98
636.70	1081.51
637.05	1074.95
637.39	1068.50
637.73	1061.94
638.08	1056.14
638.42	1050.11
638.77	1043.77
639.11	1037.19
639.45	1030.85
639.80	1024.20
640.14	1017.85
640.49	1011.31
640.83	1005.05
641.17	998.81
641.52	992.55
641.86	986.10
642.20	980.23
642.55	974.02
642.89	967.48
643.23	960.98
643.58	955.24
643.92	949.12
644.26	943.02
644.61	937.07
644.95	931.12
645.29	924.48
645.64	917.77
645.98	911.43
646.32	905.70
646.66	899.60
647.01	893.86
647.35	888.11
647.69	882.33
648.04	876.78
648.38	870.89
648.72	864.85
649.06	858.80
649.41	852.94
649.75	846.88
650.09	840.91
650.43	835.08
650.78	828.83
651.12	822.84
651.46	817.19
651.80	811.38
652.14	805.98
652.49	800.58
652.83	795.43
653.17	789.74
653.51	784.02
653.85	778.70
654.20	772.97
654.54	766.97
654.88	761.23
655.22	755.33
655.56	749.65
655.90	744.23
656.25	738.98
656.59	733.62
656.93	728.50
657.27	723.36
657.61	717.93
657.95	712.91
658.29	707.83
658.64	702.59
658.98	697.31
659.32	691.84
659.66	686.62
660.00	681.28
660.34	676.37
660.68	671.48
661.02	666.42
661.36	661.77
661.70	657.31
662.05	652.91
662.39	648.57
662.73	644.11
663.07	639.74
663.41	635.27
663.75	630.80
664.09	626.24
664.43	621.89
664.77	617.86
665.11	613.60
665.45	609.49
665.79	605.46
666.13	601.33
666.47	597.22
666.81	593.10
667.15	588.96
667.49	585.07
667.83	581.28
668.17	577.37
668.51	573.29
668.85	569.23
669.19	565.43
669.53	561.60
669.87	557.74
670.21	554.01
670.55	550.42
670.89	546.95
671.23	543.58
671.57	540.09
671.91	536.47
672.25	533.03
672.58	529.57
672.92	526.12
673.26	523.07
673.60	519.98
673.94	516.85
674.28	514.03
674.62	511.05
674.96	507.92
675.30	504.98
675.64	502.04
675.97	499.33
676.31	496.48
676.65	493.53
676.99	490.81
677.33	487.94
677.67	485.11
678.01	482.12
678.34	479.13
678.68	476.24
679.02	473.52
679.36	470.78
679.70	468.02
680.04	465.29
680.37	462.37
680.71	459.56
681.05	457.02
681.39	454.29
681.73	451.71
682.06	449.23
682.40	446.67
682.74	444.21
683.08	441.68
683.42	439.11
683.75	436.70
684.09	434.20
684.43	431.79
684.77	429.37
685.10	427.01
685.44	424.76
685.78	422.48
686.12	420.21
686.45	417.89
686.79	415.64
687.13	413.48
687.46	411.35
687.80	409.23
688.14	407.02
688.48	405.00
688.81	402.72
689.15	400.59
689.49	398.51
689.82	396.42
690.16	394.33
690.50	392.35
690.83	390.36
691.17	388.40
691.51	386.53
691.84	384.69
692.18	382.77
692.52	380.75
692.85	378.82
693.19	376.95
693.52	375.17
693.86	373.33
694.20	371.55
694.53	369.74
694.87	367.89
695.21	366.10
695.54	364.30
695.88	362.63
696.21	360.88
696.55	359.19
696.88	357.54
697.22	355.92
697.56	354.33
697.89	352.69
698.23	351.10
698.56	349.44
698.90	347.82
699.23	346.20
699.57	344.70
699.90	343.22
700.24	341.71
700.58	340.19
700.91	338.65
701.25	337.21
701.58	335.77
701.92	334.41
702.25	333.05
702.59	331.62
702.92	330.32
703.26	329.05
703.59	327.80
703.93	326.62
704.26	325.38
704.60	324.07
704.93	322.82
705.26	321.55
705.60	320.42
705.93	319.28
706.27	318.26
706.60	317.19
706.94	316.11
707.27	314.93
707.61	313.87
707.94	312.87
708.27	311.75
708.61	310.75
708.94	309.73
709.28	308.73
709.61	307.81
709.94	306.84
710.28	305.79
710.61	304.80
710.95	303.67
711.28	302.72
711.61	301.76
711.95	300.83
712.28	299.93
712.61	298.93
712.95	298.00
713.28	297.10
713.61	296.21
713.95	295.28
714.28	294.49
714.61	293.57
714.95	292.72
715.28	291.86
715.61	290.99
715.95	290.15
716.28	289.29
716.61	288.48
716.95	287.66
717.28	286.95
717.61	286.16
717.94	285.45
718.28	284.70
718.61	283.99
718.94	283.34
719.27	282.68
719.61	282.02
719.94	281.34
720.27	280.62
720.60	279.96
720.94	279.39
721.27	278.77
721.60	278.22
721.93	277.67
722.27	277.18
722.60	276.62
722.93	276.03
723.26	275.54
723.59	274.94
723.93	274.37
724.26	273.81
724.59	273.26
724.92	272.76
725.25	272.27
725.59	271.78
725.92	271.28
726.25	270.79
726.58	270.31
726.91	269.84
727.24	269.38
727.57	268.92
727.91	268.39
728.24	267.95
728.57	267.50
728.90	267.06
729.23	266.53
729.56	266.13
729.89	265.70
730.22	265.20
730.55	264.77
730.89	264.39
731.22	263.93
731.55	263.52
731.88	263.09
732.21	262.63
732.54	262.19
732.87	261.76
733.20	261.34
733.53	260.97
733.86	260.61
734.19	260.24
734.52	259.87
734.85	259.55
735.18	259.12
735.51	258.76
735.84	258.37
736.17	258.05
736.50	257.61
736.83	257.37
737.16	257.04
737.49	256.67
737.82	256.30
738.15	255.98
738.48	255.62
738.81	255.31
739.14	254.97
739.47	254.64
739.80	254.34
740.13	254.02
740.46	253.67
740.79	253.31
741.12	253.00
741.45	252.64
741.78	252.30
742.11	252.04
742.44	251.72
742.77	251.44
743.10	251.12
743.43	250.82
743.75	250.42
744.08	250.26
744.41	250.00
744.74	249.73
745.07	249.42
745.40	249.16
745.73	248.89
746.06	248.63
746.39	248.35
746.71	248.05
747.04	247.76
747.37	247.50
747.70	247.26
748.03	246.97
748.36	246.77
748.68	246.52
749.01	246.25
749.34	246.00
749.67	245.72
750.00	245.50
750.33	245.36
750.65	245.15
750.98	244.82
751.31	244.62
751.64	244.41
751.97	244.23
752.29	244.02
752.62	243.78
752.95	243.55
753.28	243.34
753.60	243.13
753.93	242.95
754.26	242.77
754.59	242.54
754.91	242.36
755.24	242.14
755.57	241.96
755.90	241.77
756.22	241.57
756.55	241.40
756.88	241.20
757.20	240.97
757.53	240.74
757.86	240.55
758.19	240.38
758.51	240.22
758.84	240.01
759.17	239.87
759.49	239.72
759.82	239.64
760.15	239.51
760.47	239.40
760.80	239.25
761.13	239.12
761.45	238.98
761.78	238.83
762.11	238.70
762.43	238.53
762.76	238.41
763.08	238.31
763.41	238.18
763.74	238.04
764.06	237.91
764.39	237.80
764.71	237.69
765.04	237.54
765.37	237.39
765.69	237.28
766.02	237.15
766.34	237.02
766.67	236.85
767.00	236.72
767.32	236.62
767.65	236.57
767.97	236.46
768.30	236.40
768.62	236.28
768.95	236.19
769.27	236.09
769.60	235.99
769.92	235.85
770.25	235.74
770.57	235.64
770.90	235.52
771.22	235.45
771.55	235.32
771.87	235.27
772.20	235.18
772.52	235.19
772.85	235.22
773.17	235.13
773.50	235.04
773.82	234.98
774.15	234.84
774.47	234.70
774.80	234.59
775.12	234.48
775.45	234.44
775.77	234.36
776.09	234.27
776.42	234.19
776.74	234.15
777.07	234.09
777.39	234.01
777.72	233.94
778.04	233.87
778.36	233.81
778.69	233.74
779.01	233.67
779.33	233.51
779.66	233.33
779.98	233.25
780.31	233.17
780.63	233.13
780.95	233.10
781.28	232.99
781.60	232.92
781.92	232.86
782.25	232.78
782.57	232.70
782.89	232.65
783.22	232.59
783.54	232.52
783.86	232.46
784.19	232.41
784.51	232.40
784.83	232.32
785.16	232.27
785.48	232.19
785.80	232.17
786.12	232.11
786.45	232.07
786.77	232.06
787.09	232.03
