SpectraSuite Data File
++++++++++++++++++++++++++++++++++++
Date: Fri Feb 01 15:07:34 EST 2013
User: group
Dark Spectrum Present: No
Reference Spectrum Present: No
Number of Sampled Component Spectra: 1
Spectrometers: USB2E7196
Integration Time (usec): 35000 (USB2E7196)
Spectra Averaged: 100 (USB2E7196)
Boxcar Smoothing: 10 (USB2E7196)
Correct for Electrical Dark: No (USB2E7196)
Strobe/Lamp Enabled: No (USB2E7196)
Correct for Detector Non-linearity: No (USB2E7196)
Correct for Stray Light: No (USB2E7196)
Number of Pixels in Processed Spectrum: 2048
>>>>>Begin Processed Spectral Data<<<<<
339.09	0.00
339.48	214.39
339.86	216.91
340.24	217.51
340.63	219.55
341.01	221.99
341.39	222.00
341.78	223.67
342.16	224.92
342.54	225.40
342.93	213.55
343.31	224.33
343.69	224.90
344.07	225.37
344.46	225.82
344.84	226.17
345.22	226.38
345.60	226.62
345.99	226.81
346.37	226.93
346.75	227.04
347.13	227.10
347.52	227.15
347.90	227.20
348.28	227.24
348.66	227.26
349.05	227.24
349.43	227.29
349.81	227.36
350.19	227.43
350.57	227.47
350.96	227.53
351.34	227.63
351.72	227.74
352.10	227.80
352.48	227.85
352.87	227.93
353.25	228.02
353.63	228.11
354.01	228.15
354.39	228.20
354.77	228.22
355.15	228.32
355.54	228.37
355.92	228.40
356.30	228.49
356.68	228.62
357.06	228.69
357.44	228.73
357.82	228.79
358.20	228.85
358.58	228.87
358.97	228.93
359.35	229.00
359.73	229.06
360.11	229.12
360.49	229.21
360.87	229.24
361.25	229.30
361.63	229.38
362.01	229.42
362.39	229.49
362.77	229.58
363.15	229.63
363.53	229.66
363.91	229.71
364.29	229.68
364.67	229.58
365.05	229.61
365.43	229.65
365.81	229.68
366.19	229.72
366.57	229.78
366.95	229.76
367.33	229.73
367.71	229.69
368.09	229.69
368.47	229.67
368.85	229.67
369.23	229.67
369.61	229.58
369.99	229.63
370.37	229.60
370.75	229.58
371.13	229.50
371.51	229.49
371.89	229.46
372.27	229.45
372.65	229.39
373.03	229.31
373.41	229.22
373.78	229.12
374.16	229.02
374.54	228.93
374.92	228.85
375.30	228.80
375.68	228.73
376.06	228.68
376.44	228.57
376.82	228.50
377.19	228.41
377.57	228.36
377.95	228.22
378.33	228.11
378.71	227.97
379.09	227.90
379.47	227.80
379.84	227.70
380.22	227.58
380.60	227.49
380.98	227.42
381.36	227.34
381.73	227.30
382.11	227.24
382.49	227.15
382.87	227.08
383.25	227.00
383.62	227.05
384.00	226.97
384.38	226.92
384.76	226.84
385.13	226.83
385.51	226.73
385.89	226.67
386.27	226.64
386.64	226.63
387.02	226.57
387.40	226.51
387.78	226.49
388.15	226.49
388.53	226.50
388.91	226.47
389.29	226.41
389.66	226.38
390.04	226.34
390.42	226.34
390.79	226.35
391.17	226.34
391.55	226.21
391.92	226.20
392.30	226.23
392.68	226.25
393.05	226.25
393.43	226.28
393.81	226.29
394.18	226.31
394.56	226.31
394.94	226.36
395.31	226.39
395.69	226.45
396.06	226.50
396.44	226.55
396.82	226.60
397.19	226.74
397.57	226.78
397.95	226.84
398.32	226.89
398.70	226.95
399.07	227.09
399.45	227.16
399.82	227.26
400.20	227.31
400.58	227.37
400.95	227.46
401.33	227.57
401.70	227.74
402.08	227.85
402.45	227.97
402.83	228.10
403.20	228.23
403.58	228.34
403.95	228.46
404.33	228.62
404.71	228.79
405.08	228.98
405.46	229.13
405.83	229.31
406.21	229.49
406.58	229.66
406.96	229.82
407.33	230.01
407.70	230.17
408.08	230.48
408.45	230.75
408.83	230.98
409.20	231.21
409.58	231.40
409.95	231.65
410.33	231.95
410.70	232.20
411.08	232.52
411.45	232.82
411.82	233.13
412.20	233.47
412.57	233.88
412.95	234.15
413.32	234.55
413.69	235.00
414.07	235.43
414.44	235.89
414.82	236.35
415.19	236.87
415.56	237.46
415.94	238.00
416.31	238.58
416.68	239.20
417.06	239.92
417.43	240.59
417.81	241.37
418.18	242.16
418.55	242.98
418.93	243.83
419.30	244.71
419.67	245.63
420.04	246.57
420.42	247.53
420.79	248.70
421.16	249.88
421.54	251.02
421.91	252.24
422.28	253.49
422.66	254.84
423.03	256.17
423.40	257.48
423.77	258.89
424.15	260.33
424.52	261.82
424.89	263.42
425.26	264.98
425.64	266.40
426.01	267.97
426.38	269.64
426.75	271.35
427.13	273.09
427.50	274.94
427.87	276.82
428.24	278.66
428.61	280.39
428.99	282.32
429.36	284.42
429.73	286.50
430.10	288.50
430.47	290.55
430.85	292.65
431.22	294.86
431.59	297.21
431.96	299.47
432.33	301.95
432.70	304.31
433.08	307.12
433.45	309.75
433.82	312.39
434.19	315.29
434.56	318.09
434.93	320.74
435.30	323.36
435.68	326.24
436.05	329.11
436.42	331.99
436.79	334.48
437.16	337.23
437.53	340.07
437.90	342.91
438.27	345.65
438.64	348.51
439.01	351.11
439.38	353.35
439.75	355.53
440.13	358.02
440.50	360.35
440.87	362.22
441.24	364.19
441.61	366.33
441.98	367.84
442.35	369.65
442.72	371.51
443.09	373.33
443.46	374.36
443.83	374.99
444.20	375.44
444.57	376.27
444.94	376.53
445.31	376.88
445.68	377.26
446.05	377.33
446.42	376.92
446.79	376.53
447.16	376.13
447.53	375.83
447.90	374.73
448.27	373.61
448.64	372.01
449.01	370.86
449.37	368.89
449.74	366.96
450.11	364.71
450.48	362.26
450.85	359.68
451.22	357.53
451.59	355.47
451.96	353.54
452.33	350.92
452.70	348.49
453.07	345.63
453.43	342.68
453.80	339.89
454.17	337.22
454.54	334.66
454.91	331.91
455.28	329.21
455.65	326.65
456.02	324.16
456.38	322.01
456.75	319.35
457.12	317.07
457.49	314.89
457.86	312.73
458.23	310.84
458.59	308.80
458.96	306.73
459.33	304.89
459.70	303.02
460.07	301.55
460.43	299.89
460.80	298.26
461.17	296.85
461.54	295.36
461.91	293.92
462.27	292.44
462.64	291.16
463.01	289.79
463.38	288.50
463.74	287.13
464.11	285.95
464.48	284.89
464.85	283.78
465.21	282.85
465.58	281.86
465.95	280.73
466.32	279.77
466.68	278.83
467.05	277.88
467.42	276.97
467.78	275.99
468.15	275.07
468.52	274.39
468.88	273.52
469.25	272.74
469.62	272.14
469.98	271.49
470.35	270.80
470.72	270.24
471.08	269.58
471.45	269.01
471.82	268.48
472.18	267.87
472.55	267.43
472.92	266.91
473.28	266.46
473.65	266.00
474.02	265.57
474.38	265.16
474.75	264.84
475.11	264.50
475.48	264.22
475.85	264.00
476.21	263.77
476.58	263.55
476.94	263.38
477.31	263.18
477.67	262.99
478.04	262.90
478.41	262.79
478.77	262.83
479.14	262.80
479.50	262.75
479.87	262.80
480.23	262.91
480.60	262.96
480.96	263.07
481.33	263.29
481.69	263.49
482.06	263.70
482.42	263.89
482.79	264.12
483.15	264.45
483.52	264.81
483.88	265.17
484.25	265.53
484.61	265.96
484.98	266.42
485.34	267.01
485.71	267.60
486.07	268.19
486.44	268.73
486.80	269.40
487.17	270.18
487.53	271.01
487.90	271.83
488.26	272.77
488.62	273.74
488.99	274.73
489.35	275.79
489.72	276.91
490.08	278.18
490.44	279.45
490.81	280.81
491.17	282.21
491.54	283.68
491.90	285.25
492.26	286.88
492.63	288.60
492.99	290.39
493.36	292.25
493.72	294.33
494.08	296.46
494.45	298.72
494.81	301.08
495.17	303.52
495.54	306.09
495.90	308.78
496.26	311.56
496.63	314.51
496.99	317.59
497.35	320.83
497.72	324.17
498.08	327.70
498.44	331.36
498.80	335.24
499.17	339.25
499.53	343.40
499.89	347.84
500.26	352.30
500.62	356.95
500.98	361.92
501.34	366.92
501.71	372.22
502.07	377.70
502.43	383.27
502.79	389.06
503.16	395.09
503.52	401.33
503.88	407.74
504.24	414.34
504.60	421.25
504.97	428.33
505.33	435.62
505.69	443.27
506.05	451.02
506.41	458.86
506.78	467.03
507.14	475.49
507.50	484.16
507.86	493.19
508.22	502.31
508.59	511.48
508.95	521.12
509.31	530.91
509.67	540.97
510.03	551.23
510.39	561.76
510.75	572.58
511.12	583.52
511.48	594.77
511.84	606.20
512.20	617.66
512.56	629.68
512.92	641.89
513.28	654.19
513.64	666.64
514.00	679.36
514.37	692.29
514.73	705.29
515.09	718.34
515.45	731.60
515.81	745.27
516.17	759.30
516.53	773.44
516.89	787.62
517.25	801.77
517.61	816.26
517.97	830.73
518.33	845.18
518.69	859.99
519.05	875.03
519.41	890.32
519.77	905.95
520.13	921.36
520.49	936.72
520.85	952.21
521.21	968.00
521.57	984.20
521.93	1000.08
522.29	1016.54
522.65	1032.81
523.01	1049.02
523.37	1065.18
523.73	1081.40
524.09	1097.44
524.45	1113.77
524.81	1130.46
525.17	1147.38
525.53	1164.36
525.89	1181.25
526.25	1198.10
526.61	1214.47
526.97	1231.18
527.33	1247.71
527.68	1264.46
528.04	1280.97
528.40	1297.66
528.76	1314.80
529.12	1331.49
529.48	1348.40
529.84	1364.46
530.20	1381.18
530.56	1398.50
530.91	1415.93
531.27	1432.74
531.63	1449.41
531.99	1466.01
532.35	1482.02
532.71	1497.96
533.07	1514.33
533.42	1530.41
533.78	1546.53
534.14	1562.94
534.50	1578.36
534.86	1594.31
535.21	1609.43
535.57	1625.58
535.93	1641.18
536.29	1656.11
536.65	1671.43
537.00	1686.22
537.36	1701.67
537.72	1716.26
538.08	1730.53
538.44	1744.44
538.79	1758.49
539.15	1772.31
539.51	1786.12
539.87	1800.61
540.22	1814.39
540.58	1828.31
540.94	1841.77
541.29	1854.75
541.65	1867.63
542.01	1880.88
542.37	1893.19
542.72	1905.86
543.08	1917.65
543.44	1930.15
543.79	1941.38
544.15	1952.36
544.51	1964.00
544.87	1975.07
545.22	1985.95
545.58	1996.44
545.94	2006.23
546.29	2016.16
546.65	2025.97
547.01	2035.34
547.36	2044.18
547.72	2052.64
548.07	2060.46
548.43	2068.61
548.79	2076.80
549.14	2084.36
549.50	2091.80
549.86	2099.57
550.21	2106.83
550.57	2114.04
550.92	2120.50
551.28	2127.61
551.64	2134.53
551.99	2141.05
552.35	2147.13
552.70	2153.28
553.06	2159.12
553.41	2165.45
553.77	2171.49
554.13	2177.56
554.48	2183.66
554.84	2188.84
555.19	2194.32
555.55	2199.34
555.90	2203.68
556.26	2208.49
556.61	2213.12
556.97	2217.28
557.32	2221.39
557.68	2225.51
558.03	2229.87
558.39	2233.64
558.74	2238.15
559.10	2242.16
559.45	2245.81
559.81	2250.13
560.16	2253.81
560.52	2256.94
560.87	2260.20
561.23	2262.76
561.58	2265.66
561.94	2268.12
562.29	2270.75
562.64	2273.21
563.00	2275.79
563.35	2279.34
563.71	2282.33
564.06	2285.47
564.42	2288.33
564.77	2290.69
565.12	2292.71
565.48	2294.42
565.83	2296.16
566.19	2297.29
566.54	2298.15
566.89	2299.21
567.25	2299.55
567.60	2301.07
567.96	2302.71
568.31	2303.57
568.66	2304.50
569.02	2304.92
569.37	2305.14
569.72	2305.71
570.08	2305.66
570.43	2305.70
570.78	2304.87
571.14	2303.24
571.49	2301.83
571.84	2301.50
572.20	2300.16
572.55	2299.13
572.90	2297.54
573.26	2296.02
573.61	2294.38
573.96	2292.30
574.31	2289.18
574.67	2286.07
575.02	2282.12
575.37	2278.64
575.72	2274.65
576.08	2271.21
576.43	2267.75
576.78	2264.04
577.13	2260.79
577.49	2257.69
577.84	2254.02
578.19	2250.28
578.54	2246.45
578.90	2242.06
579.25	2236.25
579.60	2231.34
579.95	2226.17
580.30	2220.94
580.66	2215.73
581.01	2210.64
581.36	2205.72
581.71	2201.44
582.06	2197.03
582.42	2192.39
582.77	2187.00
583.12	2182.25
583.47	2177.31
583.82	2172.22
584.17	2166.67
584.53	2161.01
584.88	2155.17
585.23	2149.24
585.58	2143.75
585.93	2138.28
586.28	2133.43
586.63	2128.29
586.98	2123.05
587.34	2118.34
587.69	2113.44
588.04	2108.02
588.39	2102.25
588.74	2095.65
589.09	2089.41
589.44	2082.52
589.79	2076.62
590.14	2070.93
590.49	2064.30
590.84	2057.84
591.19	2051.65
591.54	2045.23
591.89	2037.67
592.25	2030.86
592.60	2023.46
592.95	2015.65
593.30	2008.11
593.65	2000.44
594.00	1993.43
594.35	1986.21
594.70	1978.08
595.05	1970.56
595.40	1963.34
595.75	1955.73
596.10	1949.39
596.45	1942.54
596.80	1936.29
597.15	1929.57
597.50	1922.38
597.85	1915.98
598.19	1909.33
598.54	1902.25
598.89	1895.58
599.24	1889.74
599.59	1882.90
599.94	1876.87
600.29	1870.53
600.64	1863.96
600.99	1856.33
601.34	1849.37
601.69	1842.27
602.04	1835.28
602.39	1828.06
602.74	1820.98
603.08	1814.28
603.43	1807.59
603.78	1800.28
604.13	1792.90
604.48	1785.36
604.83	1778.61
605.18	1771.40
605.53	1763.28
605.87	1755.28
606.22	1748.03
606.57	1740.10
606.92	1732.93
607.27	1725.53
607.62	1718.65
607.96	1711.31
608.31	1704.73
608.66	1696.97
609.01	1689.32
609.36	1681.81
609.70	1673.72
610.05	1665.75
610.40	1657.97
610.75	1649.66
611.10	1641.99
611.44	1633.82
611.79	1625.86
612.14	1617.05
612.49	1608.03
612.83	1599.75
613.18	1591.67
613.53	1583.51
613.88	1574.95
614.22	1566.64
614.57	1558.16
614.92	1550.13
615.27	1542.50
615.61	1534.24
615.96	1526.32
616.31	1518.94
616.65	1511.60
617.00	1504.09
617.35	1496.39
617.70	1487.97
618.04	1479.37
618.39	1471.07
618.74	1463.40
619.08	1455.15
619.43	1447.59
619.78	1440.85
620.12	1433.71
620.47	1426.14
620.82	1418.13
621.16	1410.80
621.51	1403.19
621.85	1395.63
622.20	1387.01
622.55	1378.93
622.89	1371.07
623.24	1363.60
623.59	1356.17
623.93	1348.65
624.28	1341.43
624.62	1333.94
624.97	1326.92
625.32	1320.25
625.66	1313.26
626.01	1306.04
626.35	1298.60
626.70	1290.84
627.04	1282.95
627.39	1275.25
627.73	1267.87
628.08	1260.94
628.43	1253.56
628.77	1246.28
629.12	1238.61
629.46	1231.55
629.81	1224.08
630.15	1216.92
630.50	1209.56
630.84	1201.44
631.19	1193.46
631.53	1186.08
631.88	1178.58
632.22	1171.04
632.57	1163.79
632.91	1156.37
633.26	1149.03
633.60	1141.71
633.95	1134.77
634.29	1127.81
634.64	1121.12
634.98	1113.79
635.32	1106.69
635.67	1100.33
636.01	1093.65
636.36	1086.94
636.70	1080.47
637.05	1073.92
637.39	1067.52
637.73	1060.87
638.08	1055.03
638.42	1049.22
638.77	1042.81
639.11	1036.22
639.45	1029.80
639.80	1023.11
640.14	1016.72
640.49	1010.21
640.83	1003.92
641.17	997.64
641.52	991.34
641.86	985.02
642.20	979.23
642.55	972.98
642.89	966.38
643.23	959.89
643.58	954.14
643.92	947.90
644.26	941.78
644.61	935.74
644.95	929.73
645.29	923.04
645.64	916.31
645.98	909.90
646.32	904.12
646.66	898.08
647.01	892.38
647.35	886.67
647.69	880.81
648.04	875.40
648.38	869.60
648.72	863.56
649.06	857.41
649.41	851.53
649.75	845.51
650.09	839.57
650.43	833.74
650.78	827.59
651.12	821.58
651.46	815.99
651.80	810.26
652.14	804.96
652.49	799.62
652.83	794.45
653.17	788.71
653.51	783.02
653.85	777.72
654.20	772.06
654.54	766.14
654.88	760.49
655.22	754.57
655.56	748.89
655.90	743.52
656.25	738.38
656.59	733.08
656.93	728.03
657.27	722.87
657.61	717.43
657.95	712.35
658.29	707.29
658.64	702.00
658.98	696.67
659.32	691.24
659.66	686.03
660.00	680.69
660.34	675.81
660.68	670.88
661.02	665.80
661.36	661.10
661.70	656.61
662.05	652.24
662.39	647.97
662.73	643.60
663.07	639.20
663.41	634.72
663.75	630.19
664.09	625.62
664.43	621.26
664.77	617.19
665.11	613.05
665.45	609.02
665.79	605.00
666.13	600.87
666.47	596.79
666.81	592.63
667.15	588.52
667.49	584.66
667.83	580.90
668.17	577.07
668.51	572.98
668.85	568.92
669.19	565.07
669.53	561.20
669.87	557.31
670.21	553.71
670.55	550.09
670.89	546.69
671.23	543.29
671.57	539.81
671.91	536.36
672.25	532.84
672.58	529.30
672.92	525.96
673.26	522.85
673.60	519.72
673.94	516.69
674.28	513.82
674.62	510.95
674.96	507.86
675.30	504.89
675.64	502.02
675.97	499.28
676.31	496.45
676.65	493.54
676.99	490.82
677.33	487.94
677.67	485.14
678.01	482.10
678.34	479.12
678.68	476.25
679.02	473.42
679.36	470.74
679.70	468.08
680.04	465.25
680.37	462.37
680.71	459.60
681.05	457.01
681.39	454.31
681.73	451.63
682.06	449.06
682.40	446.52
682.74	444.02
683.08	441.50
683.42	438.94
683.75	436.48
684.09	434.05
684.43	431.58
684.77	429.11
685.10	426.82
685.44	424.57
685.78	422.29
686.12	420.02
686.45	417.70
686.79	415.40
687.13	413.23
687.46	411.09
687.80	408.92
688.14	406.70
688.48	404.67
688.81	402.42
689.15	400.30
689.49	398.17
689.82	396.10
690.16	393.98
690.50	392.03
690.83	390.06
691.17	388.03
691.51	386.16
691.84	384.34
692.18	382.36
692.52	380.38
692.85	378.44
693.19	376.56
693.52	374.75
693.86	372.97
694.20	371.22
694.53	369.43
694.87	367.61
695.21	365.84
695.54	364.03
695.88	362.33
696.21	360.66
696.55	358.99
696.88	357.33
697.22	355.73
697.56	354.15
697.89	352.49
698.23	350.89
698.56	349.28
698.90	347.66
699.23	345.99
699.57	344.47
699.90	342.96
700.24	341.44
700.58	339.86
700.91	338.34
701.25	336.86
701.58	335.49
701.92	334.13
702.25	332.75
702.59	331.39
702.92	330.08
703.26	328.75
703.59	327.43
703.93	326.28
704.26	325.04
704.60	323.70
704.93	322.46
705.26	321.20
705.60	320.03
705.93	318.92
706.27	317.96
706.60	316.88
706.94	315.83
707.27	314.71
707.61	313.69
707.94	312.72
708.27	311.68
708.61	310.63
708.94	309.66
709.28	308.68
709.61	307.71
709.94	306.79
710.28	305.79
710.61	304.86
710.95	303.75
711.28	302.86
711.61	301.94
711.95	301.03
712.28	300.12
712.61	299.16
712.95	298.25
713.28	297.36
713.61	296.47
713.95	295.63
714.28	294.81
714.61	293.98
714.95	293.15
715.28	292.30
715.61	291.43
715.95	290.53
716.28	289.70
716.61	288.89
716.95	288.06
717.28	287.34
717.61	286.57
717.94	285.88
718.28	285.08
718.61	284.38
718.94	283.69
719.27	283.05
719.61	282.40
719.94	281.72
720.27	281.02
720.60	280.38
720.94	279.76
721.27	279.17
721.60	278.58
721.93	277.95
722.27	277.40
722.60	276.89
722.93	276.34
723.26	275.84
723.59	275.28
723.93	274.72
724.26	274.16
724.59	273.57
724.92	273.01
725.25	272.50
725.59	271.98
725.92	271.48
726.25	270.96
726.58	270.47
726.91	269.96
727.24	269.48
727.57	269.02
727.91	268.50
728.24	268.05
728.57	267.54
728.90	267.11
729.23	266.60
729.56	266.14
729.89	265.65
730.22	265.14
730.55	264.66
730.89	264.19
731.22	263.75
731.55	263.36
731.88	262.96
732.21	262.53
732.54	262.07
732.87	261.62
733.20	261.20
733.53	260.83
733.86	260.46
734.19	260.06
734.52	259.67
734.85	259.33
735.18	258.90
735.51	258.50
735.84	258.11
736.17	257.78
736.50	257.34
736.83	257.11
737.16	256.77
737.49	256.47
737.82	256.15
738.15	255.83
738.48	255.47
738.81	255.14
739.14	254.78
739.47	254.48
739.80	254.18
740.13	253.91
740.46	253.54
740.79	253.20
741.12	252.90
741.45	252.57
741.78	252.24
742.11	251.96
742.44	251.68
742.77	251.39
743.10	251.11
743.43	250.86
743.75	250.52
744.08	250.38
744.41	250.11
744.74	249.86
745.07	249.54
745.40	249.31
745.73	249.07
746.06	248.80
746.39	248.55
746.71	248.26
747.04	248.00
747.37	247.79
747.70	247.56
748.03	247.30
748.36	247.11
748.68	246.89
749.01	246.63
749.34	246.42
749.67	246.19
750.00	245.95
750.33	245.82
750.65	245.57
750.98	245.26
751.31	245.02
751.64	244.81
751.97	244.67
752.29	244.46
752.62	244.23
752.95	244.05
753.28	243.84
753.60	243.67
753.93	243.49
754.26	243.30
754.59	243.09
754.91	242.90
755.24	242.72
755.57	242.52
755.90	242.33
756.22	242.14
756.55	241.96
756.88	241.77
757.20	241.51
757.53	241.34
757.86	241.17
758.19	241.03
758.51	240.84
758.84	240.61
759.17	240.46
759.49	240.30
759.82	240.19
760.15	240.05
760.47	239.91
760.80	239.70
761.13	239.57
761.45	239.40
761.78	239.29
762.11	239.11
762.43	238.98
762.76	238.86
763.08	238.73
763.41	238.58
763.74	238.44
764.06	238.33
764.39	238.16
764.71	238.00
765.04	237.85
765.37	237.71
765.69	237.60
766.02	237.42
766.34	237.28
766.67	237.08
767.00	236.98
767.32	236.89
767.65	236.87
767.97	236.76
768.30	236.69
768.62	236.54
768.95	236.41
769.27	236.28
769.60	236.19
769.92	236.07
770.25	235.93
770.57	235.82
770.90	235.69
771.22	235.61
771.55	235.51
771.87	235.40
772.20	235.31
772.52	235.29
772.85	235.33
773.17	235.24
773.50	235.18
773.82	235.03
774.15	234.89
774.47	234.72
774.80	234.62
775.12	234.50
775.45	234.43
775.77	234.32
776.09	234.23
776.42	234.15
776.74	234.09
777.07	234.03
777.39	233.96
777.72	233.88
778.04	233.78
778.36	233.70
778.69	233.61
779.01	233.56
779.33	233.42
779.66	233.27
779.98	233.19
780.31	233.12
780.63	233.11
780.95	233.02
781.28	232.97
781.60	232.91
781.92	232.83
782.25	232.76
782.57	232.72
782.89	232.67
783.22	232.60
783.54	232.51
783.86	232.45
784.19	232.39
784.51	232.36
784.83	232.32
785.16	232.28
785.48	232.24
785.80	232.22
786.12	232.18
786.45	232.09
786.77	232.05
787.09	232.00
