SpectraSuite Data File
++++++++++++++++++++++++++++++++++++
Date: Fri Feb 01 15:13:42 EST 2013
User: group
Dark Spectrum Present: No
Reference Spectrum Present: No
Number of Sampled Component Spectra: 1
Spectrometers: USB2E7196
Integration Time (usec): 35000 (USB2E7196)
Spectra Averaged: 100 (USB2E7196)
Boxcar Smoothing: 10 (USB2E7196)
Correct for Electrical Dark: No (USB2E7196)
Strobe/Lamp Enabled: No (USB2E7196)
Correct for Detector Non-linearity: No (USB2E7196)
Correct for Stray Light: No (USB2E7196)
Number of Pixels in Processed Spectrum: 2048
>>>>>Begin Processed Spectral Data<<<<<
339.09	0.00
339.48	215.64
339.86	216.84
340.24	217.89
340.63	219.96
341.01	222.63
341.39	222.23
341.78	223.83
342.16	225.18
342.54	224.72
342.93	213.78
343.31	224.59
343.69	225.11
344.07	225.57
344.46	226.01
344.84	226.34
345.22	226.58
345.60	226.82
345.99	226.99
346.37	227.10
346.75	227.23
347.13	227.29
347.52	227.32
347.90	227.39
348.28	227.41
348.66	227.45
349.05	227.44
349.43	227.49
349.81	227.52
350.19	227.56
350.57	227.63
350.96	227.68
351.34	227.74
351.72	227.84
352.10	227.91
352.48	227.98
352.87	228.07
353.25	228.11
353.63	228.17
354.01	228.25
354.39	228.34
354.77	228.42
355.15	228.49
355.54	228.54
355.92	228.57
356.30	228.62
356.68	228.75
357.06	228.79
357.44	228.80
357.82	228.88
358.20	228.97
358.58	229.01
358.97	229.07
359.35	229.17
359.73	229.17
360.11	229.24
360.49	229.30
360.87	229.33
361.25	229.42
361.63	229.49
362.01	229.51
362.39	229.51
362.77	229.52
363.15	229.56
363.53	229.56
363.91	229.60
364.29	229.64
364.67	229.56
365.05	229.58
365.43	229.60
365.81	229.59
366.19	229.62
366.57	229.67
366.95	229.66
367.33	229.61
367.71	229.63
368.09	229.66
368.47	229.65
368.85	229.63
369.23	229.60
369.61	229.53
369.99	229.54
370.37	229.53
370.75	229.57
371.13	229.50
371.51	229.45
371.89	229.42
372.27	229.35
372.65	229.31
373.03	229.26
373.41	229.20
373.78	229.14
374.16	229.00
374.54	228.88
374.92	228.81
375.30	228.73
375.68	228.64
376.06	228.54
376.44	228.42
376.82	228.36
377.19	228.27
377.57	228.20
377.95	228.07
378.33	227.99
378.71	227.85
379.09	227.78
379.47	227.74
379.84	227.64
380.22	227.54
380.60	227.42
380.98	227.34
381.36	227.29
381.73	227.21
382.11	227.17
382.49	227.12
382.87	227.05
383.25	226.99
383.62	227.02
384.00	226.93
384.38	226.89
384.76	226.83
385.13	226.84
385.51	226.78
385.89	226.72
386.27	226.68
386.64	226.63
387.02	226.57
387.40	226.53
387.78	226.49
388.15	226.49
388.53	226.47
388.91	226.46
389.29	226.41
389.66	226.42
390.04	226.38
390.42	226.38
390.79	226.37
391.17	226.37
391.55	226.25
391.92	226.28
392.30	226.31
392.68	226.32
393.05	226.29
393.43	226.32
393.81	226.34
394.18	226.36
394.56	226.38
394.94	226.43
395.31	226.44
395.69	226.49
396.06	226.55
396.44	226.61
396.82	226.62
397.19	226.72
397.57	226.78
397.95	226.88
398.32	226.90
398.70	226.96
399.07	227.06
399.45	227.16
399.82	227.25
400.20	227.31
400.58	227.41
400.95	227.46
401.33	227.58
401.70	227.73
402.08	227.78
402.45	227.90
402.83	228.04
403.20	228.17
403.58	228.28
403.95	228.40
404.33	228.52
404.71	228.69
405.08	228.86
405.46	229.01
405.83	229.17
406.21	229.33
406.58	229.52
406.96	229.68
407.33	229.85
407.70	230.04
408.08	230.33
408.45	230.54
408.83	230.79
409.20	231.00
409.58	231.19
409.95	231.49
410.33	231.77
410.70	232.01
411.08	232.34
411.45	232.66
411.82	232.99
412.20	233.36
412.57	233.76
412.95	234.10
413.32	234.50
413.69	234.88
414.07	235.32
414.44	235.80
414.82	236.25
415.19	236.80
415.56	237.36
415.94	237.90
416.31	238.52
416.68	239.13
417.06	239.82
417.43	240.53
417.81	241.26
418.18	242.03
418.55	242.86
418.93	243.69
419.30	244.58
419.67	245.49
420.04	246.45
420.42	247.41
420.79	248.58
421.16	249.75
421.54	250.92
421.91	252.16
422.28	253.38
422.66	254.74
423.03	256.04
423.40	257.36
423.77	258.71
424.15	260.14
424.52	261.64
424.89	263.26
425.26	264.81
425.64	266.29
426.01	267.88
426.38	269.56
426.75	271.23
427.13	272.96
427.50	274.77
427.87	276.67
428.24	278.51
428.61	280.25
428.99	282.17
429.36	284.30
429.73	286.34
430.10	288.41
430.47	290.45
430.85	292.56
431.22	294.74
431.59	297.16
431.96	299.40
432.33	301.90
432.70	304.30
433.08	307.06
433.45	309.70
433.82	312.30
434.19	315.19
434.56	318.03
434.93	320.68
435.30	323.30
435.68	326.16
436.05	329.03
436.42	331.78
436.79	334.31
437.16	336.98
437.53	339.84
437.90	342.61
438.27	345.37
438.64	348.18
439.01	350.85
439.38	353.08
439.75	355.29
440.13	357.77
440.50	360.13
440.87	362.01
441.24	363.97
441.61	366.11
441.98	367.63
442.35	369.48
442.72	371.34
443.09	373.15
443.46	374.18
443.83	374.77
444.20	375.33
444.57	376.12
444.94	376.43
445.31	376.78
445.68	377.14
446.05	377.24
446.42	376.92
446.79	376.50
447.16	376.05
447.53	375.73
447.90	374.56
448.27	373.35
448.64	371.76
449.01	370.62
449.37	368.69
449.74	366.73
450.11	364.46
450.48	362.00
450.85	359.47
451.22	357.32
451.59	355.33
451.96	353.42
452.33	350.83
452.70	348.49
453.07	345.66
453.43	342.74
453.80	339.95
454.17	337.24
454.54	334.70
454.91	331.98
455.28	329.30
455.65	326.80
456.02	324.37
456.38	322.22
456.75	319.53
457.12	317.30
457.49	315.07
457.86	312.85
458.23	310.99
458.59	308.95
458.96	306.85
459.33	304.98
459.70	303.07
460.07	301.58
460.43	299.87
460.80	298.24
461.17	296.83
461.54	295.33
461.91	293.94
462.27	292.46
462.64	291.22
463.01	289.85
463.38	288.50
463.74	287.12
464.11	285.97
464.48	284.96
464.85	283.83
465.21	282.94
465.58	282.02
465.95	280.89
466.32	279.97
466.68	279.02
467.05	278.06
467.42	277.19
467.78	276.27
468.15	275.36
468.52	274.66
468.88	273.74
469.25	272.97
469.62	272.27
469.98	271.58
470.35	270.90
470.72	270.26
471.08	269.65
471.45	269.11
471.82	268.56
472.18	267.95
472.55	267.48
472.92	266.96
473.28	266.49
473.65	266.02
474.02	265.55
474.38	265.17
474.75	264.87
475.11	264.47
475.48	264.16
475.85	263.91
476.21	263.67
476.58	263.53
476.94	263.36
477.31	263.21
477.67	263.06
478.04	262.95
478.41	262.91
478.77	262.91
479.14	262.83
479.50	262.83
479.87	262.88
480.23	262.98
480.60	263.06
480.96	263.14
481.33	263.37
481.69	263.56
482.06	263.81
482.42	263.99
482.79	264.27
483.15	264.58
483.52	264.98
483.88	265.33
484.25	265.73
484.61	266.15
484.98	266.60
485.34	267.17
485.71	267.78
486.07	268.41
486.44	268.96
486.80	269.65
487.17	270.36
487.53	271.16
487.90	271.98
488.26	272.91
488.62	273.89
488.99	274.89
489.35	275.95
489.72	277.06
490.08	278.28
490.44	279.53
490.81	280.86
491.17	282.21
491.54	283.72
491.90	285.23
492.26	286.86
492.63	288.62
492.99	290.40
493.36	292.26
493.72	294.28
494.08	296.42
494.45	298.68
494.81	301.06
495.17	303.53
495.54	306.10
495.90	308.82
496.26	311.65
496.63	314.59
496.99	317.69
497.35	320.91
497.72	324.30
498.08	327.79
498.44	331.47
498.80	335.41
499.17	339.39
499.53	343.58
499.89	347.97
500.26	352.42
500.62	357.13
500.98	362.12
501.34	367.18
501.71	372.49
502.07	377.95
502.43	383.57
502.79	389.34
503.16	395.42
503.52	401.64
503.88	407.99
504.24	414.65
504.60	421.54
504.97	428.64
505.33	435.92
505.69	443.61
506.05	451.41
506.41	459.24
506.78	467.47
507.14	475.90
507.50	484.55
507.86	493.53
508.22	502.74
508.59	511.90
508.95	521.53
509.31	531.29
509.67	541.36
510.03	551.58
510.39	562.10
510.75	572.92
511.12	583.87
511.48	595.20
511.84	606.59
512.20	618.07
512.56	630.05
512.92	642.25
513.28	654.55
513.64	667.03
514.00	679.70
514.37	692.53
514.73	705.58
515.09	718.68
515.45	732.03
515.81	745.55
516.17	759.67
516.53	773.75
516.89	787.94
517.25	802.13
517.61	816.61
517.97	831.12
518.33	845.56
518.69	860.36
519.05	875.38
519.41	890.54
519.77	906.12
520.13	921.66
520.49	937.09
520.85	952.59
521.21	968.28
521.57	984.57
521.93	1000.47
522.29	1016.86
522.65	1033.08
523.01	1049.33
523.37	1065.39
523.73	1081.49
524.09	1097.62
524.45	1113.99
524.81	1130.72
525.17	1147.72
525.53	1164.70
525.89	1181.53
526.25	1198.41
526.61	1214.81
526.97	1231.59
527.33	1248.13
527.68	1264.74
528.04	1281.35
528.40	1298.00
528.76	1315.07
529.12	1331.71
529.48	1348.65
529.84	1364.74
530.20	1381.67
530.56	1398.88
530.91	1416.45
531.27	1433.23
531.63	1449.80
531.99	1466.42
532.35	1482.48
532.71	1498.24
533.07	1514.59
533.42	1530.60
533.78	1546.66
534.14	1563.10
534.50	1578.55
534.86	1594.56
535.21	1609.67
535.57	1625.63
535.93	1641.18
536.29	1656.21
536.65	1671.42
537.00	1686.34
537.36	1701.75
537.72	1716.28
538.08	1730.73
538.44	1744.55
538.79	1758.66
539.15	1772.42
539.51	1786.36
539.87	1800.70
540.22	1814.62
540.58	1828.44
540.94	1841.86
541.29	1854.92
541.65	1867.66
542.01	1881.05
542.37	1893.38
542.72	1906.02
543.08	1917.84
543.44	1930.32
543.79	1941.40
544.15	1952.45
544.51	1964.03
544.87	1975.14
545.22	1986.09
545.58	1996.29
545.94	2006.12
546.29	2015.94
546.65	2025.82
547.01	2035.03
547.36	2043.86
547.72	2052.44
548.07	2060.32
548.43	2068.49
548.79	2076.54
549.14	2084.03
549.50	2091.45
549.86	2099.30
550.21	2106.70
550.57	2113.84
550.92	2120.42
551.28	2127.72
551.64	2134.86
551.99	2141.42
552.35	2147.43
552.70	2153.42
553.06	2159.49
553.41	2165.88
553.77	2171.91
554.13	2178.11
554.48	2184.26
554.84	2189.61
555.19	2194.81
555.55	2199.98
555.90	2204.45
556.26	2209.23
556.61	2214.10
556.97	2218.17
557.32	2222.25
557.68	2226.28
558.03	2230.55
558.39	2234.42
558.74	2238.89
559.10	2242.58
559.45	2246.17
559.81	2250.59
560.16	2254.45
560.52	2257.44
560.87	2260.88
561.23	2263.51
561.58	2266.30
561.94	2268.64
562.29	2271.02
562.64	2273.70
563.00	2276.23
563.35	2279.74
563.71	2282.85
564.06	2285.97
564.42	2288.82
564.77	2291.19
565.12	2293.42
565.48	2295.22
565.83	2296.85
566.19	2298.14
566.54	2299.17
566.89	2300.16
567.25	2300.59
567.60	2301.97
567.96	2303.70
568.31	2304.38
568.66	2305.31
569.02	2305.84
569.37	2306.32
569.72	2307.21
570.08	2307.14
570.43	2307.19
570.78	2306.52
571.14	2305.02
571.49	2303.51
571.84	2303.10
572.20	2301.84
572.55	2300.69
572.90	2299.15
573.26	2297.60
573.61	2295.77
573.96	2293.81
574.31	2290.81
574.67	2287.60
575.02	2283.67
575.37	2280.05
575.72	2276.06
576.08	2272.78
576.43	2269.31
576.78	2265.42
577.13	2262.25
577.49	2259.11
577.84	2255.46
578.19	2251.69
578.54	2247.83
578.90	2243.46
579.25	2237.88
579.60	2232.73
579.95	2227.64
580.30	2222.61
580.66	2217.40
581.01	2212.49
581.36	2207.57
581.71	2203.43
582.06	2198.98
582.42	2194.42
582.77	2189.25
583.12	2184.72
583.47	2179.77
583.82	2174.63
584.17	2169.33
584.53	2163.61
584.88	2157.86
585.23	2151.95
585.58	2146.37
585.93	2140.87
586.28	2136.03
586.63	2130.88
586.98	2125.89
587.34	2121.09
587.69	2115.96
588.04	2110.73
588.39	2104.91
588.74	2098.18
589.09	2091.82
589.44	2085.08
589.79	2079.08
590.14	2073.32
590.49	2066.55
590.84	2060.15
591.19	2054.15
591.54	2047.66
591.89	2040.01
592.25	2033.08
592.60	2025.89
592.95	2018.12
593.30	2010.65
593.65	2003.00
594.00	1995.89
594.35	1988.58
594.70	1980.56
595.05	1973.18
595.40	1965.82
595.75	1958.33
596.10	1952.12
596.45	1945.22
596.80	1938.82
597.15	1932.05
597.50	1924.82
597.85	1918.41
598.19	1911.76
598.54	1904.52
598.89	1897.85
599.24	1891.98
599.59	1885.28
599.94	1878.91
600.29	1872.60
600.64	1866.05
600.99	1858.60
601.34	1851.70
601.69	1844.61
602.04	1837.53
602.39	1830.19
602.74	1823.28
603.08	1816.37
603.43	1809.64
603.78	1802.37
604.13	1795.10
604.48	1787.64
604.83	1780.80
605.18	1773.63
605.53	1765.46
605.87	1757.49
606.22	1750.14
606.57	1742.23
606.92	1734.88
607.27	1727.69
607.62	1720.62
607.96	1713.30
608.31	1706.59
608.66	1698.89
609.01	1691.43
609.36	1683.96
609.70	1675.95
610.05	1667.76
610.40	1660.04
610.75	1651.65
611.10	1643.98
611.44	1635.72
611.79	1627.85
612.14	1619.18
612.49	1610.25
612.83	1602.01
613.18	1593.89
613.53	1585.82
613.88	1577.28
614.22	1569.04
614.57	1560.52
614.92	1552.50
615.27	1544.82
615.61	1536.49
615.96	1528.55
616.31	1520.77
616.65	1513.27
617.00	1505.79
617.35	1498.26
617.70	1489.89
618.04	1481.37
618.39	1473.16
618.74	1465.41
619.08	1457.03
619.43	1449.50
619.78	1442.50
620.12	1435.28
620.47	1427.74
620.82	1419.49
621.16	1412.16
621.51	1404.58
621.85	1396.89
622.20	1388.58
622.55	1380.33
622.89	1372.51
623.24	1364.95
623.59	1357.60
623.93	1350.16
624.28	1342.95
624.62	1335.35
624.97	1328.20
625.32	1321.59
625.66	1314.55
626.01	1307.36
626.35	1299.91
626.70	1292.13
627.04	1284.44
627.39	1276.67
627.73	1269.29
628.08	1262.48
628.43	1255.07
628.77	1247.65
629.12	1240.06
629.46	1232.74
629.81	1225.32
630.15	1218.15
630.50	1210.62
630.84	1202.49
631.19	1194.59
631.53	1187.03
631.88	1179.49
632.22	1171.95
632.57	1164.61
632.91	1157.19
633.26	1149.85
633.60	1142.60
633.95	1135.53
634.29	1128.48
634.64	1121.87
634.98	1114.55
635.32	1107.41
635.67	1100.99
636.01	1094.46
636.36	1087.79
636.70	1081.40
637.05	1074.95
637.39	1068.45
637.73	1062.06
638.08	1056.23
638.42	1050.28
638.77	1043.84
639.11	1037.27
639.45	1030.89
639.80	1024.25
640.14	1017.66
640.49	1011.08
640.83	1004.80
641.17	998.57
641.52	992.27
641.86	985.81
642.20	979.94
642.55	973.70
642.89	967.12
643.23	960.55
643.58	954.72
643.92	948.53
644.26	942.31
644.61	936.35
644.95	930.30
645.29	923.67
645.64	916.89
645.98	910.67
646.32	904.89
646.66	898.90
647.01	893.10
647.35	887.47
647.69	881.73
648.04	876.26
648.38	870.40
648.72	864.37
649.06	858.33
649.41	852.43
649.75	846.33
650.09	840.39
650.43	834.61
650.78	828.45
651.12	822.45
651.46	816.78
651.80	811.03
652.14	805.64
652.49	800.33
652.83	795.18
653.17	789.43
653.51	783.72
653.85	778.32
654.20	772.68
654.54	766.66
654.88	760.94
655.22	755.07
655.56	749.44
655.90	744.06
656.25	738.77
656.59	733.47
656.93	728.40
657.27	723.24
657.61	717.78
657.95	712.79
658.29	707.72
658.64	702.47
658.98	697.20
659.32	691.71
659.66	686.46
660.00	681.25
660.34	676.38
660.68	671.47
661.02	666.41
661.36	661.66
661.70	657.21
662.05	652.92
662.39	648.59
662.73	644.17
663.07	639.83
663.41	635.41
663.75	630.89
664.09	626.38
664.43	622.07
664.77	617.97
665.11	613.65
665.45	609.59
665.79	605.55
666.13	601.41
666.47	597.36
666.81	593.18
667.15	589.02
667.49	585.12
667.83	581.37
668.17	577.51
668.51	573.43
668.85	569.44
669.19	565.57
669.53	561.65
669.87	557.81
670.21	554.06
670.55	550.48
670.89	547.02
671.23	543.64
671.57	540.04
671.91	536.58
672.25	533.12
672.58	529.57
672.92	526.21
673.26	523.05
673.60	519.95
673.94	516.88
674.28	513.97
674.62	511.02
674.96	507.96
675.30	505.02
675.64	502.19
675.97	499.43
676.31	496.61
676.65	493.74
676.99	491.03
677.33	488.22
677.67	485.38
678.01	482.35
678.34	479.39
678.68	476.60
679.02	473.78
679.36	471.07
679.70	468.42
680.04	465.67
680.37	462.84
680.71	460.07
681.05	457.47
681.39	454.76
681.73	452.14
682.06	449.56
682.40	447.06
682.74	444.56
683.08	442.05
683.42	439.45
683.75	437.02
684.09	434.54
684.43	432.09
684.77	429.66
685.10	427.39
685.44	425.09
685.78	422.84
686.12	420.64
686.45	418.35
686.79	415.98
687.13	413.76
687.46	411.59
687.80	409.44
688.14	407.26
688.48	405.21
688.81	402.95
689.15	400.83
689.49	398.68
689.82	396.61
690.16	394.54
690.50	392.54
690.83	390.56
691.17	388.52
691.51	386.57
691.84	384.73
692.18	382.81
692.52	380.82
692.85	378.92
693.19	377.03
693.52	375.17
693.86	373.44
694.20	371.71
694.53	369.92
694.87	368.07
695.21	366.27
695.54	364.47
695.88	362.80
696.21	361.06
696.55	359.37
696.88	357.66
697.22	355.98
697.56	354.37
697.89	352.66
698.23	351.08
698.56	349.53
698.90	347.92
699.23	346.24
699.57	344.66
699.90	343.09
700.24	341.51
700.58	339.97
700.91	338.46
701.25	336.95
701.58	335.58
701.92	334.21
702.25	332.86
702.59	331.48
702.92	330.13
703.26	328.81
703.59	327.55
703.93	326.35
704.26	325.13
704.60	323.85
704.93	322.65
705.26	321.39
705.60	320.20
705.93	319.08
706.27	318.06
706.60	317.07
706.94	315.99
707.27	314.83
707.61	313.77
707.94	312.73
708.27	311.68
708.61	310.57
708.94	309.59
709.28	308.56
709.61	307.59
709.94	306.67
710.28	305.66
710.61	304.70
710.95	303.60
711.28	302.65
711.61	301.70
711.95	300.72
712.28	299.77
712.61	298.78
712.95	297.82
713.28	296.94
713.61	296.03
713.95	295.13
714.28	294.36
714.61	293.51
714.95	292.70
715.28	291.84
715.61	291.00
715.95	290.11
716.28	289.32
716.61	288.52
716.95	287.68
717.28	286.94
717.61	286.19
717.94	285.48
718.28	284.71
718.61	284.02
718.94	283.37
719.27	282.75
719.61	282.07
719.94	281.41
720.27	280.70
720.60	280.03
720.94	279.40
721.27	278.82
721.60	278.30
721.93	277.66
722.27	277.14
722.60	276.60
722.93	276.02
723.26	275.46
723.59	274.88
723.93	274.36
724.26	273.82
724.59	273.25
724.92	272.76
725.25	272.26
725.59	271.73
725.92	271.25
726.25	270.74
726.58	270.28
726.91	269.80
727.24	269.34
727.57	268.89
727.91	268.38
728.24	267.91
728.57	267.40
728.90	267.00
729.23	266.48
729.56	266.09
729.89	265.70
730.22	265.21
730.55	264.75
730.89	264.28
731.22	263.87
731.55	263.46
731.88	263.07
732.21	262.67
732.54	262.24
732.87	261.81
733.20	261.40
733.53	261.03
733.86	260.69
734.19	260.30
734.52	259.92
734.85	259.64
735.18	259.24
735.51	258.89
735.84	258.50
736.17	258.16
736.50	257.73
736.83	257.48
737.16	257.17
737.49	256.87
737.82	256.52
738.15	256.15
738.48	255.80
738.81	255.45
739.14	255.11
739.47	254.79
739.80	254.47
740.13	254.13
740.46	253.82
740.79	253.46
741.12	253.16
741.45	252.83
741.78	252.46
742.11	252.16
742.44	251.80
742.77	251.51
743.10	251.21
743.43	250.92
743.75	250.49
744.08	250.31
744.41	250.01
744.74	249.77
745.07	249.48
745.40	249.21
745.73	248.94
746.06	248.63
746.39	248.38
746.71	248.10
747.04	247.84
747.37	247.55
747.70	247.29
748.03	247.02
748.36	246.79
748.68	246.58
749.01	246.34
749.34	246.08
749.67	245.84
750.00	245.62
750.33	245.47
750.65	245.29
750.98	244.96
751.31	244.76
751.64	244.52
751.97	244.35
752.29	244.11
752.62	243.86
752.95	243.68
753.28	243.46
753.60	243.23
753.93	243.06
754.26	242.84
754.59	242.62
754.91	242.40
755.24	242.18
755.57	241.95
755.90	241.74
756.22	241.54
756.55	241.34
756.88	241.15
757.20	240.90
757.53	240.68
757.86	240.52
758.19	240.37
758.51	240.21
758.84	240.02
759.17	239.86
759.49	239.73
759.82	239.61
760.15	239.46
760.47	239.34
760.80	239.19
761.13	239.11
761.45	239.00
761.78	238.87
762.11	238.76
762.43	238.64
762.76	238.57
763.08	238.47
763.41	238.37
763.74	238.25
764.06	238.12
764.39	238.00
764.71	237.86
765.04	237.71
765.37	237.59
765.69	237.49
766.02	237.38
766.34	237.26
766.67	237.08
767.00	236.97
767.32	236.89
767.65	236.80
767.97	236.67
768.30	236.54
768.62	236.44
768.95	236.32
769.27	236.22
769.60	236.09
769.92	236.00
770.25	235.91
770.57	235.79
770.90	235.68
771.22	235.58
771.55	235.51
771.87	235.45
772.20	235.38
772.52	235.36
772.85	235.40
773.17	235.29
773.50	235.25
773.82	235.16
774.15	235.04
774.47	234.92
774.80	234.81
775.12	234.74
775.45	234.66
775.77	234.60
776.09	234.52
776.42	234.45
776.74	234.39
777.07	234.30
777.39	234.26
777.72	234.18
778.04	234.12
778.36	234.01
778.69	233.95
779.01	233.86
779.33	233.71
779.66	233.54
779.98	233.48
780.31	233.39
780.63	233.37
780.95	233.31
781.28	233.23
781.60	233.17
781.92	233.08
782.25	232.98
782.57	232.89
782.89	232.83
783.22	232.76
783.54	232.66
783.86	232.57
784.19	232.44
784.51	232.40
784.83	232.32
785.16	232.27
785.48	232.15
785.80	232.11
786.12	232.06
786.45	231.98
786.77	231.93
787.09	231.87
