SpectraSuite Data File
++++++++++++++++++++++++++++++++++++
Date: Fri Feb 01 15:00:03 EST 2013
User: group
Dark Spectrum Present: No
Reference Spectrum Present: No
Number of Sampled Component Spectra: 1
Spectrometers: USB2E7196
Integration Time (usec): 35000 (USB2E7196)
Spectra Averaged: 100 (USB2E7196)
Boxcar Smoothing: 10 (USB2E7196)
Correct for Electrical Dark: No (USB2E7196)
Strobe/Lamp Enabled: No (USB2E7196)
Correct for Detector Non-linearity: No (USB2E7196)
Correct for Stray Light: No (USB2E7196)
Number of Pixels in Processed Spectrum: 2048
>>>>>Begin Processed Spectral Data<<<<<
339.09	0.00
339.48	215.65
339.86	216.66
340.24	218.24
340.63	219.95
341.01	222.47
341.39	222.52
341.78	223.85
342.16	224.25
342.54	225.39
342.93	213.79
343.31	224.59
343.69	225.15
344.07	225.62
344.46	226.06
344.84	226.42
345.22	226.66
345.60	226.92
345.99	227.10
346.37	227.26
346.75	227.34
347.13	227.37
347.52	227.46
347.90	227.54
348.28	227.55
348.66	227.58
349.05	227.55
349.43	227.61
349.81	227.63
350.19	227.65
350.57	227.72
350.96	227.79
351.34	227.85
351.72	227.91
352.10	228.00
352.48	228.09
352.87	228.15
353.25	228.20
353.63	228.24
354.01	228.31
354.39	228.39
354.77	228.50
355.15	228.61
355.54	228.63
355.92	228.67
356.30	228.76
356.68	228.90
357.06	228.98
357.44	229.00
357.82	229.05
358.20	229.09
358.58	229.11
358.97	229.16
359.35	229.26
359.73	229.31
360.11	229.33
360.49	229.35
360.87	229.40
361.25	229.43
361.63	229.49
362.01	229.52
362.39	229.52
362.77	229.53
363.15	229.54
363.53	229.58
363.91	229.58
364.29	229.58
364.67	229.48
365.05	229.52
365.43	229.52
365.81	229.54
366.19	229.59
366.57	229.61
366.95	229.58
367.33	229.50
367.71	229.48
368.09	229.48
368.47	229.46
368.85	229.40
369.23	229.41
369.61	229.34
369.99	229.33
370.37	229.31
370.75	229.32
371.13	229.30
371.51	229.24
371.89	229.21
372.27	229.16
372.65	229.10
373.03	229.01
373.41	228.95
373.78	228.86
374.16	228.73
374.54	228.65
374.92	228.60
375.30	228.55
375.68	228.44
376.06	228.36
376.44	228.29
376.82	228.24
377.19	228.16
377.57	228.09
377.95	228.00
378.33	227.91
378.71	227.77
379.09	227.67
379.47	227.60
379.84	227.48
380.22	227.38
380.60	227.32
380.98	227.25
381.36	227.20
381.73	227.11
382.11	227.08
382.49	227.02
382.87	226.93
383.25	226.88
383.62	226.98
384.00	226.93
384.38	226.84
384.76	226.80
385.13	226.77
385.51	226.73
385.89	226.67
386.27	226.62
386.64	226.59
387.02	226.57
387.40	226.55
387.78	226.51
388.15	226.53
388.53	226.47
388.91	226.47
389.29	226.43
389.66	226.44
390.04	226.43
390.42	226.43
390.79	226.44
391.17	226.45
391.55	226.32
391.92	226.31
392.30	226.35
392.68	226.36
393.05	226.38
393.43	226.39
393.81	226.38
394.18	226.39
394.56	226.40
394.94	226.45
395.31	226.47
395.69	226.58
396.06	226.59
396.44	226.68
396.82	226.70
397.19	226.81
397.57	226.87
397.95	226.97
398.32	227.02
398.70	227.10
399.07	227.18
399.45	227.27
399.82	227.39
400.20	227.45
400.58	227.52
400.95	227.57
401.33	227.67
401.70	227.87
402.08	227.98
402.45	228.13
402.83	228.26
403.20	228.36
403.58	228.45
403.95	228.61
404.33	228.73
404.71	228.90
405.08	229.08
405.46	229.22
405.83	229.37
406.21	229.53
406.58	229.69
406.96	229.84
407.33	230.04
407.70	230.21
408.08	230.52
408.45	230.73
408.83	230.98
409.20	231.21
409.58	231.36
409.95	231.63
410.33	231.87
410.70	232.10
411.08	232.39
411.45	232.69
411.82	232.97
412.20	233.32
412.57	233.71
412.95	233.99
413.32	234.39
413.69	234.76
414.07	235.21
414.44	235.68
414.82	236.14
415.19	236.65
415.56	237.21
415.94	237.71
416.31	238.34
416.68	238.95
417.06	239.64
417.43	240.33
417.81	241.09
418.18	241.87
418.55	242.72
418.93	243.59
419.30	244.49
419.67	245.45
420.04	246.37
420.42	247.34
420.79	248.52
421.16	249.66
421.54	250.85
421.91	252.05
422.28	253.29
422.66	254.64
423.03	255.93
423.40	257.23
423.77	258.62
424.15	260.05
424.52	261.53
424.89	263.16
425.26	264.70
425.64	266.12
426.01	267.71
426.38	269.35
426.75	271.04
427.13	272.75
427.50	274.52
427.87	276.40
428.24	278.27
428.61	280.02
428.99	281.93
429.36	284.02
429.73	286.08
430.10	288.11
430.47	290.16
430.85	292.30
431.22	294.58
431.59	296.97
431.96	299.24
432.33	301.74
432.70	304.17
433.08	306.99
433.45	309.67
433.82	312.27
434.19	315.16
434.56	317.97
434.93	320.63
435.30	323.30
435.68	326.21
436.05	329.08
436.42	331.91
436.79	334.45
437.16	337.19
437.53	340.02
437.90	342.83
438.27	345.58
438.64	348.40
439.01	351.01
439.38	353.27
439.75	355.47
440.13	358.02
440.50	360.31
440.87	362.15
441.24	364.11
441.61	366.29
441.98	367.81
442.35	369.64
442.72	371.51
443.09	373.29
443.46	374.31
443.83	374.87
444.20	375.34
444.57	376.21
444.94	376.49
445.31	376.86
445.68	377.24
446.05	377.35
446.42	377.01
446.79	376.57
447.16	376.11
447.53	375.74
447.90	374.57
448.27	373.40
448.64	371.83
449.01	370.72
449.37	368.76
449.74	366.86
450.11	364.60
450.48	362.16
450.85	359.64
451.22	357.50
451.59	355.50
451.96	353.58
452.33	351.00
452.70	348.66
453.07	345.88
453.43	342.95
453.80	340.16
454.17	337.44
454.54	334.90
454.91	332.22
455.28	329.60
455.65	327.08
456.02	324.62
456.38	322.49
456.75	319.80
457.12	317.53
457.49	315.31
457.86	313.17
458.23	311.30
458.59	309.26
458.96	307.17
459.33	305.30
459.70	303.43
460.07	301.90
460.43	300.15
460.80	298.48
461.17	297.05
461.54	295.54
461.91	294.15
462.27	292.70
462.64	291.42
463.01	290.01
463.38	288.69
463.74	287.34
464.11	286.15
464.48	285.10
464.85	283.99
465.21	283.06
465.58	282.10
465.95	281.00
466.32	280.07
466.68	279.13
467.05	278.26
467.42	277.35
467.78	276.38
468.15	275.48
468.52	274.78
468.88	273.91
469.25	273.12
469.62	272.45
469.98	271.75
470.35	271.05
470.72	270.46
471.08	269.78
471.45	269.23
471.82	268.65
472.18	268.05
472.55	267.60
472.92	267.12
473.28	266.60
473.65	266.12
474.02	265.61
474.38	265.22
474.75	264.82
475.11	264.45
475.48	264.19
475.85	263.93
476.21	263.69
476.58	263.49
476.94	263.31
477.31	263.12
477.67	262.96
478.04	262.88
478.41	262.83
478.77	262.87
479.14	262.79
479.50	262.77
479.87	262.83
480.23	262.88
480.60	262.92
480.96	263.02
481.33	263.24
481.69	263.46
482.06	263.68
482.42	263.90
482.79	264.15
483.15	264.49
483.52	264.89
483.88	265.24
484.25	265.65
484.61	266.10
484.98	266.52
485.34	267.10
485.71	267.65
486.07	268.21
486.44	268.76
486.80	269.46
487.17	270.22
487.53	271.03
487.90	271.88
488.26	272.82
488.62	273.81
488.99	274.75
489.35	275.80
489.72	276.88
490.08	278.09
490.44	279.32
490.81	280.65
491.17	281.98
491.54	283.44
491.90	284.93
492.26	286.58
492.63	288.34
492.99	290.08
493.36	292.02
493.72	294.10
494.08	296.24
494.45	298.46
494.81	300.82
495.17	303.23
495.54	305.77
495.90	308.44
496.26	311.22
496.63	314.14
496.99	317.24
497.35	320.49
497.72	323.91
498.08	327.43
498.44	331.07
498.80	334.96
499.17	339.00
499.53	343.19
499.89	347.51
500.26	351.99
500.62	356.68
500.98	361.57
501.34	366.59
501.71	371.88
502.07	377.34
502.43	382.94
502.79	388.78
503.16	394.89
503.52	401.12
503.88	407.55
504.24	414.19
504.60	421.04
504.97	428.17
505.33	435.44
505.69	443.13
506.05	450.87
506.41	458.77
506.78	466.89
507.14	475.32
507.50	483.99
507.86	492.98
508.22	502.10
508.59	511.28
508.95	520.81
509.31	530.58
509.67	540.66
510.03	550.86
510.39	561.35
510.75	572.15
511.12	583.09
511.48	594.30
511.84	605.79
512.20	617.27
512.56	629.16
512.92	641.39
513.28	653.67
513.64	666.10
514.00	678.75
514.37	691.72
514.73	704.75
515.09	717.85
515.45	731.15
515.81	744.77
516.17	758.85
516.53	773.02
516.89	787.22
517.25	801.40
517.61	815.92
517.97	830.42
518.33	844.80
518.69	859.66
519.05	874.68
519.41	889.92
519.77	905.47
520.13	921.01
520.49	936.35
520.85	951.85
521.21	967.68
521.57	983.98
521.93	999.82
522.29	1016.26
522.65	1032.55
523.01	1048.86
523.37	1064.94
523.73	1081.19
524.09	1097.28
524.45	1113.58
524.81	1130.33
525.17	1147.24
525.53	1164.25
525.89	1181.24
526.25	1198.02
526.61	1214.46
526.97	1231.18
527.33	1247.69
527.68	1264.36
528.04	1280.91
528.40	1297.63
528.76	1314.74
529.12	1331.49
529.48	1348.32
529.84	1364.47
530.20	1381.14
530.56	1398.26
530.91	1415.77
531.27	1432.46
531.63	1449.04
531.99	1465.66
532.35	1481.54
532.71	1497.44
533.07	1513.76
533.42	1529.70
533.78	1545.87
534.14	1562.24
534.50	1577.64
534.86	1593.62
535.21	1608.77
535.57	1624.88
535.93	1640.44
536.29	1655.39
536.65	1670.47
537.00	1685.42
537.36	1700.77
537.72	1715.44
538.08	1729.97
538.44	1743.83
538.79	1757.82
539.15	1771.65
539.51	1785.61
539.87	1800.28
540.22	1814.14
540.58	1827.99
540.94	1841.49
541.29	1854.63
541.65	1867.51
542.01	1880.90
542.37	1893.32
542.72	1905.92
543.08	1917.67
543.44	1930.08
543.79	1941.36
544.15	1952.36
544.51	1963.92
544.87	1974.99
545.22	1985.80
545.58	1995.98
545.94	2005.72
546.29	2015.69
546.65	2025.39
547.01	2034.61
547.36	2043.31
547.72	2051.75
548.07	2059.58
548.43	2067.80
548.79	2075.80
549.14	2083.34
549.50	2090.61
549.86	2098.42
550.21	2105.80
550.57	2112.92
550.92	2119.48
551.28	2126.59
551.64	2133.75
551.99	2140.38
552.35	2146.43
552.70	2152.57
553.06	2158.54
553.41	2164.90
553.77	2170.90
554.13	2177.14
554.48	2183.14
554.84	2188.51
555.19	2193.96
555.55	2199.05
555.90	2203.42
556.26	2207.97
556.61	2212.58
556.97	2216.73
557.32	2220.72
557.68	2224.73
558.03	2229.02
558.39	2232.76
558.74	2237.26
559.10	2241.10
559.45	2244.65
559.81	2249.03
560.16	2252.66
560.52	2255.77
560.87	2259.17
561.23	2261.62
561.58	2264.45
561.94	2267.00
562.29	2269.35
562.64	2271.76
563.00	2274.36
563.35	2277.83
563.71	2281.06
564.06	2284.24
564.42	2287.08
564.77	2289.42
565.12	2291.45
565.48	2293.22
565.83	2294.95
566.19	2296.05
566.54	2296.93
566.89	2297.91
567.25	2298.39
567.60	2299.74
567.96	2301.33
568.31	2302.08
568.66	2303.02
569.02	2303.60
569.37	2303.77
569.72	2304.37
570.08	2304.23
570.43	2303.95
570.78	2302.92
571.14	2301.26
571.49	2299.75
571.84	2299.33
572.20	2298.04
572.55	2296.96
572.90	2295.32
573.26	2293.76
573.61	2291.93
573.96	2289.82
574.31	2286.73
574.67	2283.42
575.02	2279.61
575.37	2276.08
575.72	2271.99
576.08	2268.62
576.43	2265.05
576.78	2261.30
577.13	2258.13
577.49	2255.18
577.84	2251.68
578.19	2247.95
578.54	2244.11
578.90	2239.63
579.25	2234.02
579.60	2229.02
579.95	2224.01
580.30	2218.86
580.66	2213.52
581.01	2208.57
581.36	2203.45
581.71	2199.02
582.06	2194.43
582.42	2189.80
582.77	2184.51
583.12	2179.90
583.47	2175.03
583.82	2169.90
584.17	2164.51
584.53	2158.85
584.88	2152.99
585.23	2147.08
585.58	2141.62
585.93	2136.12
586.28	2131.32
586.63	2126.09
586.98	2120.91
587.34	2116.07
587.69	2111.13
588.04	2105.79
588.39	2099.97
588.74	2093.48
589.09	2087.30
589.44	2080.52
589.79	2074.45
590.14	2068.66
590.49	2061.97
590.84	2055.46
591.19	2049.39
591.54	2042.81
591.89	2035.14
592.25	2028.21
592.60	2020.93
592.95	2013.04
593.30	2005.45
593.65	1997.84
594.00	1990.65
594.35	1983.20
594.70	1975.03
595.05	1967.50
595.40	1960.16
595.75	1952.49
596.10	1946.07
596.45	1939.26
596.80	1932.88
597.15	1926.20
597.50	1918.94
597.85	1912.52
598.19	1905.86
598.54	1898.61
598.89	1891.89
599.24	1886.14
599.59	1879.28
599.94	1872.93
600.29	1866.75
600.64	1860.31
600.99	1852.72
601.34	1845.82
601.69	1838.91
602.04	1831.93
602.39	1824.69
602.74	1817.70
603.08	1810.99
603.43	1804.28
603.78	1796.94
604.13	1789.75
604.48	1782.36
604.83	1775.52
605.18	1768.34
605.53	1760.29
605.87	1752.35
606.22	1745.13
606.57	1737.06
606.92	1729.89
607.27	1722.68
607.62	1715.62
607.96	1708.21
608.31	1701.54
608.66	1693.86
609.01	1686.23
609.36	1678.65
609.70	1670.77
610.05	1662.76
610.40	1655.08
610.75	1646.80
611.10	1639.09
611.44	1630.74
611.79	1622.86
612.14	1614.20
612.49	1605.25
612.83	1596.90
613.18	1588.67
613.53	1580.57
613.88	1572.09
614.22	1563.80
614.57	1555.35
614.92	1547.26
615.27	1539.74
615.61	1531.43
615.96	1523.61
616.31	1516.11
616.65	1508.88
617.00	1501.10
617.35	1493.56
617.70	1485.19
618.04	1476.70
618.39	1468.48
618.74	1460.88
619.08	1452.59
619.43	1445.16
619.78	1438.13
620.12	1431.03
620.47	1423.53
620.82	1415.46
621.16	1408.24
621.51	1400.67
621.85	1393.12
622.20	1384.67
622.55	1376.34
622.89	1368.58
623.24	1360.99
623.59	1353.65
623.93	1346.05
624.28	1338.98
624.62	1331.44
624.97	1324.31
625.32	1317.67
625.66	1310.79
626.01	1303.55
626.35	1296.08
626.70	1288.35
627.04	1280.74
627.39	1273.00
627.73	1265.69
628.08	1258.84
628.43	1251.37
628.77	1243.94
629.12	1236.33
629.46	1229.25
629.81	1221.91
630.15	1214.73
630.50	1207.25
630.84	1198.99
631.19	1191.15
631.53	1183.78
631.88	1176.38
632.22	1168.83
632.57	1161.56
632.91	1154.03
633.26	1146.73
633.60	1139.51
633.95	1132.44
634.29	1125.42
634.64	1118.72
634.98	1111.39
635.32	1104.29
635.67	1097.94
636.01	1091.39
636.36	1084.65
636.70	1078.26
637.05	1071.77
637.39	1065.37
637.73	1058.99
638.08	1053.32
638.42	1047.44
638.77	1040.93
639.11	1034.25
639.45	1027.92
639.80	1021.30
640.14	1014.85
640.49	1008.38
640.83	1002.06
641.17	995.86
641.52	989.58
641.86	983.24
642.20	977.42
642.55	971.13
642.89	964.55
643.23	958.19
643.58	952.49
643.92	946.27
644.26	940.19
644.61	934.16
644.95	928.08
645.29	921.43
645.64	914.61
645.98	908.31
646.32	902.58
646.66	896.58
647.01	890.84
647.35	885.20
647.69	879.48
648.04	874.04
648.38	868.25
648.72	862.30
649.06	856.21
649.41	850.38
649.75	844.37
650.09	838.46
650.43	832.58
650.78	826.41
651.12	820.51
651.46	814.88
651.80	809.19
652.14	803.85
652.49	798.50
652.83	793.41
653.17	787.73
653.51	781.97
653.85	776.60
654.20	770.94
654.54	765.01
654.88	759.26
655.22	753.31
655.56	747.65
655.90	742.24
656.25	737.10
656.59	731.77
656.93	726.75
657.27	721.61
657.61	716.24
657.95	711.21
658.29	706.14
658.64	700.87
658.98	695.61
659.32	690.15
659.66	684.97
660.00	679.65
660.34	674.75
660.68	669.87
661.02	664.84
661.36	660.12
661.70	655.66
662.05	651.31
662.39	647.07
662.73	642.67
663.07	638.31
663.41	633.83
663.75	629.34
664.09	624.80
664.43	620.45
664.77	616.32
665.11	612.09
665.45	608.09
665.79	604.05
666.13	599.91
666.47	595.86
666.81	591.73
667.15	587.67
667.49	583.86
667.83	580.17
668.17	576.28
668.51	572.26
668.85	568.26
669.19	564.43
669.53	560.57
669.87	556.67
670.21	553.00
670.55	549.43
670.89	546.07
671.23	542.63
671.57	539.16
671.91	535.70
672.25	532.25
672.58	528.71
672.92	525.36
673.26	522.21
673.60	519.10
673.94	516.01
674.28	513.16
674.62	510.19
674.96	507.07
675.30	504.18
675.64	501.31
675.97	498.59
676.31	495.77
676.65	492.94
676.99	490.26
677.33	487.43
677.67	484.59
678.01	481.52
678.34	478.62
678.68	475.78
679.02	472.98
679.36	470.23
679.70	467.54
680.04	464.75
680.37	461.88
680.71	459.13
681.05	456.58
681.39	453.86
681.73	451.21
682.06	448.67
682.40	446.15
682.74	443.65
683.08	441.10
683.42	438.50
683.75	435.97
684.09	433.50
684.43	431.06
684.77	428.69
685.10	426.42
685.44	424.07
685.78	421.82
686.12	419.62
686.45	417.36
686.79	415.10
687.13	412.92
687.46	410.80
687.80	408.69
688.14	406.45
688.48	404.44
688.81	402.28
689.15	400.14
689.49	397.99
689.82	395.93
690.16	393.92
690.50	391.99
690.83	390.03
691.17	388.05
691.51	386.16
691.84	384.29
692.18	382.37
692.52	380.43
692.85	378.50
693.19	376.58
693.52	374.78
693.86	372.94
694.20	371.24
694.53	369.45
694.87	367.66
695.21	365.97
695.54	364.12
695.88	362.36
696.21	360.68
696.55	359.02
696.88	357.36
697.22	355.67
697.56	354.11
697.89	352.46
698.23	350.87
698.56	349.25
698.90	347.68
699.23	346.01
699.57	344.51
699.90	342.97
700.24	341.47
700.58	339.91
700.91	338.44
701.25	336.95
701.58	335.60
701.92	334.20
702.25	332.78
702.59	331.49
702.92	330.20
703.26	328.90
703.59	327.65
703.93	326.47
704.26	325.20
704.60	323.85
704.93	322.58
705.26	321.32
705.60	320.11
705.93	318.96
706.27	317.93
706.60	316.84
706.94	315.75
707.27	314.62
707.61	313.61
707.94	312.58
708.27	311.51
708.61	310.44
708.94	309.42
709.28	308.43
709.61	307.42
709.94	306.45
710.28	305.43
710.61	304.47
710.95	303.40
711.28	302.51
711.61	301.57
711.95	300.68
712.28	299.75
712.61	298.82
712.95	297.91
713.28	297.05
713.61	296.18
713.95	295.32
714.28	294.49
714.61	293.57
714.95	292.75
715.28	291.89
715.61	291.01
715.95	290.15
716.28	289.30
716.61	288.49
716.95	287.68
717.28	286.95
717.61	286.17
717.94	285.44
718.28	284.65
718.61	283.96
718.94	283.28
719.27	282.63
719.61	282.04
719.94	281.34
720.27	280.68
720.60	279.97
720.94	279.32
721.27	278.76
721.60	278.19
721.93	277.57
722.27	277.07
722.60	276.53
722.93	275.96
723.26	275.46
723.59	274.90
723.93	274.37
724.26	273.84
724.59	273.31
724.92	272.78
725.25	272.30
725.59	271.77
725.92	271.30
726.25	270.82
726.58	270.29
726.91	269.78
727.24	269.27
727.57	268.86
727.91	268.39
728.24	267.88
728.57	267.43
728.90	266.98
729.23	266.46
729.56	266.03
729.89	265.59
730.22	265.12
730.55	264.67
730.89	264.26
731.22	263.79
731.55	263.34
731.88	262.90
732.21	262.47
732.54	262.03
732.87	261.59
733.20	261.19
733.53	260.79
733.86	260.45
734.19	260.09
734.52	259.70
734.85	259.38
735.18	258.98
735.51	258.60
735.84	258.24
736.17	257.93
736.50	257.53
736.83	257.33
737.16	256.98
737.49	256.62
737.82	256.25
738.15	255.92
738.48	255.59
738.81	255.27
739.14	254.96
739.47	254.66
739.80	254.34
740.13	254.02
740.46	253.71
740.79	253.35
741.12	253.03
741.45	252.70
741.78	252.37
742.11	252.09
742.44	251.76
742.77	251.45
743.10	251.13
743.43	250.80
743.75	250.41
744.08	250.27
744.41	250.01
744.74	249.73
745.07	249.47
745.40	249.24
745.73	249.03
746.06	248.75
746.39	248.49
746.71	248.21
747.04	247.93
747.37	247.68
747.70	247.45
748.03	247.19
748.36	246.96
748.68	246.71
749.01	246.49
749.34	246.27
749.67	246.03
750.00	245.83
750.33	245.70
750.65	245.50
750.98	245.14
751.31	244.94
751.64	244.74
751.97	244.55
752.29	244.32
752.62	244.07
752.95	243.86
753.28	243.66
753.60	243.48
753.93	243.31
754.26	243.07
754.59	242.88
754.91	242.70
755.24	242.48
755.57	242.28
755.90	242.09
756.22	241.92
756.55	241.75
756.88	241.55
757.20	241.27
757.53	241.08
757.86	240.93
758.19	240.75
758.51	240.60
758.84	240.43
759.17	240.25
759.49	240.09
759.82	239.97
760.15	239.78
760.47	239.59
760.80	239.44
761.13	239.37
761.45	239.19
761.78	239.05
762.11	238.94
762.43	238.81
762.76	238.67
763.08	238.51
763.41	238.39
763.74	238.24
764.06	238.14
764.39	237.98
764.71	237.86
765.04	237.72
765.37	237.54
765.69	237.34
766.02	237.21
766.34	237.09
766.67	236.96
767.00	236.91
767.32	236.88
767.65	236.83
767.97	236.66
768.30	236.56
768.62	236.44
768.95	236.32
769.27	236.19
769.60	236.09
769.92	235.98
770.25	235.89
770.57	235.78
770.90	235.70
771.22	235.58
771.55	235.46
771.87	235.38
772.20	235.30
772.52	235.34
772.85	235.35
773.17	235.26
773.50	235.20
773.82	235.07
774.15	234.94
774.47	234.78
774.80	234.72
775.12	234.63
775.45	234.59
775.77	234.54
776.09	234.48
776.42	234.43
776.74	234.39
777.07	234.28
777.39	234.21
777.72	234.10
778.04	234.06
778.36	234.02
778.69	233.96
779.01	233.92
779.33	233.77
779.66	233.61
779.98	233.52
780.31	233.43
780.63	233.41
780.95	233.39
781.28	233.30
781.60	233.23
781.92	233.15
782.25	233.06
782.57	232.97
782.89	232.91
783.22	232.81
783.54	232.70
783.86	232.66
784.19	232.60
784.51	232.55
784.83	232.48
785.16	232.41
785.48	232.33
785.80	232.24
786.12	232.20
786.45	232.18
786.77	232.16
787.09	232.10
