SpectraSuite Data File
++++++++++++++++++++++++++++++++++++
Date: Fri Feb 01 17:54:19 EST 2013
User: group
Dark Spectrum Present: No
Reference Spectrum Present: No
Number of Sampled Component Spectra: 1
Spectrometers: USB2E7196
Integration Time (usec): 35000 (USB2E7196)
Spectra Averaged: 100 (USB2E7196)
Boxcar Smoothing: 10 (USB2E7196)
Correct for Electrical Dark: No (USB2E7196)
Strobe/Lamp Enabled: No (USB2E7196)
Correct for Detector Non-linearity: No (USB2E7196)
Correct for Stray Light: No (USB2E7196)
Number of Pixels in Processed Spectrum: 2048
>>>>>Begin Processed Spectral Data<<<<<
339.09	0.00
339.48	212.61
339.86	214.02
340.24	215.23
340.63	217.08
341.01	219.75
341.39	219.40
341.78	220.83
342.16	222.24
342.54	222.54
342.93	211.09
343.31	221.78
343.69	222.33
344.07	222.80
344.46	223.24
344.84	223.62
345.22	223.85
345.60	224.07
345.99	224.27
346.37	224.41
346.75	224.54
347.13	224.61
347.52	224.69
347.90	224.75
348.28	224.76
348.66	224.77
349.05	224.77
349.43	224.84
349.81	224.88
350.19	224.91
350.57	224.98
350.96	225.04
351.34	225.12
351.72	225.17
352.10	225.27
352.48	225.35
352.87	225.40
353.25	225.47
353.63	225.59
354.01	225.65
354.39	225.70
354.77	225.72
355.15	225.81
355.54	225.86
355.92	225.92
356.30	226.01
356.68	226.12
357.06	226.21
357.44	226.26
357.82	226.33
358.20	226.44
358.58	226.51
358.97	226.58
359.35	226.64
359.73	226.75
360.11	226.81
360.49	226.88
360.87	226.95
361.25	227.01
361.63	227.07
362.01	227.13
362.39	227.19
362.77	227.26
363.15	227.27
363.53	227.31
363.91	227.35
364.29	227.37
364.67	227.36
365.05	227.39
365.43	227.42
365.81	227.45
366.19	227.49
366.57	227.55
366.95	227.61
367.33	227.63
367.71	227.61
368.09	227.62
368.47	227.60
368.85	227.57
369.23	227.60
369.61	227.56
369.99	227.56
370.37	227.54
370.75	227.54
371.13	227.50
371.51	227.43
371.89	227.42
372.27	227.40
372.65	227.38
373.03	227.32
373.41	227.25
373.78	227.17
374.16	227.05
374.54	226.95
374.92	226.87
375.30	226.80
375.68	226.77
376.06	226.70
376.44	226.66
376.82	226.59
377.19	226.48
377.57	226.43
377.95	226.34
378.33	226.25
378.71	226.16
379.09	226.08
379.47	226.09
379.84	226.00
380.22	225.93
380.60	225.86
380.98	225.83
381.36	225.79
381.73	225.76
382.11	225.72
382.49	225.66
382.87	225.57
383.25	225.51
383.62	225.56
384.00	225.50
384.38	225.43
384.76	225.40
385.13	225.42
385.51	225.39
385.89	225.34
386.27	225.32
386.64	225.26
387.02	225.26
387.40	225.18
387.78	225.14
388.15	225.10
388.53	225.03
388.91	224.98
389.29	224.95
389.66	224.94
390.04	224.90
390.42	224.85
390.79	224.84
391.17	224.82
391.55	224.68
391.92	224.65
392.30	224.65
392.68	224.64
393.05	224.62
393.43	224.59
393.81	224.61
394.18	224.60
394.56	224.65
394.94	224.66
395.31	224.65
395.69	224.72
396.06	224.74
396.44	224.75
396.82	224.76
397.19	224.83
397.57	224.84
397.95	224.89
398.32	224.92
398.70	224.99
399.07	225.05
399.45	225.09
399.82	225.15
400.20	225.19
400.58	225.24
400.95	225.27
401.33	225.37
401.70	225.49
402.08	225.59
402.45	225.65
402.83	225.79
403.20	225.91
403.58	225.98
403.95	226.12
404.33	226.28
404.71	226.43
405.08	226.63
405.46	226.78
405.83	226.97
406.21	227.16
406.58	227.34
406.96	227.54
407.33	227.75
407.70	227.93
408.08	228.22
408.45	228.53
408.83	228.80
409.20	229.06
409.58	229.28
409.95	229.58
410.33	229.93
410.70	230.21
411.08	230.61
411.45	230.99
411.82	231.35
412.20	231.79
412.57	232.31
412.95	232.68
413.32	233.21
413.69	233.73
414.07	234.30
414.44	234.89
414.82	235.48
415.19	236.20
415.56	236.98
415.94	237.69
416.31	238.51
416.68	239.35
417.06	240.29
417.43	241.21
417.81	242.23
418.18	243.25
418.55	244.35
418.93	245.49
419.30	246.69
419.67	247.95
420.04	249.18
420.42	250.50
420.79	252.07
421.16	253.60
421.54	255.18
421.91	256.80
422.28	258.48
422.66	260.23
423.03	261.97
423.40	263.75
423.77	265.65
424.15	267.57
424.52	269.54
424.89	271.63
425.26	273.67
425.64	275.58
426.01	277.71
426.38	279.94
426.75	282.18
427.13	284.46
427.50	286.85
427.87	289.41
428.24	291.88
428.61	294.19
428.99	296.74
429.36	299.53
429.73	302.30
430.10	305.01
430.47	307.78
430.85	310.62
431.22	313.59
431.59	316.75
431.96	319.69
432.33	322.98
432.70	326.16
433.08	329.89
433.45	333.46
433.82	336.93
434.19	340.74
434.56	344.45
434.93	348.01
435.30	351.52
435.68	355.38
436.05	359.19
436.42	362.92
436.79	366.28
437.16	369.86
437.53	373.58
437.90	377.32
438.27	380.99
438.64	384.73
439.01	388.17
439.38	391.17
439.75	394.12
440.13	397.43
440.50	400.58
440.87	403.12
441.24	405.69
441.61	408.59
441.98	410.63
442.35	413.04
442.72	415.54
443.09	417.92
443.46	419.23
443.83	420.01
444.20	420.69
444.57	421.86
444.94	422.29
445.31	422.75
445.68	423.20
446.05	423.27
446.42	422.82
446.79	422.35
447.16	421.76
447.53	421.34
447.90	419.83
448.27	418.24
448.64	416.15
449.01	414.68
449.37	412.09
449.74	409.55
450.11	406.58
450.48	403.31
450.85	399.99
451.22	397.13
451.59	394.44
451.96	391.90
452.33	388.41
452.70	385.25
453.07	381.54
453.43	377.71
453.80	374.05
454.17	370.47
454.54	367.01
454.91	363.39
455.28	359.82
455.65	356.53
456.02	353.26
456.38	350.37
456.75	346.76
457.12	343.75
457.49	340.74
457.86	337.83
458.23	335.31
458.59	332.50
458.96	329.72
459.33	327.24
459.70	324.74
460.07	322.72
460.43	320.42
460.80	318.17
461.17	316.20
461.54	314.19
461.91	312.26
462.27	310.31
462.64	308.61
463.01	306.72
463.38	304.95
463.74	303.15
464.11	301.56
464.48	300.18
464.85	298.69
465.21	297.55
465.58	296.29
465.95	294.78
466.32	293.62
466.68	292.38
467.05	291.17
467.42	289.95
467.78	288.69
468.15	287.50
468.52	286.63
468.88	285.46
469.25	284.45
469.62	283.60
469.98	282.70
470.35	281.79
470.72	281.02
471.08	280.14
471.45	279.43
471.82	278.65
472.18	277.82
472.55	277.18
472.92	276.46
473.28	275.85
473.65	275.26
474.02	274.61
474.38	274.08
474.75	273.62
475.11	273.12
475.48	272.74
475.85	272.42
476.21	272.08
476.58	271.82
476.94	271.54
477.31	271.25
477.67	271.03
478.04	270.88
478.41	270.74
478.77	270.69
479.14	270.54
479.50	270.47
479.87	270.54
480.23	270.57
480.60	270.57
480.96	270.59
481.33	270.75
481.69	270.96
482.06	271.09
482.42	271.26
482.79	271.49
483.15	271.78
483.52	272.10
483.88	272.44
484.25	272.78
484.61	273.21
484.98	273.62
485.34	274.16
485.71	274.74
486.07	275.36
486.44	275.95
486.80	276.64
487.17	277.41
487.53	278.23
487.90	279.11
488.26	280.11
488.62	281.12
488.99	282.12
489.35	283.18
489.72	284.36
490.08	285.56
490.44	286.84
490.81	288.22
491.17	289.65
491.54	291.16
491.90	292.80
492.26	294.53
492.63	296.34
492.99	298.22
493.36	300.21
493.72	302.36
494.08	304.57
494.45	306.93
494.81	309.42
495.17	311.95
495.54	314.64
495.90	317.45
496.26	320.41
496.63	323.49
496.99	326.76
497.35	330.25
497.72	333.86
498.08	337.56
498.44	341.45
498.80	345.58
499.17	349.90
499.53	354.28
499.89	358.86
500.26	363.62
500.62	368.51
500.98	373.74
501.34	379.08
501.71	384.68
502.07	390.50
502.43	396.44
502.79	402.60
503.16	408.99
503.52	415.61
503.88	422.40
504.24	429.46
504.60	436.75
504.97	444.25
505.33	452.02
505.69	460.26
506.05	468.48
506.41	476.81
506.78	485.40
507.14	494.32
507.50	503.58
507.86	513.12
508.22	522.91
508.59	532.74
508.95	542.88
509.31	553.27
509.67	563.97
510.03	574.89
510.39	586.12
510.75	597.58
511.12	609.23
511.48	621.22
511.84	633.44
512.20	645.76
512.56	658.47
512.92	671.41
513.28	684.56
513.64	697.87
514.00	711.49
514.37	725.38
514.73	739.45
515.09	753.34
515.45	767.53
515.81	782.06
516.17	797.01
516.53	812.17
516.89	827.44
517.25	842.65
517.61	858.25
517.97	873.83
518.33	889.41
518.69	905.31
519.05	921.53
519.41	937.86
519.77	954.61
520.13	971.33
520.49	988.15
520.85	1004.80
521.21	1021.74
521.57	1039.47
521.93	1056.55
522.29	1074.29
522.65	1092.15
523.01	1109.89
523.37	1127.47
523.73	1145.05
524.09	1162.81
524.45	1180.64
524.81	1198.88
525.17	1217.19
525.53	1235.57
525.89	1254.05
526.25	1272.51
526.61	1290.46
526.97	1308.96
527.33	1327.11
527.68	1345.47
528.04	1363.44
528.40	1381.84
528.76	1400.79
529.12	1419.00
529.48	1437.75
529.84	1455.54
530.20	1473.86
530.56	1492.60
530.91	1511.87
531.27	1530.60
531.63	1548.91
531.99	1567.45
532.35	1585.42
532.71	1603.24
533.07	1621.49
533.42	1639.41
533.78	1657.52
534.14	1675.68
534.50	1693.00
534.86	1710.90
535.21	1728.12
535.57	1746.07
535.93	1763.56
536.29	1780.29
536.65	1797.35
537.00	1814.06
537.36	1831.52
537.72	1848.06
538.08	1864.72
538.44	1880.50
538.79	1896.36
539.15	1911.94
539.51	1927.60
539.87	1944.04
540.22	1959.85
540.58	1975.73
540.94	1991.11
541.29	2005.90
541.65	2020.86
542.01	2036.16
542.37	2050.70
542.72	2065.28
543.08	2079.20
543.44	2093.80
543.79	2107.30
544.15	2120.41
544.51	2134.19
544.87	2147.20
545.22	2160.21
545.58	2172.61
545.94	2184.50
546.29	2196.50
546.65	2208.58
547.01	2220.03
547.36	2230.63
547.72	2241.18
548.07	2251.12
548.43	2261.32
548.79	2271.16
549.14	2280.66
549.50	2289.76
549.86	2299.16
550.21	2308.17
550.57	2317.42
550.92	2325.91
551.28	2334.87
551.64	2343.67
551.99	2351.98
552.35	2359.98
552.70	2367.94
553.06	2375.56
553.41	2383.73
553.77	2391.40
554.13	2399.08
554.48	2406.96
554.84	2414.47
555.19	2421.18
555.55	2428.12
555.90	2434.15
556.26	2441.06
556.61	2447.35
556.97	2453.57
557.32	2459.31
557.68	2465.10
558.03	2470.77
558.39	2475.86
558.74	2481.90
559.10	2487.41
559.45	2492.36
559.81	2498.07
560.16	2503.27
560.52	2508.02
560.87	2512.64
561.23	2516.75
561.58	2520.87
561.94	2524.77
562.29	2528.07
562.64	2532.36
563.00	2536.06
563.35	2540.82
563.71	2545.19
564.06	2549.62
564.42	2553.75
564.77	2557.77
565.12	2561.38
565.48	2564.43
565.83	2567.50
566.19	2570.03
566.54	2571.87
566.89	2574.38
567.25	2576.03
567.60	2578.46
567.96	2581.18
568.31	2583.02
568.66	2585.13
569.02	2586.78
569.37	2587.93
569.72	2589.63
570.08	2590.50
570.43	2591.27
570.78	2591.66
571.14	2590.71
571.49	2589.95
571.84	2590.09
572.20	2589.40
572.55	2588.79
572.90	2587.63
573.26	2586.70
573.61	2585.19
573.96	2584.03
574.31	2581.22
574.67	2578.64
575.02	2575.16
575.37	2571.80
575.72	2568.27
576.08	2564.86
576.43	2561.54
576.78	2558.13
577.13	2555.01
577.49	2551.96
577.84	2548.61
578.19	2544.53
578.54	2540.91
578.90	2536.67
579.25	2530.82
579.60	2525.68
579.95	2520.49
580.30	2515.28
580.66	2509.85
581.01	2504.75
581.36	2499.32
581.71	2495.03
582.06	2490.35
582.42	2485.78
582.77	2480.34
583.12	2475.63
583.47	2470.84
583.82	2465.78
584.17	2459.98
584.53	2454.19
584.88	2448.04
585.23	2441.94
585.58	2436.11
585.93	2430.14
586.28	2424.89
586.63	2419.54
586.98	2413.92
587.34	2408.83
587.69	2403.48
588.04	2397.81
588.39	2391.59
588.74	2384.44
589.09	2377.48
589.44	2369.94
589.79	2362.87
590.14	2356.55
590.49	2349.03
590.84	2341.74
591.19	2334.86
591.54	2327.66
591.89	2319.67
592.25	2312.25
592.60	2303.98
592.95	2295.61
593.30	2287.42
593.65	2278.81
594.00	2270.73
594.35	2262.43
594.70	2253.11
595.05	2245.19
595.40	2236.89
595.75	2228.41
596.10	2221.60
596.45	2214.15
596.80	2207.08
597.15	2199.68
597.50	2191.88
597.85	2184.45
598.19	2176.91
598.54	2169.05
598.89	2161.51
599.24	2154.50
599.59	2147.03
599.94	2139.87
600.29	2132.58
600.64	2124.95
600.99	2116.58
601.34	2108.80
601.69	2100.88
602.04	2093.28
602.39	2084.78
602.74	2076.90
603.08	2069.24
603.43	2061.40
603.78	2052.91
604.13	2044.68
604.48	2036.43
604.83	2028.43
605.18	2020.60
605.53	2011.45
605.87	2002.04
606.22	1993.57
606.57	1984.51
606.92	1975.73
607.27	1967.65
607.62	1959.65
607.96	1951.29
608.31	1943.77
608.66	1935.18
609.01	1926.56
609.36	1917.74
609.70	1908.46
610.05	1899.10
610.40	1890.05
610.75	1880.45
611.10	1871.46
611.44	1861.46
611.79	1852.06
612.14	1841.93
612.49	1831.19
612.83	1821.37
613.18	1811.93
613.53	1802.45
613.88	1792.41
614.22	1782.70
614.57	1772.49
614.92	1763.11
615.27	1754.30
615.61	1744.55
615.96	1734.98
616.31	1725.84
616.65	1717.22
617.00	1708.41
617.35	1699.45
617.70	1689.88
618.04	1680.00
618.39	1670.36
618.74	1661.55
619.08	1651.97
619.43	1643.14
619.78	1634.98
620.12	1626.78
620.47	1617.99
620.82	1608.47
621.16	1599.68
621.51	1590.76
621.85	1581.85
622.20	1571.90
622.55	1562.09
622.89	1552.79
623.24	1543.76
623.59	1535.07
623.93	1526.26
624.28	1517.67
624.62	1508.91
624.97	1500.45
625.32	1492.37
625.66	1484.15
626.01	1475.87
626.35	1467.25
626.70	1458.16
627.04	1449.25
627.39	1440.04
627.73	1431.33
628.08	1423.28
628.43	1414.94
628.77	1406.57
629.12	1397.81
629.46	1389.47
629.81	1380.71
630.15	1372.26
630.50	1363.74
630.84	1354.35
631.19	1344.96
631.53	1336.20
631.88	1327.38
632.22	1318.44
632.57	1309.95
632.91	1301.17
633.26	1292.55
633.60	1283.78
633.95	1275.23
634.29	1266.88
634.64	1258.97
634.98	1250.46
635.32	1242.16
635.67	1234.29
636.01	1226.48
636.36	1218.63
636.70	1210.92
637.05	1203.36
637.39	1195.74
637.73	1188.23
638.08	1181.31
638.42	1174.28
638.77	1166.88
639.11	1159.34
639.45	1151.97
639.80	1144.39
640.14	1137.09
640.49	1129.45
640.83	1122.20
641.17	1115.19
641.52	1108.03
641.86	1100.61
642.20	1093.81
642.55	1086.35
642.89	1079.00
643.23	1071.25
643.58	1064.56
643.92	1057.46
644.26	1050.57
644.61	1043.60
644.95	1036.67
645.29	1029.16
645.64	1021.52
645.98	1014.17
646.32	1007.20
646.66	1000.19
647.01	993.37
647.35	986.75
647.69	979.99
648.04	973.55
648.38	966.82
648.72	959.88
649.06	952.98
649.41	946.08
649.75	939.35
650.09	932.47
650.43	925.94
650.78	918.83
651.12	912.02
651.46	905.26
651.80	898.83
652.14	892.57
652.49	886.41
652.83	880.45
653.17	873.97
653.51	867.49
653.85	861.24
654.20	854.78
654.54	847.88
654.88	841.26
655.22	834.47
655.56	827.88
655.90	821.55
656.25	815.56
656.59	809.49
656.93	803.62
657.27	797.78
657.61	791.46
657.95	785.58
658.29	779.72
658.64	773.67
658.98	767.49
659.32	761.18
659.66	755.19
660.00	749.19
660.34	743.49
660.68	737.86
661.02	732.13
661.36	726.73
661.70	721.55
662.05	716.62
662.39	711.72
662.73	706.65
663.07	701.68
663.41	696.52
663.75	691.36
664.09	686.17
664.43	681.07
664.77	676.42
665.11	671.60
665.45	666.85
665.79	662.24
666.13	657.53
666.47	652.85
666.81	648.09
667.15	643.24
667.49	638.77
667.83	634.34
668.17	629.82
668.51	625.18
668.85	620.54
669.19	616.03
669.53	611.60
669.87	607.22
670.21	602.97
670.55	598.77
670.89	594.81
671.23	590.83
671.57	586.74
671.91	582.75
672.25	578.67
672.58	574.70
672.92	570.73
673.26	567.12
673.60	563.42
673.94	559.92
674.28	556.65
674.62	553.26
674.96	549.79
675.30	546.51
675.64	543.20
675.97	540.02
676.31	536.79
676.65	533.41
676.99	530.31
677.33	526.91
677.67	523.68
678.01	520.29
678.34	516.91
678.68	513.66
679.02	510.39
679.36	507.21
679.70	504.04
680.04	500.94
680.37	497.65
680.71	494.47
681.05	491.45
681.39	488.31
681.73	485.26
682.06	482.35
682.40	479.38
682.74	476.41
683.08	473.50
683.42	470.46
683.75	467.63
684.09	464.64
684.43	461.90
684.77	459.06
685.10	456.27
685.44	453.65
685.78	451.03
686.12	448.45
686.45	445.83
686.79	443.21
687.13	440.69
687.46	438.20
687.80	435.70
688.14	433.09
688.48	430.73
688.81	428.15
689.15	425.69
689.49	423.24
689.82	420.84
690.16	418.40
690.50	416.19
690.83	414.02
691.17	411.75
691.51	409.53
691.84	407.41
692.18	405.30
692.52	402.97
692.85	400.70
693.19	398.49
693.52	396.34
693.86	394.23
694.20	392.13
694.53	390.07
694.87	387.98
695.21	385.94
695.54	383.81
695.88	381.80
696.21	379.78
696.55	377.80
696.88	375.84
697.22	373.92
697.56	372.05
697.89	370.12
698.23	368.28
698.56	366.44
698.90	364.64
699.23	362.75
699.57	361.02
699.90	359.24
700.24	357.48
700.58	355.78
700.91	354.05
701.25	352.39
701.58	350.81
701.92	349.21
702.25	347.59
702.59	346.06
702.92	344.57
703.26	343.06
703.59	341.63
703.93	340.29
704.26	338.87
704.60	337.38
704.93	335.87
705.26	334.41
705.60	333.02
705.93	331.64
706.27	330.39
706.60	329.15
706.94	327.92
707.27	326.63
707.61	325.33
707.94	324.12
708.27	322.89
708.61	321.63
708.94	320.45
709.28	319.34
709.61	318.19
709.94	317.07
710.28	315.87
710.61	314.66
710.95	313.38
711.28	312.32
711.61	311.22
711.95	310.21
712.28	309.15
712.61	308.03
712.95	306.94
713.28	305.89
713.61	304.81
713.95	303.78
714.28	302.77
714.61	301.81
714.95	300.86
715.28	299.84
715.61	298.80
715.95	297.83
716.28	296.83
716.61	295.87
716.95	294.88
717.28	294.02
717.61	293.18
717.94	292.35
718.28	291.41
718.61	290.53
718.94	289.69
719.27	288.91
719.61	288.15
719.94	287.38
720.27	286.55
720.60	285.81
720.94	285.09
721.27	284.43
721.60	283.73
721.93	283.03
722.27	282.38
722.60	281.76
722.93	281.09
723.26	280.47
723.59	279.82
723.93	279.22
724.26	278.56
724.59	277.89
724.92	277.25
725.25	276.66
725.59	276.03
725.92	275.42
726.25	274.84
726.58	274.24
726.91	273.71
727.24	273.19
727.57	272.63
727.91	272.04
728.24	271.46
728.57	270.90
728.90	270.36
729.23	269.80
729.56	269.31
729.89	268.73
730.22	268.17
730.55	267.60
730.89	267.09
731.22	266.59
731.55	266.12
731.88	265.67
732.21	265.17
732.54	264.70
732.87	264.25
733.20	263.79
733.53	263.41
733.86	262.98
734.19	262.48
734.52	262.08
734.85	261.71
735.18	261.27
735.51	260.84
735.84	260.42
736.17	260.04
736.50	259.54
736.83	259.33
737.16	258.93
737.49	258.60
737.82	258.21
738.15	257.85
738.48	257.48
738.81	257.06
739.14	256.71
739.47	256.34
739.80	255.99
740.13	255.61
740.46	255.20
740.79	254.80
741.12	254.52
741.45	254.13
741.78	253.74
742.11	253.42
742.44	253.07
742.77	252.76
743.10	252.40
743.43	252.13
743.75	251.65
744.08	251.47
744.41	251.14
744.74	250.82
745.07	250.50
745.40	250.21
745.73	249.97
746.06	249.68
746.39	249.40
746.71	249.12
747.04	248.83
747.37	248.57
747.70	248.31
748.03	248.02
748.36	247.77
748.68	247.50
749.01	247.24
749.34	246.98
749.67	246.71
750.00	246.47
750.33	246.25
750.65	246.03
750.98	245.65
751.31	245.39
751.64	245.14
751.97	244.95
752.29	244.71
752.62	244.43
752.95	244.19
753.28	243.92
753.60	243.65
753.93	243.47
754.26	243.24
754.59	242.99
754.91	242.74
755.24	242.51
755.57	242.31
755.90	242.08
756.22	241.83
756.55	241.59
756.88	241.39
757.20	241.13
757.53	240.91
757.86	240.71
758.19	240.54
758.51	240.33
758.84	240.07
759.17	239.89
759.49	239.71
759.82	239.57
760.15	239.39
760.47	239.24
760.80	238.97
761.13	238.81
761.45	238.61
761.78	238.45
762.11	238.27
762.43	238.09
762.76	237.94
763.08	237.79
763.41	237.65
763.74	237.43
764.06	237.25
764.39	237.07
764.71	236.92
765.04	236.74
765.37	236.61
765.69	236.46
766.02	236.27
766.34	236.12
766.67	235.97
767.00	235.85
767.32	235.75
767.65	235.70
767.97	235.57
768.30	235.45
768.62	235.33
768.95	235.18
769.27	235.05
769.60	234.93
769.92	234.82
770.25	234.68
770.57	234.57
770.90	234.48
771.22	234.36
771.55	234.26
771.87	234.20
772.20	234.08
772.52	234.04
772.85	234.06
773.17	233.94
773.50	233.78
773.82	233.67
774.15	233.53
774.47	233.37
774.80	233.24
775.12	233.13
775.45	233.02
775.77	232.93
776.09	232.83
776.42	232.67
776.74	232.59
777.07	232.49
777.39	232.39
777.72	232.29
778.04	232.22
778.36	232.11
778.69	231.99
779.01	231.92
779.33	231.78
779.66	231.58
779.98	231.50
780.31	231.43
780.63	231.39
780.95	231.35
781.28	231.25
781.60	231.15
781.92	231.08
782.25	231.01
782.57	230.97
782.89	230.91
783.22	230.87
783.54	230.80
783.86	230.76
784.19	230.72
784.51	230.70
784.83	230.62
785.16	230.57
785.48	230.50
785.80	230.42
786.12	230.35
786.45	230.30
