SpectraSuite Data File
++++++++++++++++++++++++++++++++++++
Date: Fri Feb 01 14:59:16 EST 2013
User: group
Dark Spectrum Present: No
Reference Spectrum Present: No
Number of Sampled Component Spectra: 1
Spectrometers: USB2E7196
Integration Time (usec): 35000 (USB2E7196)
Spectra Averaged: 100 (USB2E7196)
Boxcar Smoothing: 10 (USB2E7196)
Correct for Electrical Dark: No (USB2E7196)
Strobe/Lamp Enabled: No (USB2E7196)
Correct for Detector Non-linearity: No (USB2E7196)
Correct for Stray Light: No (USB2E7196)
Number of Pixels in Processed Spectrum: 2048
>>>>>Begin Processed Spectral Data<<<<<
339.09	0.00
339.48	215.41
339.86	216.54
340.24	217.69
340.63	219.17
341.01	222.29
341.39	222.61
341.78	222.71
342.16	224.37
342.54	225.13
342.93	213.54
343.31	224.34
343.69	224.86
344.07	225.34
344.46	225.79
344.84	226.19
345.22	226.43
345.60	226.69
345.99	226.91
346.37	227.07
346.75	227.17
347.13	227.21
347.52	227.25
347.90	227.35
348.28	227.37
348.66	227.47
349.05	227.45
349.43	227.45
349.81	227.49
350.19	227.56
350.57	227.67
350.96	227.72
351.34	227.78
351.72	227.88
352.10	227.96
352.48	228.03
352.87	228.08
353.25	228.12
353.63	228.16
354.01	228.24
354.39	228.32
354.77	228.41
355.15	228.55
355.54	228.62
355.92	228.63
356.30	228.74
356.68	228.86
357.06	228.94
357.44	228.99
357.82	229.05
358.20	229.12
358.58	229.13
358.97	229.23
359.35	229.31
359.73	229.37
360.11	229.45
360.49	229.51
360.87	229.54
361.25	229.62
361.63	229.70
362.01	229.74
362.39	229.76
362.77	229.79
363.15	229.79
363.53	229.80
363.91	229.83
364.29	229.81
364.67	229.71
365.05	229.74
365.43	229.80
365.81	229.83
366.19	229.85
366.57	229.89
366.95	229.88
367.33	229.86
367.71	229.86
368.09	229.82
368.47	229.78
368.85	229.78
369.23	229.76
369.61	229.67
369.99	229.66
370.37	229.64
370.75	229.67
371.13	229.59
371.51	229.55
371.89	229.53
372.27	229.51
372.65	229.48
373.03	229.41
373.41	229.29
373.78	229.21
374.16	229.07
374.54	228.97
374.92	228.89
375.30	228.81
375.68	228.68
376.06	228.62
376.44	228.57
376.82	228.50
377.19	228.42
377.57	228.38
377.95	228.27
378.33	228.18
378.71	228.03
379.09	228.01
379.47	227.93
379.84	227.85
380.22	227.72
380.60	227.61
380.98	227.51
381.36	227.49
381.73	227.40
382.11	227.35
382.49	227.28
382.87	227.16
383.25	227.10
383.62	227.18
384.00	227.09
384.38	227.00
384.76	226.92
385.13	226.89
385.51	226.83
385.89	226.77
386.27	226.68
386.64	226.64
387.02	226.56
387.40	226.52
387.78	226.49
388.15	226.48
388.53	226.47
388.91	226.43
389.29	226.37
389.66	226.36
390.04	226.38
390.42	226.35
390.79	226.35
391.17	226.35
391.55	226.24
391.92	226.26
392.30	226.28
392.68	226.30
393.05	226.30
393.43	226.32
393.81	226.36
394.18	226.39
394.56	226.41
394.94	226.44
395.31	226.44
395.69	226.50
396.06	226.56
396.44	226.60
396.82	226.63
397.19	226.72
397.57	226.77
397.95	226.80
398.32	226.83
398.70	226.91
399.07	227.00
399.45	227.07
399.82	227.13
400.20	227.21
400.58	227.29
400.95	227.33
401.33	227.40
401.70	227.53
402.08	227.63
402.45	227.72
402.83	227.85
403.20	227.99
403.58	228.06
403.95	228.19
404.33	228.32
404.71	228.47
405.08	228.69
405.46	228.84
405.83	229.01
406.21	229.19
406.58	229.38
406.96	229.55
407.33	229.76
407.70	229.97
408.08	230.24
408.45	230.49
408.83	230.76
409.20	231.01
409.58	231.21
409.95	231.49
410.33	231.78
410.70	232.06
411.08	232.37
411.45	232.68
411.82	233.00
412.20	233.39
412.57	233.79
412.95	234.07
413.32	234.51
413.69	234.89
414.07	235.33
414.44	235.80
414.82	236.27
415.19	236.80
415.56	237.35
415.94	237.90
416.31	238.56
416.68	239.19
417.06	239.90
417.43	240.58
417.81	241.35
418.18	242.12
418.55	242.95
418.93	243.84
419.30	244.75
419.67	245.66
420.04	246.59
420.42	247.57
420.79	248.77
421.16	249.89
421.54	251.09
421.91	252.30
422.28	253.55
422.66	254.88
423.03	256.17
423.40	257.51
423.77	258.89
424.15	260.28
424.52	261.72
424.89	263.31
425.26	264.87
425.64	266.32
426.01	267.88
426.38	269.56
426.75	271.20
427.13	272.93
427.50	274.73
427.87	276.60
428.24	278.46
428.61	280.20
428.99	282.13
429.36	284.22
429.73	286.27
430.10	288.29
430.47	290.36
430.85	292.46
431.22	294.67
431.59	297.05
431.96	299.33
432.33	301.85
432.70	304.22
433.08	307.05
433.45	309.69
433.82	312.34
434.19	315.20
434.56	317.99
434.93	320.63
435.30	323.24
435.68	326.13
436.05	328.95
436.42	331.76
436.79	334.31
437.16	337.06
437.53	339.89
437.90	342.75
438.27	345.48
438.64	348.32
439.01	350.94
439.38	353.21
439.75	355.31
440.13	357.81
440.50	360.16
440.87	361.99
441.24	363.97
441.61	366.14
441.98	367.68
442.35	369.53
442.72	371.44
443.09	373.30
443.46	374.33
443.83	374.94
444.20	375.45
444.57	376.30
444.94	376.53
445.31	376.89
445.68	377.22
446.05	377.29
446.42	376.89
446.79	376.51
447.16	376.08
447.53	375.80
447.90	374.61
448.27	373.47
448.64	371.88
449.01	370.70
449.37	368.72
449.74	366.79
450.11	364.52
450.48	362.02
450.85	359.49
451.22	357.33
451.59	355.30
451.96	353.35
452.33	350.73
452.70	348.44
453.07	345.61
453.43	342.71
453.80	339.99
454.17	337.41
454.54	334.81
454.91	332.06
455.28	329.41
455.65	326.97
456.02	324.50
456.38	322.38
456.75	319.73
457.12	317.49
457.49	315.29
457.86	313.13
458.23	311.26
458.59	309.23
458.96	307.16
459.33	305.29
459.70	303.41
460.07	301.88
460.43	300.15
460.80	298.52
461.17	297.08
461.54	295.53
461.91	294.03
462.27	292.58
462.64	291.31
463.01	289.95
463.38	288.64
463.74	287.27
464.11	286.06
464.48	285.02
464.85	283.89
465.21	282.99
465.58	282.06
465.95	280.98
466.32	280.01
466.68	279.13
467.05	278.26
467.42	277.36
467.78	276.44
468.15	275.53
468.52	274.85
468.88	273.97
469.25	273.19
469.62	272.54
469.98	271.85
470.35	271.22
470.72	270.56
471.08	269.86
471.45	269.29
471.82	268.74
472.18	268.08
472.55	267.61
472.92	267.06
473.28	266.59
473.65	266.09
474.02	265.65
474.38	265.21
474.75	264.87
475.11	264.51
475.48	264.21
475.85	263.92
476.21	263.66
476.58	263.45
476.94	263.33
477.31	263.15
477.67	263.00
478.04	262.89
478.41	262.81
478.77	262.85
479.14	262.75
479.50	262.76
479.87	262.87
480.23	262.93
480.60	262.99
480.96	263.07
481.33	263.29
481.69	263.45
482.06	263.69
482.42	263.87
482.79	264.14
483.15	264.47
483.52	264.90
483.88	265.27
484.25	265.69
484.61	266.09
484.98	266.53
485.34	267.10
485.71	267.68
486.07	268.31
486.44	268.86
486.80	269.59
487.17	270.29
487.53	271.11
487.90	271.99
488.26	272.91
488.62	273.91
488.99	274.85
489.35	275.94
489.72	277.00
490.08	278.20
490.44	279.44
490.81	280.76
491.17	282.10
491.54	283.54
491.90	285.04
492.26	286.67
492.63	288.45
492.99	290.19
493.36	292.09
493.72	294.08
494.08	296.19
494.45	298.43
494.81	300.80
495.17	303.17
495.54	305.70
495.90	308.40
496.26	311.19
496.63	314.13
496.99	317.21
497.35	320.48
497.72	323.89
498.08	327.33
498.44	330.99
498.80	334.91
499.17	338.94
499.53	343.11
499.89	347.52
500.26	351.95
500.62	356.60
500.98	361.50
501.34	366.57
501.71	371.93
502.07	377.33
502.43	382.93
502.79	388.78
503.16	394.90
503.52	401.10
503.88	407.47
504.24	414.11
504.60	420.98
504.97	428.06
505.33	435.32
505.69	442.96
506.05	450.70
506.41	458.53
506.78	466.64
507.14	475.02
507.50	483.62
507.86	492.61
508.22	501.80
508.59	511.06
508.95	520.68
509.31	530.44
509.67	540.46
510.03	550.70
510.39	561.28
510.75	572.01
511.12	582.91
511.48	594.22
511.84	605.60
512.20	617.11
512.56	629.03
512.92	641.19
513.28	653.58
513.64	666.02
514.00	678.82
514.37	691.82
514.73	704.93
515.09	718.02
515.45	731.41
515.81	744.98
516.17	758.88
516.53	772.86
516.89	787.03
517.25	801.28
517.61	815.73
517.97	830.16
518.33	844.63
518.69	859.57
519.05	874.57
519.41	889.75
519.77	905.27
520.13	920.78
520.49	936.14
520.85	951.61
521.21	967.36
521.57	983.48
521.93	999.26
522.29	1015.72
522.65	1031.95
523.01	1048.12
523.37	1064.28
523.73	1080.54
524.09	1096.80
524.45	1113.18
524.81	1129.91
525.17	1146.85
525.53	1163.87
525.89	1180.83
526.25	1197.65
526.61	1214.05
526.97	1230.98
527.33	1247.51
527.68	1264.30
528.04	1280.94
528.40	1297.69
528.76	1314.94
529.12	1331.68
529.48	1348.56
529.84	1364.57
530.20	1381.29
530.56	1398.41
530.91	1415.89
531.27	1432.81
531.63	1449.38
531.99	1466.05
532.35	1482.11
532.71	1498.04
533.07	1514.47
533.42	1530.35
533.78	1546.41
534.14	1562.77
534.50	1578.10
534.86	1594.11
535.21	1609.24
535.57	1625.27
535.93	1640.86
536.29	1655.67
536.65	1670.75
537.00	1685.72
537.36	1701.24
537.72	1715.97
538.08	1730.52
538.44	1744.36
538.79	1758.26
539.15	1772.17
539.51	1786.00
539.87	1800.60
540.22	1814.51
540.58	1828.40
540.94	1841.99
541.29	1855.10
541.65	1867.94
542.01	1881.36
542.37	1893.76
542.72	1906.37
543.08	1918.22
543.44	1930.67
543.79	1942.02
544.15	1953.28
544.51	1964.85
544.87	1975.90
545.22	1986.74
545.58	1997.07
545.94	2006.85
546.29	2016.88
546.65	2026.67
547.01	2035.92
547.36	2044.59
547.72	2052.90
548.07	2060.53
548.43	2068.78
548.79	2076.84
549.14	2084.35
549.50	2091.76
549.86	2099.55
550.21	2106.78
550.57	2114.03
550.92	2120.54
551.28	2127.59
551.64	2134.62
551.99	2141.21
552.35	2147.35
552.70	2153.38
553.06	2159.23
553.41	2165.62
553.77	2171.53
554.13	2177.59
554.48	2183.67
554.84	2188.90
555.19	2194.33
555.55	2199.49
555.90	2203.83
556.26	2208.53
556.61	2213.27
556.97	2217.34
557.32	2221.46
557.68	2225.47
558.03	2229.76
558.39	2233.43
558.74	2237.92
559.10	2241.60
559.45	2245.02
559.81	2249.18
560.16	2252.97
560.52	2256.15
560.87	2259.48
561.23	2262.07
561.58	2265.01
561.94	2267.59
562.29	2270.10
562.64	2272.76
563.00	2275.38
563.35	2278.70
563.71	2281.78
564.06	2284.88
564.42	2287.71
564.77	2289.96
565.12	2292.19
565.48	2293.72
565.83	2295.62
566.19	2296.93
566.54	2297.84
566.89	2299.07
567.25	2299.58
567.60	2300.76
567.96	2302.29
568.31	2303.08
568.66	2303.89
569.02	2304.17
569.37	2304.31
569.72	2304.86
570.08	2304.69
570.43	2304.32
570.78	2303.45
571.14	2301.91
571.49	2300.43
571.84	2300.08
572.20	2298.72
572.55	2297.52
572.90	2295.93
573.26	2294.16
573.61	2292.15
573.96	2290.23
574.31	2287.00
574.67	2283.82
575.02	2280.15
575.37	2276.52
575.72	2272.38
576.08	2269.13
576.43	2265.80
576.78	2261.99
577.13	2258.80
577.49	2255.61
577.84	2252.24
578.19	2248.61
578.54	2244.72
578.90	2240.33
579.25	2234.43
579.60	2229.45
579.95	2224.33
580.30	2219.17
580.66	2214.04
581.01	2209.13
581.36	2203.97
581.71	2199.70
582.06	2194.99
582.42	2190.32
582.77	2184.98
583.12	2180.32
583.47	2175.22
583.82	2170.05
584.17	2164.72
584.53	2158.99
584.88	2153.23
585.23	2147.23
585.58	2141.61
585.93	2135.93
586.28	2131.05
586.63	2125.93
586.98	2120.81
587.34	2116.00
587.69	2110.92
588.04	2105.46
588.39	2099.53
588.74	2092.99
589.09	2086.88
589.44	2080.23
589.79	2074.20
590.14	2068.55
590.49	2061.93
590.84	2055.71
591.19	2049.45
591.54	2042.80
591.89	2035.18
592.25	2028.10
592.60	2020.82
592.95	2013.00
593.30	2005.65
593.65	1997.91
594.00	1990.85
594.35	1983.39
594.70	1975.32
595.05	1968.06
595.40	1960.82
595.75	1953.23
596.10	1946.83
596.45	1939.85
596.80	1933.43
597.15	1926.58
597.50	1919.33
597.85	1912.75
598.19	1905.94
598.54	1898.87
598.89	1892.17
599.24	1886.42
599.59	1879.76
599.94	1873.56
600.29	1867.30
600.64	1860.70
600.99	1853.18
601.34	1846.19
601.69	1839.19
602.04	1832.21
602.39	1824.91
602.74	1817.81
603.08	1811.18
603.43	1804.48
603.78	1797.07
604.13	1789.82
604.48	1782.47
604.83	1775.58
605.18	1768.56
605.53	1760.47
605.87	1752.35
606.22	1745.09
606.57	1737.05
606.92	1729.74
607.27	1722.25
607.62	1715.33
607.96	1707.94
608.31	1701.34
608.66	1693.69
609.01	1686.19
609.36	1678.66
609.70	1670.55
610.05	1662.56
610.40	1654.80
610.75	1646.54
611.10	1638.87
611.44	1630.61
611.79	1622.69
612.14	1614.06
612.49	1605.12
612.83	1596.83
613.18	1588.87
613.53	1580.79
613.88	1572.34
614.22	1564.16
614.57	1555.92
614.92	1547.83
615.27	1540.21
615.61	1531.84
615.96	1523.91
616.31	1516.33
616.65	1508.99
617.00	1501.46
617.35	1493.91
617.70	1485.55
618.04	1477.04
618.39	1468.92
618.74	1461.32
619.08	1453.11
619.43	1445.68
619.78	1438.71
620.12	1431.52
620.47	1423.95
620.82	1415.75
621.16	1408.35
621.51	1400.82
621.85	1393.13
622.20	1384.72
622.55	1376.53
622.89	1368.92
623.24	1361.38
623.59	1353.95
623.93	1346.39
624.28	1339.24
624.62	1331.72
624.97	1324.66
625.32	1317.98
625.66	1310.98
626.01	1303.76
626.35	1296.31
626.70	1288.56
627.04	1280.87
627.39	1273.19
627.73	1265.82
628.08	1259.12
628.43	1251.74
628.77	1244.36
629.12	1236.90
629.46	1229.77
629.81	1222.51
630.15	1215.25
630.50	1207.74
630.84	1199.61
631.19	1191.77
631.53	1184.40
631.88	1176.91
632.22	1169.27
632.57	1162.08
632.91	1154.68
633.26	1147.31
633.60	1140.04
633.95	1133.03
634.29	1126.11
634.64	1119.50
634.98	1112.22
635.32	1105.08
635.67	1098.73
636.01	1092.10
636.36	1085.36
636.70	1078.92
637.05	1072.31
637.39	1065.92
637.73	1059.67
638.08	1053.89
638.42	1048.06
638.77	1041.63
639.11	1035.07
639.45	1028.75
639.80	1022.00
640.14	1015.58
640.49	1009.01
640.83	1002.79
641.17	996.52
641.52	990.20
641.86	983.77
642.20	977.96
642.55	971.76
642.89	965.21
643.23	958.76
643.58	952.92
643.92	946.68
644.26	940.54
644.61	934.50
644.95	928.34
645.29	921.72
645.64	914.87
645.98	908.47
646.32	902.67
646.66	896.70
647.01	890.91
647.35	885.15
647.69	879.45
648.04	873.93
648.38	868.17
648.72	862.12
649.06	856.04
649.41	850.17
649.75	844.06
650.09	838.15
650.43	832.39
650.78	826.21
651.12	820.29
651.46	814.62
651.80	808.87
652.14	803.53
652.49	798.24
652.83	793.04
653.17	787.45
653.51	781.66
653.85	776.29
654.20	770.60
654.54	764.65
654.88	758.92
655.22	753.00
655.56	747.30
655.90	741.90
656.25	736.64
656.59	731.27
656.93	726.19
657.27	721.04
657.61	715.59
657.95	710.58
658.29	705.57
658.64	700.41
658.98	695.15
659.32	689.67
659.66	684.37
660.00	679.12
660.34	674.17
660.68	669.38
661.02	664.35
661.36	659.68
661.70	655.28
662.05	650.90
662.39	646.62
662.73	642.24
663.07	637.88
663.41	633.49
663.75	629.07
664.09	624.61
664.43	620.27
664.77	616.14
665.11	611.91
665.45	607.81
665.79	603.72
666.13	599.67
666.47	595.66
666.81	591.60
667.15	587.53
667.49	583.76
667.83	579.99
668.17	576.12
668.51	572.21
668.85	568.19
669.19	564.46
669.53	560.58
669.87	556.71
670.21	553.06
670.55	549.53
670.89	546.08
671.23	542.70
671.57	539.24
671.91	535.79
672.25	532.34
672.58	528.85
672.92	525.51
673.26	522.35
673.60	519.25
673.94	516.22
674.28	513.37
674.62	510.39
674.96	507.27
675.30	504.46
675.64	501.52
675.97	498.81
676.31	496.00
676.65	493.12
676.99	490.46
677.33	487.61
677.67	484.75
678.01	481.83
678.34	478.83
678.68	475.99
679.02	473.18
679.36	470.44
679.70	467.78
680.04	465.00
680.37	462.16
680.71	459.42
681.05	456.84
681.39	454.19
681.73	451.56
682.06	449.06
682.40	446.43
682.74	443.90
683.08	441.42
683.42	438.79
683.75	436.33
684.09	433.80
684.43	431.38
684.77	428.97
685.10	426.61
685.44	424.39
685.78	422.11
686.12	419.89
686.45	417.65
686.79	415.34
687.13	413.22
687.46	411.04
687.80	408.84
688.14	406.63
688.48	404.55
688.81	402.34
689.15	400.20
689.49	398.08
689.82	396.02
690.16	393.90
690.50	391.96
690.83	389.99
691.17	388.03
691.51	386.16
691.84	384.27
692.18	382.33
692.52	380.32
692.85	378.39
693.19	376.53
693.52	374.71
693.86	372.90
694.20	371.07
694.53	369.23
694.87	367.41
695.21	365.65
695.54	363.80
695.88	362.03
696.21	360.31
696.55	358.65
696.88	356.95
697.22	355.27
697.56	353.62
697.89	351.97
698.23	350.38
698.56	348.75
698.90	347.20
699.23	345.51
699.57	344.02
699.90	342.46
700.24	340.90
700.58	339.33
700.91	337.81
701.25	336.39
701.58	335.08
701.92	333.77
702.25	332.40
702.59	331.06
702.92	329.76
703.26	328.45
703.59	327.16
703.93	325.98
704.26	324.78
704.60	323.48
704.93	322.27
705.26	320.99
705.60	319.83
705.93	318.67
706.27	317.66
706.60	316.55
706.94	315.51
707.27	314.38
707.61	313.38
707.94	312.42
708.27	311.31
708.61	310.21
708.94	309.20
709.28	308.21
709.61	307.24
709.94	306.30
710.28	305.31
710.61	304.35
710.95	303.32
711.28	302.39
711.61	301.47
711.95	300.56
712.28	299.66
712.61	298.69
712.95	297.76
713.28	296.95
713.61	296.09
713.95	295.25
714.28	294.45
714.61	293.60
714.95	292.75
715.28	291.96
715.61	291.15
715.95	290.28
716.28	289.47
716.61	288.68
716.95	287.90
717.28	287.18
717.61	286.43
717.94	285.75
718.28	285.00
718.61	284.35
718.94	283.68
719.27	283.06
719.61	282.43
719.94	281.81
720.27	281.06
720.60	280.44
720.94	279.78
721.27	279.20
721.60	278.63
721.93	278.04
722.27	277.48
722.60	276.93
722.93	276.40
723.26	275.84
723.59	275.28
723.93	274.74
724.26	274.18
724.59	273.62
724.92	273.05
725.25	272.56
725.59	272.00
725.92	271.48
726.25	270.98
726.58	270.48
726.91	270.00
727.24	269.55
727.57	269.06
727.91	268.54
728.24	268.07
728.57	267.57
728.90	267.08
729.23	266.61
729.56	266.23
729.89	265.74
730.22	265.22
730.55	264.76
730.89	264.32
731.22	263.84
731.55	263.40
731.88	263.01
732.21	262.53
732.54	262.07
732.87	261.64
733.20	261.19
733.53	260.79
733.86	260.35
734.19	259.92
734.52	259.54
734.85	259.25
735.18	258.82
735.51	258.43
735.84	258.06
736.17	257.70
736.50	257.20
736.83	256.94
737.16	256.63
737.49	256.25
737.82	255.89
738.15	255.55
738.48	255.19
738.81	254.83
739.14	254.50
739.47	254.19
739.80	253.86
740.13	253.56
740.46	253.24
740.79	252.96
741.12	252.63
741.45	252.31
741.78	251.91
742.11	251.63
742.44	251.33
742.77	251.04
743.10	250.70
743.43	250.42
743.75	250.04
744.08	249.89
744.41	249.64
744.74	249.35
745.07	249.11
745.40	248.88
745.73	248.65
746.06	248.40
746.39	248.14
746.71	247.91
747.04	247.62
747.37	247.33
747.70	247.06
748.03	246.85
748.36	246.61
748.68	246.37
749.01	246.12
749.34	245.87
749.67	245.65
750.00	245.45
750.33	245.30
750.65	245.13
750.98	244.80
751.31	244.61
751.64	244.38
751.97	244.21
752.29	243.99
752.62	243.75
752.95	243.54
753.28	243.33
753.60	243.14
753.93	242.99
754.26	242.82
754.59	242.60
754.91	242.42
755.24	242.26
755.57	242.13
755.90	241.97
756.22	241.82
756.55	241.66
756.88	241.48
757.20	241.28
757.53	241.05
757.86	240.89
758.19	240.73
758.51	240.60
758.84	240.41
759.17	240.26
759.49	240.12
759.82	240.04
760.15	239.91
760.47	239.80
760.80	239.65
761.13	239.54
761.45	239.41
761.78	239.29
762.11	239.14
762.43	238.98
762.76	238.82
763.08	238.71
763.41	238.57
763.74	238.45
764.06	238.32
764.39	238.22
764.71	238.11
765.04	237.98
765.37	237.86
765.69	237.76
766.02	237.63
766.34	237.49
766.67	237.35
767.00	237.27
767.32	237.15
767.65	237.09
767.97	236.96
768.30	236.82
768.62	236.70
768.95	236.59
769.27	236.50
769.60	236.39
769.92	236.28
770.25	236.12
770.57	236.03
770.90	235.91
771.22	235.78
771.55	235.65
771.87	235.57
772.20	235.47
772.52	235.42
772.85	235.47
773.17	235.38
773.50	235.26
773.82	235.14
774.15	235.02
774.47	234.86
774.80	234.75
775.12	234.69
775.45	234.59
775.77	234.48
776.09	234.37
776.42	234.31
776.74	234.23
777.07	234.18
777.39	234.07
777.72	233.97
778.04	233.93
778.36	233.85
778.69	233.74
779.01	233.62
779.33	233.44
779.66	233.25
779.98	233.16
780.31	233.08
780.63	233.03
780.95	232.94
781.28	232.87
781.60	232.79
781.92	232.72
782.25	232.66
782.57	232.57
782.89	232.49
783.22	232.39
783.54	232.29
783.86	232.23
784.19	232.16
784.51	232.15
784.83	232.06
785.16	232.00
785.48	231.92
785.80	231.90
786.12	231.87
786.45	231.83
786.77	231.79
787.09	231.74
