SpectraSuite Data File
++++++++++++++++++++++++++++++++++++
Date: Fri Feb 01 17:06:38 EST 2013
User: group
Dark Spectrum Present: No
Reference Spectrum Present: No
Number of Sampled Component Spectra: 1
Spectrometers: USB2E7196
Integration Time (usec): 35000 (USB2E7196)
Spectra Averaged: 100 (USB2E7196)
Boxcar Smoothing: 10 (USB2E7196)
Correct for Electrical Dark: No (USB2E7196)
Strobe/Lamp Enabled: No (USB2E7196)
Correct for Detector Non-linearity: No (USB2E7196)
Correct for Stray Light: No (USB2E7196)
Number of Pixels in Processed Spectrum: 2048
>>>>>Begin Processed Spectral Data<<<<<
339.09	0.00
339.48	213.49
339.86	214.56
340.24	215.69
340.63	217.33
341.01	220.46
341.39	220.09
341.78	221.49
342.16	223.11
342.54	223.37
342.93	211.68
343.31	222.36
343.69	222.92
344.07	223.39
344.46	223.81
344.84	224.20
345.22	224.43
345.60	224.69
345.99	224.90
346.37	225.00
346.75	225.10
347.13	225.17
347.52	225.21
347.90	225.27
348.28	225.32
348.66	225.37
349.05	225.37
349.43	225.41
349.81	225.49
350.19	225.53
350.57	225.56
350.96	225.68
351.34	225.78
351.72	225.84
352.10	225.93
352.48	226.03
352.87	226.08
353.25	226.14
353.63	226.22
354.01	226.25
354.39	226.32
354.77	226.41
355.15	226.51
355.54	226.57
355.92	226.61
356.30	226.68
356.68	226.79
357.06	226.86
357.44	226.92
357.82	227.00
358.20	227.06
358.58	227.11
358.97	227.15
359.35	227.22
359.73	227.29
360.11	227.34
360.49	227.38
360.87	227.45
361.25	227.50
361.63	227.55
362.01	227.62
362.39	227.68
362.77	227.69
363.15	227.68
363.53	227.71
363.91	227.73
364.29	227.75
364.67	227.69
365.05	227.70
365.43	227.71
365.81	227.70
366.19	227.75
366.57	227.81
366.95	227.82
367.33	227.80
367.71	227.77
368.09	227.77
368.47	227.76
368.85	227.73
369.23	227.74
369.61	227.69
369.99	227.66
370.37	227.63
370.75	227.64
371.13	227.62
371.51	227.57
371.89	227.54
372.27	227.47
372.65	227.41
373.03	227.36
373.41	227.33
373.78	227.27
374.16	227.17
374.54	227.08
374.92	227.00
375.30	226.97
375.68	226.90
376.06	226.86
376.44	226.78
376.82	226.73
377.19	226.66
377.57	226.58
377.95	226.52
378.33	226.47
378.71	226.37
379.09	226.31
379.47	226.28
379.84	226.16
380.22	226.11
380.60	226.02
380.98	225.95
381.36	225.87
381.73	225.80
382.11	225.74
382.49	225.68
382.87	225.61
383.25	225.57
383.62	225.64
384.00	225.54
384.38	225.49
384.76	225.44
385.13	225.43
385.51	225.39
385.89	225.34
386.27	225.28
386.64	225.23
387.02	225.19
387.40	225.12
387.78	225.10
388.15	225.06
388.53	225.09
388.91	225.05
389.29	225.01
389.66	225.00
390.04	225.00
390.42	225.02
390.79	225.02
391.17	224.96
391.55	224.85
391.92	224.88
392.30	224.87
392.68	224.85
393.05	224.85
393.43	224.86
393.81	224.88
394.18	224.87
394.56	224.87
394.94	224.92
395.31	224.94
395.69	224.99
396.06	225.02
396.44	225.02
396.82	225.04
397.19	225.13
397.57	225.14
397.95	225.18
398.32	225.18
398.70	225.19
399.07	225.25
399.45	225.28
399.82	225.34
400.20	225.39
400.58	225.45
400.95	225.45
401.33	225.53
401.70	225.65
402.08	225.70
402.45	225.76
402.83	225.84
403.20	225.93
403.58	226.01
403.95	226.14
404.33	226.23
404.71	226.35
405.08	226.51
405.46	226.67
405.83	226.76
406.21	226.89
406.58	227.09
406.96	227.22
407.33	227.39
407.70	227.54
408.08	227.82
408.45	228.04
408.83	228.27
409.20	228.49
409.58	228.65
409.95	228.94
410.33	229.22
410.70	229.47
411.08	229.80
411.45	230.10
411.82	230.38
412.20	230.76
412.57	231.18
412.95	231.47
413.32	231.86
413.69	232.31
414.07	232.76
414.44	233.20
414.82	233.72
415.19	234.24
415.56	234.78
415.94	235.30
416.31	235.93
416.68	236.58
417.06	237.24
417.43	237.92
417.81	238.67
418.18	239.42
418.55	240.27
418.93	241.11
419.30	242.02
419.67	242.95
420.04	243.88
420.42	244.85
420.79	246.00
421.16	247.18
421.54	248.37
421.91	249.58
422.28	250.82
422.66	252.15
423.03	253.48
423.40	254.81
423.77	256.23
424.15	257.66
424.52	259.13
424.89	260.77
425.26	262.32
425.64	263.77
426.01	265.39
426.38	267.01
426.75	268.68
427.13	270.41
427.50	272.22
427.87	274.08
428.24	275.91
428.61	277.69
428.99	279.57
429.36	281.66
429.73	283.72
430.10	285.77
430.47	287.80
430.85	289.91
431.22	292.15
431.59	294.53
431.96	296.78
432.33	299.24
432.70	301.60
433.08	304.43
433.45	307.05
433.82	309.61
434.19	312.50
434.56	315.32
434.93	317.91
435.30	320.53
435.68	323.43
436.05	326.27
436.42	329.03
436.79	331.53
437.16	334.21
437.53	337.02
437.90	339.81
438.27	342.51
438.64	345.30
439.01	347.81
439.38	350.02
439.75	352.18
440.13	354.66
440.50	356.92
440.87	358.77
441.24	360.66
441.61	362.80
441.98	364.30
442.35	366.05
442.72	367.90
443.09	369.69
443.46	370.63
443.83	371.21
444.20	371.72
444.57	372.57
444.94	372.83
445.31	373.18
445.68	373.54
446.05	373.63
446.42	373.26
446.79	372.86
447.16	372.41
447.53	372.09
447.90	370.94
448.27	369.83
448.64	368.25
449.01	367.15
449.37	365.22
449.74	363.34
450.11	361.16
450.48	358.76
450.85	356.24
451.22	354.19
451.59	352.21
451.96	350.28
452.33	347.69
452.70	345.34
453.07	342.55
453.43	339.64
453.80	336.90
454.17	334.26
454.54	331.79
454.91	329.10
455.28	326.44
455.65	323.98
456.02	321.53
456.38	319.35
456.75	316.75
457.12	314.49
457.49	312.25
457.86	310.08
458.23	308.20
458.59	306.17
458.96	304.08
459.33	302.21
459.70	300.35
460.07	298.89
460.43	297.19
460.80	295.59
461.17	294.18
461.54	292.75
461.91	291.30
462.27	289.84
462.64	288.62
463.01	287.27
463.38	286.02
463.74	284.66
464.11	283.53
464.48	282.48
464.85	281.43
465.21	280.59
465.58	279.66
465.95	278.62
466.32	277.73
466.68	276.83
467.05	275.94
467.42	275.04
467.78	274.12
468.15	273.28
468.52	272.59
468.88	271.74
469.25	270.93
469.62	270.30
469.98	269.66
470.35	269.01
470.72	268.40
471.08	267.74
471.45	267.23
471.82	266.71
472.18	266.14
472.55	265.74
472.92	265.24
473.28	264.80
473.65	264.35
474.02	263.89
474.38	263.56
474.75	263.26
475.11	262.96
475.48	262.70
475.85	262.51
476.21	262.28
476.58	262.10
476.94	261.96
477.31	261.84
477.67	261.70
478.04	261.61
478.41	261.57
478.77	261.65
479.14	261.59
479.50	261.62
479.87	261.69
480.23	261.75
480.60	261.83
480.96	261.96
481.33	262.16
481.69	262.44
482.06	262.64
482.42	262.85
482.79	263.13
483.15	263.47
483.52	263.85
483.88	264.23
484.25	264.67
484.61	265.12
484.98	265.62
485.34	266.18
485.71	266.78
486.07	267.42
486.44	267.98
486.80	268.73
487.17	269.46
487.53	270.28
487.90	271.16
488.26	272.09
488.62	273.05
488.99	274.02
489.35	275.04
489.72	276.15
490.08	277.36
490.44	278.58
490.81	279.89
491.17	281.21
491.54	282.67
491.90	284.17
492.26	285.82
492.63	287.52
492.99	289.33
493.36	291.20
493.72	293.21
494.08	295.29
494.45	297.48
494.81	299.84
495.17	302.26
495.54	304.78
495.90	307.47
496.26	310.25
496.63	313.20
496.99	316.30
497.35	319.52
497.72	322.89
498.08	326.41
498.44	330.02
498.80	333.98
499.17	338.06
499.53	342.17
499.89	346.51
500.26	350.95
500.62	355.55
500.98	360.51
501.34	365.52
501.71	370.81
502.07	376.23
502.43	381.77
502.79	387.47
503.16	393.45
503.52	399.64
503.88	406.00
504.24	412.57
504.60	419.37
504.97	426.48
505.33	433.72
505.69	441.39
506.05	449.16
506.41	456.89
506.78	464.89
507.14	473.27
507.50	481.84
507.86	490.76
508.22	499.89
508.59	508.95
508.95	518.43
509.31	528.07
509.67	538.05
510.03	548.21
510.39	558.72
510.75	569.42
511.12	580.17
511.48	591.27
511.84	602.51
512.20	613.83
512.56	625.56
512.92	637.54
513.28	649.67
513.64	661.97
514.00	674.52
514.37	687.26
514.73	700.08
515.09	712.94
515.45	726.02
515.81	739.35
516.17	753.05
516.53	766.94
516.89	780.91
517.25	794.85
517.61	809.09
517.97	823.18
518.33	837.35
518.69	851.90
519.05	866.57
519.41	881.49
519.77	896.63
520.13	911.76
520.49	926.84
520.85	941.90
521.21	957.10
521.57	972.97
521.93	988.43
522.29	1004.43
522.65	1020.40
523.01	1036.24
523.37	1052.04
523.73	1067.90
524.09	1083.58
524.45	1099.49
524.81	1115.70
525.17	1132.03
525.53	1148.51
525.89	1164.99
526.25	1181.37
526.61	1197.41
526.97	1213.84
527.33	1230.07
527.68	1246.32
528.04	1262.45
528.40	1278.56
528.76	1295.40
529.12	1311.64
529.48	1328.13
529.84	1343.78
530.20	1359.96
530.56	1376.53
530.91	1393.47
531.27	1409.86
531.63	1426.01
531.99	1442.25
532.35	1457.84
532.71	1473.44
533.07	1489.47
533.42	1505.07
533.78	1520.80
534.14	1536.61
534.50	1551.56
534.86	1566.93
535.21	1581.82
535.57	1597.41
535.93	1612.58
536.29	1626.93
536.65	1641.57
537.00	1655.92
537.36	1670.99
537.72	1685.10
538.08	1699.29
538.44	1712.60
538.79	1726.21
539.15	1739.37
539.51	1752.78
539.87	1766.81
540.22	1780.09
540.58	1793.32
540.94	1806.23
541.29	1818.76
541.65	1831.16
542.01	1844.07
542.37	1856.25
542.72	1868.30
543.08	1879.77
543.44	1891.87
543.79	1902.88
544.15	1913.67
544.51	1925.11
544.87	1935.65
545.22	1946.37
545.58	1956.37
545.94	1966.00
546.29	1975.52
546.65	1985.45
547.01	1994.54
547.36	2003.03
547.72	2011.36
548.07	2019.24
548.43	2027.11
548.79	2034.79
549.14	2042.34
549.50	2049.44
549.86	2056.91
550.21	2063.93
550.57	2071.01
550.92	2077.49
551.28	2084.51
551.64	2091.45
551.99	2097.81
552.35	2103.92
552.70	2109.94
553.06	2115.91
553.41	2122.33
553.77	2128.23
554.13	2134.05
554.48	2140.00
554.84	2145.71
555.19	2150.91
555.55	2156.08
555.90	2160.66
556.26	2165.81
556.61	2170.50
556.97	2174.96
557.32	2179.18
557.68	2183.51
558.03	2187.72
558.39	2191.45
558.74	2195.96
559.10	2199.79
559.45	2203.44
559.81	2207.79
560.16	2211.69
560.52	2214.83
560.87	2218.06
561.23	2220.91
561.58	2223.87
561.94	2226.60
562.29	2228.67
562.64	2231.60
563.00	2234.12
563.35	2237.69
563.71	2240.81
564.06	2243.99
564.42	2247.08
564.77	2249.72
565.12	2252.16
565.48	2254.31
565.83	2256.34
566.19	2258.04
566.54	2259.05
566.89	2260.35
567.25	2261.22
567.60	2262.51
567.96	2264.50
568.31	2265.59
568.66	2266.92
569.02	2267.74
569.37	2268.22
569.72	2269.48
570.08	2269.85
570.43	2270.12
570.78	2269.89
571.14	2268.69
571.49	2267.60
571.84	2267.30
572.20	2266.38
572.55	2265.59
572.90	2264.15
573.26	2263.05
573.61	2261.29
573.96	2259.93
574.31	2257.19
574.67	2254.36
575.02	2251.19
575.37	2247.93
575.72	2244.45
576.08	2241.18
576.43	2237.98
576.78	2234.65
577.13	2231.59
577.49	2228.42
577.84	2225.19
578.19	2221.52
578.54	2218.05
578.90	2214.23
579.25	2208.94
579.60	2204.30
579.95	2199.54
580.30	2194.82
580.66	2190.03
581.01	2185.28
581.36	2180.47
581.71	2176.81
582.06	2172.69
582.42	2168.42
582.77	2163.42
583.12	2159.22
583.47	2154.91
583.82	2150.46
584.17	2145.39
584.53	2140.12
584.88	2134.85
585.23	2129.37
585.58	2124.10
585.93	2118.91
586.28	2114.07
586.63	2109.18
586.98	2104.25
587.34	2099.71
587.69	2094.91
588.04	2089.80
588.39	2084.44
588.74	2078.21
589.09	2072.02
589.44	2065.36
589.79	2059.31
590.14	2053.89
590.49	2047.34
590.84	2041.01
591.19	2034.93
591.54	2028.60
591.89	2021.58
592.25	2015.10
592.60	2008.08
592.95	2000.93
593.30	1993.71
593.65	1986.29
594.00	1979.52
594.35	1972.49
594.70	1964.56
595.05	1957.71
595.40	1950.52
595.75	1943.25
596.10	1937.45
596.45	1931.05
596.80	1925.18
597.15	1918.95
597.50	1912.20
597.85	1905.90
598.19	1899.51
598.54	1892.85
598.89	1886.43
599.24	1880.58
599.59	1874.17
599.94	1868.12
600.29	1861.98
600.64	1855.55
600.99	1848.56
601.34	1841.81
601.69	1834.75
602.04	1828.13
602.39	1820.87
602.74	1814.31
603.08	1807.73
603.43	1800.88
603.78	1793.68
604.13	1786.50
604.48	1779.44
604.83	1772.56
605.18	1765.89
605.53	1758.12
605.87	1750.13
606.22	1743.06
606.57	1735.25
606.92	1727.83
607.27	1720.91
607.62	1714.13
607.96	1707.13
608.31	1700.69
608.66	1693.31
609.01	1686.17
609.36	1678.74
609.70	1670.95
610.05	1662.93
610.40	1655.32
610.75	1647.16
611.10	1639.58
611.44	1631.25
611.79	1623.23
612.14	1614.62
612.49	1605.45
612.83	1597.07
613.18	1588.92
613.53	1580.83
613.88	1572.46
614.22	1564.36
614.57	1555.60
614.92	1547.59
615.27	1540.15
615.61	1531.88
615.96	1523.85
616.31	1516.10
616.65	1508.83
617.00	1501.16
617.35	1493.58
617.70	1485.38
618.04	1477.00
618.39	1468.67
618.74	1461.34
619.08	1453.07
619.43	1445.51
619.78	1438.54
620.12	1431.52
620.47	1424.14
620.82	1416.01
621.16	1408.66
621.51	1400.91
621.85	1393.41
622.20	1384.90
622.55	1376.48
622.89	1368.60
623.24	1360.94
623.59	1353.49
623.93	1345.88
624.28	1338.76
624.62	1331.29
624.97	1324.11
625.32	1317.32
625.66	1310.41
626.01	1303.17
626.35	1295.89
626.70	1288.30
627.04	1280.79
627.39	1273.02
627.73	1265.56
628.08	1258.65
628.43	1251.46
628.77	1244.31
629.12	1236.88
629.46	1229.72
629.81	1222.27
630.15	1215.07
630.50	1207.78
630.84	1199.74
631.19	1191.78
631.53	1184.27
631.88	1176.75
632.22	1169.27
632.57	1161.91
632.91	1154.46
633.26	1147.11
633.60	1139.67
633.95	1132.50
634.29	1125.36
634.64	1118.69
634.98	1111.55
635.32	1104.47
635.67	1097.79
636.01	1091.12
636.36	1084.34
636.70	1077.80
637.05	1071.34
637.39	1064.86
637.73	1058.39
638.08	1052.47
638.42	1046.66
638.77	1040.32
639.11	1033.78
639.45	1027.38
639.80	1020.86
640.14	1014.44
640.49	1007.96
640.83	1001.74
641.17	995.59
641.52	989.36
641.86	982.92
642.20	977.01
642.55	970.62
642.89	964.21
643.23	957.66
643.58	951.92
643.92	945.86
644.26	939.87
644.61	933.82
644.95	927.89
645.29	921.52
645.64	914.73
645.98	908.38
646.32	902.45
646.66	896.36
647.01	890.62
647.35	885.01
647.69	879.06
648.04	873.48
648.38	867.71
648.72	861.80
649.06	855.79
649.41	849.95
649.75	844.15
650.09	838.27
650.43	832.55
650.78	826.43
651.12	820.45
651.46	814.74
651.80	809.09
652.14	803.65
652.49	798.21
652.83	793.10
653.17	787.56
653.51	781.91
653.85	776.61
654.20	771.00
654.54	764.99
654.88	759.40
655.22	753.55
655.56	747.91
655.90	742.45
656.25	737.30
656.59	731.97
656.93	726.86
657.27	721.71
657.61	716.40
657.95	711.31
658.29	706.23
658.64	700.96
658.98	695.64
659.32	690.23
659.66	685.09
660.00	679.92
660.34	674.99
660.68	670.11
661.02	665.10
661.36	660.45
661.70	655.97
662.05	651.60
662.39	647.37
662.73	642.96
663.07	638.62
663.41	634.19
663.75	629.77
664.09	625.29
664.43	620.94
664.77	616.85
665.11	612.70
665.45	608.61
665.79	604.52
666.13	600.47
666.47	596.36
666.81	592.20
667.15	588.02
667.49	584.12
667.83	580.26
668.17	576.40
668.51	572.34
668.85	568.35
669.19	564.42
669.53	560.66
669.87	556.83
670.21	553.08
670.55	549.45
670.89	546.02
671.23	542.59
671.57	539.03
671.91	535.52
672.25	531.94
672.58	528.48
672.92	525.13
673.26	521.92
673.60	518.77
673.94	515.76
674.28	512.93
674.62	510.02
674.96	507.00
675.30	504.08
675.64	501.21
675.97	498.45
676.31	495.70
676.65	492.75
676.99	490.05
677.33	487.20
677.67	484.39
678.01	481.37
678.34	478.47
678.68	475.60
679.02	472.78
679.36	470.13
679.70	467.41
680.04	464.69
680.37	461.91
680.71	459.11
681.05	456.45
681.39	453.67
681.73	450.95
682.06	448.43
682.40	445.93
682.74	443.43
683.08	440.87
683.42	438.28
683.75	435.76
684.09	433.18
684.43	430.75
684.77	428.26
685.10	425.89
685.44	423.55
685.78	421.34
686.12	419.05
686.45	416.68
686.79	414.40
687.13	412.16
687.46	409.98
687.80	407.85
688.14	405.65
688.48	403.56
688.81	401.35
689.15	399.20
689.49	397.01
689.82	394.88
690.16	392.74
690.50	390.73
690.83	388.80
691.17	386.77
691.51	384.86
691.84	383.02
692.18	381.09
692.52	379.10
692.85	377.10
693.19	375.25
693.52	373.40
693.86	371.59
694.20	369.77
694.53	368.01
694.87	366.14
695.21	364.29
695.54	362.51
695.88	360.72
696.21	358.98
696.55	357.35
696.88	355.65
697.22	354.00
697.56	352.38
697.89	350.72
698.23	349.15
698.56	347.49
698.90	345.89
699.23	344.29
699.57	342.72
699.90	341.16
700.24	339.63
700.58	338.15
700.91	336.62
701.25	335.18
701.58	333.83
701.92	332.49
702.25	331.16
702.59	329.82
702.92	328.55
703.26	327.21
703.59	325.91
703.93	324.69
704.26	323.48
704.60	322.22
704.93	320.97
705.26	319.77
705.60	318.63
705.93	317.48
706.27	316.44
706.60	315.41
706.94	314.38
707.27	313.21
707.61	312.13
707.94	311.13
708.27	310.09
708.61	308.97
708.94	307.99
709.28	306.99
709.61	305.99
709.94	305.07
710.28	304.11
710.61	303.11
710.95	302.06
711.28	301.16
711.61	300.23
711.95	299.31
712.28	298.38
712.61	297.42
712.95	296.51
713.28	295.63
713.61	294.74
713.95	293.84
714.28	293.05
714.61	292.18
714.95	291.35
715.28	290.49
715.61	289.64
715.95	288.78
716.28	287.93
716.61	287.13
716.95	286.28
717.28	285.50
717.61	284.74
717.94	284.06
718.28	283.23
718.61	282.49
718.94	281.80
719.27	281.13
719.61	280.53
719.94	279.85
720.27	279.14
720.60	278.48
720.94	277.89
721.27	277.30
721.60	276.75
721.93	276.15
722.27	275.60
722.60	275.06
722.93	274.52
723.26	274.01
723.59	273.43
723.93	272.87
724.26	272.34
724.59	271.80
724.92	271.23
725.25	270.73
725.59	270.23
725.92	269.73
726.25	269.22
726.58	268.69
726.91	268.22
727.24	267.75
727.57	267.28
727.91	266.73
728.24	266.24
728.57	265.73
728.90	265.30
729.23	264.81
729.56	264.36
729.89	263.85
730.22	263.33
730.55	262.87
730.89	262.46
731.22	262.02
731.55	261.58
731.88	261.15
732.21	260.72
732.54	260.26
732.87	259.81
733.20	259.41
733.53	258.97
733.86	258.59
734.19	258.19
734.52	257.83
734.85	257.55
735.18	257.14
735.51	256.77
735.84	256.38
736.17	256.03
736.50	255.65
736.83	255.42
737.16	255.13
737.49	254.80
737.82	254.43
738.15	254.05
738.48	253.70
738.81	253.36
739.14	253.02
739.47	252.72
739.80	252.40
740.13	252.09
740.46	251.80
740.79	251.47
741.12	251.18
741.45	250.84
741.78	250.49
742.11	250.18
742.44	249.88
742.77	249.58
743.10	249.30
743.43	248.99
743.75	248.60
744.08	248.45
744.41	248.18
744.74	247.93
745.07	247.69
745.40	247.44
745.73	247.27
746.06	247.01
746.39	246.75
746.71	246.52
747.04	246.24
747.37	245.99
747.70	245.74
748.03	245.46
748.36	245.26
748.68	245.01
749.01	244.74
749.34	244.51
749.67	244.31
750.00	244.06
750.33	243.91
750.65	243.70
750.98	243.35
751.31	243.13
751.64	242.94
751.97	242.77
752.29	242.58
752.62	242.27
752.95	242.04
753.28	241.85
753.60	241.62
753.93	241.49
754.26	241.26
754.59	241.07
754.91	240.85
755.24	240.64
755.57	240.46
755.90	240.29
756.22	240.10
756.55	239.91
756.88	239.72
757.20	239.47
757.53	239.28
757.86	239.09
758.19	238.95
758.51	238.77
758.84	238.55
759.17	238.36
759.49	238.23
759.82	238.14
760.15	237.97
760.47	237.81
760.80	237.62
761.13	237.52
761.45	237.35
761.78	237.22
762.11	237.09
762.43	236.94
762.76	236.82
763.08	236.71
763.41	236.55
763.74	236.42
764.06	236.30
764.39	236.19
764.71	236.07
765.04	235.92
765.37	235.79
765.69	235.66
766.02	235.54
766.34	235.39
766.67	235.21
767.00	235.13
767.32	235.09
767.65	235.04
767.97	234.91
768.30	234.81
768.62	234.70
768.95	234.58
769.27	234.47
769.60	234.35
769.92	234.23
770.25	234.10
770.57	234.00
770.90	233.91
771.22	233.77
771.55	233.67
771.87	233.57
772.20	233.47
772.52	233.45
772.85	233.46
773.17	233.39
773.50	233.29
773.82	233.15
774.15	233.01
774.47	232.83
774.80	232.72
775.12	232.63
775.45	232.52
775.77	232.44
776.09	232.35
776.42	232.29
776.74	232.27
777.07	232.19
777.39	232.07
777.72	231.96
778.04	231.92
778.36	231.83
778.69	231.76
779.01	231.69
779.33	231.54
779.66	231.39
779.98	231.31
780.31	231.22
780.63	231.24
780.95	231.21
781.28	231.16
781.60	231.10
781.92	231.02
782.25	230.99
782.57	230.89
782.89	230.80
783.22	230.75
783.54	230.65
783.86	230.60
784.19	230.59
784.51	230.55
784.83	230.47
785.16	230.41
785.48	230.37
785.80	230.31
786.12	230.24
786.45	230.18
786.77	230.13
787.09	230.05
