SpectraSuite Data File
++++++++++++++++++++++++++++++++++++
Date: Fri Feb 01 15:14:18 EST 2013
User: group
Dark Spectrum Present: No
Reference Spectrum Present: No
Number of Sampled Component Spectra: 1
Spectrometers: USB2E7196
Integration Time (usec): 35000 (USB2E7196)
Spectra Averaged: 100 (USB2E7196)
Boxcar Smoothing: 10 (USB2E7196)
Correct for Electrical Dark: No (USB2E7196)
Strobe/Lamp Enabled: No (USB2E7196)
Correct for Detector Non-linearity: No (USB2E7196)
Correct for Stray Light: No (USB2E7196)
Number of Pixels in Processed Spectrum: 2048
>>>>>Begin Processed Spectral Data<<<<<
339.09	0.00
339.48	215.06
339.86	216.33
340.24	218.24
340.63	219.85
341.01	221.74
341.39	222.29
341.78	223.39
342.16	224.24
342.54	225.02
342.93	213.39
343.31	224.18
343.69	224.73
344.07	225.19
344.46	225.62
344.84	225.96
345.22	226.17
345.60	226.39
345.99	226.56
346.37	226.70
346.75	226.79
347.13	226.88
347.52	226.96
347.90	226.99
348.28	227.03
348.66	227.06
349.05	227.04
349.43	227.09
349.81	227.10
350.19	227.13
350.57	227.17
350.96	227.26
351.34	227.32
351.72	227.40
352.10	227.52
352.48	227.58
352.87	227.61
353.25	227.74
353.63	227.82
354.01	227.90
354.39	227.99
354.77	228.10
355.15	228.20
355.54	228.25
355.92	228.31
356.30	228.39
356.68	228.51
357.06	228.59
357.44	228.64
357.82	228.72
358.20	228.81
358.58	228.93
358.97	228.99
359.35	229.09
359.73	229.15
360.11	229.19
360.49	229.25
360.87	229.34
361.25	229.39
361.63	229.47
362.01	229.52
362.39	229.57
362.77	229.57
363.15	229.59
363.53	229.63
363.91	229.65
364.29	229.66
364.67	229.60
365.05	229.62
365.43	229.66
365.81	229.69
366.19	229.73
366.57	229.75
366.95	229.75
367.33	229.71
367.71	229.71
368.09	229.71
368.47	229.69
368.85	229.66
369.23	229.65
369.61	229.58
369.99	229.58
370.37	229.57
370.75	229.61
371.13	229.56
371.51	229.51
371.89	229.52
372.27	229.47
372.65	229.43
373.03	229.36
373.41	229.31
373.78	229.24
374.16	229.14
374.54	229.02
374.92	228.92
375.30	228.86
375.68	228.77
376.06	228.70
376.44	228.65
376.82	228.59
377.19	228.49
377.57	228.46
377.95	228.34
378.33	228.22
378.71	228.08
379.09	228.00
379.47	227.94
379.84	227.81
380.22	227.72
380.60	227.63
380.98	227.55
381.36	227.45
381.73	227.35
382.11	227.28
382.49	227.23
382.87	227.18
383.25	227.11
383.62	227.17
384.00	227.07
384.38	226.99
384.76	226.91
385.13	226.92
385.51	226.87
385.89	226.79
386.27	226.75
386.64	226.69
387.02	226.65
387.40	226.58
387.78	226.58
388.15	226.58
388.53	226.53
388.91	226.49
389.29	226.45
389.66	226.47
390.04	226.43
390.42	226.44
390.79	226.42
391.17	226.42
391.55	226.25
391.92	226.28
392.30	226.30
392.68	226.28
393.05	226.26
393.43	226.25
393.81	226.27
394.18	226.30
394.56	226.33
394.94	226.36
395.31	226.38
395.69	226.43
396.06	226.45
396.44	226.48
396.82	226.53
397.19	226.61
397.57	226.59
397.95	226.70
398.32	226.73
398.70	226.78
399.07	226.85
399.45	226.92
399.82	226.95
400.20	227.01
400.58	227.13
400.95	227.17
401.33	227.25
401.70	227.42
402.08	227.49
402.45	227.58
402.83	227.72
403.20	227.83
403.58	227.91
403.95	228.07
404.33	228.23
404.71	228.37
405.08	228.55
405.46	228.77
405.83	228.92
406.21	229.07
406.58	229.27
406.96	229.43
407.33	229.66
407.70	229.86
408.08	230.13
408.45	230.35
408.83	230.60
409.20	230.84
409.58	231.02
409.95	231.30
410.33	231.58
410.70	231.80
411.08	232.12
411.45	232.41
411.82	232.73
412.20	233.08
412.57	233.50
412.95	233.80
413.32	234.14
413.69	234.57
414.07	235.01
414.44	235.47
414.82	236.00
415.19	236.55
415.56	237.12
415.94	237.69
416.31	238.34
416.68	238.97
417.06	239.70
417.43	240.36
417.81	241.11
418.18	241.92
418.55	242.80
418.93	243.67
419.30	244.60
419.67	245.51
420.04	246.46
420.42	247.47
420.79	248.68
421.16	249.87
421.54	251.01
421.91	252.23
422.28	253.49
422.66	254.77
423.03	256.08
423.40	257.43
423.77	258.84
424.15	260.26
424.52	261.75
424.89	263.36
425.26	264.93
425.64	266.38
426.01	267.94
426.38	269.58
426.75	271.28
427.13	272.98
427.50	274.82
427.87	276.69
428.24	278.55
428.61	280.26
428.99	282.19
429.36	284.30
429.73	286.36
430.10	288.38
430.47	290.40
430.85	292.53
431.22	294.75
431.59	297.09
431.96	299.30
432.33	301.77
432.70	304.15
433.08	306.94
433.45	309.59
433.82	312.22
434.19	315.09
434.56	317.91
434.93	320.58
435.30	323.20
435.68	326.09
436.05	328.90
436.42	331.74
436.79	334.27
437.16	336.97
437.53	339.82
437.90	342.62
438.27	345.41
438.64	348.26
439.01	350.86
439.38	353.13
439.75	355.34
440.13	357.86
440.50	360.22
440.87	362.09
441.24	364.02
441.61	366.15
441.98	367.66
442.35	369.46
442.72	371.32
443.09	373.16
443.46	374.18
443.83	374.77
444.20	375.28
444.57	376.11
444.94	376.44
445.31	376.78
445.68	377.15
446.05	377.19
446.42	376.82
446.79	376.42
447.16	375.96
447.53	375.62
447.90	374.45
448.27	373.30
448.64	371.71
449.01	370.57
449.37	368.62
449.74	366.75
450.11	364.47
450.48	361.98
450.85	359.43
451.22	357.30
451.59	355.29
451.96	353.34
452.33	350.74
452.70	348.40
453.07	345.57
453.43	342.67
453.80	339.97
454.17	337.20
454.54	334.62
454.91	331.94
455.28	329.27
455.65	326.76
456.02	324.27
456.38	322.12
456.75	319.51
457.12	317.26
457.49	315.03
457.86	312.85
458.23	311.01
458.59	308.94
458.96	306.84
459.33	304.94
459.70	303.08
460.07	301.53
460.43	299.79
460.80	298.15
461.17	296.70
461.54	295.18
461.91	293.80
462.27	292.36
462.64	291.10
463.01	289.74
463.38	288.45
463.74	287.07
464.11	285.90
464.48	284.84
464.85	283.75
465.21	282.87
465.58	281.99
465.95	280.90
466.32	279.99
466.68	279.07
467.05	278.19
467.42	277.27
467.78	276.36
468.15	275.47
468.52	274.83
468.88	273.98
469.25	273.22
469.62	272.55
469.98	271.88
470.35	271.23
470.72	270.60
471.08	269.95
471.45	269.38
471.82	268.80
472.18	268.22
472.55	267.75
472.92	267.18
473.28	266.68
473.65	266.19
474.02	265.75
474.38	265.37
474.75	265.04
475.11	264.67
475.48	264.36
475.85	264.14
476.21	263.87
476.58	263.64
476.94	263.44
477.31	263.28
477.67	263.11
478.04	262.99
478.41	262.89
478.77	262.89
479.14	262.84
479.50	262.87
479.87	262.93
480.23	262.98
480.60	263.04
480.96	263.10
481.33	263.32
481.69	263.53
482.06	263.72
482.42	263.91
482.79	264.18
483.15	264.53
483.52	264.87
483.88	265.23
484.25	265.60
484.61	266.04
484.98	266.49
485.34	267.08
485.71	267.63
486.07	268.28
486.44	268.86
486.80	269.58
487.17	270.31
487.53	271.09
487.90	271.98
488.26	272.97
488.62	273.96
488.99	274.91
489.35	275.92
489.72	277.05
490.08	278.27
490.44	279.51
490.81	280.84
491.17	282.20
491.54	283.65
491.90	285.20
492.26	286.87
492.63	288.61
492.99	290.38
493.36	292.26
493.72	294.32
494.08	296.43
494.45	298.66
494.81	301.00
495.17	303.44
495.54	305.96
495.90	308.60
496.26	311.40
496.63	314.40
496.99	317.50
497.35	320.75
497.72	324.11
498.08	327.63
498.44	331.29
498.80	335.22
499.17	339.28
499.53	343.40
499.89	347.75
500.26	352.27
500.62	356.90
500.98	361.87
501.34	366.90
501.71	372.18
502.07	377.62
502.43	383.23
502.79	389.08
503.16	395.15
503.52	401.43
503.88	407.86
504.24	414.48
504.60	421.38
504.97	428.48
505.33	435.85
505.69	443.53
506.05	451.27
506.41	459.11
506.78	467.28
507.14	475.83
507.50	484.57
507.86	493.54
508.22	502.74
508.59	511.92
508.95	521.58
509.31	531.44
509.67	541.52
510.03	551.85
510.39	562.39
510.75	573.22
511.12	584.12
511.48	595.42
511.84	606.82
512.20	618.38
512.56	630.33
512.92	642.46
513.28	654.81
513.64	667.36
514.00	680.09
514.37	692.98
514.73	705.97
515.09	719.06
515.45	732.34
515.81	745.95
516.17	759.94
516.53	773.97
516.89	788.10
517.25	802.26
517.61	816.68
517.97	831.13
518.33	845.53
518.69	860.29
519.05	875.23
519.41	890.53
519.77	906.04
520.13	921.54
520.49	937.03
520.85	952.53
521.21	968.17
521.57	984.45
521.93	1000.33
522.29	1016.76
522.65	1033.02
523.01	1049.28
523.37	1065.33
523.73	1081.55
524.09	1097.69
524.45	1114.06
524.81	1130.71
525.17	1147.62
525.53	1164.62
525.89	1181.71
526.25	1198.61
526.61	1215.12
526.97	1231.74
527.33	1248.28
527.68	1265.00
528.04	1281.52
528.40	1298.14
528.76	1315.45
529.12	1332.09
529.48	1349.05
529.84	1365.12
530.20	1381.69
530.56	1398.81
530.91	1416.32
531.27	1433.15
531.63	1449.73
531.99	1466.47
532.35	1482.58
532.71	1498.53
533.07	1514.82
533.42	1530.64
533.78	1546.75
534.14	1562.99
534.50	1578.54
534.86	1594.56
535.21	1609.68
535.57	1625.69
535.93	1641.36
536.29	1656.22
536.65	1671.43
537.00	1686.34
537.36	1701.80
537.72	1716.58
538.08	1731.06
538.44	1744.91
538.79	1758.94
539.15	1772.72
539.51	1786.63
539.87	1801.10
540.22	1814.95
540.58	1828.77
540.94	1842.24
541.29	1855.34
541.65	1868.14
542.01	1881.47
542.37	1893.82
542.72	1906.37
543.08	1918.22
543.44	1930.46
543.79	1941.66
544.15	1952.61
544.51	1964.10
544.87	1975.09
545.22	1985.87
545.58	1996.13
545.94	2005.95
546.29	2015.82
546.65	2025.64
547.01	2034.75
547.36	2043.54
547.72	2051.92
548.07	2059.95
548.43	2068.12
548.79	2076.10
549.14	2083.81
549.50	2091.22
549.86	2099.00
550.21	2106.28
550.57	2113.43
550.92	2120.23
551.28	2127.30
551.64	2134.53
551.99	2141.14
552.35	2147.26
552.70	2153.34
553.06	2159.24
553.41	2165.71
553.77	2171.88
554.13	2178.05
554.48	2184.23
554.84	2189.49
555.19	2194.85
555.55	2199.85
555.90	2204.16
556.26	2209.06
556.61	2213.92
556.97	2218.06
557.32	2222.06
557.68	2226.34
558.03	2230.60
558.39	2234.24
558.74	2238.87
559.10	2242.63
559.45	2246.25
559.81	2250.52
560.16	2254.25
560.52	2257.57
560.87	2260.92
561.23	2263.48
561.58	2266.45
561.94	2268.97
562.29	2271.50
562.64	2274.15
563.00	2276.69
563.35	2280.40
563.71	2283.44
564.06	2286.37
564.42	2289.22
564.77	2291.62
565.12	2293.74
565.48	2295.75
565.83	2297.43
566.19	2298.57
566.54	2299.42
566.89	2300.47
567.25	2300.98
567.60	2302.46
567.96	2304.04
568.31	2304.72
568.66	2305.68
569.02	2306.16
569.37	2306.46
569.72	2307.21
570.08	2307.22
570.43	2307.21
570.78	2306.52
571.14	2304.91
571.49	2303.60
571.84	2303.15
572.20	2302.00
572.55	2300.84
572.90	2299.07
573.26	2297.78
573.61	2296.15
573.96	2294.38
574.31	2291.24
574.67	2287.97
575.02	2284.21
575.37	2280.58
575.72	2276.58
576.08	2273.16
576.43	2269.66
576.78	2265.71
577.13	2262.38
577.49	2259.31
577.84	2255.78
578.19	2251.94
578.54	2248.13
578.90	2243.73
579.25	2238.04
579.60	2232.86
579.95	2227.81
580.30	2222.69
580.66	2217.37
581.01	2212.33
581.36	2207.15
581.71	2202.98
582.06	2198.59
582.42	2194.02
582.77	2188.77
583.12	2184.25
583.47	2179.44
583.82	2174.38
584.17	2169.19
584.53	2163.61
584.88	2157.72
585.23	2151.74
585.58	2146.22
585.93	2140.76
586.28	2135.90
586.63	2130.78
586.98	2125.75
587.34	2120.98
587.69	2116.09
588.04	2110.75
588.39	2104.87
588.74	2098.46
589.09	2092.13
589.44	2085.30
589.79	2079.19
590.14	2073.61
590.49	2066.85
590.84	2060.41
591.19	2054.26
591.54	2047.70
591.89	2040.12
592.25	2033.33
592.60	2026.16
592.95	2018.34
593.30	2010.90
593.65	2003.24
594.00	1996.16
594.35	1988.95
594.70	1980.89
595.05	1973.36
595.40	1965.94
595.75	1958.34
596.10	1951.91
596.45	1945.19
596.80	1938.94
597.15	1932.16
597.50	1925.00
597.85	1918.55
598.19	1911.82
598.54	1904.56
598.89	1897.92
599.24	1892.06
599.59	1885.22
599.94	1878.94
600.29	1872.62
600.64	1865.96
600.99	1858.30
601.34	1851.36
601.69	1844.30
602.04	1837.27
602.39	1829.96
602.74	1823.16
603.08	1816.46
603.43	1809.72
603.78	1802.38
604.13	1795.06
604.48	1787.73
604.83	1780.87
605.18	1773.77
605.53	1765.76
605.87	1757.88
606.22	1750.57
606.57	1742.55
606.92	1735.21
607.27	1728.03
607.62	1721.12
607.96	1713.83
608.31	1707.32
608.66	1699.62
609.01	1691.92
609.36	1684.35
609.70	1676.45
610.05	1668.32
610.40	1660.66
610.75	1652.30
611.10	1644.67
611.44	1636.33
611.79	1628.37
612.14	1619.49
612.49	1610.53
612.83	1602.17
613.18	1593.98
613.53	1585.94
613.88	1577.54
614.22	1569.29
614.57	1560.64
614.92	1552.57
615.27	1544.97
615.61	1536.62
615.96	1528.67
616.31	1521.07
616.65	1513.71
617.00	1506.10
617.35	1498.54
617.70	1490.09
618.04	1481.65
618.39	1473.29
618.74	1465.72
619.08	1457.42
619.43	1449.94
619.78	1442.87
620.12	1435.68
620.47	1428.11
620.82	1419.81
621.16	1412.45
621.51	1405.00
621.85	1397.46
622.20	1388.93
622.55	1380.57
622.89	1372.78
623.24	1365.19
623.59	1357.87
623.93	1350.31
624.28	1343.06
624.62	1335.43
624.97	1328.42
625.32	1321.61
625.66	1314.64
626.01	1307.35
626.35	1299.86
626.70	1292.14
627.04	1284.43
627.39	1276.67
627.73	1269.28
628.08	1262.44
628.43	1255.00
628.77	1247.54
629.12	1239.90
629.46	1232.84
629.81	1225.44
630.15	1218.23
630.50	1210.86
630.84	1202.65
631.19	1194.81
631.53	1187.35
631.88	1179.88
632.22	1172.15
632.57	1164.82
632.91	1157.33
633.26	1150.07
633.60	1142.82
633.95	1135.86
634.29	1128.91
634.64	1122.23
634.98	1114.92
635.32	1107.72
635.67	1101.25
636.01	1094.59
636.36	1087.84
636.70	1081.30
637.05	1074.79
637.39	1068.35
637.73	1061.82
638.08	1055.95
638.42	1049.97
638.77	1043.51
639.11	1036.78
639.45	1030.57
639.80	1024.05
640.14	1017.62
640.49	1011.00
640.83	1004.67
641.17	998.35
641.52	991.98
641.86	985.57
642.20	979.75
642.55	973.55
642.89	966.99
643.23	960.46
643.58	954.64
643.92	948.52
644.26	942.42
644.61	936.41
644.95	930.37
645.29	923.77
645.64	917.02
645.98	910.72
646.32	904.97
646.66	898.82
647.01	893.00
647.35	887.29
647.69	881.57
648.04	876.13
648.38	870.30
648.72	864.35
649.06	858.31
649.41	852.43
649.75	846.38
650.09	840.47
650.43	834.67
650.78	828.55
651.12	822.46
651.46	816.78
651.80	810.95
652.14	805.56
652.49	800.21
652.83	795.17
653.17	789.45
653.51	783.79
653.85	778.37
654.20	772.69
654.54	766.68
654.88	760.90
655.22	755.05
655.56	749.40
655.90	743.89
656.25	738.61
656.59	733.24
656.93	728.19
657.27	723.00
657.61	717.62
657.95	712.59
658.29	707.56
658.64	702.32
658.98	697.08
659.32	691.63
659.66	686.44
660.00	681.11
660.34	676.20
660.68	671.25
661.02	666.34
661.36	661.70
661.70	657.27
662.05	652.94
662.39	648.52
662.73	644.08
663.07	639.76
663.41	635.40
663.75	630.91
664.09	626.39
664.43	622.10
664.77	617.98
665.11	613.71
665.45	609.63
665.79	605.57
666.13	601.43
666.47	597.30
666.81	593.13
667.15	589.01
667.49	585.15
667.83	581.43
668.17	577.45
668.51	573.40
668.85	569.41
669.19	565.63
669.53	561.81
669.87	557.93
670.21	554.29
670.55	550.60
670.89	547.17
671.23	543.80
671.57	540.30
671.91	536.79
672.25	533.35
672.58	529.84
672.92	526.49
673.26	523.38
673.60	520.29
673.94	517.21
674.28	514.31
674.62	511.32
674.96	508.20
675.30	505.27
675.64	502.33
675.97	499.59
676.31	496.71
676.65	493.86
676.99	491.15
677.33	488.28
677.67	485.51
678.01	482.56
678.34	479.50
678.68	476.63
679.02	473.88
679.36	471.08
679.70	468.40
680.04	465.60
680.37	462.72
680.71	459.99
681.05	457.42
681.39	454.63
681.73	452.04
682.06	449.52
682.40	447.01
682.74	444.51
683.08	441.95
683.42	439.35
683.75	436.85
684.09	434.34
684.43	431.88
684.77	429.37
685.10	427.01
685.44	424.70
685.78	422.41
686.12	420.13
686.45	417.87
686.79	415.53
687.13	413.40
687.46	411.29
687.80	409.12
688.14	406.96
688.48	404.97
688.81	402.70
689.15	400.51
689.49	398.39
689.82	396.29
690.16	394.20
690.50	392.26
690.83	390.35
691.17	388.36
691.51	386.48
691.84	384.64
692.18	382.70
692.52	380.76
692.85	378.83
693.19	376.94
693.52	375.13
693.86	373.34
694.20	371.56
694.53	369.76
694.87	367.88
695.21	366.09
695.54	364.29
695.88	362.61
696.21	360.89
696.55	359.22
696.88	357.58
697.22	355.94
697.56	354.29
697.89	352.62
698.23	351.02
698.56	349.42
698.90	347.86
699.23	346.22
699.57	344.72
699.90	343.16
700.24	341.59
700.58	340.07
700.91	338.57
701.25	337.13
701.58	335.76
701.92	334.43
702.25	333.03
702.59	331.65
702.92	330.31
703.26	328.98
703.59	327.70
703.93	326.49
704.26	325.28
704.60	323.96
704.93	322.65
705.26	321.44
705.60	320.26
705.93	319.11
706.27	318.11
706.60	317.01
706.94	315.95
707.27	314.84
707.61	313.75
707.94	312.71
708.27	311.59
708.61	310.54
708.94	309.57
709.28	308.60
709.61	307.66
709.94	306.71
710.28	305.74
710.61	304.81
710.95	303.77
711.28	302.84
711.61	301.95
711.95	301.11
712.28	300.14
712.61	299.18
712.95	298.28
713.28	297.38
713.61	296.51
713.95	295.63
714.28	294.84
714.61	294.00
714.95	293.20
715.28	292.34
715.61	291.46
715.95	290.61
716.28	289.73
716.61	288.91
716.95	288.10
717.28	287.39
717.61	286.59
717.94	285.86
718.28	285.04
718.61	284.35
718.94	283.62
719.27	283.01
719.61	282.34
719.94	281.67
720.27	280.99
720.60	280.33
720.94	279.69
721.27	279.09
721.60	278.51
721.93	277.96
722.27	277.44
722.60	276.88
722.93	276.33
723.26	275.82
723.59	275.23
723.93	274.73
724.26	274.17
724.59	273.60
724.92	273.07
725.25	272.60
725.59	272.06
725.92	271.59
726.25	271.01
726.58	270.54
726.91	270.03
727.24	269.54
727.57	269.04
727.91	268.57
728.24	268.11
728.57	267.60
728.90	267.14
729.23	266.66
729.56	266.20
729.89	265.72
730.22	265.25
730.55	264.75
730.89	264.25
731.22	263.76
731.55	263.35
731.88	262.93
732.21	262.50
732.54	262.03
732.87	261.57
733.20	261.19
733.53	260.77
733.86	260.38
734.19	259.96
734.52	259.59
734.85	259.27
735.18	258.82
735.51	258.48
735.84	258.08
736.17	257.70
736.50	257.29
736.83	257.03
737.16	256.66
737.49	256.35
737.82	256.02
738.15	255.71
738.48	255.35
738.81	255.03
739.14	254.70
739.47	254.37
739.80	254.07
740.13	253.78
740.46	253.45
740.79	253.15
741.12	252.86
741.45	252.55
741.78	252.21
742.11	251.94
742.44	251.61
742.77	251.34
743.10	251.05
743.43	250.77
743.75	250.41
744.08	250.30
744.41	250.03
744.74	249.75
745.07	249.46
745.40	249.22
745.73	248.97
746.06	248.73
746.39	248.52
746.71	248.26
747.04	248.00
747.37	247.74
747.70	247.51
748.03	247.28
748.36	247.06
748.68	246.82
749.01	246.62
749.34	246.41
749.67	246.19
750.00	245.95
750.33	245.83
750.65	245.64
750.98	245.27
751.31	245.07
751.64	244.88
751.97	244.75
752.29	244.53
752.62	244.29
752.95	244.07
753.28	243.87
753.60	243.64
753.93	243.49
754.26	243.31
754.59	243.07
754.91	242.86
755.24	242.63
755.57	242.47
755.90	242.28
756.22	242.07
756.55	241.88
756.88	241.71
757.20	241.45
757.53	241.23
757.86	241.08
758.19	240.92
758.51	240.76
758.84	240.56
759.17	240.41
759.49	240.26
759.82	240.13
760.15	239.97
760.47	239.84
760.80	239.67
761.13	239.56
761.45	239.40
761.78	239.30
762.11	239.16
762.43	238.98
762.76	238.84
763.08	238.71
763.41	238.59
763.74	238.44
764.06	238.33
764.39	238.21
764.71	238.06
765.04	237.91
765.37	237.75
765.69	237.57
766.02	237.43
766.34	237.29
766.67	237.17
767.00	237.05
767.32	236.99
767.65	236.92
767.97	236.78
768.30	236.70
768.62	236.59
768.95	236.49
769.27	236.39
769.60	236.28
769.92	236.18
770.25	236.03
770.57	235.90
770.90	235.79
771.22	235.67
771.55	235.56
771.87	235.49
772.20	235.39
772.52	235.38
772.85	235.40
773.17	235.29
773.50	235.16
773.82	235.07
774.15	234.92
774.47	234.75
774.80	234.65
775.12	234.55
775.45	234.44
775.77	234.34
776.09	234.25
776.42	234.15
776.74	234.09
777.07	234.01
777.39	233.92
777.72	233.79
778.04	233.70
778.36	233.65
778.69	233.57
779.01	233.49
779.33	233.33
779.66	233.11
779.98	233.02
780.31	232.92
780.63	232.87
780.95	232.79
781.28	232.74
781.60	232.64
781.92	232.56
782.25	232.52
782.57	232.45
782.89	232.34
783.22	232.29
783.54	232.20
783.86	232.16
784.19	232.12
784.51	232.12
784.83	232.07
785.16	231.98
785.48	231.93
785.80	231.91
786.12	231.89
786.45	231.85
786.77	231.84
787.09	231.81
