SpectraSuite Data File
++++++++++++++++++++++++++++++++++++
Date: Fri Feb 01 15:27:18 EST 2013
User: group
Dark Spectrum Present: No
Reference Spectrum Present: No
Number of Sampled Component Spectra: 1
Spectrometers: USB2E7196
Integration Time (usec): 35000 (USB2E7196)
Spectra Averaged: 100 (USB2E7196)
Boxcar Smoothing: 10 (USB2E7196)
Correct for Electrical Dark: No (USB2E7196)
Strobe/Lamp Enabled: No (USB2E7196)
Correct for Detector Non-linearity: No (USB2E7196)
Correct for Stray Light: No (USB2E7196)
Number of Pixels in Processed Spectrum: 2048
>>>>>Begin Processed Spectral Data<<<<<
339.09	0.00
339.48	214.78
339.86	216.49
340.24	217.08
340.63	218.55
341.01	222.11
341.39	221.79
341.78	223.64
342.16	224.03
342.54	224.93
342.93	213.23
343.31	224.00
343.69	224.54
344.07	225.00
344.46	225.46
344.84	225.88
345.22	226.09
345.60	226.35
345.99	226.53
346.37	226.65
346.75	226.73
347.13	226.79
347.52	226.84
347.90	226.92
348.28	226.94
348.66	226.98
349.05	226.99
349.43	227.06
349.81	227.12
350.19	227.15
350.57	227.21
350.96	227.27
351.34	227.38
351.72	227.47
352.10	227.57
352.48	227.65
352.87	227.68
353.25	227.80
353.63	227.85
354.01	227.91
354.39	228.02
354.77	228.11
355.15	228.22
355.54	228.29
355.92	228.33
356.30	228.42
356.68	228.55
357.06	228.63
357.44	228.68
357.82	228.76
358.20	228.83
358.58	228.91
358.97	228.98
359.35	229.06
359.73	229.15
360.11	229.22
360.49	229.32
360.87	229.39
361.25	229.39
361.63	229.44
362.01	229.50
362.39	229.50
362.77	229.56
363.15	229.62
363.53	229.65
363.91	229.71
364.29	229.75
364.67	229.68
365.05	229.70
365.43	229.74
365.81	229.74
366.19	229.77
366.57	229.80
366.95	229.77
367.33	229.75
367.71	229.72
368.09	229.70
368.47	229.67
368.85	229.64
369.23	229.69
369.61	229.68
369.99	229.67
370.37	229.66
370.75	229.67
371.13	229.60
371.51	229.57
371.89	229.53
372.27	229.48
372.65	229.46
373.03	229.39
373.41	229.31
373.78	229.23
374.16	229.17
374.54	229.08
374.92	229.03
375.30	228.95
375.68	228.87
376.06	228.81
376.44	228.73
376.82	228.67
377.19	228.58
377.57	228.49
377.95	228.39
378.33	228.32
378.71	228.20
379.09	228.13
379.47	228.06
379.84	227.96
380.22	227.88
380.60	227.78
380.98	227.69
381.36	227.62
381.73	227.57
382.11	227.51
382.49	227.45
382.87	227.37
383.25	227.33
383.62	227.39
384.00	227.31
384.38	227.24
384.76	227.21
385.13	227.16
385.51	227.10
385.89	227.01
386.27	227.00
386.64	226.96
387.02	226.91
387.40	226.81
387.78	226.78
388.15	226.75
388.53	226.71
388.91	226.68
389.29	226.64
389.66	226.59
390.04	226.54
390.42	226.50
390.79	226.49
391.17	226.47
391.55	226.34
391.92	226.33
392.30	226.34
392.68	226.30
393.05	226.30
393.43	226.34
393.81	226.37
394.18	226.34
394.56	226.34
394.94	226.39
395.31	226.45
395.69	226.51
396.06	226.55
396.44	226.55
396.82	226.62
397.19	226.69
397.57	226.76
397.95	226.82
398.32	226.86
398.70	226.92
399.07	226.96
399.45	227.00
399.82	227.08
400.20	227.12
400.58	227.20
400.95	227.23
401.33	227.34
401.70	227.49
402.08	227.59
402.45	227.69
402.83	227.79
403.20	227.90
403.58	227.99
403.95	228.11
404.33	228.28
404.71	228.38
405.08	228.58
405.46	228.68
405.83	228.82
406.21	228.94
406.58	229.10
406.96	229.28
407.33	229.49
407.70	229.68
408.08	229.94
408.45	230.16
408.83	230.43
409.20	230.60
409.58	230.83
409.95	231.11
410.33	231.37
410.70	231.61
411.08	231.92
411.45	232.24
411.82	232.55
412.20	232.92
412.57	233.34
412.95	233.63
413.32	234.06
413.69	234.48
414.07	234.96
414.44	235.49
414.82	235.96
415.19	236.50
415.56	237.09
415.94	237.66
416.31	238.29
416.68	238.90
417.06	239.61
417.43	240.27
417.81	241.01
418.18	241.82
418.55	242.68
418.93	243.55
419.30	244.45
419.67	245.40
420.04	246.33
420.42	247.33
420.79	248.53
421.16	249.72
421.54	250.96
421.91	252.18
422.28	253.39
422.66	254.73
423.03	256.04
423.40	257.32
423.77	258.72
424.15	260.18
424.52	261.70
424.89	263.33
425.26	264.89
425.64	266.35
426.01	267.96
426.38	269.61
426.75	271.30
427.13	273.03
427.50	274.80
427.87	276.66
428.24	278.51
428.61	280.25
428.99	282.15
429.36	284.22
429.73	286.28
430.10	288.30
430.47	290.35
430.85	292.47
431.22	294.76
431.59	297.14
431.96	299.37
432.33	301.81
432.70	304.18
433.08	307.01
433.45	309.69
433.82	312.28
434.19	315.14
434.56	317.90
434.93	320.61
435.30	323.25
435.68	326.18
436.05	329.06
436.42	331.88
436.79	334.40
437.16	337.11
437.53	339.97
437.90	342.81
438.27	345.56
438.64	348.39
439.01	350.98
439.38	353.28
439.75	355.47
440.13	357.98
440.50	360.32
440.87	362.14
441.24	364.09
441.61	366.25
441.98	367.75
442.35	369.61
442.72	371.44
443.09	373.29
443.46	374.27
443.83	374.84
444.20	375.36
444.57	376.15
444.94	376.45
445.31	376.79
445.68	377.14
446.05	377.25
446.42	376.87
446.79	376.43
447.16	375.96
447.53	375.62
447.90	374.49
448.27	373.31
448.64	371.76
449.01	370.62
449.37	368.66
449.74	366.79
450.11	364.53
450.48	361.98
450.85	359.39
451.22	357.21
451.59	355.21
451.96	353.25
452.33	350.66
452.70	348.25
453.07	345.39
453.43	342.46
453.80	339.70
454.17	337.03
454.54	334.50
454.91	331.73
455.28	329.04
455.65	326.57
456.02	324.12
456.38	321.91
456.75	319.19
457.12	316.90
457.49	314.68
457.86	312.50
458.23	310.66
458.59	308.62
458.96	306.59
459.33	304.72
459.70	302.81
460.07	301.37
460.43	299.66
460.80	298.05
461.17	296.61
461.54	295.06
461.91	293.62
462.27	292.14
462.64	290.87
463.01	289.54
463.38	288.20
463.74	286.86
464.11	285.74
464.48	284.73
464.85	283.64
465.21	282.75
465.58	281.80
465.95	280.70
466.32	279.78
466.68	278.85
467.05	277.94
467.42	277.10
467.78	276.10
468.15	275.23
468.52	274.53
468.88	273.67
469.25	272.92
469.62	272.29
469.98	271.61
470.35	271.03
470.72	270.37
471.08	269.72
471.45	269.15
471.82	268.58
472.18	267.97
472.55	267.52
472.92	266.99
473.28	266.55
473.65	266.11
474.02	265.66
474.38	265.27
474.75	264.92
475.11	264.55
475.48	264.30
475.85	264.05
476.21	263.82
476.58	263.62
476.94	263.43
477.31	263.21
477.67	263.05
478.04	262.91
478.41	262.87
478.77	262.91
479.14	262.85
479.50	262.84
479.87	262.90
480.23	262.98
480.60	263.04
480.96	263.11
481.33	263.33
481.69	263.56
482.06	263.75
482.42	263.94
482.79	264.20
483.15	264.49
483.52	264.87
483.88	265.23
484.25	265.65
484.61	266.07
484.98	266.58
485.34	267.20
485.71	267.81
486.07	268.44
486.44	269.01
486.80	269.70
487.17	270.46
487.53	271.28
487.90	272.14
488.26	273.09
488.62	274.08
488.99	275.05
489.35	276.06
489.72	277.22
490.08	278.45
490.44	279.66
490.81	281.03
491.17	282.41
491.54	283.91
491.90	285.44
492.26	287.12
492.63	288.83
492.99	290.53
493.36	292.39
493.72	294.38
494.08	296.47
494.45	298.72
494.81	301.09
495.17	303.49
495.54	306.04
495.90	308.69
496.26	311.47
496.63	314.42
496.99	317.56
497.35	320.74
497.72	324.09
498.08	327.64
498.44	331.29
498.80	335.19
499.17	339.22
499.53	343.39
499.89	347.78
500.26	352.36
500.62	357.03
500.98	361.99
501.34	367.11
501.71	372.44
502.07	377.89
502.43	383.46
502.79	389.35
503.16	395.40
503.52	401.68
503.88	408.11
504.24	414.76
504.60	421.57
504.97	428.75
505.33	436.13
505.69	443.79
506.05	451.55
506.41	459.45
506.78	467.59
507.14	475.99
507.50	484.72
507.86	493.66
508.22	502.91
508.59	512.11
508.95	521.65
509.31	531.55
509.67	541.63
510.03	552.00
510.39	562.60
510.75	573.43
511.12	584.44
511.48	595.74
511.84	607.22
512.20	618.79
512.56	630.74
512.92	642.92
513.28	655.20
513.64	667.75
514.00	680.46
514.37	693.45
514.73	706.65
515.09	719.75
515.45	733.11
515.81	746.72
516.17	760.72
516.53	774.89
516.89	788.94
517.25	803.18
517.61	817.60
517.97	832.05
518.33	846.51
518.69	861.30
519.05	876.31
519.41	891.42
519.77	907.10
520.13	922.61
520.49	938.08
520.85	953.62
521.21	969.34
521.57	985.65
521.93	1001.46
522.29	1017.78
522.65	1033.97
523.01	1050.19
523.37	1066.28
523.73	1082.54
524.09	1098.78
524.45	1115.28
524.81	1131.93
525.17	1148.84
525.53	1165.76
525.89	1182.69
526.25	1199.48
526.61	1215.82
526.97	1232.74
527.33	1249.10
527.68	1265.80
528.04	1282.29
528.40	1298.96
528.76	1316.06
529.12	1332.67
529.48	1349.63
529.84	1365.75
530.20	1382.50
530.56	1399.56
530.91	1416.90
531.27	1433.74
531.63	1450.18
531.99	1466.86
532.35	1482.89
532.71	1498.74
533.07	1515.10
533.42	1531.13
533.78	1547.31
534.14	1563.73
534.50	1579.13
534.86	1595.14
535.21	1610.29
535.57	1626.38
535.93	1642.02
536.29	1656.95
536.65	1672.15
537.00	1686.95
537.36	1702.37
537.72	1716.92
538.08	1731.47
538.44	1745.37
538.79	1759.37
539.15	1773.25
539.51	1786.94
539.87	1801.39
540.22	1815.24
540.58	1829.08
540.94	1842.47
541.29	1855.46
541.65	1868.24
542.01	1881.44
542.37	1893.80
542.72	1906.31
543.08	1918.08
543.44	1930.42
543.79	1941.66
544.15	1952.67
544.51	1964.23
544.87	1975.14
545.22	1985.95
545.58	1996.17
545.94	2006.04
546.29	2015.88
546.65	2025.57
547.01	2034.91
547.36	2043.80
547.72	2052.30
548.07	2060.16
548.43	2068.41
548.79	2076.47
549.14	2084.10
549.50	2091.53
549.86	2099.38
550.21	2106.66
550.57	2113.75
550.92	2120.39
551.28	2127.52
551.64	2134.43
551.99	2141.11
552.35	2147.30
552.70	2153.41
553.06	2159.38
553.41	2165.62
553.77	2171.77
554.13	2177.93
554.48	2183.94
554.84	2189.22
555.19	2194.56
555.55	2199.62
555.90	2204.00
556.26	2208.83
556.61	2213.61
556.97	2217.76
557.32	2221.73
557.68	2226.00
558.03	2230.35
558.39	2234.07
558.74	2238.65
559.10	2242.60
559.45	2246.25
559.81	2250.68
560.16	2254.60
560.52	2257.84
560.87	2261.34
561.23	2263.87
561.58	2266.77
561.94	2269.23
562.29	2271.59
562.64	2274.32
563.00	2276.86
563.35	2280.38
563.71	2283.49
564.06	2286.62
564.42	2289.52
564.77	2292.03
565.12	2294.05
565.48	2295.89
565.83	2297.64
566.19	2298.76
566.54	2299.68
566.89	2300.63
567.25	2301.10
567.60	2302.46
567.96	2304.10
568.31	2304.89
568.66	2305.80
569.02	2306.35
569.37	2306.75
569.72	2307.65
570.08	2307.56
570.43	2307.72
570.78	2307.06
571.14	2305.55
571.49	2304.15
571.84	2303.82
572.20	2302.52
572.55	2301.60
572.90	2300.09
573.26	2298.77
573.61	2297.17
573.96	2295.28
574.31	2292.30
574.67	2289.12
575.02	2285.42
575.37	2281.91
575.72	2278.01
576.08	2274.87
576.43	2271.55
576.78	2267.81
577.13	2264.50
577.49	2261.43
577.84	2257.69
578.19	2253.81
578.54	2249.93
578.90	2245.61
579.25	2240.05
579.60	2235.05
579.95	2229.86
580.30	2224.73
580.66	2219.30
581.01	2214.26
581.36	2209.34
581.71	2205.15
582.06	2200.57
582.42	2195.84
582.77	2190.48
583.12	2185.82
583.47	2180.71
583.82	2175.50
584.17	2170.16
584.53	2164.56
584.88	2158.86
585.23	2153.07
585.58	2147.53
585.93	2142.09
586.28	2137.15
586.63	2131.88
586.98	2126.81
587.34	2122.18
587.69	2117.41
588.04	2112.16
588.39	2106.37
588.74	2099.87
589.09	2093.65
589.44	2086.88
589.79	2081.00
590.14	2075.51
590.49	2068.90
590.84	2062.53
591.19	2056.49
591.54	2049.95
591.89	2042.36
592.25	2035.48
592.60	2028.21
592.95	2020.58
593.30	2013.14
593.65	2005.48
594.00	1998.53
594.35	1991.24
594.70	1983.11
595.05	1975.49
595.40	1968.25
595.75	1960.66
596.10	1954.26
596.45	1947.26
596.80	1941.05
597.15	1934.23
597.50	1926.94
597.85	1920.59
598.19	1914.02
598.54	1906.81
598.89	1900.27
599.24	1894.49
599.59	1887.67
599.94	1881.44
600.29	1875.06
600.64	1868.49
600.99	1861.02
601.34	1854.02
601.69	1846.87
602.04	1839.82
602.39	1832.57
602.74	1825.69
603.08	1819.07
603.43	1812.22
603.78	1805.07
604.13	1797.82
604.48	1790.48
604.83	1783.64
605.18	1776.49
605.53	1768.29
605.87	1760.30
606.22	1752.88
606.57	1744.83
606.92	1737.51
607.27	1730.24
607.62	1723.32
607.96	1715.95
608.31	1709.29
608.66	1701.66
609.01	1694.23
609.36	1686.66
609.70	1678.61
610.05	1670.32
610.40	1662.52
610.75	1654.31
611.10	1646.62
611.44	1638.20
611.79	1630.27
612.14	1621.51
612.49	1612.52
612.83	1604.30
613.18	1596.14
613.53	1588.08
613.88	1579.52
614.22	1571.28
614.57	1562.77
614.92	1554.63
615.27	1547.01
615.61	1538.60
615.96	1530.64
616.31	1522.97
616.65	1515.55
617.00	1507.95
617.35	1500.44
617.70	1492.04
618.04	1483.49
618.39	1475.21
618.74	1467.60
619.08	1459.37
619.43	1451.85
619.78	1444.78
620.12	1437.59
620.47	1430.05
620.82	1421.88
621.16	1414.63
621.51	1406.97
621.85	1399.30
622.20	1390.85
622.55	1382.51
622.89	1374.71
623.24	1367.16
623.59	1359.84
623.93	1352.38
624.28	1345.11
624.62	1337.54
624.97	1330.37
625.32	1323.68
625.66	1316.66
626.01	1309.44
626.35	1301.85
626.70	1294.10
627.04	1286.30
627.39	1278.48
627.73	1271.13
628.08	1264.25
628.43	1256.88
628.77	1249.47
629.12	1241.96
629.46	1234.74
629.81	1227.35
630.15	1220.11
630.50	1212.49
630.84	1204.19
631.19	1196.24
631.53	1188.79
631.88	1181.27
632.22	1173.66
632.57	1166.40
632.91	1158.86
633.26	1151.49
633.60	1144.17
633.95	1137.12
634.29	1130.20
634.64	1123.54
634.98	1116.09
635.32	1108.94
635.67	1102.44
636.01	1095.87
636.36	1089.09
636.70	1082.64
637.05	1076.20
637.39	1069.81
637.73	1063.41
638.08	1057.57
638.42	1051.70
638.77	1045.22
639.11	1038.57
639.45	1032.14
639.80	1025.38
640.14	1018.97
640.49	1012.41
640.83	1006.15
641.17	999.85
641.52	993.48
641.86	987.23
642.20	981.47
642.55	975.16
642.89	968.54
643.23	962.04
643.58	956.18
643.92	949.97
644.26	943.76
644.61	937.72
644.95	931.67
645.29	925.05
645.64	918.15
645.98	911.88
646.32	906.12
646.66	900.22
647.01	894.47
647.35	888.77
647.69	882.95
648.04	877.36
648.38	871.57
648.72	865.54
649.06	859.35
649.41	853.50
649.75	847.49
650.09	841.60
650.43	835.76
650.78	829.62
651.12	823.61
651.46	817.94
651.80	812.12
652.14	806.74
652.49	801.36
652.83	796.32
653.17	790.62
653.51	784.85
653.85	779.41
654.20	773.75
654.54	767.76
654.88	762.12
655.22	756.31
655.56	750.63
655.90	745.22
656.25	739.96
656.59	734.54
656.93	729.47
657.27	724.29
657.61	718.87
657.95	713.80
658.29	708.79
658.64	703.58
658.98	698.33
659.32	692.86
659.66	687.71
660.00	682.40
660.34	677.44
660.68	672.55
661.02	667.50
661.36	662.77
661.70	658.27
662.05	653.86
662.39	649.47
662.73	645.02
663.07	640.60
663.41	636.20
663.75	631.66
664.09	627.11
664.43	622.75
664.77	618.64
665.11	614.36
665.45	610.26
665.79	606.17
666.13	602.08
666.47	598.00
666.81	593.78
667.15	589.66
667.49	585.76
667.83	582.02
668.17	578.10
668.51	574.04
668.85	570.05
669.19	566.22
669.53	562.34
669.87	558.44
670.21	554.71
670.55	551.00
670.89	547.65
671.23	544.22
671.57	540.68
671.91	537.13
672.25	533.66
672.58	530.11
672.92	526.71
673.26	523.61
673.60	520.46
673.94	517.44
674.28	514.57
674.62	511.67
674.96	508.53
675.30	505.68
675.64	502.74
675.97	499.98
676.31	497.09
676.65	494.23
676.99	491.53
677.33	488.74
677.67	485.95
678.01	482.84
678.34	479.83
678.68	476.98
679.02	474.16
679.36	471.40
679.70	468.67
680.04	465.85
680.37	462.91
680.71	460.11
681.05	457.43
681.39	454.69
681.73	452.04
682.06	449.53
682.40	447.00
682.74	444.44
683.08	441.88
683.42	439.28
683.75	436.79
684.09	434.29
684.43	431.80
684.77	429.32
685.10	427.06
685.44	424.80
685.78	422.52
686.12	420.31
686.45	418.07
686.79	415.85
687.13	413.70
687.46	411.50
687.80	409.39
688.14	407.19
688.48	405.17
688.81	402.88
689.15	400.68
689.49	398.48
689.82	396.42
690.16	394.35
690.50	392.44
690.83	390.47
691.17	388.51
691.51	386.58
691.84	384.79
692.18	382.86
692.52	380.88
692.85	378.91
693.19	377.03
693.52	375.21
693.86	373.43
694.20	371.68
694.53	369.92
694.87	368.07
695.21	366.38
695.54	364.52
695.88	362.86
696.21	361.19
696.55	359.54
696.88	357.88
697.22	356.25
697.56	354.61
697.89	352.97
698.23	351.34
698.56	349.80
698.90	348.17
699.23	346.53
699.57	344.98
699.90	343.49
700.24	341.93
700.58	340.36
700.91	338.84
701.25	337.36
701.58	336.00
701.92	334.68
702.25	333.23
702.59	331.87
702.92	330.53
703.26	329.21
703.59	327.91
703.93	326.74
704.26	325.48
704.60	324.17
704.93	322.92
705.26	321.69
705.60	320.52
705.93	319.38
706.27	318.39
706.60	317.37
706.94	316.26
707.27	315.12
707.61	314.10
707.94	313.08
708.27	312.05
708.61	310.95
708.94	309.93
709.28	308.96
709.61	308.00
709.94	307.05
710.28	306.02
710.61	305.05
710.95	303.94
711.28	303.02
711.61	302.07
711.95	301.13
712.28	300.16
712.61	299.17
712.95	298.21
713.28	297.28
713.61	296.35
713.95	295.43
714.28	294.64
714.61	293.72
714.95	292.86
715.28	291.99
715.61	291.12
715.95	290.24
716.28	289.40
716.61	288.57
716.95	287.73
717.28	287.02
717.61	286.27
717.94	285.57
718.28	284.80
718.61	284.11
718.94	283.41
719.27	282.77
719.61	282.10
719.94	281.48
720.27	280.75
720.60	280.08
720.94	279.49
721.27	278.88
721.60	278.33
721.93	277.74
722.27	277.18
722.60	276.63
722.93	276.08
723.26	275.53
723.59	274.99
723.93	274.46
724.26	273.89
724.59	273.29
724.92	272.78
725.25	272.27
725.59	271.71
725.92	271.20
726.25	270.75
726.58	270.25
726.91	269.73
727.24	269.27
727.57	268.79
727.91	268.26
728.24	267.80
728.57	267.31
728.90	266.87
729.23	266.36
729.56	265.94
729.89	265.47
730.22	264.98
730.55	264.50
730.89	264.02
731.22	263.57
731.55	263.18
731.88	262.75
732.21	262.30
732.54	261.88
732.87	261.46
733.20	261.03
733.53	260.64
733.86	260.27
734.19	259.88
734.52	259.56
734.85	259.25
735.18	258.83
735.51	258.46
735.84	258.06
736.17	257.71
736.50	257.33
736.83	257.09
737.16	256.78
737.49	256.47
737.82	256.17
738.15	255.86
738.48	255.50
738.81	255.14
739.14	254.84
739.47	254.53
739.80	254.25
740.13	253.93
740.46	253.60
740.79	253.31
741.12	252.99
741.45	252.63
741.78	252.30
742.11	252.03
742.44	251.73
742.77	251.43
743.10	251.13
743.43	250.79
743.75	250.40
744.08	250.22
744.41	249.93
744.74	249.65
745.07	249.37
745.40	249.15
745.73	248.92
746.06	248.66
746.39	248.43
746.71	248.15
747.04	247.88
747.37	247.65
747.70	247.39
748.03	247.14
748.36	246.91
748.68	246.66
749.01	246.39
749.34	246.16
749.67	245.94
750.00	245.73
750.33	245.56
750.65	245.37
750.98	245.05
751.31	244.84
751.64	244.62
751.97	244.45
752.29	244.19
752.62	243.93
752.95	243.73
753.28	243.48
753.60	243.28
753.93	243.12
754.26	242.90
754.59	242.65
754.91	242.48
755.24	242.31
755.57	242.12
755.90	241.95
756.22	241.74
756.55	241.54
756.88	241.32
757.20	241.12
757.53	240.90
757.86	240.71
758.19	240.57
758.51	240.40
758.84	240.17
759.17	240.03
759.49	239.90
759.82	239.74
760.15	239.62
760.47	239.45
760.80	239.27
761.13	239.16
761.45	239.01
761.78	238.85
762.11	238.68
762.43	238.55
762.76	238.39
763.08	238.29
763.41	238.18
763.74	238.08
764.06	237.93
764.39	237.81
764.71	237.69
765.04	237.57
765.37	237.44
765.69	237.32
766.02	237.15
766.34	237.02
766.67	236.91
767.00	236.80
767.32	236.74
767.65	236.64
767.97	236.52
768.30	236.40
768.62	236.27
768.95	236.17
769.27	236.03
769.60	235.96
769.92	235.80
770.25	235.69
770.57	235.56
770.90	235.47
771.22	235.37
771.55	235.26
771.87	235.17
772.20	235.08
772.52	235.09
772.85	235.14
773.17	235.06
773.50	234.93
773.82	234.81
774.15	234.67
774.47	234.56
774.80	234.45
775.12	234.39
775.45	234.29
775.77	234.19
776.09	234.16
776.42	234.05
776.74	234.00
777.07	233.89
777.39	233.80
777.72	233.72
778.04	233.64
778.36	233.58
778.69	233.49
779.01	233.43
779.33	233.26
779.66	233.06
779.98	232.96
780.31	232.91
780.63	232.87
780.95	232.82
781.28	232.73
781.60	232.67
781.92	232.64
782.25	232.58
782.57	232.54
782.89	232.47
783.22	232.43
783.54	232.35
783.86	232.28
784.19	232.25
784.51	232.22
784.83	232.18
785.16	232.13
785.48	232.04
785.80	232.00
786.12	231.97
786.45	231.96
786.77	231.94
787.09	231.90
