SpectraSuite Data File
++++++++++++++++++++++++++++++++++++
Date: Fri Feb 01 17:45:39 EST 2013
User: group
Dark Spectrum Present: No
Reference Spectrum Present: No
Number of Sampled Component Spectra: 1
Spectrometers: USB2E7196
Integration Time (usec): 35000 (USB2E7196)
Spectra Averaged: 100 (USB2E7196)
Boxcar Smoothing: 10 (USB2E7196)
Correct for Electrical Dark: No (USB2E7196)
Strobe/Lamp Enabled: No (USB2E7196)
Correct for Detector Non-linearity: No (USB2E7196)
Correct for Stray Light: No (USB2E7196)
Number of Pixels in Processed Spectrum: 2048
>>>>>Begin Processed Spectral Data<<<<<
339.09	0.00
339.48	212.83
339.86	214.13
340.24	215.02
340.63	216.22
341.01	219.70
341.39	219.88
341.78	220.49
342.16	222.25
342.54	222.59
342.93	211.03
343.31	221.67
343.69	222.21
344.07	222.63
344.46	223.04
344.84	223.40
345.22	223.65
345.60	223.87
345.99	224.07
346.37	224.19
346.75	224.27
347.13	224.31
347.52	224.37
347.90	224.40
348.28	224.38
348.66	224.38
349.05	224.40
349.43	224.44
349.81	224.49
350.19	224.51
350.57	224.58
350.96	224.70
351.34	224.80
351.72	224.87
352.10	225.01
352.48	225.10
352.87	225.21
353.25	225.23
353.63	225.27
354.01	225.32
354.39	225.38
354.77	225.46
355.15	225.57
355.54	225.62
355.92	225.68
356.30	225.76
356.68	225.94
357.06	226.03
357.44	226.09
357.82	226.14
358.20	226.25
358.58	226.31
358.97	226.33
359.35	226.42
359.73	226.52
360.11	226.57
360.49	226.67
360.87	226.71
361.25	226.80
361.63	226.91
362.01	226.99
362.39	227.03
362.77	227.08
363.15	227.08
363.53	227.14
363.91	227.16
364.29	227.17
364.67	227.08
365.05	227.10
365.43	227.15
365.81	227.18
366.19	227.21
366.57	227.25
366.95	227.27
367.33	227.26
367.71	227.23
368.09	227.26
368.47	227.23
368.85	227.21
369.23	227.20
369.61	227.17
369.99	227.21
370.37	227.20
370.75	227.25
371.13	227.20
371.51	227.15
371.89	227.12
372.27	227.13
372.65	227.10
373.03	227.06
373.41	226.99
373.78	226.96
374.16	226.86
374.54	226.81
374.92	226.76
375.30	226.69
375.68	226.64
376.06	226.57
376.44	226.50
376.82	226.44
377.19	226.38
377.57	226.31
377.95	226.20
378.33	226.13
378.71	226.01
379.09	225.99
379.47	225.94
379.84	225.90
380.22	225.79
380.60	225.72
380.98	225.66
381.36	225.58
381.73	225.50
382.11	225.48
382.49	225.40
382.87	225.33
383.25	225.28
383.62	225.35
384.00	225.29
384.38	225.23
384.76	225.23
385.13	225.22
385.51	225.20
385.89	225.12
386.27	225.08
386.64	225.03
387.02	224.98
387.40	224.92
387.78	224.89
388.15	224.86
388.53	224.83
388.91	224.77
389.29	224.74
389.66	224.71
390.04	224.66
390.42	224.67
390.79	224.66
391.17	224.66
391.55	224.54
391.92	224.51
392.30	224.51
392.68	224.43
393.05	224.43
393.43	224.42
393.81	224.42
394.18	224.40
394.56	224.40
394.94	224.41
395.31	224.40
395.69	224.45
396.06	224.49
396.44	224.52
396.82	224.57
397.19	224.67
397.57	224.71
397.95	224.76
398.32	224.77
398.70	224.81
399.07	224.88
399.45	224.87
399.82	224.93
400.20	224.97
400.58	225.06
400.95	225.08
401.33	225.15
401.70	225.32
402.08	225.40
402.45	225.48
402.83	225.57
403.20	225.69
403.58	225.77
403.95	225.90
404.33	226.05
404.71	226.15
405.08	226.35
405.46	226.47
405.83	226.65
406.21	226.82
406.58	227.00
406.96	227.14
407.33	227.37
407.70	227.61
408.08	227.93
408.45	228.18
408.83	228.48
409.20	228.72
409.58	228.89
409.95	229.22
410.33	229.57
410.70	229.91
411.08	230.29
411.45	230.64
411.82	231.02
412.20	231.43
412.57	231.95
412.95	232.28
413.32	232.77
413.69	233.27
414.07	233.75
414.44	234.32
414.82	234.93
415.19	235.62
415.56	236.29
415.94	236.98
416.31	237.79
416.68	238.56
417.06	239.50
417.43	240.41
417.81	241.39
418.18	242.36
418.55	243.41
418.93	244.52
419.30	245.68
419.67	246.87
420.04	248.08
420.42	249.31
420.79	250.79
421.16	252.23
421.54	253.71
421.91	255.29
422.28	256.94
422.66	258.66
423.03	260.30
423.40	261.98
423.77	263.79
424.15	265.58
424.52	267.46
424.89	269.49
425.26	271.45
425.64	273.26
426.01	275.30
426.38	277.40
426.75	279.49
427.13	281.66
427.50	283.92
427.87	286.25
428.24	288.63
428.61	290.85
428.99	293.30
429.36	295.97
429.73	298.55
430.10	301.07
430.47	303.62
430.85	306.25
431.22	309.08
431.59	312.04
431.96	314.87
432.33	317.99
432.70	320.98
433.08	324.51
433.45	327.79
433.82	331.05
434.19	334.66
434.56	338.21
434.93	341.53
435.30	344.82
435.68	348.49
436.05	351.99
436.42	355.53
436.79	358.69
437.16	362.07
437.53	365.65
437.90	369.15
438.27	372.64
438.64	376.19
439.01	379.44
439.38	382.28
439.75	385.03
440.13	388.20
440.50	391.11
440.87	393.44
441.24	395.93
441.61	398.68
441.98	400.55
442.35	402.80
442.72	405.13
443.09	407.37
443.46	408.62
443.83	409.40
444.20	410.06
444.57	411.12
444.94	411.51
445.31	411.98
445.68	412.43
446.05	412.56
446.42	412.16
446.79	411.61
447.16	411.05
447.53	410.62
447.90	409.15
448.27	407.71
448.64	405.69
449.01	404.30
449.37	401.84
449.74	399.46
450.11	396.66
450.48	393.59
450.85	390.47
451.22	387.81
451.59	385.28
451.96	382.83
452.33	379.60
452.70	376.62
453.07	373.02
453.43	369.41
453.80	365.90
454.17	362.50
454.54	359.34
454.91	355.85
455.28	352.47
455.65	349.34
456.02	346.23
456.38	343.55
456.75	340.11
457.12	337.19
457.49	334.41
457.86	331.68
458.23	329.34
458.59	326.73
458.96	324.07
459.33	321.70
459.70	319.34
460.07	317.40
460.43	315.26
460.80	313.20
461.17	311.33
461.54	309.43
461.91	307.64
462.27	305.82
462.64	304.26
463.01	302.55
463.38	300.87
463.74	299.16
464.11	297.71
464.48	296.44
464.85	295.08
465.21	293.97
465.58	292.75
465.95	291.34
466.32	290.17
466.68	289.03
467.05	287.87
467.42	286.72
467.78	285.54
468.15	284.43
468.52	283.54
468.88	282.47
469.25	281.45
469.62	280.65
469.98	279.78
470.35	279.03
470.72	278.25
471.08	277.45
471.45	276.74
471.82	276.03
472.18	275.26
472.55	274.71
472.92	274.03
473.28	273.48
473.65	272.91
474.02	272.35
474.38	271.87
474.75	271.52
475.11	271.07
475.48	270.73
475.85	270.41
476.21	270.12
476.58	269.84
476.94	269.62
477.31	269.36
477.67	269.11
478.04	268.88
478.41	268.77
478.77	268.75
479.14	268.63
479.50	268.56
479.87	268.57
480.23	268.60
480.60	268.59
480.96	268.65
481.33	268.83
481.69	269.01
482.06	269.14
482.42	269.25
482.79	269.44
483.15	269.71
483.52	270.07
483.88	270.40
484.25	270.74
484.61	271.16
484.98	271.59
485.34	272.15
485.71	272.75
486.07	273.36
486.44	273.88
486.80	274.59
487.17	275.33
487.53	276.18
487.90	277.04
488.26	277.99
488.62	278.92
488.99	279.91
489.35	280.95
489.72	282.11
490.08	283.34
490.44	284.61
490.81	285.96
491.17	287.33
491.54	288.84
491.90	290.47
492.26	292.15
492.63	293.93
492.99	295.74
493.36	297.66
493.72	299.74
494.08	301.95
494.45	304.28
494.81	306.73
495.17	309.24
495.54	311.92
495.90	314.68
496.26	317.58
496.63	320.65
496.99	323.90
497.35	327.31
497.72	330.83
498.08	334.50
498.44	338.29
498.80	342.33
499.17	346.50
499.53	350.88
499.89	355.40
500.26	360.07
500.62	364.93
500.98	370.10
501.34	375.37
501.71	380.88
502.07	386.52
502.43	392.40
502.79	398.44
503.16	404.70
503.52	411.20
503.88	417.86
504.24	424.72
504.60	431.81
504.97	439.22
505.33	446.87
505.69	454.87
506.05	463.11
506.41	471.34
506.78	479.85
507.14	488.60
507.50	497.68
507.86	507.15
508.22	516.75
508.59	526.40
508.95	536.39
509.31	546.67
509.67	557.19
510.03	567.87
510.39	578.90
510.75	590.18
511.12	601.68
511.48	613.49
511.84	625.50
512.20	637.61
512.56	650.07
512.92	662.78
513.28	675.80
513.64	688.81
514.00	702.19
514.37	715.74
514.73	729.46
515.09	743.21
515.45	757.17
515.81	771.42
516.17	786.05
516.53	800.94
516.89	815.84
517.25	830.84
517.61	846.08
517.97	861.29
518.33	876.53
518.69	892.14
519.05	908.00
519.41	924.01
519.77	940.44
520.13	956.73
520.49	973.04
520.85	989.22
521.21	1005.80
521.57	1022.97
521.93	1039.73
522.29	1057.08
522.65	1074.33
523.01	1091.40
523.37	1108.55
523.73	1125.73
524.09	1142.82
524.45	1160.11
524.81	1177.88
525.17	1195.64
525.53	1213.69
525.89	1231.67
526.25	1249.74
526.61	1267.20
526.97	1285.13
527.33	1302.71
527.68	1320.51
528.04	1338.23
528.40	1356.08
528.76	1374.38
529.12	1392.31
529.48	1410.54
529.84	1427.83
530.20	1445.69
530.56	1463.97
530.91	1482.55
531.27	1500.61
531.63	1518.38
531.99	1536.34
532.35	1553.66
532.71	1571.01
533.07	1588.69
533.42	1606.05
533.78	1623.36
534.14	1641.09
534.50	1657.79
534.86	1675.11
535.21	1691.87
535.57	1709.24
535.93	1726.20
536.29	1742.47
536.65	1759.06
537.00	1775.11
537.36	1792.05
537.72	1808.00
538.08	1824.03
538.44	1839.44
538.79	1854.92
539.15	1870.03
539.51	1885.33
539.87	1901.08
540.22	1916.28
540.58	1931.50
540.94	1946.24
541.29	1960.57
541.65	1974.78
542.01	1989.64
542.37	2003.59
542.72	2017.54
543.08	2030.99
543.44	2045.07
543.79	2058.00
544.15	2070.42
544.51	2083.76
544.87	2096.16
545.22	2108.78
545.58	2120.79
545.94	2132.07
546.29	2143.73
546.65	2155.33
547.01	2166.22
547.36	2176.73
547.72	2186.89
548.07	2196.44
548.43	2206.16
548.79	2215.71
549.14	2224.90
549.50	2233.61
549.86	2242.72
550.21	2251.42
550.57	2260.06
550.92	2268.11
551.28	2276.57
551.64	2285.22
551.99	2293.17
552.35	2300.91
552.70	2308.44
553.06	2315.79
553.41	2323.60
553.77	2330.74
554.13	2338.07
554.48	2345.57
554.84	2352.48
555.19	2359.06
555.55	2365.57
555.90	2371.45
556.26	2378.07
556.61	2384.02
556.97	2389.84
557.32	2395.36
557.68	2400.81
558.03	2406.22
558.39	2411.03
558.74	2416.91
559.10	2422.01
559.45	2426.85
559.81	2432.24
560.16	2437.11
560.52	2441.57
560.87	2446.16
561.23	2449.94
561.58	2453.90
561.94	2457.49
562.29	2460.62
562.64	2464.68
563.00	2468.21
563.35	2472.87
563.71	2476.88
564.06	2481.07
564.42	2485.03
564.77	2488.61
565.12	2492.24
565.48	2495.24
565.83	2498.13
566.19	2500.51
566.54	2502.02
566.89	2504.14
567.25	2505.59
567.60	2507.68
567.96	2510.23
568.31	2511.87
568.66	2513.93
569.02	2515.40
569.37	2516.35
569.72	2518.03
570.08	2518.71
570.43	2519.34
570.78	2519.35
571.14	2518.27
571.49	2517.41
571.84	2517.49
572.20	2516.91
572.55	2516.02
572.90	2514.71
573.26	2513.81
573.61	2512.40
573.96	2511.22
574.31	2508.51
574.67	2505.85
575.02	2502.58
575.37	2499.23
575.72	2495.50
576.08	2492.18
576.43	2488.99
576.78	2485.85
577.13	2482.72
577.49	2479.54
577.84	2476.22
578.19	2472.31
578.54	2468.91
578.90	2464.91
579.25	2459.25
579.60	2454.31
579.95	2449.34
580.30	2444.22
580.66	2438.86
581.01	2433.70
581.36	2428.58
581.71	2424.46
582.06	2419.97
582.42	2415.34
582.77	2409.91
583.12	2405.42
583.47	2400.75
583.82	2395.70
584.17	2390.00
584.53	2384.29
584.88	2378.54
585.23	2372.72
585.58	2367.10
585.93	2361.38
586.28	2356.15
586.63	2350.92
586.98	2345.47
587.34	2340.26
587.69	2335.13
588.04	2329.70
588.39	2323.78
588.74	2316.80
589.09	2310.16
589.44	2302.91
589.79	2296.27
590.14	2290.17
590.49	2282.90
590.84	2275.84
591.19	2269.40
591.54	2262.47
591.89	2254.86
592.25	2247.60
592.60	2239.63
592.95	2231.58
593.30	2223.40
593.65	2215.12
594.00	2207.39
594.35	2199.42
594.70	2190.66
595.05	2183.01
595.40	2174.89
595.75	2166.62
596.10	2159.99
596.45	2152.61
596.80	2145.75
597.15	2138.64
597.50	2131.19
597.85	2124.06
598.19	2116.80
598.54	2109.16
598.89	2101.91
599.24	2095.00
599.59	2087.81
599.94	2080.83
600.29	2073.76
600.64	2066.43
600.99	2058.30
601.34	2050.71
601.69	2042.91
602.04	2035.44
602.39	2027.14
602.74	2019.64
603.08	2012.21
603.43	2004.65
603.78	1996.47
604.13	1988.46
604.48	1980.51
604.83	1972.81
605.18	1965.35
605.53	1956.60
605.87	1947.59
606.22	1939.31
606.57	1930.47
606.92	1921.79
607.27	1913.88
607.62	1906.28
607.96	1898.18
608.31	1890.85
608.66	1882.40
609.01	1874.03
609.36	1865.62
609.70	1856.70
610.05	1847.67
610.40	1839.07
610.75	1829.74
611.10	1821.19
611.44	1811.77
611.79	1802.57
612.14	1792.66
612.49	1782.19
612.83	1772.61
613.18	1763.29
613.53	1754.28
613.88	1744.82
614.22	1735.70
614.57	1725.88
614.92	1716.77
615.27	1708.49
615.61	1699.24
615.96	1690.09
616.31	1681.31
616.65	1672.88
617.00	1664.31
617.35	1655.56
617.70	1646.24
618.04	1636.63
618.39	1627.16
618.74	1618.54
619.08	1609.32
619.43	1600.72
619.78	1592.94
620.12	1584.92
620.47	1576.46
620.82	1567.14
621.16	1558.61
621.51	1549.86
621.85	1541.17
622.20	1531.48
622.55	1521.87
622.89	1512.84
623.24	1504.20
623.59	1495.73
623.93	1487.18
624.28	1478.98
624.62	1470.61
624.97	1462.35
625.32	1454.62
625.66	1446.63
626.01	1438.53
626.35	1430.21
626.70	1421.45
627.04	1412.67
627.39	1403.82
627.73	1395.40
628.08	1387.58
628.43	1379.39
628.77	1371.27
629.12	1362.93
629.46	1354.86
629.81	1346.28
630.15	1338.04
630.50	1329.77
630.84	1320.68
631.19	1311.71
631.53	1303.22
631.88	1294.60
632.22	1286.09
632.57	1277.92
632.91	1269.33
633.26	1260.93
633.60	1252.47
633.95	1244.35
634.29	1236.33
634.64	1228.69
634.98	1220.46
635.32	1212.42
635.67	1204.88
636.01	1197.27
636.36	1189.63
636.70	1182.17
637.05	1174.84
637.39	1167.58
637.73	1160.22
638.08	1153.64
638.42	1147.03
638.77	1139.67
639.11	1132.36
639.45	1125.07
639.80	1117.55
640.14	1110.61
640.49	1103.22
640.83	1096.10
641.17	1089.25
641.52	1082.24
641.86	1075.06
642.20	1068.54
642.55	1061.36
642.89	1054.18
643.23	1046.82
643.58	1040.29
643.92	1033.44
644.26	1026.79
644.61	1020.04
644.95	1013.36
645.29	1005.98
645.64	998.32
645.98	991.27
646.32	984.55
646.66	977.86
647.01	971.44
647.35	964.98
647.69	958.50
648.04	952.38
648.38	945.91
648.72	939.39
649.06	932.68
649.41	925.98
649.75	919.48
650.09	912.86
650.43	906.36
650.78	899.43
651.12	892.70
651.46	886.19
651.80	879.82
652.14	873.74
652.49	867.77
652.83	862.04
653.17	855.83
653.51	849.65
653.85	843.57
654.20	837.27
654.54	830.63
654.88	824.20
655.22	817.60
655.56	811.15
655.90	804.83
656.25	798.97
656.59	792.96
656.93	787.18
657.27	781.48
657.61	775.52
657.95	769.91
658.29	764.29
658.64	758.42
658.98	752.50
659.32	746.34
659.66	740.46
660.00	734.70
660.34	729.12
660.68	723.46
661.02	717.85
661.36	712.61
661.70	707.50
662.05	702.67
662.39	697.90
662.73	692.90
663.07	688.09
663.41	683.14
663.75	678.18
664.09	673.14
664.43	668.12
664.77	663.55
665.11	658.78
665.45	654.13
665.79	649.64
666.13	645.03
666.47	640.50
666.81	635.95
667.15	631.22
667.49	626.84
667.83	622.59
668.17	618.23
668.51	613.61
668.85	609.22
669.19	604.86
669.53	600.59
669.87	596.39
670.21	592.22
670.55	588.07
670.89	584.24
671.23	580.45
671.57	576.57
671.91	572.67
672.25	568.74
672.58	564.87
672.92	561.08
673.26	557.50
673.60	553.98
673.94	550.54
674.28	547.32
674.62	544.05
674.96	540.65
675.30	537.35
675.64	534.17
675.97	530.97
676.31	527.82
676.65	524.58
676.99	521.56
677.33	518.34
677.67	515.25
678.01	511.89
678.34	508.55
678.68	505.40
679.02	502.20
679.36	499.11
679.70	496.03
680.04	492.93
680.37	489.81
680.71	486.72
681.05	483.74
681.39	480.70
681.73	477.71
682.06	474.90
682.40	472.12
682.74	469.29
683.08	466.47
683.42	463.57
683.75	460.74
684.09	457.86
684.43	455.10
684.77	452.36
685.10	449.72
685.44	447.12
685.78	444.52
686.12	442.00
686.45	439.47
686.79	436.91
687.13	434.45
687.46	431.97
687.80	429.52
688.14	427.03
688.48	424.71
688.81	422.26
689.15	419.82
689.49	417.38
689.82	414.98
690.16	412.61
690.50	410.38
690.83	408.21
691.17	405.96
691.51	403.86
691.84	401.78
692.18	399.64
692.52	397.45
692.85	395.28
693.19	393.18
693.52	391.14
693.86	389.07
694.20	387.06
694.53	385.09
694.87	383.03
695.21	381.04
695.54	378.98
695.88	376.98
696.21	375.01
696.55	373.14
696.88	371.29
697.22	369.42
697.56	367.58
697.89	365.73
698.23	363.94
698.56	362.16
698.90	360.41
699.23	358.59
699.57	356.86
699.90	355.11
700.24	353.38
700.58	351.70
700.91	350.07
701.25	348.44
701.58	346.86
701.92	345.32
702.25	343.76
702.59	342.27
702.92	340.82
703.26	339.40
703.59	337.98
703.93	336.64
704.26	335.33
704.60	333.90
704.93	332.48
705.26	331.08
705.60	329.69
705.93	328.36
706.27	327.21
706.60	326.04
706.94	324.82
707.27	323.54
707.61	322.29
707.94	321.10
708.27	319.93
708.61	318.74
708.94	317.65
709.28	316.54
709.61	315.43
709.94	314.36
710.28	313.24
710.61	312.10
710.95	310.87
711.28	309.76
711.61	308.71
711.95	307.67
712.28	306.63
712.61	305.57
712.95	304.51
713.28	303.47
713.61	302.45
713.95	301.49
714.28	300.55
714.61	299.59
714.95	298.64
715.28	297.68
715.61	296.69
715.95	295.71
716.28	294.75
716.61	293.78
716.95	292.87
717.28	292.00
717.61	291.13
717.94	290.35
718.28	289.46
718.61	288.61
718.94	287.84
719.27	287.09
719.61	286.33
719.94	285.61
720.27	284.80
720.60	284.06
720.94	283.39
721.27	282.72
721.60	282.06
721.93	281.40
722.27	280.76
722.60	280.15
722.93	279.52
723.26	278.92
723.59	278.31
723.93	277.69
724.26	277.09
724.59	276.51
724.92	275.89
725.25	275.33
725.59	274.81
725.92	274.23
726.25	273.67
726.58	273.14
726.91	272.55
727.24	272.02
727.57	271.48
727.91	270.87
728.24	270.35
728.57	269.82
728.90	269.29
729.23	268.72
729.56	268.24
729.89	267.64
730.22	267.08
730.55	266.59
730.89	266.10
731.22	265.59
731.55	265.08
731.88	264.56
732.21	264.07
732.54	263.56
732.87	263.07
733.20	262.62
733.53	262.17
733.86	261.77
734.19	261.34
734.52	260.92
734.85	260.58
735.18	260.08
735.51	259.69
735.84	259.25
736.17	258.88
736.50	258.39
736.83	258.16
737.16	257.79
737.49	257.41
737.82	257.00
738.15	256.62
738.48	256.25
738.81	255.92
739.14	255.54
739.47	255.16
739.80	254.80
740.13	254.44
740.46	254.06
740.79	253.66
741.12	253.32
741.45	252.98
741.78	252.57
742.11	252.30
742.44	251.89
742.77	251.60
743.10	251.25
743.43	250.96
743.75	250.53
744.08	250.37
744.41	250.05
744.74	249.75
745.07	249.42
745.40	249.16
745.73	248.86
746.06	248.56
746.39	248.30
746.71	248.00
747.04	247.69
747.37	247.44
747.70	247.18
748.03	246.87
748.36	246.58
748.68	246.33
749.01	246.05
749.34	245.84
749.67	245.60
750.00	245.38
750.33	245.20
750.65	244.95
750.98	244.59
751.31	244.37
751.64	244.16
751.97	243.99
752.29	243.75
752.62	243.50
752.95	243.32
753.28	243.03
753.60	242.82
753.93	242.62
754.26	242.38
754.59	242.15
754.91	241.94
755.24	241.75
755.57	241.53
755.90	241.31
756.22	241.08
756.55	240.84
756.88	240.63
757.20	240.37
757.53	240.20
757.86	240.01
758.19	239.80
758.51	239.59
758.84	239.36
759.17	239.15
759.49	239.01
759.82	238.85
760.15	238.71
760.47	238.52
760.80	238.35
761.13	238.18
761.45	238.04
761.78	237.89
762.11	237.75
762.43	237.56
762.76	237.42
763.08	237.29
763.41	237.16
763.74	237.00
764.06	236.83
764.39	236.68
764.71	236.54
765.04	236.38
765.37	236.22
765.69	236.08
766.02	235.97
766.34	235.81
766.67	235.66
767.00	235.54
767.32	235.48
767.65	235.40
767.97	235.31
768.30	235.21
768.62	235.08
768.95	234.92
769.27	234.82
769.60	234.70
769.92	234.55
770.25	234.41
770.57	234.29
770.90	234.17
771.22	234.01
771.55	233.90
771.87	233.82
772.20	233.70
772.52	233.67
772.85	233.67
773.17	233.54
773.50	233.44
773.82	233.36
774.15	233.21
774.47	233.05
774.80	232.92
775.12	232.78
775.45	232.73
775.77	232.65
776.09	232.56
776.42	232.50
776.74	232.42
777.07	232.35
777.39	232.27
777.72	232.18
778.04	232.17
778.36	232.08
778.69	232.03
779.01	231.99
779.33	231.84
779.66	231.66
779.98	231.62
780.31	231.54
780.63	231.46
780.95	231.40
781.28	231.30
781.60	231.21
781.92	231.15
782.25	231.01
782.57	230.94
782.89	230.86
783.22	230.75
783.54	230.67
783.86	230.61
784.19	230.54
784.51	230.51
784.83	230.44
785.16	230.37
785.48	230.27
785.80	230.21
786.12	230.16
786.45	230.08
786.77	230.01
