SpectraSuite Data File
++++++++++++++++++++++++++++++++++++
Date: Fri Feb 01 17:39:07 EST 2013
User: group
Dark Spectrum Present: No
Reference Spectrum Present: No
Number of Sampled Component Spectra: 1
Spectrometers: USB2E7196
Integration Time (usec): 35000 (USB2E7196)
Spectra Averaged: 100 (USB2E7196)
Boxcar Smoothing: 10 (USB2E7196)
Correct for Electrical Dark: No (USB2E7196)
Strobe/Lamp Enabled: No (USB2E7196)
Correct for Detector Non-linearity: No (USB2E7196)
Correct for Stray Light: No (USB2E7196)
Number of Pixels in Processed Spectrum: 2048
>>>>>Begin Processed Spectral Data<<<<<
339.09	0.00
339.48	213.12
339.86	214.28
340.24	215.49
340.63	217.15
341.01	220.24
341.39	220.23
341.78	221.30
342.16	222.55
342.54	222.57
342.93	211.25
343.31	221.90
343.69	222.42
344.07	222.87
344.46	223.29
344.84	223.67
345.22	223.87
345.60	224.09
345.99	224.26
346.37	224.35
346.75	224.44
347.13	224.50
347.52	224.56
347.90	224.65
348.28	224.65
348.66	224.70
349.05	224.72
349.43	224.77
349.81	224.80
350.19	224.85
350.57	224.93
350.96	224.96
351.34	225.04
351.72	225.16
352.10	225.27
352.48	225.34
352.87	225.37
353.25	225.47
353.63	225.54
354.01	225.60
354.39	225.67
354.77	225.75
355.15	225.86
355.54	225.89
355.92	225.94
356.30	226.04
356.68	226.17
357.06	226.26
357.44	226.31
357.82	226.40
358.20	226.49
358.58	226.54
358.97	226.64
359.35	226.74
359.73	226.79
360.11	226.85
360.49	226.92
360.87	226.97
361.25	227.00
361.63	227.05
362.01	227.13
362.39	227.19
362.77	227.23
363.15	227.26
363.53	227.30
363.91	227.32
364.29	227.38
364.67	227.32
365.05	227.32
365.43	227.37
365.81	227.41
366.19	227.46
366.57	227.48
366.95	227.47
367.33	227.45
367.71	227.42
368.09	227.44
368.47	227.42
368.85	227.39
369.23	227.40
369.61	227.37
369.99	227.38
370.37	227.36
370.75	227.40
371.13	227.36
371.51	227.30
371.89	227.28
372.27	227.21
372.65	227.17
373.03	227.14
373.41	227.05
373.78	226.98
374.16	226.87
374.54	226.79
374.92	226.74
375.30	226.69
375.68	226.63
376.06	226.55
376.44	226.48
376.82	226.44
377.19	226.37
377.57	226.30
377.95	226.16
378.33	226.11
378.71	225.95
379.09	225.90
379.47	225.87
379.84	225.81
380.22	225.76
380.60	225.69
380.98	225.64
381.36	225.58
381.73	225.51
382.11	225.48
382.49	225.41
382.87	225.34
383.25	225.30
383.62	225.37
384.00	225.29
384.38	225.24
384.76	225.22
385.13	225.18
385.51	225.14
385.89	225.09
386.27	225.07
386.64	225.06
387.02	224.98
387.40	224.93
387.78	224.87
388.15	224.81
388.53	224.76
388.91	224.70
389.29	224.64
389.66	224.64
390.04	224.62
390.42	224.59
390.79	224.58
391.17	224.54
391.55	224.41
391.92	224.42
392.30	224.45
392.68	224.41
393.05	224.42
393.43	224.44
393.81	224.47
394.18	224.44
394.56	224.45
394.94	224.50
395.31	224.51
395.69	224.55
396.06	224.58
396.44	224.61
396.82	224.66
397.19	224.75
397.57	224.77
397.95	224.83
398.32	224.83
398.70	224.89
399.07	224.97
399.45	225.02
399.82	225.05
400.20	225.03
400.58	225.12
400.95	225.11
401.33	225.17
401.70	225.31
402.08	225.39
402.45	225.47
402.83	225.57
403.20	225.66
403.58	225.73
403.95	225.84
404.33	225.99
404.71	226.06
405.08	226.26
405.46	226.41
405.83	226.55
406.21	226.72
406.58	226.83
406.96	226.96
407.33	227.12
407.70	227.33
408.08	227.65
408.45	227.87
408.83	228.13
409.20	228.32
409.58	228.50
409.95	228.75
410.33	229.01
410.70	229.28
411.08	229.58
411.45	229.89
411.82	230.19
412.20	230.54
412.57	230.97
412.95	231.23
413.32	231.61
413.69	231.99
414.07	232.48
414.44	232.96
414.82	233.47
415.19	234.05
415.56	234.62
415.94	235.16
416.31	235.81
416.68	236.44
417.06	237.21
417.43	237.90
417.81	238.76
418.18	239.55
418.55	240.44
418.93	241.34
419.30	242.27
419.67	243.25
420.04	244.23
420.42	245.29
420.79	246.51
421.16	247.76
421.54	248.99
421.91	250.26
422.28	251.58
422.66	252.96
423.03	254.30
423.40	255.70
423.77	257.17
424.15	258.64
424.52	260.20
424.89	261.91
425.26	263.54
425.64	265.03
426.01	266.71
426.38	268.43
426.75	270.20
427.13	272.02
427.50	273.90
427.87	275.89
428.24	277.83
428.61	279.67
428.99	281.69
429.36	283.93
429.73	286.07
430.10	288.17
430.47	290.33
430.85	292.55
431.22	294.87
431.59	297.36
431.96	299.70
432.33	302.29
432.70	304.77
433.08	307.68
433.45	310.44
433.82	313.15
434.19	316.14
434.56	319.08
434.93	321.85
435.30	324.60
435.68	327.60
436.05	330.56
436.42	333.46
436.79	336.10
437.16	338.90
437.53	341.84
437.90	344.76
438.27	347.61
438.64	350.54
439.01	353.30
439.38	355.62
439.75	357.90
440.13	360.47
440.50	362.89
440.87	364.83
441.24	366.87
441.61	369.13
441.98	370.65
442.35	372.55
442.72	374.51
443.09	376.45
443.46	377.50
443.83	378.15
444.20	378.68
444.57	379.56
444.94	379.86
445.31	380.18
445.68	380.59
446.05	380.71
446.42	380.35
446.79	379.91
447.16	379.50
447.53	379.20
447.90	378.05
448.27	376.87
448.64	375.23
449.01	374.04
449.37	372.01
449.74	370.10
450.11	367.76
450.48	365.16
450.85	362.47
451.22	360.23
451.59	358.12
451.96	356.14
452.33	353.40
452.70	350.99
453.07	348.12
453.43	345.10
453.80	342.19
454.17	339.40
454.54	336.73
454.91	333.90
455.28	331.10
455.65	328.49
456.02	325.96
456.38	323.70
456.75	320.93
457.12	318.58
457.49	316.23
457.86	313.96
458.23	312.03
458.59	309.93
458.96	307.75
459.33	305.84
459.70	303.86
460.07	302.28
460.43	300.45
460.80	298.74
461.17	297.25
461.54	295.73
461.91	294.25
462.27	292.73
462.64	291.41
463.01	289.99
463.38	288.65
463.74	287.20
464.11	286.01
464.48	284.94
464.85	283.77
465.21	282.90
465.58	281.92
465.95	280.80
466.32	279.84
466.68	278.92
467.05	277.97
467.42	277.06
467.78	276.12
468.15	275.20
468.52	274.50
468.88	273.61
469.25	272.83
469.62	272.18
469.98	271.49
470.35	270.80
470.72	270.20
471.08	269.54
471.45	269.00
471.82	268.41
472.18	267.81
472.55	267.37
472.92	266.82
473.28	266.35
473.65	265.86
474.02	265.42
474.38	265.02
474.75	264.66
475.11	264.28
475.48	263.99
475.85	263.76
476.21	263.50
476.58	263.30
476.94	263.14
477.31	262.95
477.67	262.80
478.04	262.67
478.41	262.59
478.77	262.64
479.14	262.54
479.50	262.59
479.87	262.61
480.23	262.72
480.60	262.78
480.96	262.89
481.33	263.12
481.69	263.33
482.06	263.53
482.42	263.76
482.79	264.01
483.15	264.39
483.52	264.76
483.88	265.13
484.25	265.52
484.61	265.95
484.98	266.38
485.34	266.94
485.71	267.59
486.07	268.19
486.44	268.70
486.80	269.45
487.17	270.16
487.53	271.01
487.90	271.88
488.26	272.81
488.62	273.75
488.99	274.70
489.35	275.73
489.72	276.84
490.08	278.02
490.44	279.27
490.81	280.58
491.17	281.90
491.54	283.38
491.90	284.90
492.26	286.54
492.63	288.26
492.99	290.01
493.36	291.84
493.72	293.88
494.08	295.96
494.45	298.14
494.81	300.51
495.17	302.89
495.54	305.39
495.90	308.03
496.26	310.81
496.63	313.79
496.99	316.85
497.35	320.05
497.72	323.45
498.08	326.91
498.44	330.49
498.80	334.38
499.17	338.35
499.53	342.48
499.89	346.77
500.26	351.20
500.62	355.81
500.98	360.75
501.34	365.73
501.71	370.98
502.07	376.34
502.43	381.86
502.79	387.58
503.16	393.53
503.52	399.77
503.88	406.10
504.24	412.56
504.60	419.30
504.97	426.36
505.33	433.48
505.69	441.07
506.05	448.73
506.41	456.43
506.78	464.40
507.14	472.67
507.50	481.23
507.86	490.07
508.22	499.14
508.59	508.13
508.95	517.52
509.31	527.15
509.67	537.00
510.03	547.00
510.39	557.34
510.75	567.85
511.12	578.44
511.48	589.29
511.84	600.50
512.20	611.75
512.56	623.34
512.92	635.18
513.28	647.23
513.64	659.29
514.00	671.65
514.37	684.28
514.73	696.97
515.09	709.55
515.45	722.46
515.81	735.49
516.17	749.04
516.53	762.67
516.89	776.46
517.25	790.15
517.61	804.12
517.97	818.09
518.33	832.04
518.69	846.36
519.05	861.00
519.41	875.60
519.77	890.47
520.13	905.37
520.49	920.31
520.85	935.02
521.21	950.27
521.57	965.95
521.93	981.21
522.29	996.89
522.65	1012.66
523.01	1028.23
523.37	1043.73
523.73	1059.33
524.09	1074.88
524.45	1090.52
524.81	1106.65
525.17	1122.90
525.53	1139.18
525.89	1155.48
526.25	1171.81
526.61	1187.60
526.97	1203.84
527.33	1219.92
527.68	1235.89
528.04	1251.80
528.40	1267.78
528.76	1284.28
529.12	1300.30
529.48	1316.58
529.84	1332.16
530.20	1348.33
530.56	1364.77
530.91	1381.57
531.27	1397.95
531.63	1413.96
531.99	1430.03
532.35	1445.61
532.71	1461.08
533.07	1476.87
533.42	1492.33
533.78	1507.92
534.14	1523.71
534.50	1538.72
534.86	1554.06
535.21	1568.96
535.57	1584.48
535.93	1599.64
536.29	1614.02
536.65	1628.69
537.00	1643.14
537.36	1658.21
537.72	1672.23
538.08	1686.49
538.44	1700.15
538.79	1713.64
539.15	1726.83
539.51	1740.29
539.87	1754.24
540.22	1767.63
540.58	1781.06
540.94	1793.96
541.29	1806.37
541.65	1818.93
542.01	1831.81
542.37	1844.11
542.72	1856.34
543.08	1868.09
543.44	1880.41
543.79	1891.73
544.15	1902.54
544.51	1913.90
544.87	1924.59
545.22	1935.44
545.58	1945.56
545.94	1955.23
546.29	1965.10
546.65	1975.21
547.01	1984.62
547.36	1993.50
547.72	2002.13
548.07	2010.33
548.43	2018.84
548.79	2026.88
549.14	2034.68
549.50	2042.15
549.86	2049.80
550.21	2057.28
550.57	2064.46
550.92	2071.26
551.28	2078.49
551.64	2085.84
551.99	2092.67
552.35	2099.23
552.70	2105.75
553.06	2112.05
553.41	2118.80
553.77	2124.97
554.13	2131.22
554.48	2137.45
554.84	2143.50
555.19	2148.93
555.55	2154.29
555.90	2159.06
556.26	2164.67
556.61	2169.58
556.97	2174.42
557.32	2179.09
557.68	2183.64
558.03	2188.31
558.39	2192.37
558.74	2197.25
559.10	2201.50
559.45	2205.48
559.81	2209.93
560.16	2213.92
560.52	2217.58
560.87	2221.16
561.23	2224.23
561.58	2227.47
561.94	2230.41
562.29	2232.84
562.64	2236.27
563.00	2239.29
563.35	2243.02
563.71	2246.43
564.06	2249.82
564.42	2253.18
564.77	2256.18
565.12	2259.05
565.48	2261.52
565.83	2263.85
566.19	2265.75
566.54	2267.07
566.89	2268.89
567.25	2270.16
567.60	2271.91
567.96	2274.00
568.31	2275.42
568.66	2277.09
569.02	2278.19
569.37	2279.06
569.72	2280.34
570.08	2280.91
570.43	2281.44
570.78	2281.68
571.14	2280.58
571.49	2279.84
571.84	2279.64
572.20	2278.76
572.55	2277.92
572.90	2276.55
573.26	2275.62
573.61	2274.13
573.96	2273.15
574.31	2270.53
574.67	2268.03
575.02	2264.88
575.37	2261.82
575.72	2258.52
576.08	2255.38
576.43	2252.25
576.78	2249.24
577.13	2246.47
577.49	2243.38
577.84	2240.32
578.19	2236.78
578.54	2233.74
578.90	2230.01
579.25	2224.96
579.60	2220.62
579.95	2216.21
580.30	2211.73
580.66	2206.95
581.01	2202.31
581.36	2197.42
581.71	2193.73
582.06	2189.73
582.42	2185.81
582.77	2181.12
583.12	2176.90
583.47	2172.99
583.82	2168.68
584.17	2163.63
584.53	2158.54
584.88	2153.51
585.23	2148.20
585.58	2143.06
585.93	2137.80
586.28	2133.18
586.63	2128.67
586.98	2123.70
587.34	2119.03
587.69	2114.30
588.04	2109.52
588.39	2104.20
588.74	2098.20
589.09	2092.10
589.44	2085.64
589.79	2079.53
590.14	2073.94
590.49	2067.48
590.84	2060.86
591.19	2054.91
591.54	2048.71
591.89	2041.65
592.25	2035.28
592.60	2028.18
592.95	2021.04
593.30	2013.89
593.65	2006.52
594.00	1999.35
594.35	1992.47
594.70	1984.52
595.05	1977.70
595.40	1970.44
595.75	1963.19
596.10	1957.11
596.45	1950.81
596.80	1944.82
597.15	1938.49
597.50	1931.97
597.85	1925.75
598.19	1919.39
598.54	1912.81
598.89	1906.28
599.24	1900.50
599.59	1894.09
599.94	1887.90
600.29	1881.59
600.64	1874.98
600.99	1867.70
601.34	1861.10
601.69	1854.04
602.04	1847.53
602.39	1840.32
602.74	1833.61
603.08	1827.15
603.43	1820.45
603.78	1813.07
604.13	1805.89
604.48	1798.94
604.83	1792.03
605.18	1785.47
605.53	1777.84
605.87	1769.65
606.22	1762.42
606.57	1754.53
606.92	1746.78
607.27	1739.84
607.62	1732.99
607.96	1726.11
608.31	1719.82
608.66	1712.33
609.01	1705.04
609.36	1697.60
609.70	1689.65
610.05	1681.64
610.40	1673.89
610.75	1665.67
611.10	1658.02
611.44	1649.38
611.79	1641.19
612.14	1632.41
612.49	1622.99
612.83	1614.37
613.18	1606.16
613.53	1598.13
613.88	1589.60
614.22	1581.38
614.57	1572.49
614.92	1564.39
615.27	1556.85
615.61	1548.49
615.96	1540.45
616.31	1532.59
616.65	1525.09
617.00	1517.54
617.35	1509.78
617.70	1501.45
618.04	1493.02
618.39	1484.62
618.74	1477.27
619.08	1468.94
619.43	1461.41
619.78	1454.42
620.12	1447.34
620.47	1439.81
620.82	1431.35
621.16	1423.58
621.51	1415.78
621.85	1408.18
622.20	1399.59
622.55	1390.98
622.89	1382.95
623.24	1375.12
623.59	1367.53
623.93	1359.95
624.28	1352.44
624.62	1344.96
624.97	1337.66
625.32	1330.56
625.66	1323.55
626.01	1316.22
626.35	1308.92
626.70	1301.01
627.04	1293.30
627.39	1285.37
627.73	1277.85
628.08	1271.01
628.43	1263.91
628.77	1256.79
629.12	1249.28
629.46	1242.04
629.81	1234.42
630.15	1227.07
630.50	1219.64
630.84	1211.57
631.19	1203.52
631.53	1195.92
631.88	1188.22
632.22	1180.56
632.57	1173.21
632.91	1165.56
633.26	1158.08
633.60	1150.46
633.95	1143.13
634.29	1135.82
634.64	1129.00
634.98	1121.61
635.32	1114.49
635.67	1107.68
636.01	1100.81
636.36	1093.92
636.70	1087.35
637.05	1080.80
637.39	1074.21
637.73	1067.75
638.08	1061.73
638.42	1055.67
638.77	1049.20
639.11	1042.58
639.45	1036.09
639.80	1029.53
640.14	1023.21
640.49	1016.64
640.83	1010.21
641.17	1004.09
641.52	997.86
641.86	991.37
642.20	985.56
642.55	979.09
642.89	972.71
643.23	965.99
643.58	960.16
643.92	953.94
644.26	947.99
644.61	941.86
644.95	935.80
645.29	929.25
645.64	922.52
645.98	916.25
646.32	910.28
646.66	904.27
647.01	898.32
647.35	892.53
647.69	886.55
648.04	881.07
648.38	875.26
648.72	869.43
649.06	863.42
649.41	857.41
649.75	851.49
650.09	845.46
650.43	839.77
650.78	833.60
651.12	827.66
651.46	821.79
651.80	816.27
652.14	810.82
652.49	805.44
652.83	800.25
653.17	794.63
653.51	788.99
653.85	783.52
654.20	777.99
654.54	772.00
654.88	766.29
655.22	760.33
655.56	754.51
655.90	748.89
656.25	743.55
656.59	738.26
656.93	733.15
657.27	728.06
657.61	722.53
657.95	717.41
658.29	712.32
658.64	707.03
658.98	701.54
659.32	696.07
659.66	690.90
660.00	685.64
660.34	680.59
660.68	675.61
661.02	670.58
661.36	665.86
661.70	661.35
662.05	657.02
662.39	652.78
662.73	648.36
663.07	643.90
663.41	639.50
663.75	634.97
664.09	630.36
664.43	625.95
664.77	621.96
665.11	617.77
665.45	613.58
665.79	609.57
666.13	605.61
666.47	601.47
666.81	597.31
667.15	593.18
667.49	589.14
667.83	585.23
668.17	581.32
668.51	577.21
668.85	573.13
669.19	569.19
669.53	565.29
669.87	561.43
670.21	557.75
670.55	554.09
670.89	550.68
671.23	547.29
671.57	543.72
671.91	540.13
672.25	536.55
672.58	533.06
672.92	529.56
673.26	526.28
673.60	523.11
673.94	520.03
674.28	517.01
674.62	514.16
674.96	511.17
675.30	508.24
675.64	505.33
675.97	502.47
676.31	499.57
676.65	496.64
676.99	493.90
677.33	491.00
677.67	488.13
678.01	485.07
678.34	482.05
678.68	479.16
679.02	476.34
679.36	473.55
679.70	470.75
680.04	468.04
680.37	465.13
680.71	462.28
681.05	459.51
681.39	456.77
681.73	454.08
682.06	451.45
682.40	448.85
682.74	446.24
683.08	443.67
683.42	441.04
683.75	438.50
684.09	435.92
684.43	433.45
684.77	431.00
685.10	428.59
685.44	426.22
685.78	423.89
686.12	421.58
686.45	419.24
686.79	416.93
687.13	414.65
687.46	412.46
687.80	410.24
688.14	407.96
688.48	405.91
688.81	403.67
689.15	401.53
689.49	399.33
689.82	397.24
690.16	395.13
690.50	393.14
690.83	391.20
691.17	389.18
691.51	387.20
691.84	385.35
692.18	383.46
692.52	381.58
692.85	379.62
693.19	377.74
693.52	375.90
693.86	374.10
694.20	372.33
694.53	370.55
694.87	368.72
695.21	367.00
695.54	365.14
695.88	363.30
696.21	361.52
696.55	359.85
696.88	358.17
697.22	356.46
697.56	354.79
697.89	353.14
698.23	351.55
698.56	349.94
698.90	348.34
699.23	346.66
699.57	345.07
699.90	343.51
700.24	341.96
700.58	340.39
700.91	338.87
701.25	337.41
701.58	335.99
701.92	334.59
702.25	333.14
702.59	331.77
702.92	330.51
703.26	329.22
703.59	327.95
703.93	326.75
704.26	325.50
704.60	324.25
704.93	322.93
705.26	321.67
705.60	320.46
705.93	319.22
706.27	318.17
706.60	317.06
706.94	315.98
707.27	314.82
707.61	313.78
707.94	312.72
708.27	311.60
708.61	310.49
708.94	309.51
709.28	308.57
709.61	307.57
709.94	306.58
710.28	305.50
710.61	304.47
710.95	303.33
711.28	302.38
711.61	301.38
711.95	300.46
712.28	299.48
712.61	298.49
712.95	297.56
713.28	296.63
713.61	295.73
713.95	294.82
714.28	293.94
714.61	293.03
714.95	292.17
715.28	291.27
715.61	290.37
715.95	289.45
716.28	288.55
716.61	287.69
716.95	286.80
717.28	286.09
717.61	285.33
717.94	284.64
718.28	283.84
718.61	283.08
718.94	282.35
719.27	281.68
719.61	281.05
719.94	280.36
720.27	279.64
720.60	278.95
720.94	278.32
721.27	277.72
721.60	277.17
721.93	276.58
722.27	276.03
722.60	275.50
722.93	274.93
723.26	274.40
723.59	273.83
723.93	273.31
724.26	272.74
724.59	272.14
724.92	271.56
725.25	271.05
725.59	270.53
725.92	270.00
726.25	269.47
726.58	268.94
726.91	268.42
727.24	267.96
727.57	267.47
727.91	266.94
728.24	266.46
728.57	265.94
728.90	265.45
729.23	264.94
729.56	264.48
729.89	263.98
730.22	263.48
730.55	263.02
730.89	262.56
731.22	262.11
731.55	261.68
731.88	261.25
732.21	260.80
732.54	260.39
732.87	259.99
733.20	259.58
733.53	259.18
733.86	258.81
734.19	258.42
734.52	258.07
734.85	257.76
735.18	257.35
735.51	256.98
735.84	256.57
736.17	256.27
736.50	255.86
736.83	255.61
737.16	255.25
737.49	254.88
737.82	254.55
738.15	254.21
738.48	253.89
738.81	253.55
739.14	253.24
739.47	252.92
739.80	252.60
740.13	252.29
740.46	251.98
740.79	251.64
741.12	251.30
741.45	250.99
741.78	250.64
742.11	250.32
742.44	250.00
742.77	249.71
743.10	249.38
743.43	249.08
743.75	248.74
744.08	248.61
744.41	248.38
744.74	248.09
745.07	247.79
745.40	247.53
745.73	247.27
746.06	246.99
746.39	246.70
746.71	246.43
747.04	246.15
747.37	245.89
747.70	245.66
748.03	245.38
748.36	245.12
748.68	244.90
749.01	244.64
749.34	244.40
749.67	244.21
750.00	243.97
750.33	243.84
750.65	243.60
750.98	243.26
751.31	243.00
751.64	242.73
751.97	242.60
752.29	242.36
752.62	242.12
752.95	241.90
753.28	241.68
753.60	241.46
753.93	241.29
754.26	241.09
754.59	240.85
754.91	240.66
755.24	240.47
755.57	240.26
755.90	240.10
756.22	239.89
756.55	239.68
756.88	239.52
757.20	239.26
757.53	239.09
757.86	238.92
758.19	238.77
758.51	238.65
758.84	238.41
759.17	238.27
759.49	238.10
759.82	237.97
760.15	237.83
760.47	237.67
760.80	237.52
761.13	237.38
761.45	237.22
761.78	237.09
762.11	236.94
762.43	236.81
762.76	236.70
763.08	236.59
763.41	236.48
763.74	236.32
764.06	236.21
764.39	236.04
764.71	235.92
765.04	235.80
765.37	235.66
765.69	235.56
766.02	235.41
766.34	235.31
766.67	235.20
767.00	235.13
767.32	235.08
767.65	235.01
767.97	234.88
768.30	234.81
768.62	234.68
768.95	234.54
769.27	234.42
769.60	234.28
769.92	234.18
770.25	234.05
770.57	233.93
770.90	233.79
771.22	233.68
771.55	233.54
771.87	233.46
772.20	233.40
772.52	233.38
772.85	233.42
773.17	233.34
773.50	233.21
773.82	233.07
774.15	232.93
774.47	232.80
774.80	232.71
775.12	232.61
775.45	232.52
775.77	232.43
776.09	232.36
776.42	232.30
776.74	232.20
777.07	232.11
777.39	232.04
777.72	231.94
778.04	231.91
778.36	231.82
778.69	231.74
779.01	231.64
779.33	231.47
779.66	231.25
779.98	231.16
780.31	231.11
780.63	231.08
780.95	231.00
781.28	230.90
781.60	230.80
781.92	230.74
782.25	230.69
782.57	230.64
782.89	230.56
783.22	230.48
783.54	230.42
783.86	230.39
784.19	230.32
784.51	230.30
784.83	230.21
785.16	230.17
785.48	230.10
785.80	230.05
786.12	230.00
786.45	229.98
786.77	229.94
787.09	229.87
