SpectraSuite Data File
++++++++++++++++++++++++++++++++++++
Date: Fri Feb 01 15:48:24 EST 2013
User: group
Dark Spectrum Present: No
Reference Spectrum Present: No
Number of Sampled Component Spectra: 1
Spectrometers: USB2E7196
Integration Time (usec): 35000 (USB2E7196)
Spectra Averaged: 100 (USB2E7196)
Boxcar Smoothing: 10 (USB2E7196)
Correct for Electrical Dark: No (USB2E7196)
Strobe/Lamp Enabled: No (USB2E7196)
Correct for Detector Non-linearity: No (USB2E7196)
Correct for Stray Light: No (USB2E7196)
Number of Pixels in Processed Spectrum: 2048
>>>>>Begin Processed Spectral Data<<<<<
339.09	0.00
339.48	215.40
339.86	217.08
340.24	217.64
340.63	219.55
341.01	221.22
341.39	222.09
341.78	223.01
342.16	224.83
342.54	225.21
342.93	213.40
343.31	224.17
343.69	224.67
344.07	225.12
344.46	225.55
344.84	225.92
345.22	226.19
345.60	226.43
345.99	226.61
346.37	226.71
346.75	226.78
347.13	226.83
347.52	226.93
347.90	227.00
348.28	227.03
348.66	227.09
349.05	227.06
349.43	227.12
349.81	227.17
350.19	227.20
350.57	227.27
350.96	227.31
351.34	227.40
351.72	227.51
352.10	227.57
352.48	227.63
352.87	227.66
353.25	227.73
353.63	227.79
354.01	227.82
354.39	227.90
354.77	227.99
355.15	228.08
355.54	228.10
355.92	228.14
356.30	228.21
356.68	228.32
357.06	228.40
357.44	228.43
357.82	228.49
358.20	228.54
358.58	228.57
358.97	228.66
359.35	228.74
359.73	228.82
360.11	228.89
360.49	228.95
360.87	229.02
361.25	229.09
361.63	229.18
362.01	229.29
362.39	229.33
362.77	229.37
363.15	229.40
363.53	229.41
363.91	229.42
364.29	229.42
364.67	229.34
365.05	229.36
365.43	229.37
365.81	229.39
366.19	229.43
366.57	229.50
366.95	229.47
367.33	229.45
367.71	229.42
368.09	229.39
368.47	229.39
368.85	229.35
369.23	229.32
369.61	229.24
369.99	229.21
370.37	229.16
370.75	229.15
371.13	229.09
371.51	229.05
371.89	229.03
372.27	229.02
372.65	228.98
373.03	228.91
373.41	228.84
373.78	228.77
374.16	228.69
374.54	228.59
374.92	228.50
375.30	228.41
375.68	228.31
376.06	228.24
376.44	228.16
376.82	228.10
377.19	228.03
377.57	227.95
377.95	227.86
378.33	227.79
378.71	227.70
379.09	227.64
379.47	227.54
379.84	227.47
380.22	227.39
380.60	227.29
380.98	227.22
381.36	227.15
381.73	227.08
382.11	227.02
382.49	226.97
382.87	226.90
383.25	226.86
383.62	226.93
384.00	226.86
384.38	226.80
384.76	226.77
385.13	226.75
385.51	226.71
385.89	226.64
386.27	226.60
386.64	226.55
387.02	226.50
387.40	226.50
387.78	226.47
388.15	226.43
388.53	226.42
388.91	226.40
389.29	226.37
389.66	226.37
390.04	226.30
390.42	226.30
390.79	226.29
391.17	226.28
391.55	226.16
391.92	226.21
392.30	226.20
392.68	226.18
393.05	226.18
393.43	226.19
393.81	226.21
394.18	226.23
394.56	226.26
394.94	226.33
395.31	226.34
395.69	226.41
396.06	226.45
396.44	226.54
396.82	226.60
397.19	226.69
397.57	226.73
397.95	226.83
398.32	226.87
398.70	226.93
399.07	227.02
399.45	227.07
399.82	227.15
400.20	227.23
400.58	227.29
400.95	227.36
401.33	227.46
401.70	227.60
402.08	227.71
402.45	227.82
402.83	227.91
403.20	228.01
403.58	228.09
403.95	228.23
404.33	228.31
404.71	228.41
405.08	228.61
405.46	228.72
405.83	228.88
406.21	229.01
406.58	229.21
406.96	229.39
407.33	229.57
407.70	229.77
408.08	230.05
408.45	230.29
408.83	230.54
409.20	230.74
409.58	230.92
409.95	231.18
410.33	231.44
410.70	231.68
411.08	231.99
411.45	232.31
411.82	232.61
412.20	232.97
412.57	233.42
412.95	233.68
413.32	234.10
413.69	234.51
414.07	234.93
414.44	235.38
414.82	235.83
415.19	236.39
415.56	236.90
415.94	237.41
416.31	238.04
416.68	238.64
417.06	239.36
417.43	240.06
417.81	240.79
418.18	241.57
418.55	242.40
418.93	243.25
419.30	244.11
419.67	245.01
420.04	245.96
420.42	246.90
420.79	248.10
421.16	249.23
421.54	250.40
421.91	251.60
422.28	252.83
422.66	254.15
423.03	255.44
423.40	256.81
423.77	258.19
424.15	259.59
424.52	261.11
424.89	262.77
425.26	264.30
425.64	265.75
426.01	267.33
426.38	269.02
426.75	270.68
427.13	272.43
427.50	274.27
427.87	276.16
428.24	278.02
428.61	279.76
428.99	281.68
429.36	283.82
429.73	285.91
430.10	287.97
430.47	290.04
430.85	292.16
431.22	294.38
431.59	296.77
431.96	298.99
432.33	301.46
432.70	303.82
433.08	306.61
433.45	309.25
433.82	311.85
434.19	314.77
434.56	317.60
434.93	320.25
435.30	322.85
435.68	325.73
436.05	328.58
436.42	331.37
436.79	333.93
437.16	336.63
437.53	339.47
437.90	342.28
438.27	345.05
438.64	347.87
439.01	350.46
439.38	352.73
439.75	355.00
440.13	357.54
440.50	359.87
440.87	361.75
441.24	363.71
441.61	365.91
441.98	367.40
442.35	369.22
442.72	371.09
443.09	372.86
443.46	373.90
443.83	374.46
444.20	374.95
444.57	375.79
444.94	376.02
445.31	376.35
445.68	376.68
446.05	376.70
446.42	376.36
446.79	375.97
447.16	375.49
447.53	375.15
447.90	373.92
448.27	372.77
448.64	371.23
449.01	370.09
449.37	368.15
449.74	366.21
450.11	363.96
450.48	361.50
450.85	359.03
451.22	356.88
451.59	354.83
451.96	352.88
452.33	350.28
452.70	347.96
453.07	345.13
453.43	342.23
453.80	339.50
454.17	336.79
454.54	334.22
454.91	331.50
455.28	328.78
455.65	326.29
456.02	323.81
456.38	321.63
456.75	318.96
457.12	316.68
457.49	314.46
457.86	312.26
458.23	310.38
458.59	308.28
458.96	306.17
459.33	304.37
459.70	302.54
460.07	301.01
460.43	299.30
460.80	297.70
461.17	296.27
461.54	294.78
461.91	293.34
462.27	291.90
462.64	290.66
463.01	289.30
463.38	288.01
463.74	286.64
464.11	285.43
464.48	284.39
464.85	283.26
465.21	282.38
465.58	281.46
465.95	280.38
466.32	279.47
466.68	278.58
467.05	277.65
467.42	276.75
467.78	275.83
468.15	274.97
468.52	274.28
468.88	273.39
469.25	272.58
469.62	271.96
469.98	271.30
470.35	270.64
470.72	270.07
471.08	269.40
471.45	268.88
471.82	268.36
472.18	267.76
472.55	267.33
472.92	266.82
473.28	266.34
473.65	265.91
474.02	265.50
474.38	265.11
474.75	264.81
475.11	264.44
475.48	264.15
475.85	263.88
476.21	263.64
476.58	263.46
476.94	263.30
477.31	263.11
477.67	262.92
478.04	262.82
478.41	262.75
478.77	262.79
479.14	262.68
479.50	262.71
479.87	262.80
480.23	262.87
480.60	262.93
480.96	263.04
481.33	263.26
481.69	263.46
482.06	263.68
482.42	263.87
482.79	264.17
483.15	264.51
483.52	264.95
483.88	265.29
484.25	265.69
484.61	266.15
484.98	266.64
485.34	267.22
485.71	267.83
486.07	268.44
486.44	269.05
486.80	269.79
487.17	270.51
487.53	271.32
487.90	272.16
488.26	273.13
488.62	274.13
488.99	275.10
489.35	276.12
489.72	277.28
490.08	278.45
490.44	279.69
490.81	281.02
491.17	282.34
491.54	283.84
491.90	285.39
492.26	287.03
492.63	288.76
492.99	290.58
493.36	292.46
493.72	294.50
494.08	296.54
494.45	298.77
494.81	301.19
495.17	303.63
495.54	306.23
495.90	308.89
496.26	311.64
496.63	314.59
496.99	317.73
497.35	320.94
497.72	324.37
498.08	327.90
498.44	331.56
498.80	335.52
499.17	339.56
499.53	343.72
499.89	348.11
500.26	352.60
500.62	357.23
500.98	362.20
501.34	367.31
501.71	372.67
502.07	378.08
502.43	383.65
502.79	389.45
503.16	395.48
503.52	401.74
503.88	408.19
504.24	414.82
504.60	421.71
504.97	428.84
505.33	436.20
505.69	443.86
506.05	451.59
506.41	459.47
506.78	467.67
507.14	476.09
507.50	484.82
507.86	493.82
508.22	503.04
508.59	512.19
508.95	521.77
509.31	531.55
509.67	541.73
510.03	551.95
510.39	562.47
510.75	573.29
511.12	584.22
511.48	595.54
511.84	606.96
512.20	618.48
512.56	630.44
512.92	642.60
513.28	654.94
513.64	667.50
514.00	680.18
514.37	693.06
514.73	706.09
515.09	719.13
515.45	732.39
515.81	745.95
516.17	760.01
516.53	774.10
516.89	788.33
517.25	802.40
517.61	816.91
517.97	831.46
518.33	845.92
518.69	860.73
519.05	875.68
519.41	890.91
519.77	906.49
520.13	921.95
520.49	937.38
520.85	952.83
521.21	968.51
521.57	984.82
521.93	1000.60
522.29	1017.05
522.65	1033.25
523.01	1049.61
523.37	1065.69
523.73	1081.82
524.09	1097.90
524.45	1114.17
524.81	1130.88
525.17	1147.67
525.53	1164.57
525.89	1181.52
526.25	1198.32
526.61	1214.68
526.97	1231.39
527.33	1247.87
527.68	1264.50
528.04	1280.89
528.40	1297.44
528.76	1314.47
529.12	1330.98
529.48	1347.85
529.84	1363.77
530.20	1380.45
530.56	1397.39
530.91	1414.83
531.27	1431.62
531.63	1448.19
531.99	1464.76
532.35	1480.72
532.71	1496.67
533.07	1512.83
533.42	1528.62
533.78	1544.59
534.14	1560.89
534.50	1576.23
534.86	1592.05
535.21	1607.23
535.57	1623.20
535.93	1638.76
536.29	1653.57
536.65	1668.68
537.00	1683.52
537.36	1698.94
537.72	1713.45
538.08	1727.83
538.44	1741.54
538.79	1755.40
539.15	1769.03
539.51	1782.73
539.87	1797.17
540.22	1810.94
540.58	1824.82
540.94	1838.18
541.29	1851.22
541.65	1863.81
542.01	1877.04
542.37	1889.40
542.72	1901.79
543.08	1913.48
543.44	1925.80
543.79	1936.92
544.15	1947.93
544.51	1959.34
544.87	1970.30
545.22	1981.03
545.58	1991.33
545.94	2001.10
546.29	2011.01
546.65	2020.79
547.01	2030.02
547.36	2038.64
547.72	2046.97
548.07	2054.68
548.43	2062.82
548.79	2070.88
549.14	2078.56
549.50	2085.92
549.86	2093.56
550.21	2100.80
550.57	2108.00
550.92	2114.55
551.28	2121.79
551.64	2128.94
551.99	2135.53
552.35	2141.65
552.70	2147.88
553.06	2153.91
553.41	2160.34
553.77	2166.27
554.13	2172.35
554.48	2178.58
554.84	2183.92
555.19	2189.24
555.55	2194.40
555.90	2198.82
556.26	2203.72
556.61	2208.49
556.97	2212.68
557.32	2216.79
557.68	2220.95
558.03	2225.22
558.39	2229.09
558.74	2233.64
559.10	2237.39
559.45	2241.09
559.81	2245.51
560.16	2249.48
560.52	2252.66
560.87	2255.95
561.23	2258.60
561.58	2261.55
561.94	2264.08
562.29	2266.66
562.64	2269.40
563.00	2271.97
563.35	2275.52
563.71	2278.53
564.06	2281.72
564.42	2284.62
564.77	2287.08
565.12	2289.26
565.48	2291.18
565.83	2292.94
566.19	2294.26
566.54	2295.23
566.89	2296.34
567.25	2296.75
567.60	2297.83
567.96	2299.41
568.31	2300.39
568.66	2301.52
569.02	2302.11
569.37	2302.40
569.72	2303.10
570.08	2303.11
570.43	2303.30
570.78	2302.72
571.14	2301.16
571.49	2299.76
571.84	2299.46
572.20	2298.36
572.55	2297.42
572.90	2295.98
573.26	2294.62
573.61	2292.97
573.96	2291.10
574.31	2288.05
574.67	2285.06
575.02	2281.59
575.37	2278.18
575.72	2274.23
576.08	2270.87
576.43	2267.55
576.78	2263.77
577.13	2260.61
577.49	2257.71
577.84	2254.10
578.19	2250.34
578.54	2246.61
578.90	2242.33
579.25	2236.85
579.60	2231.81
579.95	2226.92
580.30	2221.76
580.66	2216.56
581.01	2211.66
581.36	2206.71
581.71	2202.50
582.06	2198.14
582.42	2193.59
582.77	2188.38
583.12	2183.78
583.47	2178.94
583.82	2173.98
584.17	2168.77
584.53	2163.28
584.88	2157.56
585.23	2151.82
585.58	2146.29
585.93	2140.85
586.28	2136.10
586.63	2130.94
586.98	2125.92
587.34	2121.00
587.69	2116.23
588.04	2110.90
588.39	2105.12
588.74	2098.69
589.09	2092.64
589.44	2085.73
589.79	2079.81
590.14	2074.26
590.49	2067.83
590.84	2061.54
591.19	2055.38
591.54	2048.96
591.89	2041.63
592.25	2034.73
592.60	2027.48
592.95	2019.92
593.30	2012.63
593.65	2004.98
594.00	1997.96
594.35	1990.71
594.70	1982.70
595.05	1975.39
595.40	1968.19
595.75	1960.74
596.10	1954.59
596.45	1947.83
596.80	1941.66
597.15	1934.88
597.50	1927.54
597.85	1921.01
598.19	1914.35
598.54	1907.26
598.89	1900.67
599.24	1894.69
599.59	1887.92
599.94	1881.71
600.29	1875.42
600.64	1868.82
600.99	1861.37
601.34	1854.39
601.69	1847.46
602.04	1840.59
602.39	1833.22
602.74	1826.15
603.08	1819.40
603.43	1812.47
603.78	1805.09
604.13	1797.86
604.48	1790.44
604.83	1783.72
605.18	1776.66
605.53	1768.71
605.87	1760.76
606.22	1753.55
606.57	1745.65
606.92	1738.44
607.27	1731.16
607.62	1724.16
607.96	1716.89
608.31	1710.26
608.66	1702.75
609.01	1695.17
609.36	1687.62
609.70	1679.59
610.05	1671.76
610.40	1663.91
610.75	1655.65
611.10	1648.01
611.44	1639.71
611.79	1631.75
612.14	1623.12
612.49	1614.05
612.83	1605.73
613.18	1597.56
613.53	1589.39
613.88	1580.76
614.22	1572.45
614.57	1564.06
614.92	1556.06
615.27	1548.44
615.61	1540.09
615.96	1531.96
616.31	1524.37
616.65	1516.94
617.00	1509.43
617.35	1501.65
617.70	1493.41
618.04	1484.87
618.39	1476.72
618.74	1469.01
619.08	1460.87
619.43	1453.27
619.78	1446.30
620.12	1438.99
620.47	1431.50
620.82	1423.26
621.16	1415.97
621.51	1408.45
621.85	1400.75
622.20	1392.13
622.55	1383.84
622.89	1376.09
623.24	1368.53
623.59	1361.17
623.93	1353.70
624.28	1346.44
624.62	1339.00
624.97	1331.75
625.32	1325.09
625.66	1318.01
626.01	1310.89
626.35	1303.36
626.70	1295.65
627.04	1287.94
627.39	1280.23
627.73	1272.75
628.08	1265.88
628.43	1258.38
628.77	1250.89
629.12	1243.33
629.46	1236.28
629.81	1228.82
630.15	1221.61
630.50	1214.21
630.84	1206.02
631.19	1198.10
631.53	1190.56
631.88	1182.96
632.22	1175.45
632.57	1168.05
632.91	1160.46
633.26	1153.07
633.60	1145.75
633.95	1138.57
634.29	1131.56
634.64	1124.89
634.98	1117.56
635.32	1110.39
635.67	1104.01
636.01	1097.46
636.36	1090.61
636.70	1084.00
637.05	1077.46
637.39	1070.80
637.73	1064.28
638.08	1058.26
638.42	1052.23
638.77	1045.73
639.11	1039.04
639.45	1032.56
639.80	1025.90
640.14	1019.56
640.49	1013.00
640.83	1006.69
641.17	1000.46
641.52	994.06
641.86	987.61
642.20	981.72
642.55	975.46
642.89	968.85
643.23	962.24
643.58	956.42
643.92	950.28
644.26	944.13
644.61	938.20
644.95	932.13
645.29	925.57
645.64	918.87
645.98	912.61
646.32	906.88
646.66	900.85
647.01	895.06
647.35	889.28
647.69	883.40
648.04	877.79
648.38	871.96
648.72	865.98
649.06	859.96
649.41	854.13
649.75	848.15
650.09	842.22
650.43	836.47
650.78	830.33
651.12	824.35
651.46	818.62
651.80	812.84
652.14	807.52
652.49	802.12
652.83	796.96
653.17	791.20
653.51	785.47
653.85	780.05
654.20	774.45
654.54	768.45
654.88	762.72
655.22	756.84
655.56	751.13
655.90	745.75
656.25	740.42
656.59	735.07
656.93	730.01
657.27	724.84
657.61	719.38
657.95	714.35
658.29	709.29
658.64	704.14
658.98	698.88
659.32	693.34
659.66	688.17
660.00	682.81
660.34	677.91
660.68	672.96
661.02	667.97
661.36	663.16
661.70	658.75
662.05	654.39
662.39	650.14
662.73	645.72
663.07	641.26
663.41	636.79
663.75	632.25
664.09	627.66
664.43	623.23
664.77	619.15
665.11	614.87
665.45	610.78
665.79	606.67
666.13	602.61
666.47	598.57
666.81	594.42
667.15	590.30
667.49	586.41
667.83	582.65
668.17	578.71
668.51	574.71
668.85	570.62
669.19	566.86
669.53	562.93
669.87	559.05
670.21	555.37
670.55	551.69
670.89	548.25
671.23	544.81
671.57	541.32
671.91	537.71
672.25	534.26
672.58	530.67
672.92	527.25
673.26	524.04
673.60	520.91
673.94	517.74
674.28	514.83
674.62	511.90
674.96	508.76
675.30	505.88
675.64	502.95
675.97	500.20
676.31	497.29
676.65	494.35
676.99	491.65
677.33	488.78
677.67	486.03
678.01	482.98
678.34	479.99
678.68	477.14
679.02	474.34
679.36	471.48
679.70	468.78
680.04	465.99
680.37	463.14
680.71	460.30
681.05	457.72
681.39	455.00
681.73	452.33
682.06	449.85
682.40	447.23
682.74	444.75
683.08	442.23
683.42	439.64
683.75	437.15
684.09	434.61
684.43	432.12
684.77	429.63
685.10	427.33
685.44	425.03
685.78	422.71
686.12	420.45
686.45	418.21
686.79	415.91
687.13	413.70
687.46	411.55
687.80	409.43
688.14	407.24
688.48	405.18
688.81	402.93
689.15	400.77
689.49	398.66
689.82	396.54
690.16	394.46
690.50	392.53
690.83	390.62
691.17	388.69
691.51	386.85
691.84	384.99
692.18	383.09
692.52	381.13
692.85	379.22
693.19	377.33
693.52	375.53
693.86	373.76
694.20	372.05
694.53	370.21
694.87	368.34
695.21	366.55
695.54	364.75
695.88	362.99
696.21	361.27
696.55	359.58
696.88	357.88
697.22	356.27
697.56	354.61
697.89	352.96
698.23	351.34
698.56	349.72
698.90	348.15
699.23	346.45
699.57	344.93
699.90	343.41
700.24	341.90
700.58	340.36
700.91	338.87
701.25	337.40
701.58	336.08
701.92	334.76
702.25	333.37
702.59	332.02
702.92	330.70
703.26	329.39
703.59	328.14
703.93	326.93
704.26	325.64
704.60	324.34
704.93	323.07
705.26	321.79
705.60	320.59
705.93	319.37
706.27	318.32
706.60	317.26
706.94	316.16
707.27	315.03
707.61	313.95
707.94	312.91
708.27	311.80
708.61	310.68
708.94	309.64
709.28	308.66
709.61	307.67
709.94	306.72
710.28	305.70
710.61	304.74
710.95	303.67
711.28	302.71
711.61	301.72
711.95	300.80
712.28	299.84
712.61	298.86
712.95	297.96
713.28	297.09
713.61	296.15
713.95	295.23
714.28	294.42
714.61	293.56
714.95	292.70
715.28	291.84
715.61	290.98
715.95	290.14
716.28	289.28
716.61	288.44
716.95	287.64
717.28	286.92
717.61	286.11
717.94	285.39
718.28	284.59
718.61	283.87
718.94	283.17
719.27	282.50
719.61	281.89
719.94	281.25
720.27	280.52
720.60	279.89
720.94	279.26
721.27	278.63
721.60	278.01
721.93	277.43
722.27	276.92
722.60	276.32
722.93	275.72
723.26	275.19
723.59	274.61
723.93	274.06
724.26	273.52
724.59	272.98
724.92	272.44
725.25	271.95
725.59	271.44
725.92	270.90
726.25	270.40
726.58	269.87
726.91	269.39
727.24	268.92
727.57	268.42
727.91	267.93
728.24	267.49
728.57	266.99
728.90	266.53
729.23	266.02
729.56	265.61
729.89	265.15
730.22	264.66
730.55	264.25
730.89	263.78
731.22	263.31
731.55	262.87
731.88	262.47
732.21	262.06
732.54	261.65
732.87	261.26
733.20	260.87
733.53	260.52
733.86	260.14
734.19	259.80
734.52	259.44
734.85	259.14
735.18	258.72
735.51	258.39
735.84	258.04
736.17	257.68
736.50	257.28
736.83	257.06
737.16	256.77
737.49	256.43
737.82	256.12
738.15	255.81
738.48	255.48
738.81	255.18
739.14	254.86
739.47	254.55
739.80	254.27
740.13	253.99
740.46	253.62
740.79	253.28
741.12	252.98
741.45	252.68
741.78	252.32
742.11	252.06
742.44	251.76
742.77	251.44
743.10	251.15
743.43	250.87
743.75	250.47
744.08	250.30
744.41	249.98
744.74	249.71
745.07	249.41
745.40	249.16
745.73	248.90
746.06	248.64
746.39	248.35
746.71	248.04
747.04	247.75
747.37	247.52
747.70	247.28
748.03	247.00
748.36	246.77
748.68	246.55
749.01	246.29
749.34	246.05
749.67	245.84
750.00	245.63
750.33	245.47
750.65	245.24
750.98	244.92
751.31	244.71
751.64	244.50
751.97	244.34
752.29	244.14
752.62	243.88
752.95	243.67
753.28	243.47
753.60	243.27
753.93	243.08
754.26	242.88
754.59	242.68
754.91	242.46
755.24	242.24
755.57	242.05
755.90	241.85
756.22	241.66
756.55	241.44
756.88	241.22
757.20	241.00
757.53	240.81
757.86	240.64
758.19	240.46
758.51	240.30
758.84	240.07
759.17	239.89
759.49	239.76
759.82	239.60
760.15	239.45
760.47	239.30
760.80	239.12
761.13	238.96
761.45	238.79
761.78	238.67
762.11	238.55
762.43	238.37
762.76	238.20
763.08	238.07
763.41	237.93
763.74	237.84
764.06	237.68
764.39	237.56
764.71	237.40
765.04	237.28
765.37	237.13
765.69	237.01
766.02	236.86
766.34	236.69
766.67	236.52
767.00	236.42
767.32	236.35
767.65	236.30
767.97	236.20
768.30	236.11
768.62	235.98
768.95	235.84
769.27	235.71
769.60	235.62
769.92	235.52
770.25	235.43
770.57	235.28
770.90	235.20
771.22	235.07
771.55	235.01
771.87	234.94
772.20	234.83
772.52	234.83
772.85	234.84
773.17	234.77
773.50	234.71
773.82	234.60
774.15	234.47
774.47	234.30
774.80	234.20
775.12	234.09
775.45	234.00
775.77	233.92
776.09	233.90
776.42	233.80
776.74	233.75
777.07	233.66
777.39	233.60
777.72	233.52
778.04	233.46
778.36	233.33
778.69	233.25
779.01	233.21
779.33	233.11
779.66	232.96
779.98	232.90
780.31	232.83
780.63	232.81
780.95	232.76
781.28	232.72
781.60	232.68
781.92	232.64
782.25	232.58
782.57	232.55
782.89	232.47
783.22	232.40
783.54	232.33
783.86	232.27
784.19	232.20
784.51	232.19
784.83	232.13
785.16	232.12
785.48	232.07
785.80	231.99
786.12	231.91
786.45	231.88
786.77	231.83
787.09	231.78
