SpectraSuite Data File
++++++++++++++++++++++++++++++++++++
Date: Fri Feb 01 17:49:21 EST 2013
User: group
Dark Spectrum Present: No
Reference Spectrum Present: No
Number of Sampled Component Spectra: 1
Spectrometers: USB2E7196
Integration Time (usec): 35000 (USB2E7196)
Spectra Averaged: 100 (USB2E7196)
Boxcar Smoothing: 10 (USB2E7196)
Correct for Electrical Dark: No (USB2E7196)
Strobe/Lamp Enabled: No (USB2E7196)
Correct for Detector Non-linearity: No (USB2E7196)
Correct for Stray Light: No (USB2E7196)
Number of Pixels in Processed Spectrum: 2048
>>>>>Begin Processed Spectral Data<<<<<
339.09	0.00
339.48	212.40
339.86	214.12
340.24	215.84
340.63	217.15
341.01	220.50
341.39	219.72
341.78	220.72
342.16	222.04
342.54	222.83
342.93	211.20
343.31	221.86
343.69	222.40
344.07	222.87
344.46	223.26
344.84	223.65
345.22	223.84
345.60	224.09
345.99	224.27
346.37	224.43
346.75	224.51
347.13	224.57
347.52	224.64
347.90	224.73
348.28	224.73
348.66	224.78
349.05	224.77
349.43	224.80
349.81	224.85
350.19	224.89
350.57	224.95
350.96	224.96
351.34	225.06
351.72	225.12
352.10	225.23
352.48	225.31
352.87	225.34
353.25	225.41
353.63	225.47
354.01	225.57
354.39	225.64
354.77	225.75
355.15	225.84
355.54	225.91
355.92	225.95
356.30	226.04
356.68	226.14
357.06	226.23
357.44	226.32
357.82	226.41
358.20	226.46
358.58	226.51
358.97	226.57
359.35	226.64
359.73	226.75
360.11	226.77
360.49	226.84
360.87	226.89
361.25	226.95
361.63	227.01
362.01	227.03
362.39	227.04
362.77	227.06
363.15	227.09
363.53	227.09
363.91	227.10
364.29	227.15
364.67	227.11
365.05	227.09
365.43	227.10
365.81	227.12
366.19	227.22
366.57	227.29
366.95	227.30
367.33	227.29
367.71	227.28
368.09	227.33
368.47	227.32
368.85	227.31
369.23	227.31
369.61	227.28
369.99	227.32
370.37	227.31
370.75	227.34
371.13	227.30
371.51	227.24
371.89	227.22
372.27	227.15
372.65	227.15
373.03	227.15
373.41	227.09
373.78	227.04
374.16	226.92
374.54	226.82
374.92	226.80
375.30	226.75
375.68	226.71
376.06	226.67
376.44	226.59
376.82	226.56
377.19	226.49
377.57	226.44
377.95	226.33
378.33	226.25
378.71	226.13
379.09	226.12
379.47	226.09
379.84	226.01
380.22	225.96
380.60	225.86
380.98	225.79
381.36	225.70
381.73	225.62
382.11	225.57
382.49	225.53
382.87	225.46
383.25	225.39
383.62	225.45
384.00	225.37
384.38	225.31
384.76	225.26
385.13	225.27
385.51	225.20
385.89	225.13
386.27	225.09
386.64	225.06
387.02	225.00
387.40	224.98
387.78	224.92
388.15	224.91
388.53	224.83
388.91	224.77
389.29	224.77
389.66	224.76
390.04	224.69
390.42	224.66
390.79	224.63
391.17	224.65
391.55	224.50
391.92	224.47
392.30	224.46
392.68	224.42
393.05	224.39
393.43	224.39
393.81	224.42
394.18	224.44
394.56	224.43
394.94	224.45
395.31	224.47
395.69	224.53
396.06	224.56
396.44	224.63
396.82	224.66
397.19	224.73
397.57	224.71
397.95	224.76
398.32	224.79
398.70	224.86
399.07	224.92
399.45	224.97
399.82	225.04
400.20	225.11
400.58	225.17
400.95	225.22
401.33	225.33
401.70	225.48
402.08	225.60
402.45	225.70
402.83	225.81
403.20	225.91
403.58	226.03
403.95	226.15
404.33	226.29
404.71	226.44
405.08	226.61
405.46	226.81
405.83	226.99
406.21	227.19
406.58	227.34
406.96	227.53
407.33	227.72
407.70	227.96
408.08	228.28
408.45	228.55
408.83	228.85
409.20	229.10
409.58	229.31
409.95	229.61
410.33	229.95
410.70	230.25
411.08	230.65
411.45	231.02
411.82	231.39
412.20	231.81
412.57	232.33
412.95	232.75
413.32	233.26
413.69	233.79
414.07	234.33
414.44	234.94
414.82	235.54
415.19	236.24
415.56	236.93
415.94	237.61
416.31	238.42
416.68	239.18
417.06	240.13
417.43	240.98
417.81	241.95
418.18	242.93
418.55	244.04
418.93	245.14
419.30	246.28
419.67	247.49
420.04	248.73
420.42	250.02
420.79	251.54
421.16	253.05
421.54	254.61
421.91	256.20
422.28	257.82
422.66	259.53
423.03	261.18
423.40	262.93
423.77	264.80
424.15	266.66
424.52	268.63
424.89	270.70
425.26	272.74
425.64	274.65
426.01	276.71
426.38	278.84
426.75	280.99
427.13	283.24
427.50	285.62
427.87	288.06
428.24	290.51
428.61	292.77
428.99	295.26
429.36	298.01
429.73	300.67
430.10	303.30
430.47	306.00
430.85	308.78
431.22	311.69
431.59	314.75
431.96	317.67
432.33	320.88
432.70	323.96
433.08	327.63
433.45	331.04
433.82	334.41
434.19	338.19
434.56	341.87
434.93	345.35
435.30	348.73
435.68	352.51
436.05	356.16
436.42	359.86
436.79	363.13
437.16	366.61
437.53	370.31
437.90	373.99
438.27	377.55
438.64	381.28
439.01	384.68
439.38	387.61
439.75	390.48
440.13	393.76
440.50	396.85
440.87	399.30
441.24	401.86
441.61	404.74
441.98	406.68
442.35	409.06
442.72	411.50
443.09	413.90
443.46	415.20
443.83	415.98
444.20	416.59
444.57	417.75
444.94	418.16
445.31	418.62
445.68	419.03
446.05	419.17
446.42	418.64
446.79	418.10
447.16	417.56
447.53	417.12
447.90	415.66
448.27	414.17
448.64	412.05
449.01	410.56
449.37	407.98
449.74	405.55
450.11	402.60
450.48	399.40
450.85	396.11
451.22	393.34
451.59	390.68
451.96	388.15
452.33	384.75
452.70	381.67
453.07	377.97
453.43	374.25
453.80	370.62
454.17	367.19
454.54	363.88
454.91	360.33
455.28	356.83
455.65	353.50
456.02	350.24
456.38	347.48
456.75	343.99
457.12	341.04
457.49	338.07
457.86	335.27
458.23	332.81
458.59	330.14
458.96	327.42
459.33	325.00
459.70	322.57
460.07	320.59
460.43	318.34
460.80	316.19
461.17	314.27
461.54	312.31
461.91	310.39
462.27	308.47
462.64	306.78
463.01	304.99
463.38	303.32
463.74	301.53
464.11	299.98
464.48	298.63
464.85	297.19
465.21	296.06
465.58	294.77
465.95	293.33
466.32	292.10
466.68	290.90
467.05	289.71
467.42	288.53
467.78	287.32
468.15	286.13
468.52	285.26
468.88	284.13
469.25	283.10
469.62	282.27
469.98	281.39
470.35	280.56
470.72	279.76
471.08	278.89
471.45	278.17
471.82	277.44
472.18	276.64
472.55	276.04
472.92	275.32
473.28	274.75
473.65	274.14
474.02	273.53
474.38	273.01
474.75	272.55
475.11	272.09
475.48	271.70
475.85	271.37
476.21	271.06
476.58	270.76
476.94	270.53
477.31	270.28
477.67	270.01
478.04	269.83
478.41	269.71
478.77	269.66
479.14	269.54
479.50	269.48
479.87	269.51
480.23	269.50
480.60	269.55
480.96	269.54
481.33	269.69
481.69	269.87
482.06	270.02
482.42	270.20
482.79	270.40
483.15	270.69
483.52	271.05
483.88	271.35
484.25	271.74
484.61	272.14
484.98	272.56
485.34	273.15
485.71	273.73
486.07	274.31
486.44	274.90
486.80	275.61
487.17	276.30
487.53	277.15
487.90	278.02
488.26	278.96
488.62	280.01
488.99	281.03
489.35	282.15
489.72	283.34
490.08	284.60
490.44	285.94
490.81	287.29
491.17	288.71
491.54	290.28
491.90	291.86
492.26	293.61
492.63	295.42
492.99	297.24
493.36	299.22
493.72	301.41
494.08	303.63
494.45	305.99
494.81	308.53
495.17	311.04
495.54	313.73
495.90	316.56
496.26	319.47
496.63	322.56
496.99	325.79
497.35	329.21
497.72	332.80
498.08	336.46
498.44	340.38
498.80	344.50
499.17	348.73
499.53	353.15
499.89	357.72
500.26	362.47
500.62	367.43
500.98	372.65
501.34	377.94
501.71	383.52
502.07	389.25
502.43	395.14
502.79	401.28
503.16	407.70
503.52	414.26
503.88	421.03
504.24	427.99
504.60	435.21
504.97	442.70
505.33	450.29
505.69	458.42
506.05	466.56
506.41	474.89
506.78	483.46
507.14	492.33
507.50	501.52
507.86	511.01
508.22	520.68
508.59	530.38
508.95	540.51
509.31	550.86
509.67	561.50
510.03	572.32
510.39	583.48
510.75	594.90
511.12	606.53
511.48	618.47
511.84	630.63
512.20	642.86
512.56	655.49
512.92	668.41
513.28	681.54
513.64	694.78
514.00	708.27
514.37	722.12
514.73	736.05
515.09	749.91
515.45	764.14
515.81	778.54
516.17	793.40
516.53	808.53
516.89	823.70
517.25	838.81
517.61	854.25
517.97	869.67
518.33	884.92
518.69	900.65
519.05	916.65
519.41	932.98
519.77	949.56
520.13	966.16
520.49	982.80
520.85	999.29
521.21	1016.16
521.57	1033.70
521.93	1050.62
522.29	1068.21
522.65	1085.67
523.01	1102.99
523.37	1120.33
523.73	1137.75
524.09	1155.07
524.45	1172.63
524.81	1190.73
525.17	1208.77
525.53	1227.13
525.89	1245.66
526.25	1264.00
526.61	1281.92
526.97	1300.05
527.33	1318.05
527.68	1336.10
528.04	1354.00
528.40	1372.06
528.76	1390.75
529.12	1408.80
529.48	1427.31
529.84	1444.90
530.20	1463.26
530.56	1481.95
530.91	1501.13
531.27	1519.61
531.63	1537.76
531.99	1556.05
532.35	1573.79
532.71	1591.66
533.07	1609.65
533.42	1627.23
533.78	1645.04
534.14	1663.07
534.50	1680.26
534.86	1698.05
535.21	1715.16
535.57	1733.03
535.93	1750.39
536.29	1766.92
536.65	1783.84
537.00	1800.37
537.36	1817.65
537.72	1833.97
538.08	1850.51
538.44	1866.13
538.79	1882.03
539.15	1897.58
539.51	1913.18
539.87	1929.34
540.22	1944.83
540.58	1960.52
540.94	1975.73
541.29	1990.43
541.65	2004.92
542.01	2020.03
542.37	2034.17
542.72	2048.37
543.08	2062.07
543.44	2076.50
543.79	2089.66
544.15	2102.49
544.51	2116.08
544.87	2129.03
545.22	2141.78
545.58	2153.69
545.94	2165.29
546.29	2176.99
546.65	2188.77
547.01	2200.09
547.36	2210.66
547.72	2221.06
548.07	2230.72
548.43	2240.66
548.79	2250.50
549.14	2260.04
549.50	2269.12
549.86	2278.51
550.21	2287.70
550.57	2296.68
550.92	2304.96
551.28	2313.86
551.64	2322.74
551.99	2330.94
552.35	2338.72
552.70	2346.54
553.06	2354.27
553.41	2362.40
553.77	2370.01
554.13	2377.79
554.48	2385.53
554.84	2392.75
555.19	2399.40
555.55	2406.16
555.90	2412.20
556.26	2418.71
556.61	2424.81
556.97	2430.69
557.32	2436.22
557.68	2441.80
558.03	2447.35
558.39	2452.36
558.74	2458.46
559.10	2463.75
559.45	2468.68
559.81	2474.25
560.16	2479.37
560.52	2484.00
560.87	2488.72
561.23	2492.64
561.58	2496.69
561.94	2500.40
562.29	2503.93
562.64	2508.12
563.00	2511.83
563.35	2516.55
563.71	2520.85
564.06	2525.22
564.42	2529.30
564.77	2533.21
565.12	2536.73
565.48	2539.73
565.83	2542.73
566.19	2545.14
566.54	2546.79
566.89	2548.95
567.25	2550.60
567.60	2552.81
567.96	2555.39
568.31	2557.01
568.66	2559.10
569.02	2560.37
569.37	2561.43
569.72	2563.00
570.08	2563.60
570.43	2564.38
570.78	2564.64
571.14	2563.61
571.49	2562.84
571.84	2563.07
572.20	2562.42
572.55	2561.71
572.90	2560.59
573.26	2559.82
573.61	2558.23
573.96	2557.01
574.31	2554.27
574.67	2551.37
575.02	2548.04
575.37	2544.84
575.72	2541.24
576.08	2537.76
576.43	2534.69
576.78	2531.18
577.13	2528.12
577.49	2525.22
577.84	2521.93
578.19	2518.08
578.54	2514.62
578.90	2510.51
579.25	2504.65
579.60	2499.56
579.95	2494.43
580.30	2489.26
580.66	2483.76
581.01	2478.67
581.36	2473.59
581.71	2469.41
582.06	2464.89
582.42	2460.27
582.77	2454.68
583.12	2449.92
583.47	2445.11
583.82	2439.94
584.17	2434.39
584.53	2428.53
584.88	2422.59
585.23	2416.29
585.58	2410.32
585.93	2404.45
586.28	2399.13
586.63	2393.83
586.98	2388.39
587.34	2383.22
587.69	2377.90
588.04	2372.34
588.39	2366.30
588.74	2359.16
589.09	2352.43
589.44	2344.89
589.79	2338.14
590.14	2331.97
590.49	2324.66
590.84	2317.67
591.19	2310.98
591.54	2303.82
591.89	2295.70
592.25	2288.24
592.60	2280.25
592.95	2272.00
593.30	2263.80
593.65	2255.37
594.00	2247.56
594.35	2239.31
594.70	2230.46
595.05	2222.57
595.40	2214.19
595.75	2205.70
596.10	2198.82
596.45	2191.24
596.80	2184.44
597.15	2177.07
597.50	2169.30
597.85	2162.06
598.19	2154.53
598.54	2146.53
598.89	2139.08
599.24	2132.46
599.59	2124.96
599.94	2117.98
600.29	2110.84
600.64	2103.35
600.99	2095.06
601.34	2087.26
601.69	2079.38
602.04	2071.65
602.39	2063.23
602.74	2055.56
603.08	2047.89
603.43	2040.14
603.78	2031.80
604.13	2023.54
604.48	2015.36
604.83	2007.40
605.18	1999.63
605.53	1990.50
605.87	1981.49
606.22	1973.21
606.57	1963.91
606.92	1955.33
607.27	1947.12
607.62	1939.17
607.96	1930.98
608.31	1923.49
608.66	1914.74
609.01	1906.26
609.36	1897.45
609.70	1888.28
610.05	1879.10
610.40	1870.29
610.75	1860.89
611.10	1852.15
611.44	1842.42
611.79	1833.13
612.14	1823.12
612.49	1812.51
612.83	1802.91
613.18	1793.35
613.53	1784.04
613.88	1774.49
614.22	1765.11
614.57	1755.10
614.92	1745.87
615.27	1737.06
615.61	1727.36
615.96	1718.10
616.31	1709.18
616.65	1700.65
617.00	1692.07
617.35	1683.12
617.70	1673.58
618.04	1663.75
618.39	1654.09
618.74	1645.39
619.08	1635.84
619.43	1626.99
619.78	1618.87
620.12	1610.61
620.47	1602.01
620.82	1592.49
621.16	1583.78
621.51	1574.87
621.85	1566.19
622.20	1556.31
622.55	1546.69
622.89	1537.65
623.24	1528.72
623.59	1520.07
623.93	1511.46
624.28	1502.96
624.62	1494.28
624.97	1486.07
625.32	1478.20
625.66	1470.21
626.01	1461.95
626.35	1453.45
626.70	1444.66
627.04	1435.81
627.39	1426.75
627.73	1418.26
628.08	1410.28
628.43	1401.91
628.77	1393.56
629.12	1384.80
629.46	1376.52
629.81	1367.81
630.15	1359.36
630.50	1350.96
630.84	1341.62
631.19	1332.42
631.53	1323.75
631.88	1315.03
632.22	1306.16
632.57	1297.68
632.91	1288.90
633.26	1280.42
633.60	1271.83
633.95	1263.56
634.29	1255.39
634.64	1247.83
634.98	1239.28
635.32	1231.07
635.67	1223.55
636.01	1215.88
636.36	1208.00
636.70	1200.46
637.05	1193.08
637.39	1185.69
637.73	1178.14
638.08	1171.37
638.42	1164.48
638.77	1157.04
639.11	1149.56
639.45	1142.25
639.80	1134.70
640.14	1127.50
640.49	1119.99
640.83	1112.79
641.17	1105.71
641.52	1098.52
641.86	1091.04
642.20	1084.44
642.55	1077.22
642.89	1069.72
643.23	1062.14
643.58	1055.66
643.92	1048.59
644.26	1041.65
644.61	1034.70
644.95	1027.86
645.29	1020.40
645.64	1012.75
645.98	1005.51
646.32	998.76
646.66	991.87
647.01	985.17
647.35	978.60
647.69	971.91
648.04	965.61
648.38	959.05
648.72	952.27
649.06	945.41
649.41	938.62
649.75	931.79
650.09	925.14
650.43	918.49
650.78	911.40
651.12	904.66
651.46	898.12
651.80	891.62
652.14	885.51
652.49	879.36
652.83	873.50
653.17	867.13
653.51	860.70
653.85	854.51
654.20	848.13
654.54	841.24
654.88	834.68
655.22	827.95
655.56	821.39
655.90	815.11
656.25	809.19
656.59	803.16
656.93	797.39
657.27	791.42
657.61	785.23
657.95	779.43
658.29	773.63
658.64	767.62
658.98	761.56
659.32	755.34
659.66	749.43
660.00	743.36
660.34	737.74
660.68	732.14
661.02	726.44
661.36	721.09
661.70	715.98
662.05	711.04
662.39	706.11
662.73	701.07
663.07	696.14
663.41	691.07
663.75	685.95
664.09	680.77
664.43	675.70
664.77	671.09
665.11	666.39
665.45	661.72
665.79	657.09
666.13	652.44
666.47	647.80
666.81	643.17
667.15	638.48
667.49	634.03
667.83	629.64
668.17	625.20
668.51	620.52
668.85	615.90
669.19	611.58
669.53	607.26
669.87	602.89
670.21	598.63
670.55	594.45
670.89	590.52
671.23	586.66
671.57	582.72
671.91	578.73
672.25	574.67
672.58	570.63
672.92	566.74
673.26	563.18
673.60	559.53
673.94	555.93
674.28	552.61
674.62	549.26
674.96	545.82
675.30	542.53
675.64	539.29
675.97	536.19
676.31	532.87
676.65	529.59
676.99	526.52
677.33	523.30
677.67	520.14
678.01	516.76
678.34	513.41
678.68	510.23
679.02	507.04
679.36	503.92
679.70	500.92
680.04	497.83
680.37	494.62
680.71	491.48
681.05	488.56
681.39	485.55
681.73	482.47
682.06	479.59
682.40	476.73
682.74	473.85
683.08	470.96
683.42	468.09
683.75	465.23
684.09	462.27
684.43	459.51
684.77	456.70
685.10	453.98
685.44	451.32
685.78	448.67
686.12	446.10
686.45	443.50
686.79	440.85
687.13	438.32
687.46	435.79
687.80	433.34
688.14	430.76
688.48	428.40
688.81	425.92
689.15	423.43
689.49	420.96
689.82	418.62
690.16	416.23
690.50	413.96
690.83	411.73
691.17	409.51
691.51	407.32
691.84	405.24
692.18	403.04
692.52	400.81
692.85	398.58
693.19	396.45
693.52	394.38
693.86	392.35
694.20	390.36
694.53	388.30
694.87	386.20
695.21	384.19
695.54	382.07
695.88	380.08
696.21	378.13
696.55	376.21
696.88	374.27
697.22	372.41
697.56	370.53
697.89	368.66
698.23	366.80
698.56	364.96
698.90	363.15
699.23	361.35
699.57	359.57
699.90	357.80
700.24	356.07
700.58	354.31
700.91	352.57
701.25	350.92
701.58	349.39
701.92	347.87
702.25	346.27
702.59	344.75
702.92	343.23
703.26	341.76
703.59	340.32
703.93	338.96
704.26	337.54
704.60	336.08
704.93	334.65
705.26	333.27
705.60	331.91
705.93	330.55
706.27	329.31
706.60	328.08
706.94	326.86
707.27	325.55
707.61	324.33
707.94	323.16
708.27	321.90
708.61	320.61
708.94	319.46
709.28	318.35
709.61	317.23
709.94	316.14
710.28	314.98
710.61	313.83
710.95	312.62
711.28	311.54
711.61	310.45
711.95	309.38
712.28	308.26
712.61	307.16
712.95	306.10
713.28	305.10
713.61	304.09
713.95	303.06
714.28	302.06
714.61	301.08
714.95	300.13
715.28	299.13
715.61	298.19
715.95	297.19
716.28	296.18
716.61	295.26
716.95	294.31
717.28	293.42
717.61	292.55
717.94	291.68
718.28	290.76
718.61	289.96
718.94	289.14
719.27	288.42
719.61	287.65
719.94	286.92
720.27	286.08
720.60	285.32
720.94	284.61
721.27	283.97
721.60	283.30
721.93	282.59
722.27	281.94
722.60	281.30
722.93	280.67
723.26	280.08
723.59	279.42
723.93	278.78
724.26	278.15
724.59	277.50
724.92	276.91
725.25	276.34
725.59	275.75
725.92	275.18
726.25	274.58
726.58	274.03
726.91	273.41
727.24	272.86
727.57	272.32
727.91	271.74
728.24	271.15
728.57	270.57
728.90	270.03
729.23	269.51
729.56	269.00
729.89	268.44
730.22	267.89
730.55	267.37
730.89	266.89
731.22	266.38
731.55	265.88
731.88	265.41
732.21	264.92
732.54	264.38
732.87	263.92
733.20	263.46
733.53	263.01
733.86	262.62
734.19	262.19
734.52	261.76
734.85	261.43
735.18	261.00
735.51	260.60
735.84	260.18
736.17	259.78
736.50	259.34
736.83	259.05
737.16	258.64
737.49	258.25
737.82	257.84
738.15	257.45
738.48	257.10
738.81	256.70
739.14	256.32
739.47	255.97
739.80	255.60
740.13	255.26
740.46	254.91
740.79	254.53
741.12	254.19
741.45	253.82
741.78	253.42
742.11	253.09
742.44	252.71
742.77	252.38
743.10	252.01
743.43	251.65
743.75	251.21
744.08	251.02
744.41	250.69
744.74	250.34
745.07	249.99
745.40	249.72
745.73	249.42
746.06	249.10
746.39	248.79
746.71	248.47
747.04	248.11
747.37	247.80
747.70	247.49
748.03	247.21
748.36	246.95
748.68	246.64
749.01	246.33
749.34	246.07
749.67	245.81
750.00	245.57
750.33	245.40
750.65	245.17
750.98	244.79
751.31	244.53
751.64	244.33
751.97	244.19
752.29	243.90
752.62	243.64
752.95	243.41
753.28	243.17
753.60	242.92
753.93	242.74
754.26	242.52
754.59	242.26
754.91	241.97
755.24	241.76
755.57	241.54
755.90	241.33
756.22	241.14
756.55	240.89
756.88	240.67
757.20	240.34
757.53	240.14
757.86	239.95
758.19	239.76
758.51	239.57
758.84	239.29
759.17	239.10
759.49	238.93
759.82	238.78
760.15	238.61
760.47	238.44
760.80	238.25
761.13	238.09
761.45	237.93
761.78	237.78
762.11	237.58
762.43	237.42
762.76	237.29
763.08	237.13
763.41	236.99
763.74	236.84
764.06	236.76
764.39	236.60
764.71	236.47
765.04	236.32
765.37	236.17
765.69	236.04
766.02	235.94
766.34	235.79
766.67	235.63
767.00	235.56
767.32	235.46
767.65	235.39
767.97	235.25
768.30	235.15
768.62	235.04
768.95	234.94
769.27	234.82
769.60	234.69
769.92	234.56
770.25	234.43
770.57	234.33
770.90	234.16
771.22	234.04
771.55	233.92
771.87	233.83
772.20	233.72
772.52	233.69
772.85	233.70
773.17	233.61
773.50	233.51
773.82	233.36
774.15	233.22
774.47	233.07
774.80	232.96
775.12	232.86
775.45	232.78
775.77	232.70
776.09	232.63
776.42	232.53
776.74	232.49
777.07	232.42
777.39	232.33
777.72	232.25
778.04	232.16
778.36	232.10
778.69	232.04
779.01	231.99
779.33	231.81
779.66	231.58
779.98	231.51
780.31	231.44
780.63	231.41
780.95	231.39
781.28	231.30
781.60	231.28
781.92	231.23
782.25	231.16
782.57	231.08
782.89	231.01
783.22	230.92
783.54	230.85
783.86	230.79
784.19	230.69
784.51	230.67
784.83	230.61
785.16	230.48
785.48	230.41
785.80	230.36
786.12	230.32
786.45	230.29
786.77	230.25
