SpectraSuite Data File
++++++++++++++++++++++++++++++++++++
Date: Fri Feb 01 17:03:43 EST 2013
User: group
Dark Spectrum Present: No
Reference Spectrum Present: No
Number of Sampled Component Spectra: 1
Spectrometers: USB2E7196
Integration Time (usec): 35000 (USB2E7196)
Spectra Averaged: 100 (USB2E7196)
Boxcar Smoothing: 10 (USB2E7196)
Correct for Electrical Dark: No (USB2E7196)
Strobe/Lamp Enabled: No (USB2E7196)
Correct for Detector Non-linearity: No (USB2E7196)
Correct for Stray Light: No (USB2E7196)
Number of Pixels in Processed Spectrum: 2048
>>>>>Begin Processed Spectral Data<<<<<
339.09	0.00
339.48	213.92
339.86	215.03
340.24	215.92
340.63	217.66
341.01	220.48
341.39	220.33
341.78	221.90
342.16	222.73
342.54	223.09
342.93	211.78
343.31	222.49
343.69	222.99
344.07	223.44
344.46	223.85
344.84	224.21
345.22	224.42
345.60	224.64
345.99	224.81
346.37	224.91
346.75	224.98
347.13	225.01
347.52	225.05
347.90	225.12
348.28	225.13
348.66	225.14
349.05	225.15
349.43	225.16
349.81	225.19
350.19	225.26
350.57	225.31
350.96	225.34
351.34	225.42
351.72	225.52
352.10	225.61
352.48	225.68
352.87	225.77
353.25	225.85
353.63	225.92
354.01	225.98
354.39	226.09
354.77	226.17
355.15	226.32
355.54	226.42
355.92	226.48
356.30	226.56
356.68	226.69
357.06	226.76
357.44	226.83
357.82	226.87
358.20	226.92
358.58	226.99
358.97	227.07
359.35	227.17
359.73	227.24
360.11	227.30
360.49	227.38
360.87	227.43
361.25	227.52
361.63	227.60
362.01	227.66
362.39	227.66
362.77	227.74
363.15	227.76
363.53	227.77
363.91	227.80
364.29	227.85
364.67	227.82
365.05	227.84
365.43	227.89
365.81	227.93
366.19	228.00
366.57	228.05
366.95	228.05
367.33	227.99
367.71	228.01
368.09	228.03
368.47	227.99
368.85	227.98
369.23	227.95
369.61	227.90
369.99	227.91
370.37	227.93
370.75	227.93
371.13	227.86
371.51	227.84
371.89	227.86
372.27	227.80
372.65	227.75
373.03	227.70
373.41	227.63
373.78	227.59
374.16	227.47
374.54	227.40
374.92	227.37
375.30	227.29
375.68	227.22
376.06	227.17
376.44	227.14
376.82	227.04
377.19	227.00
377.57	226.93
377.95	226.86
378.33	226.74
378.71	226.61
379.09	226.57
379.47	226.52
379.84	226.41
380.22	226.31
380.60	226.21
380.98	226.17
381.36	226.10
381.73	226.03
382.11	225.98
382.49	225.89
382.87	225.81
383.25	225.78
383.62	225.76
384.00	225.66
384.38	225.57
384.76	225.55
385.13	225.51
385.51	225.45
385.89	225.36
386.27	225.34
386.64	225.33
387.02	225.28
387.40	225.20
387.78	225.16
388.15	225.16
388.53	225.13
388.91	225.08
389.29	225.07
389.66	225.03
390.04	225.01
390.42	225.02
390.79	225.01
391.17	224.96
391.55	224.87
391.92	224.87
392.30	224.88
392.68	224.84
393.05	224.82
393.43	224.81
393.81	224.84
394.18	224.82
394.56	224.81
394.94	224.83
395.31	224.82
395.69	224.85
396.06	224.87
396.44	224.90
396.82	224.92
397.19	224.96
397.57	224.97
397.95	225.00
398.32	225.02
398.70	225.05
399.07	225.12
399.45	225.16
399.82	225.23
400.20	225.25
400.58	225.33
400.95	225.34
401.33	225.45
401.70	225.56
402.08	225.64
402.45	225.75
402.83	225.86
403.20	225.98
403.58	226.10
403.95	226.19
404.33	226.32
404.71	226.46
405.08	226.65
405.46	226.79
405.83	226.92
406.21	227.02
406.58	227.15
406.96	227.29
407.33	227.47
407.70	227.65
408.08	227.92
408.45	228.15
408.83	228.40
409.20	228.59
409.58	228.80
409.95	229.04
410.33	229.31
410.70	229.53
411.08	229.83
411.45	230.13
411.82	230.47
412.20	230.82
412.57	231.23
412.95	231.51
413.32	231.92
413.69	232.34
414.07	232.79
414.44	233.27
414.82	233.80
415.19	234.31
415.56	234.84
415.94	235.38
416.31	236.03
416.68	236.66
417.06	237.39
417.43	238.05
417.81	238.86
418.18	239.65
418.55	240.51
418.93	241.39
419.30	242.27
419.67	243.16
420.04	244.09
420.42	245.07
420.79	246.25
421.16	247.41
421.54	248.60
421.91	249.79
422.28	251.05
422.66	252.35
423.03	253.70
423.40	255.03
423.77	256.43
424.15	257.82
424.52	259.25
424.89	260.84
425.26	262.35
425.64	263.79
426.01	265.33
426.38	266.97
426.75	268.61
427.13	270.32
427.50	272.14
427.87	274.01
428.24	275.86
428.61	277.55
428.99	279.46
429.36	281.54
429.73	283.58
430.10	285.54
430.47	287.61
430.85	289.71
431.22	291.96
431.59	294.29
431.96	296.49
432.33	298.98
432.70	301.34
433.08	304.17
433.45	306.76
433.82	309.37
434.19	312.20
434.56	314.99
434.93	317.63
435.30	320.20
435.68	323.05
436.05	325.87
436.42	328.69
436.79	331.17
437.16	333.85
437.53	336.68
437.90	339.52
438.27	342.20
438.64	344.96
439.01	347.51
439.38	349.74
439.75	351.92
440.13	354.37
440.50	356.70
440.87	358.54
441.24	360.48
441.61	362.59
441.98	364.09
442.35	365.89
442.72	367.68
443.09	369.50
443.46	370.48
443.83	371.03
444.20	371.49
444.57	372.31
444.94	372.59
445.31	372.97
445.68	373.29
446.05	373.41
446.42	373.03
446.79	372.63
447.16	372.19
447.53	371.84
447.90	370.73
448.27	369.57
448.64	367.93
449.01	366.82
449.37	364.87
449.74	363.00
450.11	360.77
450.48	358.36
450.85	355.83
451.22	353.75
451.59	351.75
451.96	349.87
452.33	347.28
452.70	344.94
453.07	342.12
453.43	339.24
453.80	336.48
454.17	333.88
454.54	331.32
454.91	328.62
455.28	325.99
455.65	323.51
456.02	321.07
456.38	318.96
456.75	316.32
457.12	314.11
457.49	311.88
457.86	309.72
458.23	307.89
458.59	305.88
458.96	303.80
459.33	301.99
459.70	300.16
460.07	298.69
460.43	297.02
460.80	295.42
461.17	294.01
461.54	292.54
461.91	291.06
462.27	289.69
462.64	288.47
463.01	287.19
463.38	285.93
463.74	284.63
464.11	283.50
464.48	282.53
464.85	281.41
465.21	280.59
465.58	279.67
465.95	278.58
466.32	277.69
466.68	276.81
467.05	275.95
467.42	275.08
467.78	274.16
468.15	273.31
468.52	272.67
468.88	271.85
469.25	271.05
469.62	270.51
469.98	269.83
470.35	269.21
470.72	268.64
471.08	268.03
471.45	267.50
471.82	266.99
472.18	266.41
472.55	265.99
472.92	265.50
473.28	265.07
473.65	264.66
474.02	264.26
474.38	263.93
474.75	263.60
475.11	263.26
475.48	263.02
475.85	262.77
476.21	262.53
476.58	262.34
476.94	262.26
477.31	262.09
477.67	261.97
478.04	261.87
478.41	261.81
478.77	261.83
479.14	261.78
479.50	261.81
479.87	261.86
480.23	261.96
480.60	262.03
480.96	262.16
481.33	262.35
481.69	262.56
482.06	262.74
482.42	262.96
482.79	263.21
483.15	263.56
483.52	263.94
483.88	264.31
484.25	264.72
484.61	265.13
484.98	265.59
485.34	266.15
485.71	266.73
486.07	267.30
486.44	267.88
486.80	268.56
487.17	269.24
487.53	270.03
487.90	270.90
488.26	271.85
488.62	272.82
488.99	273.81
489.35	274.81
489.72	275.95
490.08	277.12
490.44	278.37
490.81	279.68
491.17	281.01
491.54	282.46
491.90	283.99
492.26	285.63
492.63	287.36
492.99	289.12
493.36	291.00
493.72	293.03
494.08	295.13
494.45	297.37
494.81	299.77
495.17	302.18
495.54	304.75
495.90	307.41
496.26	310.23
496.63	313.16
496.99	316.25
497.35	319.45
497.72	322.88
498.08	326.34
498.44	330.01
498.80	333.96
499.17	337.99
499.53	342.15
499.89	346.45
500.26	350.94
500.62	355.52
500.98	360.45
501.34	365.52
501.71	370.76
502.07	376.14
502.43	381.70
502.79	387.51
503.16	393.51
503.52	399.68
503.88	405.98
504.24	412.56
504.60	419.37
504.97	426.42
505.33	433.65
505.69	441.37
506.05	449.08
506.41	456.85
506.78	464.97
507.14	473.33
507.50	481.99
507.86	490.88
508.22	500.04
508.59	509.21
508.95	518.67
509.31	528.40
509.67	538.44
510.03	548.56
510.39	558.98
510.75	569.63
511.12	580.43
511.48	591.60
511.84	602.95
512.20	614.36
512.56	626.23
512.92	638.19
513.28	650.32
513.64	662.59
514.00	675.11
514.37	687.81
514.73	700.62
515.09	713.49
515.45	726.60
515.81	739.92
516.17	753.62
516.53	767.51
516.89	781.50
517.25	795.47
517.61	809.70
517.97	823.92
518.33	838.09
518.69	852.65
519.05	867.34
519.41	882.17
519.77	897.35
520.13	912.46
520.49	927.53
520.85	942.61
521.21	958.00
521.57	973.87
521.93	989.41
522.29	1005.45
522.65	1021.32
523.01	1037.26
523.37	1052.95
523.73	1068.85
524.09	1084.62
524.45	1100.52
524.81	1116.76
525.17	1133.09
525.53	1149.56
525.89	1166.11
526.25	1182.67
526.61	1198.75
526.97	1215.15
527.33	1231.29
527.68	1247.60
528.04	1263.79
528.40	1279.97
528.76	1296.69
529.12	1312.96
529.48	1329.49
529.84	1345.08
530.20	1361.35
530.56	1377.84
530.91	1394.92
531.27	1411.25
531.63	1427.31
531.99	1443.54
532.35	1459.15
532.71	1474.77
533.07	1490.58
533.42	1506.10
533.78	1521.69
534.14	1537.49
534.50	1552.52
534.86	1568.04
535.21	1582.77
535.57	1598.25
535.93	1613.30
536.29	1627.77
536.65	1642.56
537.00	1656.78
537.36	1671.85
537.72	1685.99
538.08	1700.09
538.44	1713.58
538.79	1727.09
539.15	1740.35
539.51	1753.71
539.87	1767.75
540.22	1781.05
540.58	1794.56
540.94	1807.55
541.29	1819.93
541.65	1832.39
542.01	1845.21
542.37	1857.15
542.72	1869.34
543.08	1880.81
543.44	1893.05
543.79	1904.02
544.15	1914.65
544.51	1926.10
544.87	1936.81
545.22	1947.45
545.58	1957.54
545.94	1966.97
546.29	1976.79
546.65	1986.54
547.01	1995.71
547.36	2004.21
547.72	2012.68
548.07	2020.59
548.43	2028.56
548.79	2036.45
549.14	2043.90
549.50	2051.11
549.86	2058.71
550.21	2065.98
550.57	2073.12
550.92	2079.59
551.28	2086.63
551.64	2093.56
551.99	2100.03
552.35	2106.16
552.70	2112.28
553.06	2118.23
553.41	2124.67
553.77	2130.51
554.13	2136.44
554.48	2142.47
554.84	2148.10
555.19	2153.12
555.55	2158.23
555.90	2162.89
556.26	2167.99
556.61	2172.74
556.97	2177.23
557.32	2181.44
557.68	2185.45
558.03	2189.87
558.39	2193.54
558.74	2198.14
559.10	2202.15
559.45	2205.85
559.81	2210.08
560.16	2214.03
560.52	2217.40
560.87	2220.81
561.23	2223.61
561.58	2226.65
561.94	2229.20
562.29	2231.44
562.64	2234.52
563.00	2237.12
563.35	2240.70
563.71	2243.95
564.06	2247.21
564.42	2250.19
564.77	2252.73
565.12	2255.41
565.48	2257.40
565.83	2259.60
566.19	2261.13
566.54	2262.12
566.89	2263.52
567.25	2264.48
567.60	2265.83
567.96	2267.56
568.31	2268.54
568.66	2269.76
569.02	2270.59
569.37	2271.25
569.72	2272.38
570.08	2272.74
570.43	2272.90
570.78	2272.38
571.14	2270.95
571.49	2269.60
571.84	2269.36
572.20	2268.58
572.55	2267.57
572.90	2266.07
573.26	2264.87
573.61	2263.14
573.96	2261.74
574.31	2258.94
574.67	2256.14
575.02	2252.74
575.37	2249.63
575.72	2246.14
576.08	2242.91
576.43	2239.69
576.78	2236.24
577.13	2233.02
577.49	2230.04
577.84	2226.84
578.19	2223.21
578.54	2220.01
578.90	2216.26
579.25	2210.93
579.60	2206.21
579.95	2201.37
580.30	2196.52
580.66	2191.56
581.01	2186.74
581.36	2181.98
581.71	2178.00
582.06	2173.69
582.42	2169.51
582.77	2164.55
583.12	2160.21
583.47	2155.97
583.82	2151.27
584.17	2146.20
584.53	2141.07
584.88	2135.58
585.23	2130.05
585.58	2124.75
585.93	2119.31
586.28	2114.63
586.63	2109.76
586.98	2104.71
587.34	2100.12
587.69	2095.44
588.04	2090.39
588.39	2085.09
588.74	2078.72
589.09	2072.83
589.44	2066.29
589.79	2060.30
590.14	2054.74
590.49	2048.36
590.84	2041.96
591.19	2036.14
591.54	2029.98
591.89	2023.12
592.25	2016.60
592.60	2009.57
592.95	2002.42
593.30	1995.32
593.65	1988.02
594.00	1981.18
594.35	1974.15
594.70	1966.37
595.05	1959.65
595.40	1952.57
595.75	1945.32
596.10	1939.45
596.45	1932.84
596.80	1926.88
597.15	1920.51
597.50	1913.77
597.85	1907.48
598.19	1901.20
598.54	1894.30
598.89	1887.73
599.24	1881.77
599.59	1875.40
599.94	1869.27
600.29	1863.06
600.64	1856.58
600.99	1849.34
601.34	1842.74
601.69	1836.00
602.04	1829.40
602.39	1822.11
602.74	1815.37
603.08	1808.81
603.43	1802.11
603.78	1794.91
604.13	1787.73
604.48	1780.72
604.83	1773.80
605.18	1767.09
605.53	1759.16
605.87	1751.20
606.22	1744.04
606.57	1736.15
606.92	1728.67
607.27	1721.70
607.62	1714.97
607.96	1707.98
608.31	1701.54
608.66	1694.03
609.01	1686.60
609.36	1679.20
609.70	1671.17
610.05	1663.38
610.40	1655.75
610.75	1647.63
611.10	1640.10
611.44	1631.86
611.79	1623.76
612.14	1615.27
612.49	1606.07
612.83	1597.70
613.18	1589.71
613.53	1581.72
613.88	1573.39
614.22	1565.31
614.57	1556.75
614.92	1548.78
615.27	1541.24
615.61	1533.10
615.96	1525.08
616.31	1517.45
616.65	1510.02
617.00	1502.66
617.35	1494.86
617.70	1486.63
618.04	1478.20
618.39	1469.95
618.74	1462.51
619.08	1454.22
619.43	1446.54
619.78	1439.75
620.12	1432.75
620.47	1425.27
620.82	1417.12
621.16	1409.57
621.51	1401.87
621.85	1394.29
622.20	1385.79
622.55	1377.32
622.89	1369.36
623.24	1361.72
623.59	1354.36
623.93	1346.89
624.28	1339.64
624.62	1332.28
624.97	1325.06
625.32	1318.15
625.66	1311.17
626.01	1303.89
626.35	1296.65
626.70	1288.96
627.04	1281.26
627.39	1273.28
627.73	1265.88
628.08	1259.03
628.43	1251.91
628.77	1244.67
629.12	1237.11
629.46	1230.01
629.81	1222.53
630.15	1215.30
630.50	1208.01
630.84	1199.89
631.19	1191.89
631.53	1184.35
631.88	1176.65
632.22	1169.13
632.57	1161.93
632.91	1154.32
633.26	1147.01
633.60	1139.57
633.95	1132.35
634.29	1125.24
634.64	1118.73
634.98	1111.46
635.32	1104.28
635.67	1097.60
636.01	1091.00
636.36	1084.28
636.70	1077.71
637.05	1071.34
637.39	1064.82
637.73	1058.40
638.08	1052.57
638.42	1046.68
638.77	1040.34
639.11	1033.97
639.45	1027.62
639.80	1021.02
640.14	1014.84
640.49	1008.35
640.83	1002.08
641.17	996.14
641.52	989.93
641.86	983.49
642.20	977.62
642.55	971.33
642.89	964.95
643.23	958.39
643.58	952.71
643.92	946.62
644.26	940.70
644.61	934.71
644.95	928.69
645.29	922.17
645.64	915.43
645.98	909.05
646.32	903.16
646.66	897.12
647.01	891.42
647.35	885.63
647.69	879.82
648.04	874.38
648.38	868.62
648.72	862.70
649.06	856.74
649.41	850.85
649.75	845.02
650.09	839.12
650.43	833.40
650.78	827.23
651.12	821.31
651.46	815.54
651.80	809.90
652.14	804.49
652.49	799.15
652.83	794.08
653.17	788.52
653.51	782.93
653.85	777.57
654.20	771.94
654.54	765.99
654.88	760.30
655.22	754.39
655.56	748.69
655.90	743.22
656.25	738.02
656.59	732.77
656.93	727.73
657.27	722.60
657.61	717.20
657.95	712.16
658.29	707.08
658.64	701.84
658.98	696.50
659.32	691.09
659.66	685.92
660.00	680.65
660.34	675.70
660.68	670.73
661.02	665.73
661.36	661.06
661.70	656.54
662.05	652.16
662.39	647.93
662.73	643.50
663.07	639.15
663.41	634.68
663.75	630.16
664.09	625.61
664.43	621.25
664.77	617.20
665.11	612.93
665.45	608.77
665.79	604.69
666.13	600.62
666.47	596.53
666.81	592.37
667.15	588.24
667.49	584.34
667.83	580.56
668.17	576.59
668.51	572.50
668.85	568.50
669.19	564.60
669.53	560.72
669.87	556.85
670.21	553.16
670.55	549.51
670.89	546.17
671.23	542.71
671.57	539.19
671.91	535.66
672.25	532.19
672.58	528.73
672.92	525.28
673.26	522.12
673.60	518.92
673.94	515.79
674.28	512.89
674.62	509.98
674.96	506.88
675.30	504.06
675.64	501.21
675.97	498.43
676.31	495.65
676.65	492.77
676.99	490.09
677.33	487.22
677.67	484.42
678.01	481.45
678.34	478.52
678.68	475.67
679.02	472.81
679.36	470.02
679.70	467.26
680.04	464.61
680.37	461.75
680.71	458.97
681.05	456.38
681.39	453.66
681.73	451.01
682.06	448.48
682.40	445.90
682.74	443.34
683.08	440.78
683.42	438.15
683.75	435.63
684.09	433.01
684.43	430.54
684.77	428.07
685.10	425.68
685.44	423.42
685.78	421.16
686.12	418.98
686.45	416.70
686.79	414.41
687.13	412.17
687.46	410.03
687.80	407.89
688.14	405.66
688.48	403.67
688.81	401.44
689.15	399.29
689.49	397.12
689.82	395.05
690.16	393.01
690.50	391.10
690.83	389.20
691.17	387.24
691.51	385.32
691.84	383.49
692.18	381.57
692.52	379.57
692.85	377.58
693.19	375.70
693.52	373.88
693.86	372.05
694.20	370.30
694.53	368.54
694.87	366.69
695.21	364.90
695.54	363.01
695.88	361.28
696.21	359.59
696.55	357.98
696.88	356.31
697.22	354.62
697.56	352.98
697.89	351.31
698.23	349.73
698.56	348.14
698.90	346.55
699.23	344.91
699.57	343.37
699.90	341.85
700.24	340.29
700.58	338.75
700.91	337.28
701.25	335.83
701.58	334.42
701.92	333.05
702.25	331.69
702.59	330.33
702.92	329.04
703.26	327.69
703.59	326.38
703.93	325.22
704.26	324.00
704.60	322.70
704.93	321.43
705.26	320.20
705.60	319.02
705.93	317.87
706.27	316.82
706.60	315.75
706.94	314.71
707.27	313.56
707.61	312.52
707.94	311.50
708.27	310.40
708.61	309.32
708.94	308.33
709.28	307.34
709.61	306.39
709.94	305.41
710.28	304.38
710.61	303.40
710.95	302.26
711.28	301.34
711.61	300.36
711.95	299.45
712.28	298.50
712.61	297.51
712.95	296.56
713.28	295.66
713.61	294.76
713.95	293.83
714.28	293.00
714.61	292.13
714.95	291.28
715.28	290.40
715.61	289.53
715.95	288.67
716.28	287.79
716.61	286.95
716.95	286.11
717.28	285.35
717.61	284.59
717.94	283.84
718.28	283.05
718.61	282.35
718.94	281.64
719.27	280.97
719.61	280.30
719.94	279.63
720.27	278.93
720.60	278.21
720.94	277.59
721.27	276.96
721.60	276.35
721.93	275.72
722.27	275.19
722.60	274.66
722.93	274.09
723.26	273.60
723.59	273.02
723.93	272.46
724.26	271.91
724.59	271.35
724.92	270.86
725.25	270.33
725.59	269.79
725.92	269.29
726.25	268.75
726.58	268.25
726.91	267.78
727.24	267.30
727.57	266.88
727.91	266.38
728.24	265.93
728.57	265.45
728.90	265.03
729.23	264.54
729.56	264.09
729.89	263.59
730.22	263.07
730.55	262.64
730.89	262.22
731.22	261.82
731.55	261.36
731.88	260.90
732.21	260.46
732.54	260.07
732.87	259.64
733.20	259.32
733.53	258.96
733.86	258.61
734.19	258.20
734.52	257.81
734.85	257.51
735.18	257.12
735.51	256.77
735.84	256.38
736.17	256.06
736.50	255.64
736.83	255.43
737.16	255.17
737.49	254.83
737.82	254.46
738.15	254.11
738.48	253.80
738.81	253.50
739.14	253.22
739.47	252.91
739.80	252.62
740.13	252.25
740.46	251.93
740.79	251.61
741.12	251.32
741.45	251.03
741.78	250.66
742.11	250.38
742.44	250.04
742.77	249.78
743.10	249.46
743.43	249.20
743.75	248.80
744.08	248.64
744.41	248.36
744.74	248.11
745.07	247.84
745.40	247.60
745.73	247.34
746.06	247.06
746.39	246.78
746.71	246.50
747.04	246.25
747.37	245.99
747.70	245.75
748.03	245.49
748.36	245.25
748.68	245.03
749.01	244.75
749.34	244.56
749.67	244.31
750.00	244.09
750.33	243.91
750.65	243.72
750.98	243.34
751.31	243.11
751.64	242.91
751.97	242.76
752.29	242.49
752.62	242.22
752.95	242.00
753.28	241.79
753.60	241.60
753.93	241.41
754.26	241.19
754.59	240.93
754.91	240.71
755.24	240.51
755.57	240.32
755.90	240.17
756.22	239.95
756.55	239.77
756.88	239.59
757.20	239.37
757.53	239.17
757.86	238.98
758.19	238.86
758.51	238.68
758.84	238.45
759.17	238.28
759.49	238.12
759.82	238.04
760.15	237.88
760.47	237.70
760.80	237.53
761.13	237.43
761.45	237.32
761.78	237.21
762.11	237.07
762.43	236.90
762.76	236.74
763.08	236.58
763.41	236.44
763.74	236.27
764.06	236.11
764.39	235.97
764.71	235.83
765.04	235.65
765.37	235.53
765.69	235.42
766.02	235.32
766.34	235.19
766.67	235.00
767.00	234.90
767.32	234.84
767.65	234.81
767.97	234.67
768.30	234.50
768.62	234.33
768.95	234.21
769.27	234.07
769.60	233.96
769.92	233.89
770.25	233.77
770.57	233.70
770.90	233.62
771.22	233.50
771.55	233.43
771.87	233.34
772.20	233.23
772.52	233.20
772.85	233.25
773.17	233.19
773.50	233.06
773.82	232.96
774.15	232.83
774.47	232.66
774.80	232.59
775.12	232.51
775.45	232.48
775.77	232.40
776.09	232.35
776.42	232.32
776.74	232.27
777.07	232.16
777.39	232.08
777.72	231.99
778.04	231.95
778.36	231.90
778.69	231.83
779.01	231.78
779.33	231.64
779.66	231.41
779.98	231.32
780.31	231.32
780.63	231.28
780.95	231.25
781.28	231.21
781.60	231.17
781.92	231.14
782.25	231.07
782.57	230.99
782.89	230.92
783.22	230.82
783.54	230.72
783.86	230.74
784.19	230.68
784.51	230.67
784.83	230.60
785.16	230.53
785.48	230.47
785.80	230.42
786.12	230.39
786.45	230.36
786.77	230.35
787.09	230.27
