SpectraSuite Data File
++++++++++++++++++++++++++++++++++++
Date: Fri Feb 01 18:14:36 EST 2013
User: group
Dark Spectrum Present: No
Reference Spectrum Present: No
Number of Sampled Component Spectra: 1
Spectrometers: USB2E7196
Integration Time (usec): 35000 (USB2E7196)
Spectra Averaged: 100 (USB2E7196)
Boxcar Smoothing: 10 (USB2E7196)
Correct for Electrical Dark: No (USB2E7196)
Strobe/Lamp Enabled: No (USB2E7196)
Correct for Detector Non-linearity: No (USB2E7196)
Correct for Stray Light: No (USB2E7196)
Number of Pixels in Processed Spectrum: 2048
>>>>>Begin Processed Spectral Data<<<<<
339.09	0.00
339.48	213.41
339.86	214.92
340.24	215.53
340.63	217.15
341.01	220.52
341.39	220.10
341.78	221.31
342.16	223.19
342.54	223.06
342.93	211.70
343.31	222.39
343.69	222.93
344.07	223.38
344.46	223.80
344.84	224.22
345.22	224.43
345.60	224.68
345.99	224.87
346.37	224.96
346.75	225.04
347.13	225.13
347.52	225.19
347.90	225.25
348.28	225.31
348.66	225.34
349.05	225.34
349.43	225.39
349.81	225.45
350.19	225.48
350.57	225.52
350.96	225.57
351.34	225.62
351.72	225.70
352.10	225.83
352.48	225.93
352.87	225.95
353.25	226.03
353.63	226.09
354.01	226.18
354.39	226.26
354.77	226.37
355.15	226.45
355.54	226.50
355.92	226.51
356.30	226.59
356.68	226.70
357.06	226.80
357.44	226.84
357.82	226.88
358.20	226.95
358.58	226.99
358.97	227.04
359.35	227.14
359.73	227.19
360.11	227.21
360.49	227.28
360.87	227.32
361.25	227.38
361.63	227.46
362.01	227.51
362.39	227.55
362.77	227.59
363.15	227.60
363.53	227.62
363.91	227.68
364.29	227.69
364.67	227.61
365.05	227.61
365.43	227.63
365.81	227.65
366.19	227.69
366.57	227.73
366.95	227.73
367.33	227.72
367.71	227.75
368.09	227.77
368.47	227.74
368.85	227.74
369.23	227.72
369.61	227.68
369.99	227.70
370.37	227.68
370.75	227.69
371.13	227.65
371.51	227.61
371.89	227.60
372.27	227.59
372.65	227.60
373.03	227.56
373.41	227.49
373.78	227.43
374.16	227.34
374.54	227.26
374.92	227.23
375.30	227.16
375.68	227.11
376.06	227.05
376.44	227.02
376.82	226.95
377.19	226.91
377.57	226.86
377.95	226.74
378.33	226.68
378.71	226.60
379.09	226.59
379.47	226.58
379.84	226.54
380.22	226.47
380.60	226.40
380.98	226.35
381.36	226.31
381.73	226.28
382.11	226.23
382.49	226.18
382.87	226.11
383.25	226.08
383.62	226.13
384.00	226.07
384.38	226.02
384.76	226.02
385.13	225.97
385.51	225.93
385.89	225.86
386.27	225.83
386.64	225.81
387.02	225.74
387.40	225.68
387.78	225.65
388.15	225.63
388.53	225.63
388.91	225.59
389.29	225.55
389.66	225.52
390.04	225.47
390.42	225.46
390.79	225.47
391.17	225.46
391.55	225.33
391.92	225.34
392.30	225.33
392.68	225.29
393.05	225.29
393.43	225.28
393.81	225.31
394.18	225.29
394.56	225.26
394.94	225.31
395.31	225.29
395.69	225.27
396.06	225.29
396.44	225.26
396.82	225.27
397.19	225.36
397.57	225.40
397.95	225.44
398.32	225.47
398.70	225.53
399.07	225.58
399.45	225.61
399.82	225.64
400.20	225.68
400.58	225.77
400.95	225.81
401.33	225.88
401.70	225.98
402.08	226.09
402.45	226.17
402.83	226.27
403.20	226.40
403.58	226.51
403.95	226.64
404.33	226.77
404.71	226.92
405.08	227.10
405.46	227.22
405.83	227.41
406.21	227.56
406.58	227.72
406.96	227.90
407.33	228.13
407.70	228.38
408.08	228.68
408.45	228.94
408.83	229.22
409.20	229.50
409.58	229.76
409.95	230.09
410.33	230.44
410.70	230.75
411.08	231.13
411.45	231.52
411.82	231.94
412.20	232.41
412.57	232.96
412.95	233.36
413.32	233.92
413.69	234.47
414.07	235.09
414.44	235.75
414.82	236.39
415.19	237.15
415.56	237.87
415.94	238.64
416.31	239.52
416.68	240.40
417.06	241.39
417.43	242.35
417.81	243.42
418.18	244.51
418.55	245.69
418.93	246.93
419.30	248.19
419.67	249.51
420.04	250.83
420.42	252.23
420.79	253.89
421.16	255.54
421.54	257.22
421.91	258.92
422.28	260.70
422.66	262.57
423.03	264.38
423.40	266.31
423.77	268.35
424.15	270.37
424.52	272.49
424.89	274.77
425.26	276.96
425.64	279.04
426.01	281.33
426.38	283.70
426.75	286.06
427.13	288.53
427.50	291.09
427.87	293.78
428.24	296.41
428.61	298.90
428.99	301.61
429.36	304.60
429.73	307.50
430.10	310.37
430.47	313.29
430.85	316.34
431.22	319.50
431.59	322.84
431.96	325.98
432.33	329.47
432.70	332.85
433.08	336.78
433.45	340.46
433.82	344.15
434.19	348.22
434.56	352.14
434.93	355.87
435.30	359.55
435.68	363.66
436.05	367.66
436.42	371.65
436.79	375.22
437.16	379.04
437.53	383.07
437.90	387.02
438.27	390.87
438.64	394.84
439.01	398.48
439.38	401.60
439.75	404.67
440.13	408.20
440.50	411.44
440.87	414.05
441.24	416.84
441.61	419.80
441.98	421.94
442.35	424.52
442.72	427.12
443.09	429.72
443.46	431.08
443.83	431.92
444.20	432.54
444.57	433.73
444.94	434.12
445.31	434.58
445.68	435.05
446.05	435.19
446.42	434.60
446.79	434.01
447.16	433.39
447.53	432.97
447.90	431.29
448.27	429.67
448.64	427.42
449.01	425.81
449.37	423.08
449.74	420.36
450.11	417.13
450.48	413.65
450.85	409.99
451.22	406.90
451.59	403.98
451.96	401.28
452.33	397.56
452.70	394.23
453.07	390.22
453.43	386.19
453.80	382.28
454.17	378.49
454.54	374.89
454.91	371.10
455.28	367.33
455.65	363.79
456.02	360.28
456.38	357.28
456.75	353.50
457.12	350.27
457.49	347.12
457.86	344.07
458.23	341.47
458.59	338.63
458.96	335.72
459.33	333.10
459.70	330.44
460.07	328.35
460.43	325.89
460.80	323.56
461.17	321.44
461.54	319.33
461.91	317.30
462.27	315.26
462.64	313.45
463.01	311.49
463.38	309.69
463.74	307.80
464.11	306.13
464.48	304.65
464.85	303.13
465.21	301.85
465.58	300.56
465.95	298.99
466.32	297.66
466.68	296.37
467.05	295.09
467.42	293.83
467.78	292.47
468.15	291.20
468.52	290.28
468.88	289.09
469.25	287.93
469.62	287.05
469.98	286.06
470.35	285.14
470.72	284.31
471.08	283.37
471.45	282.61
471.82	281.89
472.18	281.02
472.55	280.37
472.92	279.64
473.28	278.94
473.65	278.32
474.02	277.69
474.38	277.16
474.75	276.72
475.11	276.23
475.48	275.85
475.85	275.53
476.21	275.17
476.58	274.85
476.94	274.63
477.31	274.35
477.67	274.09
478.04	273.90
478.41	273.71
478.77	273.63
479.14	273.46
479.50	273.35
479.87	273.38
480.23	273.39
480.60	273.38
480.96	273.41
481.33	273.57
481.69	273.76
482.06	273.91
482.42	274.03
482.79	274.20
483.15	274.45
483.52	274.81
483.88	275.13
484.25	275.52
484.61	275.92
484.98	276.35
485.34	276.92
485.71	277.47
486.07	278.11
486.44	278.71
486.80	279.43
487.17	280.17
487.53	281.02
487.90	281.89
488.26	282.82
488.62	283.83
488.99	284.82
489.35	285.87
489.72	287.04
490.08	288.35
490.44	289.68
490.81	291.09
491.17	292.51
491.54	294.08
491.90	295.67
492.26	297.39
492.63	299.20
492.99	301.10
493.36	303.13
493.72	305.30
494.08	307.56
494.45	309.94
494.81	312.48
495.17	315.06
495.54	317.82
495.90	320.74
496.26	323.74
496.63	326.89
496.99	330.24
497.35	333.71
497.72	337.31
498.08	341.04
498.44	344.96
498.80	349.15
499.17	353.47
499.53	357.97
499.89	362.66
500.26	367.50
500.62	372.53
500.98	377.87
501.34	383.31
501.71	389.01
502.07	394.90
502.43	400.92
502.79	407.20
503.16	413.69
503.52	420.44
503.88	427.36
504.24	434.49
504.60	441.90
504.97	449.56
505.33	457.44
505.69	465.82
506.05	474.29
506.41	482.79
506.78	491.60
507.14	500.73
507.50	510.16
507.86	519.94
508.22	529.89
508.59	539.85
508.95	550.19
509.31	560.79
509.67	571.66
510.03	582.79
510.39	594.23
510.75	605.90
511.12	617.74
511.48	629.96
511.84	642.51
512.20	655.00
512.56	668.05
512.92	681.33
513.28	694.81
513.64	708.38
514.00	722.30
514.37	736.41
514.73	750.67
515.09	764.97
515.45	779.60
515.81	794.45
516.17	809.78
516.53	825.33
516.89	840.93
517.25	856.53
517.61	872.46
517.97	888.29
518.33	904.23
518.69	920.52
519.05	937.18
519.41	953.84
519.77	971.13
520.13	988.35
520.49	1005.37
520.85	1022.44
521.21	1039.85
521.57	1057.86
521.93	1075.48
522.29	1093.65
522.65	1111.74
523.01	1129.75
523.37	1147.72
523.73	1165.79
524.09	1183.78
524.45	1201.98
524.81	1220.61
525.17	1239.37
525.53	1258.45
525.89	1277.54
526.25	1296.47
526.61	1314.83
526.97	1333.83
527.33	1352.46
527.68	1371.07
528.04	1389.68
528.40	1408.38
528.76	1427.70
529.12	1446.60
529.48	1465.75
529.84	1484.01
530.20	1503.03
530.56	1522.32
530.91	1542.16
531.27	1561.35
531.63	1580.17
531.99	1599.21
532.35	1617.65
532.71	1635.99
533.07	1654.75
533.42	1673.06
533.78	1691.73
534.14	1710.55
534.50	1728.30
534.86	1746.70
535.21	1764.38
535.57	1782.93
535.93	1800.88
536.29	1818.14
536.65	1835.70
537.00	1852.96
537.36	1870.88
537.72	1887.85
538.08	1904.96
538.44	1921.22
538.79	1937.69
539.15	1953.97
539.51	1970.30
539.87	1987.28
540.22	2003.51
540.58	2019.83
540.94	2035.70
541.29	2051.02
541.65	2066.34
542.01	2082.20
542.37	2097.09
542.72	2112.05
543.08	2126.41
543.44	2141.72
543.79	2155.51
544.15	2168.89
544.51	2183.27
544.87	2196.92
545.22	2210.41
545.58	2223.13
545.94	2235.46
546.29	2247.81
546.65	2260.17
547.01	2271.93
547.36	2283.07
547.72	2294.11
548.07	2304.47
548.43	2314.89
548.79	2325.22
549.14	2335.08
549.50	2344.60
549.86	2354.52
550.21	2364.25
550.57	2373.94
550.92	2382.69
551.28	2392.16
551.64	2401.59
551.99	2410.13
552.35	2418.49
552.70	2426.75
553.06	2434.87
553.41	2443.27
553.77	2451.33
554.13	2459.52
554.48	2467.73
554.84	2475.38
555.19	2482.52
555.55	2489.68
555.90	2496.31
556.26	2503.42
556.61	2510.21
556.97	2516.68
557.32	2522.73
557.68	2528.67
558.03	2534.62
558.39	2540.09
558.74	2546.58
559.10	2552.28
559.45	2557.66
559.81	2563.51
560.16	2569.10
560.52	2574.11
560.87	2579.19
561.23	2583.40
561.58	2587.86
561.94	2592.03
562.29	2595.79
562.64	2600.27
563.00	2604.19
563.35	2609.33
563.71	2613.86
564.06	2618.46
564.42	2622.65
564.77	2626.59
565.12	2630.37
565.48	2633.58
565.83	2636.90
566.19	2639.55
566.54	2641.57
566.89	2644.06
567.25	2645.89
567.60	2648.35
567.96	2651.27
568.31	2653.16
568.66	2655.53
569.02	2657.18
569.37	2658.29
569.72	2660.19
570.08	2661.18
570.43	2662.13
570.78	2662.39
571.14	2661.51
571.49	2660.76
571.84	2661.23
572.20	2660.78
572.55	2660.35
572.90	2659.11
573.26	2658.13
573.61	2656.65
573.96	2655.54
574.31	2652.80
574.67	2650.12
575.02	2646.51
575.37	2643.04
575.72	2639.40
576.08	2635.90
576.43	2632.42
576.78	2629.01
577.13	2625.83
577.49	2622.62
577.84	2619.13
578.19	2615.06
578.54	2611.45
578.90	2607.18
579.25	2601.05
579.60	2595.77
579.95	2590.53
580.30	2585.26
580.66	2579.72
581.01	2574.41
581.36	2568.84
581.71	2564.31
582.06	2559.47
582.42	2554.92
582.77	2549.24
583.12	2544.36
583.47	2539.57
583.82	2534.40
584.17	2528.62
584.53	2522.40
584.88	2516.24
585.23	2510.04
585.58	2503.96
585.93	2497.90
586.28	2492.43
586.63	2486.98
586.98	2481.25
587.34	2475.83
587.69	2470.44
588.04	2464.62
588.39	2458.30
588.74	2450.95
589.09	2443.96
589.44	2436.29
589.79	2429.15
590.14	2422.75
590.49	2415.12
590.84	2407.62
591.19	2400.66
591.54	2393.05
591.89	2384.86
592.25	2377.11
592.60	2368.59
592.95	2360.07
593.30	2351.45
593.65	2342.67
594.00	2334.47
594.35	2325.99
594.70	2316.60
595.05	2308.35
595.40	2299.82
595.75	2290.98
596.10	2283.85
596.45	2275.97
596.80	2268.85
597.15	2261.25
597.50	2253.11
597.85	2245.55
598.19	2237.78
598.54	2229.59
598.89	2221.91
599.24	2214.76
599.59	2206.93
599.94	2199.47
600.29	2191.73
600.64	2183.79
600.99	2175.10
601.34	2167.06
601.69	2158.80
602.04	2150.76
602.39	2142.00
602.74	2133.87
603.08	2125.80
603.43	2117.63
603.78	2108.90
604.13	2100.11
604.48	2091.42
604.83	2083.15
605.18	2075.02
605.53	2065.48
605.87	2055.80
606.22	2047.05
606.57	2037.52
606.92	2028.60
607.27	2020.24
607.62	2012.03
607.96	2003.51
608.31	1995.62
608.66	1986.43
609.01	1977.51
609.36	1968.40
609.70	1958.64
610.05	1948.99
610.40	1939.98
610.75	1930.15
611.10	1921.08
611.44	1910.86
611.79	1901.20
612.14	1890.78
612.49	1879.67
612.83	1869.58
613.18	1859.78
613.53	1850.17
613.88	1839.92
614.22	1830.03
614.57	1819.51
614.92	1809.96
615.27	1800.99
615.61	1790.97
615.96	1781.33
616.31	1772.11
616.65	1763.18
617.00	1754.21
617.35	1744.81
617.70	1734.73
618.04	1724.52
618.39	1714.43
618.74	1705.47
619.08	1695.52
619.43	1686.31
619.78	1677.90
620.12	1669.36
620.47	1660.34
620.82	1650.37
621.16	1641.35
621.51	1632.11
621.85	1623.02
622.20	1612.63
622.55	1602.37
622.89	1592.82
623.24	1583.55
623.59	1574.58
623.93	1565.40
624.28	1556.59
624.62	1547.56
624.97	1538.77
625.32	1530.56
625.66	1522.05
626.01	1513.40
626.35	1504.42
626.70	1495.08
627.04	1485.87
627.39	1476.26
627.73	1467.25
628.08	1458.85
628.43	1450.31
628.77	1441.40
629.12	1432.26
629.46	1423.71
629.81	1414.69
630.15	1406.07
630.50	1397.18
630.84	1387.32
631.19	1377.68
631.53	1368.58
631.88	1359.63
632.22	1350.60
632.57	1341.71
632.91	1332.71
633.26	1323.87
633.60	1314.93
633.95	1306.33
634.29	1297.67
634.64	1289.76
634.98	1280.91
635.32	1272.35
635.67	1264.38
636.01	1256.43
636.36	1248.26
636.70	1240.33
637.05	1232.49
637.39	1224.69
637.73	1216.95
638.08	1209.81
638.42	1202.82
638.77	1195.21
639.11	1187.28
639.45	1179.56
639.80	1171.64
640.14	1164.07
640.49	1156.23
640.83	1148.73
641.17	1141.36
641.52	1133.93
641.86	1126.13
642.20	1119.26
642.55	1111.66
642.89	1103.94
643.23	1096.15
643.58	1089.31
643.92	1081.98
644.26	1074.88
644.61	1067.58
644.95	1060.38
645.29	1052.69
645.64	1044.57
645.98	1036.98
646.32	1029.91
646.66	1022.80
647.01	1015.90
647.35	1009.04
647.69	1002.04
648.04	995.50
648.38	988.69
648.72	981.53
649.06	974.40
649.41	967.35
649.75	960.38
650.09	953.31
650.43	946.40
650.78	939.05
651.12	931.95
651.46	925.12
651.80	918.45
652.14	912.10
652.49	905.74
652.83	899.69
653.17	893.07
653.51	886.40
653.85	879.99
654.20	873.43
654.54	866.32
654.88	859.50
655.22	852.47
655.56	845.72
655.90	839.31
656.25	833.17
656.59	826.80
656.93	820.83
657.27	814.66
657.61	808.26
657.95	802.31
658.29	796.34
658.64	790.07
658.98	783.65
659.32	777.17
659.66	770.99
660.00	764.70
660.34	758.75
660.68	752.91
661.02	746.92
661.36	741.29
661.70	735.94
662.05	730.86
662.39	725.81
662.73	720.49
663.07	715.34
663.41	710.06
663.75	704.80
664.09	699.30
664.43	694.09
664.77	689.20
665.11	684.10
665.45	679.18
665.79	674.36
666.13	669.56
666.47	664.63
666.81	659.75
667.15	654.97
667.49	650.41
667.83	645.89
668.17	641.30
668.51	636.56
668.85	631.79
669.19	627.19
669.53	622.65
669.87	618.08
670.21	613.62
670.55	609.29
670.89	605.15
671.23	601.15
671.57	597.06
671.91	592.96
672.25	588.86
672.58	584.79
672.92	580.78
673.26	577.04
673.60	573.32
673.94	569.64
674.28	566.04
674.62	562.56
674.96	558.90
675.30	555.47
675.64	552.03
675.97	548.80
676.31	545.45
676.65	542.01
676.99	538.84
677.33	535.51
677.67	532.23
678.01	528.79
678.34	525.29
678.68	521.92
679.02	518.59
679.36	515.31
679.70	512.03
680.04	508.86
680.37	505.52
680.71	502.27
681.05	499.17
681.39	496.12
681.73	493.00
682.06	490.07
682.40	487.02
682.74	484.02
683.08	481.00
683.42	477.97
683.75	475.02
684.09	471.97
684.43	469.09
684.77	466.18
685.10	463.38
685.44	460.70
685.78	458.01
686.12	455.38
686.45	452.68
686.79	450.03
687.13	447.37
687.46	444.73
687.80	442.11
688.14	439.49
688.48	437.06
688.81	434.39
689.15	431.81
689.49	429.23
689.82	426.74
690.16	424.29
690.50	421.94
690.83	419.58
691.17	417.28
691.51	414.96
691.84	412.77
692.18	410.49
692.52	408.11
692.85	405.74
693.19	403.47
693.52	401.26
693.86	399.03
694.20	396.92
694.53	394.84
694.87	392.71
695.21	390.60
695.54	388.37
695.88	386.29
696.21	384.21
696.55	382.30
696.88	380.28
697.22	378.24
697.56	376.31
697.89	374.40
698.23	372.46
698.56	370.57
698.90	368.68
699.23	366.73
699.57	364.88
699.90	363.10
700.24	361.26
700.58	359.53
700.91	357.82
701.25	356.08
701.58	354.45
701.92	352.81
702.25	351.12
702.59	349.50
702.92	347.94
703.26	346.38
703.59	344.86
703.93	343.46
704.26	342.04
704.60	340.51
704.93	338.99
705.26	337.48
705.60	336.08
705.93	334.69
706.27	333.46
706.60	332.18
706.94	330.86
707.27	329.53
707.61	328.24
707.94	326.96
708.27	325.69
708.61	324.40
708.94	323.18
709.28	322.01
709.61	320.91
709.94	319.75
710.28	318.57
710.61	317.38
710.95	316.12
711.28	314.99
711.61	313.86
711.95	312.77
712.28	311.72
712.61	310.57
712.95	309.48
713.28	308.41
713.61	307.33
713.95	306.30
714.28	305.34
714.61	304.31
714.95	303.33
715.28	302.32
715.61	301.27
715.95	300.29
716.28	299.30
716.61	298.31
716.95	297.33
717.28	296.45
717.61	295.55
717.94	294.69
718.28	293.77
718.61	292.91
718.94	292.07
719.27	291.26
719.61	290.50
719.94	289.74
720.27	288.89
720.60	288.15
720.94	287.39
721.27	286.69
721.60	286.01
721.93	285.30
722.27	284.61
722.60	283.97
722.93	283.28
723.26	282.62
723.59	281.94
723.93	281.33
724.26	280.68
724.59	280.01
724.92	279.37
725.25	278.78
725.59	278.16
725.92	277.60
726.25	276.98
726.58	276.37
726.91	275.78
727.24	275.23
727.57	274.65
727.91	274.10
728.24	273.49
728.57	272.93
728.90	272.38
729.23	271.84
729.56	271.34
729.89	270.81
730.22	270.25
730.55	269.67
730.89	269.16
731.22	268.61
731.55	268.12
731.88	267.59
732.21	267.08
732.54	266.54
732.87	266.02
733.20	265.53
733.53	265.09
733.86	264.63
734.19	264.15
734.52	263.70
734.85	263.28
735.18	262.79
735.51	262.32
735.84	261.87
736.17	261.45
736.50	260.98
736.83	260.68
737.16	260.32
737.49	259.95
737.82	259.53
738.15	259.14
738.48	258.74
738.81	258.36
739.14	257.95
739.47	257.56
739.80	257.19
740.13	256.84
740.46	256.43
740.79	256.06
741.12	255.70
741.45	255.34
741.78	254.95
742.11	254.64
742.44	254.27
742.77	253.92
743.10	253.55
743.43	253.18
743.75	252.70
744.08	252.45
744.41	252.13
744.74	251.80
745.07	251.48
745.40	251.17
745.73	250.89
746.06	250.60
746.39	250.35
746.71	250.04
747.04	249.71
747.37	249.39
747.70	249.10
748.03	248.78
748.36	248.51
748.68	248.22
749.01	247.90
749.34	247.63
749.67	247.37
750.00	247.10
750.33	246.93
750.65	246.68
750.98	246.34
751.31	246.07
751.64	245.77
751.97	245.53
752.29	245.25
752.62	244.95
752.95	244.70
753.28	244.42
753.60	244.16
753.93	243.96
754.26	243.79
754.59	243.49
754.91	243.26
755.24	243.03
755.57	242.79
755.90	242.57
756.22	242.36
756.55	242.08
756.88	241.84
757.20	241.54
757.53	241.33
757.86	241.11
758.19	240.93
758.51	240.79
758.84	240.57
759.17	240.39
759.49	240.18
759.82	240.02
760.15	239.86
760.47	239.66
760.80	239.43
761.13	239.25
761.45	239.08
761.78	238.89
762.11	238.72
762.43	238.57
762.76	238.45
763.08	238.28
763.41	238.14
763.74	238.00
764.06	237.83
764.39	237.68
764.71	237.52
765.04	237.36
765.37	237.16
765.69	237.03
766.02	236.87
766.34	236.77
766.67	236.61
767.00	236.50
767.32	236.42
767.65	236.34
767.97	236.22
768.30	236.11
768.62	236.00
768.95	235.86
769.27	235.71
769.60	235.56
769.92	235.43
770.25	235.30
770.57	235.19
770.90	235.10
771.22	234.96
771.55	234.84
771.87	234.75
772.20	234.63
772.52	234.60
772.85	234.61
773.17	234.52
773.50	234.39
773.82	234.25
774.15	234.11
774.47	234.00
774.80	233.86
775.12	233.78
775.45	233.66
775.77	233.57
776.09	233.50
776.42	233.42
776.74	233.33
777.07	233.26
777.39	233.16
777.72	233.05
778.04	233.00
778.36	232.90
778.69	232.80
779.01	232.72
779.33	232.55
779.66	232.39
779.98	232.26
780.31	232.18
780.63	232.14
780.95	232.07
781.28	231.95
781.60	231.88
781.92	231.80
782.25	231.75
782.57	231.67
782.89	231.59
783.22	231.50
783.54	231.45
783.86	231.37
784.19	231.27
784.51	231.25
784.83	231.14
785.16	231.07
785.48	231.02
785.80	230.97
786.12	230.89
786.45	230.76
