SpectraSuite Data File
++++++++++++++++++++++++++++++++++++
Date: Fri Feb 01 14:52:04 EST 2013
User: group
Dark Spectrum Present: No
Reference Spectrum Present: No
Number of Sampled Component Spectra: 1
Spectrometers: USB2E7196
Integration Time (usec): 35000 (USB2E7196)
Spectra Averaged: 100 (USB2E7196)
Boxcar Smoothing: 10 (USB2E7196)
Correct for Electrical Dark: No (USB2E7196)
Strobe/Lamp Enabled: No (USB2E7196)
Correct for Detector Non-linearity: No (USB2E7196)
Correct for Stray Light: No (USB2E7196)
Number of Pixels in Processed Spectrum: 2048
>>>>>Begin Processed Spectral Data<<<<<
339.09	0.00
339.48	215.10
339.86	216.77
340.24	218.59
340.63	219.71
341.01	222.67
341.39	222.38
341.78	223.50
342.16	224.38
342.54	225.30
342.93	213.69
343.31	224.49
343.69	225.04
344.07	225.53
344.46	225.94
344.84	226.33
345.22	226.55
345.60	226.78
345.99	226.97
346.37	227.12
346.75	227.24
347.13	227.33
347.52	227.39
347.90	227.46
348.28	227.49
348.66	227.51
349.05	227.52
349.43	227.56
349.81	227.58
350.19	227.65
350.57	227.72
350.96	227.79
351.34	227.88
351.72	227.98
352.10	228.04
352.48	228.11
352.87	228.16
353.25	228.23
353.63	228.29
354.01	228.36
354.39	228.45
354.77	228.50
355.15	228.57
355.54	228.64
355.92	228.70
356.30	228.76
356.68	228.91
357.06	229.00
357.44	229.06
357.82	229.15
358.20	229.21
358.58	229.26
358.97	229.28
359.35	229.35
359.73	229.42
360.11	229.48
360.49	229.51
360.87	229.55
361.25	229.60
361.63	229.71
362.01	229.75
362.39	229.80
362.77	229.85
363.15	229.90
363.53	229.92
363.91	229.93
364.29	229.91
364.67	229.81
365.05	229.78
365.43	229.81
365.81	229.85
366.19	229.90
366.57	229.94
366.95	229.94
367.33	229.91
367.71	229.89
368.09	229.89
368.47	229.88
368.85	229.85
369.23	229.81
369.61	229.71
369.99	229.68
370.37	229.59
370.75	229.57
371.13	229.48
371.51	229.40
371.89	229.34
372.27	229.30
372.65	229.29
373.03	229.22
373.41	229.13
373.78	229.07
374.16	228.94
374.54	228.85
374.92	228.78
375.30	228.71
375.68	228.61
376.06	228.57
376.44	228.46
376.82	228.40
377.19	228.33
377.57	228.30
377.95	228.20
378.33	228.16
378.71	228.02
379.09	227.98
379.47	227.92
379.84	227.83
380.22	227.75
380.60	227.64
380.98	227.57
381.36	227.48
381.73	227.38
382.11	227.31
382.49	227.24
382.87	227.19
383.25	227.12
383.62	227.17
384.00	227.08
384.38	227.06
384.76	227.02
385.13	227.02
385.51	226.93
385.89	226.86
386.27	226.83
386.64	226.82
387.02	226.77
387.40	226.74
387.78	226.70
388.15	226.67
388.53	226.66
388.91	226.67
389.29	226.62
389.66	226.60
390.04	226.54
390.42	226.54
390.79	226.53
391.17	226.51
391.55	226.40
391.92	226.37
392.30	226.35
392.68	226.33
393.05	226.33
393.43	226.37
393.81	226.39
394.18	226.36
394.56	226.39
394.94	226.41
395.31	226.44
395.69	226.50
396.06	226.58
396.44	226.61
396.82	226.65
397.19	226.77
397.57	226.82
397.95	226.92
398.32	226.95
398.70	227.01
399.07	227.11
399.45	227.18
399.82	227.27
400.20	227.37
400.58	227.48
400.95	227.52
401.33	227.62
401.70	227.80
402.08	227.93
402.45	228.04
402.83	228.18
403.20	228.29
403.58	228.44
403.95	228.58
404.33	228.71
404.71	228.86
405.08	229.09
405.46	229.23
405.83	229.41
406.21	229.57
406.58	229.75
406.96	229.94
407.33	230.15
407.70	230.37
408.08	230.64
408.45	230.88
408.83	231.15
409.20	231.34
409.58	231.55
409.95	231.85
410.33	232.13
410.70	232.38
411.08	232.69
411.45	232.97
411.82	233.27
412.20	233.66
412.57	234.04
412.95	234.30
413.32	234.72
413.69	235.11
414.07	235.53
414.44	236.04
414.82	236.51
415.19	237.02
415.56	237.54
415.94	238.10
416.31	238.71
416.68	239.31
417.06	240.09
417.43	240.74
417.81	241.48
418.18	242.25
418.55	243.08
418.93	243.95
419.30	244.81
419.67	245.76
420.04	246.70
420.42	247.72
420.79	248.89
421.16	250.03
421.54	251.24
421.91	252.46
422.28	253.69
422.66	255.00
423.03	256.31
423.40	257.65
423.77	259.05
424.15	260.45
424.52	261.95
424.89	263.54
425.26	265.08
425.64	266.53
426.01	268.13
426.38	269.78
426.75	271.43
427.13	273.18
427.50	274.97
427.87	276.80
428.24	278.65
428.61	280.39
428.99	282.30
429.36	284.41
429.73	286.46
430.10	288.45
430.47	290.47
430.85	292.58
431.22	294.82
431.59	297.16
431.96	299.43
432.33	301.91
432.70	304.24
433.08	307.05
433.45	309.70
433.82	312.25
434.19	315.12
434.56	317.99
434.93	320.66
435.30	323.28
435.68	326.21
436.05	329.04
436.42	331.83
436.79	334.38
437.16	337.03
437.53	339.84
437.90	342.69
438.27	345.44
438.64	348.24
439.01	350.84
439.38	353.11
439.75	355.22
440.13	357.71
440.50	360.05
440.87	361.85
441.24	363.79
441.61	365.99
441.98	367.52
442.35	369.25
442.72	371.07
443.09	372.82
443.46	373.81
443.83	374.39
444.20	374.93
444.57	375.79
444.94	376.08
445.31	376.45
445.68	376.76
446.05	376.82
446.42	376.49
446.79	376.12
447.16	375.67
447.53	375.39
447.90	374.24
448.27	373.08
448.64	371.53
449.01	370.35
449.37	368.38
449.74	366.46
450.11	364.23
450.48	361.82
450.85	359.32
451.22	357.16
451.59	355.15
451.96	353.20
452.33	350.56
452.70	348.22
453.07	345.38
453.43	342.52
453.80	339.80
454.17	337.11
454.54	334.52
454.91	331.84
455.28	329.18
455.65	326.68
456.02	324.25
456.38	322.11
456.75	319.51
457.12	317.30
457.49	315.11
457.86	312.94
458.23	311.08
458.59	309.07
458.96	307.03
459.33	305.16
459.70	303.32
460.07	301.81
460.43	300.09
460.80	298.47
461.17	297.04
461.54	295.55
461.91	294.13
462.27	292.68
462.64	291.37
463.01	290.03
463.38	288.73
463.74	287.33
464.11	286.16
464.48	285.12
464.85	283.99
465.21	283.11
465.58	282.17
465.95	281.06
466.32	280.13
466.68	279.24
467.05	278.35
467.42	277.45
467.78	276.51
468.15	275.64
468.52	274.99
468.88	274.15
469.25	273.36
469.62	272.73
469.98	272.04
470.35	271.45
470.72	270.79
471.08	270.13
471.45	269.60
471.82	269.03
472.18	268.44
472.55	267.98
472.92	267.45
473.28	267.02
473.65	266.57
474.02	266.13
474.38	265.75
474.75	265.39
475.11	264.99
475.48	264.70
475.85	264.45
476.21	264.19
476.58	263.97
476.94	263.81
477.31	263.60
477.67	263.43
478.04	263.29
478.41	263.26
478.77	263.33
479.14	263.26
479.50	263.25
479.87	263.27
480.23	263.33
480.60	263.37
480.96	263.39
481.33	263.54
481.69	263.69
482.06	263.83
482.42	264.05
482.79	264.32
483.15	264.66
483.52	264.99
483.88	265.33
484.25	265.73
484.61	266.15
484.98	266.62
485.34	267.14
485.71	267.69
486.07	268.24
486.44	268.74
486.80	269.38
487.17	270.12
487.53	270.90
487.90	271.73
488.26	272.61
488.62	273.60
488.99	274.59
489.35	275.63
489.72	276.73
490.08	277.89
490.44	279.13
490.81	280.43
491.17	281.80
491.54	283.29
491.90	284.80
492.26	286.43
492.63	288.10
492.99	289.88
493.36	291.81
493.72	293.85
494.08	296.00
494.45	298.25
494.81	300.59
495.17	303.01
495.54	305.55
495.90	308.22
496.26	311.00
496.63	313.92
496.99	317.04
497.35	320.30
497.72	323.62
498.08	327.10
498.44	330.72
498.80	334.59
499.17	338.56
499.53	342.69
499.89	347.02
500.26	351.48
500.62	356.11
500.98	361.00
501.34	366.02
501.71	371.28
502.07	376.69
502.43	382.26
502.79	388.02
503.16	394.10
503.52	400.39
503.88	406.77
504.24	413.39
504.60	420.21
504.97	427.30
505.33	434.57
505.69	442.16
506.05	449.90
506.41	457.78
506.78	465.96
507.14	474.39
507.50	483.06
507.86	492.05
508.22	501.22
508.59	510.42
508.95	520.01
509.31	529.83
509.67	539.93
510.03	550.25
510.39	560.82
510.75	571.55
511.12	582.42
511.48	593.70
511.84	605.10
512.20	616.59
512.56	628.47
512.92	640.66
513.28	653.03
513.64	665.47
514.00	678.07
514.37	690.98
514.73	703.97
515.09	716.98
515.45	730.27
515.81	743.80
516.17	757.68
516.53	771.76
516.89	785.86
517.25	800.01
517.61	814.45
517.97	828.83
518.33	843.30
518.69	858.11
519.05	873.12
519.41	888.32
519.77	903.86
520.13	919.34
520.49	934.62
520.85	950.10
521.21	965.89
521.57	982.17
521.93	997.99
522.29	1014.44
522.65	1030.68
523.01	1046.91
523.37	1063.05
523.73	1079.48
524.09	1095.65
524.45	1112.08
524.81	1128.78
525.17	1145.63
525.53	1162.62
525.89	1179.51
526.25	1196.33
526.61	1212.74
526.97	1229.50
527.33	1246.06
527.68	1262.83
528.04	1279.45
528.40	1296.08
528.76	1313.12
529.12	1329.81
529.48	1346.75
529.84	1362.78
530.20	1379.45
530.56	1396.60
530.91	1413.90
531.27	1430.61
531.63	1447.11
531.99	1463.78
532.35	1479.82
532.71	1495.66
533.07	1512.04
533.42	1527.96
533.78	1544.13
534.14	1560.39
534.50	1575.73
534.86	1591.65
535.21	1606.69
535.57	1622.87
535.93	1638.50
536.29	1653.45
536.65	1668.65
537.00	1683.47
537.36	1698.99
537.72	1713.70
538.08	1728.17
538.44	1742.32
538.79	1756.26
539.15	1770.02
539.51	1783.89
539.87	1798.29
540.22	1812.16
540.58	1825.94
540.94	1839.49
541.29	1852.50
541.65	1865.30
542.01	1878.71
542.37	1891.02
542.72	1903.71
543.08	1915.37
543.44	1927.76
543.79	1938.95
544.15	1949.92
544.51	1961.45
544.87	1972.26
545.22	1983.13
545.58	1993.33
545.94	2003.03
546.29	2012.92
546.65	2022.74
547.01	2031.94
547.36	2040.72
547.72	2049.17
548.07	2057.02
548.43	2065.11
548.79	2073.06
549.14	2080.63
549.50	2088.07
549.86	2095.79
550.21	2102.95
550.57	2110.09
550.92	2116.68
551.28	2123.78
551.64	2130.78
551.99	2137.34
552.35	2143.55
552.70	2149.61
553.06	2155.45
553.41	2161.79
553.77	2167.58
554.13	2173.69
554.48	2179.71
554.84	2185.04
555.19	2190.35
555.55	2195.39
555.90	2199.72
556.26	2204.51
556.61	2209.10
556.97	2213.12
557.32	2217.19
557.68	2221.25
558.03	2225.52
558.39	2229.00
558.74	2233.44
559.10	2237.27
559.45	2240.80
559.81	2245.03
560.16	2248.63
560.52	2251.74
560.87	2255.03
561.23	2257.65
561.58	2260.42
561.94	2262.87
562.29	2265.21
562.64	2267.68
563.00	2270.20
563.35	2273.80
563.71	2276.76
564.06	2279.76
564.42	2282.54
564.77	2284.82
565.12	2286.94
565.48	2288.67
565.83	2290.34
566.19	2291.51
566.54	2292.17
566.89	2293.15
567.25	2293.59
567.60	2294.78
567.96	2296.34
568.31	2296.85
568.66	2297.74
569.02	2298.15
569.37	2298.05
569.72	2298.61
570.08	2298.42
570.43	2298.19
570.78	2297.00
571.14	2295.10
571.49	2293.69
571.84	2293.04
572.20	2291.76
572.55	2290.50
572.90	2288.54
573.26	2287.01
573.61	2285.13
573.96	2283.12
574.31	2279.92
574.67	2276.61
575.02	2272.75
575.37	2269.18
575.72	2265.26
576.08	2261.72
576.43	2258.15
576.78	2254.39
577.13	2250.95
577.49	2247.77
577.84	2244.26
578.19	2240.60
578.54	2236.90
578.90	2232.35
579.25	2226.74
579.60	2221.60
579.95	2216.42
580.30	2211.18
580.66	2206.04
581.01	2200.91
581.36	2195.84
581.71	2191.50
582.06	2186.86
582.42	2182.15
582.77	2176.66
583.12	2171.89
583.47	2167.09
583.82	2162.04
584.17	2156.71
584.53	2151.13
584.88	2145.28
585.23	2139.24
585.58	2133.54
585.93	2128.01
586.28	2123.24
586.63	2117.92
586.98	2112.74
587.34	2107.89
587.69	2102.88
588.04	2097.36
588.39	2091.45
588.74	2084.96
589.09	2078.65
589.44	2071.77
589.79	2065.69
590.14	2059.86
590.49	2053.16
590.84	2046.49
591.19	2040.23
591.54	2033.66
591.89	2026.02
592.25	2019.13
592.60	2011.97
592.95	2004.30
593.30	1996.81
593.65	1988.94
594.00	1981.86
594.35	1974.40
594.70	1966.27
595.05	1959.09
595.40	1951.58
595.75	1944.01
596.10	1937.62
596.45	1930.82
596.80	1924.58
597.15	1917.94
597.50	1910.94
597.85	1904.42
598.19	1897.83
598.54	1890.59
598.89	1883.80
599.24	1877.90
599.59	1871.25
599.94	1864.76
600.29	1858.27
600.64	1851.66
600.99	1844.29
601.34	1837.45
601.69	1830.43
602.04	1823.45
602.39	1816.04
602.74	1809.31
603.08	1802.71
603.43	1795.96
603.78	1788.74
604.13	1781.44
604.48	1774.11
604.83	1767.32
605.18	1760.30
605.53	1752.33
605.87	1744.41
606.22	1737.27
606.57	1729.33
606.92	1722.06
607.27	1714.96
607.62	1708.22
607.96	1700.97
608.31	1694.40
608.66	1686.64
609.01	1679.14
609.36	1671.71
609.70	1663.79
610.05	1655.80
610.40	1648.06
610.75	1639.90
611.10	1632.20
611.44	1623.91
611.79	1615.91
612.14	1607.20
612.49	1598.14
612.83	1589.98
613.18	1582.06
613.53	1574.05
613.88	1565.58
614.22	1557.24
614.57	1548.74
614.92	1540.84
615.27	1533.37
615.61	1525.08
615.96	1517.24
616.31	1509.66
616.65	1502.36
617.00	1494.87
617.35	1487.13
617.70	1478.83
618.04	1470.24
618.39	1462.06
618.74	1454.57
619.08	1446.45
619.43	1439.03
619.78	1432.24
620.12	1425.04
620.47	1417.48
620.82	1409.35
621.16	1402.18
621.51	1394.66
621.85	1387.11
622.20	1378.60
622.55	1370.28
622.89	1362.53
623.24	1355.00
623.59	1347.84
623.93	1340.36
624.28	1333.23
624.62	1325.98
624.97	1318.90
625.32	1312.30
625.66	1305.39
626.01	1298.20
626.35	1290.81
626.70	1283.14
627.04	1275.54
627.39	1267.86
627.73	1260.57
628.08	1253.75
628.43	1246.48
628.77	1239.20
629.12	1231.69
629.46	1224.63
629.81	1217.36
630.15	1210.29
630.50	1203.01
630.84	1194.82
631.19	1187.03
631.53	1179.64
631.88	1172.11
632.22	1164.67
632.57	1157.43
632.91	1149.98
633.26	1142.74
633.60	1135.45
633.95	1128.46
634.29	1121.34
634.64	1114.63
634.98	1107.31
635.32	1100.23
635.67	1093.66
636.01	1087.16
636.36	1080.47
636.70	1073.94
637.05	1067.38
637.39	1060.95
637.73	1054.54
638.08	1048.88
638.42	1042.94
638.77	1036.60
639.11	1030.08
639.45	1023.71
639.80	1017.10
640.14	1010.79
640.49	1004.22
640.83	998.09
641.17	991.99
641.52	985.87
641.86	979.61
642.20	973.89
642.55	967.81
642.89	961.41
643.23	954.92
643.58	949.35
643.92	943.25
644.26	937.26
644.61	931.29
644.95	925.28
645.29	918.63
645.64	911.94
645.98	905.64
646.32	899.82
646.66	893.91
647.01	888.19
647.35	882.66
647.69	876.95
648.04	871.45
648.38	865.65
648.72	859.65
649.06	853.64
649.41	847.79
649.75	841.75
650.09	835.81
650.43	830.11
650.78	823.87
651.12	817.98
651.46	812.39
651.80	806.61
652.14	801.33
652.49	796.06
652.83	790.97
653.17	785.34
653.51	779.76
653.85	774.41
654.20	768.88
654.54	762.80
654.88	757.12
655.22	751.32
655.56	745.69
655.90	740.34
656.25	735.08
656.59	729.76
656.93	724.66
657.27	719.58
657.61	714.15
657.95	709.09
658.29	704.06
658.64	698.78
658.98	693.63
659.32	688.12
659.66	682.92
660.00	677.65
660.34	672.73
660.68	667.86
661.02	662.88
661.36	658.18
661.70	653.72
662.05	649.42
662.39	645.05
662.73	640.59
663.07	636.24
663.41	631.87
663.75	627.47
664.09	622.97
664.43	618.66
664.77	614.64
665.11	610.42
665.45	606.32
665.79	602.32
666.13	598.21
666.47	594.20
666.81	590.10
667.15	586.08
667.49	582.23
667.83	578.44
668.17	574.56
668.51	570.53
668.85	566.55
669.19	562.69
669.53	558.93
669.87	555.11
670.21	551.45
670.55	547.84
670.89	544.43
671.23	541.09
671.57	537.62
671.91	534.15
672.25	530.74
672.58	527.40
672.92	524.09
673.26	520.97
673.60	517.88
673.94	514.81
674.28	511.93
674.62	509.05
674.96	506.02
675.30	503.11
675.64	500.31
675.97	497.60
676.31	494.81
676.65	491.95
676.99	489.28
677.33	486.45
677.67	483.70
678.01	480.71
678.34	477.78
678.68	474.96
679.02	472.13
679.36	469.42
679.70	466.63
680.04	463.88
680.37	461.03
680.71	458.32
681.05	455.78
681.39	453.12
681.73	450.50
682.06	447.98
682.40	445.50
682.74	442.95
683.08	440.42
683.42	437.90
683.75	435.43
684.09	432.93
684.43	430.57
684.77	428.13
685.10	425.82
685.44	423.54
685.78	421.26
686.12	419.06
686.45	416.82
686.79	414.59
687.13	412.43
687.46	410.36
687.80	408.24
688.14	406.02
688.48	404.01
688.81	401.81
689.15	399.71
689.49	397.56
689.82	395.51
690.16	393.47
690.50	391.51
690.83	389.59
691.17	387.66
691.51	385.76
691.84	383.94
692.18	382.03
692.52	380.10
692.85	378.21
693.19	376.35
693.52	374.55
693.86	372.77
694.20	371.00
694.53	369.16
694.87	367.28
695.21	365.55
695.54	363.69
695.88	361.94
696.21	360.20
696.55	358.57
696.88	356.89
697.22	355.23
697.56	353.58
697.89	351.89
698.23	350.28
698.56	348.65
698.90	347.07
699.23	345.43
699.57	343.85
699.90	342.34
700.24	340.77
700.58	339.21
700.91	337.70
701.25	336.24
701.58	334.91
701.92	333.59
702.25	332.23
702.59	330.88
702.92	329.57
703.26	328.30
703.59	327.00
703.93	325.82
704.26	324.63
704.60	323.38
704.93	322.17
705.26	320.91
705.60	319.77
705.93	318.62
706.27	317.60
706.60	316.59
706.94	315.49
707.27	314.41
707.61	313.37
707.94	312.36
708.27	311.26
708.61	310.16
708.94	309.15
709.28	308.13
709.61	307.19
709.94	306.22
710.28	305.20
710.61	304.28
710.95	303.22
711.28	302.27
711.61	301.35
711.95	300.46
712.28	299.56
712.61	298.57
712.95	297.68
713.28	296.80
713.61	295.90
713.95	295.03
714.28	294.20
714.61	293.34
714.95	292.52
715.28	291.73
715.61	290.91
715.95	290.08
716.28	289.28
716.61	288.47
716.95	287.71
717.28	286.98
717.61	286.22
717.94	285.55
718.28	284.77
718.61	284.04
718.94	283.35
719.27	282.73
719.61	282.08
719.94	281.40
720.27	280.76
720.60	280.12
720.94	279.53
721.27	278.96
721.60	278.44
721.93	277.86
722.27	277.36
722.60	276.88
722.93	276.32
723.26	275.81
723.59	275.26
723.93	274.71
724.26	274.18
724.59	273.59
724.92	273.05
725.25	272.60
725.59	272.09
725.92	271.61
726.25	271.11
726.58	270.67
726.91	270.22
727.24	269.72
727.57	269.28
727.91	268.80
728.24	268.34
728.57	267.83
728.90	267.38
729.23	266.83
729.56	266.37
729.89	265.94
730.22	265.43
730.55	264.98
730.89	264.55
731.22	264.10
731.55	263.70
731.88	263.27
732.21	262.83
732.54	262.40
732.87	261.98
733.20	261.55
733.53	261.17
733.86	260.78
734.19	260.36
734.52	259.97
734.85	259.66
735.18	259.27
735.51	258.91
735.84	258.52
736.17	258.17
736.50	257.74
736.83	257.48
737.16	257.16
737.49	256.83
737.82	256.49
738.15	256.15
738.48	255.81
738.81	255.52
739.14	255.17
739.47	254.84
739.80	254.52
740.13	254.19
740.46	253.82
740.79	253.48
741.12	253.16
741.45	252.83
741.78	252.45
742.11	252.13
742.44	251.80
742.77	251.50
743.10	251.20
743.43	250.90
743.75	250.50
744.08	250.35
744.41	250.09
744.74	249.79
745.07	249.48
745.40	249.22
745.73	248.96
746.06	248.68
746.39	248.44
746.71	248.15
747.04	247.90
747.37	247.62
747.70	247.40
748.03	247.16
748.36	246.93
748.68	246.69
749.01	246.44
749.34	246.23
749.67	245.98
750.00	245.77
750.33	245.61
750.65	245.39
750.98	245.02
751.31	244.78
751.64	244.59
751.97	244.44
752.29	244.22
752.62	243.97
752.95	243.75
753.28	243.52
753.60	243.31
753.93	243.16
754.26	242.99
754.59	242.73
754.91	242.53
755.24	242.34
755.57	242.11
755.90	241.96
756.22	241.72
756.55	241.57
756.88	241.38
757.20	241.12
757.53	240.94
757.86	240.80
758.19	240.66
758.51	240.49
758.84	240.30
759.17	240.14
759.49	239.96
759.82	239.86
760.15	239.73
760.47	239.60
760.80	239.42
761.13	239.30
761.45	239.19
761.78	239.07
762.11	238.94
762.43	238.82
762.76	238.69
763.08	238.60
763.41	238.47
763.74	238.33
764.06	238.23
764.39	238.09
764.71	237.99
765.04	237.84
765.37	237.72
765.69	237.65
766.02	237.54
766.34	237.47
766.67	237.34
767.00	237.27
767.32	237.24
767.65	237.19
767.97	237.10
768.30	236.99
768.62	236.87
768.95	236.73
769.27	236.63
769.60	236.52
769.92	236.41
770.25	236.29
770.57	236.24
770.90	236.16
771.22	236.06
771.55	235.97
771.87	235.90
772.20	235.82
772.52	235.78
772.85	235.78
773.17	235.66
773.50	235.57
773.82	235.47
774.15	235.34
774.47	235.18
774.80	235.08
775.12	234.99
775.45	234.90
775.77	234.82
776.09	234.74
776.42	234.66
776.74	234.62
777.07	234.54
777.39	234.45
777.72	234.35
778.04	234.32
778.36	234.19
778.69	234.10
779.01	234.01
779.33	233.83
779.66	233.67
779.98	233.59
780.31	233.51
780.63	233.45
780.95	233.38
781.28	233.31
781.60	233.24
781.92	233.15
782.25	233.13
782.57	233.08
782.89	233.00
783.22	232.93
783.54	232.85
783.86	232.83
784.19	232.74
784.51	232.69
784.83	232.55
785.16	232.50
785.48	232.42
785.80	232.35
786.12	232.29
786.45	232.23
786.77	232.17
787.09	232.11
