SpectraSuite Data File
++++++++++++++++++++++++++++++++++++
Date: Fri Feb 01 16:24:49 EST 2013
User: group
Dark Spectrum Present: No
Reference Spectrum Present: No
Number of Sampled Component Spectra: 1
Spectrometers: USB2E7196
Integration Time (usec): 35000 (USB2E7196)
Spectra Averaged: 100 (USB2E7196)
Boxcar Smoothing: 10 (USB2E7196)
Correct for Electrical Dark: No (USB2E7196)
Strobe/Lamp Enabled: No (USB2E7196)
Correct for Detector Non-linearity: No (USB2E7196)
Correct for Stray Light: No (USB2E7196)
Number of Pixels in Processed Spectrum: 2048
>>>>>Begin Processed Spectral Data<<<<<
339.09	0.00
339.48	214.40
339.86	215.99
340.24	216.53
340.63	218.11
341.01	221.00
341.39	220.91
341.78	222.03
342.16	223.10
342.54	223.84
342.93	212.32
343.31	223.04
343.69	223.57
344.07	223.98
344.46	224.43
344.84	224.81
345.22	225.05
345.60	225.29
345.99	225.47
346.37	225.61
346.75	225.73
347.13	225.78
347.52	225.85
347.90	225.95
348.28	225.97
348.66	226.06
349.05	226.05
349.43	226.10
349.81	226.14
350.19	226.18
350.57	226.21
350.96	226.27
351.34	226.34
351.72	226.41
352.10	226.53
352.48	226.57
352.87	226.62
353.25	226.70
353.63	226.74
354.01	226.84
354.39	226.92
354.77	227.00
355.15	227.09
355.54	227.16
355.92	227.15
356.30	227.25
356.68	227.38
357.06	227.52
357.44	227.57
357.82	227.66
358.20	227.72
358.58	227.82
358.97	227.91
359.35	228.00
359.73	228.10
360.11	228.16
360.49	228.26
360.87	228.33
361.25	228.39
361.63	228.51
362.01	228.56
362.39	228.60
362.77	228.67
363.15	228.74
363.53	228.79
363.91	228.87
364.29	228.87
364.67	228.77
365.05	228.77
365.43	228.82
365.81	228.82
366.19	228.89
366.57	228.95
366.95	228.93
367.33	228.91
367.71	228.92
368.09	228.91
368.47	228.89
368.85	228.90
369.23	228.87
369.61	228.79
369.99	228.81
370.37	228.79
370.75	228.79
371.13	228.72
371.51	228.65
371.89	228.62
372.27	228.59
372.65	228.57
373.03	228.49
373.41	228.38
373.78	228.31
374.16	228.20
374.54	228.11
374.92	228.06
375.30	228.01
375.68	227.93
376.06	227.87
376.44	227.78
376.82	227.68
377.19	227.63
377.57	227.59
377.95	227.46
378.33	227.40
378.71	227.26
379.09	227.19
379.47	227.15
379.84	227.06
380.22	226.98
380.60	226.92
380.98	226.84
381.36	226.82
381.73	226.76
382.11	226.71
382.49	226.62
382.87	226.54
383.25	226.45
383.62	226.51
384.00	226.43
384.38	226.37
384.76	226.34
385.13	226.29
385.51	226.24
385.89	226.17
386.27	226.09
386.64	226.07
387.02	226.02
387.40	225.95
387.78	225.91
388.15	225.87
388.53	225.80
388.91	225.76
389.29	225.69
389.66	225.68
390.04	225.65
390.42	225.64
390.79	225.62
391.17	225.62
391.55	225.48
391.92	225.49
392.30	225.50
392.68	225.49
393.05	225.49
393.43	225.48
393.81	225.47
394.18	225.48
394.56	225.50
394.94	225.54
395.31	225.51
395.69	225.56
396.06	225.60
396.44	225.64
396.82	225.69
397.19	225.79
397.57	225.80
397.95	225.86
398.32	225.89
398.70	225.96
399.07	226.02
399.45	226.07
399.82	226.11
400.20	226.17
400.58	226.26
400.95	226.30
401.33	226.40
401.70	226.60
402.08	226.68
402.45	226.76
402.83	226.85
403.20	226.99
403.58	227.06
403.95	227.22
404.33	227.34
404.71	227.46
405.08	227.65
405.46	227.79
405.83	227.93
406.21	228.07
406.58	228.25
406.96	228.42
407.33	228.61
407.70	228.80
408.08	229.06
408.45	229.24
408.83	229.48
409.20	229.69
409.58	229.84
409.95	230.09
410.33	230.36
410.70	230.63
411.08	230.94
411.45	231.26
411.82	231.55
412.20	231.93
412.57	232.34
412.95	232.59
413.32	233.00
413.69	233.42
414.07	233.85
414.44	234.33
414.82	234.79
415.19	235.35
415.56	235.91
415.94	236.44
416.31	237.09
416.68	237.71
417.06	238.45
417.43	239.13
417.81	239.91
418.18	240.70
418.55	241.54
418.93	242.42
419.30	243.29
419.67	244.20
420.04	245.16
420.42	246.12
420.79	247.31
421.16	248.45
421.54	249.62
421.91	250.85
422.28	252.06
422.66	253.40
423.03	254.68
423.40	256.00
423.77	257.43
424.15	258.84
424.52	260.34
424.89	261.88
425.26	263.43
425.64	264.88
426.01	266.44
426.38	268.06
426.75	269.74
427.13	271.50
427.50	273.31
427.87	275.16
428.24	277.02
428.61	278.74
428.99	280.67
429.36	282.80
429.73	284.83
430.10	286.84
430.47	288.89
430.85	291.02
431.22	293.26
431.59	295.65
431.96	297.89
432.33	300.36
432.70	302.75
433.08	305.55
433.45	308.16
433.82	310.72
434.19	313.63
434.56	316.41
434.93	319.00
435.30	321.57
435.68	324.44
436.05	327.26
436.42	330.06
436.79	332.55
437.16	335.17
437.53	338.02
437.90	340.83
438.27	343.58
438.64	346.36
439.01	348.92
439.38	351.12
439.75	353.27
440.13	355.68
440.50	358.01
440.87	359.85
441.24	361.79
441.61	363.97
441.98	365.44
442.35	367.23
442.72	369.07
443.09	370.91
443.46	371.88
443.83	372.47
444.20	372.96
444.57	373.79
444.94	374.11
445.31	374.42
445.68	374.78
446.05	374.84
446.42	374.44
446.79	374.02
447.16	373.58
447.53	373.24
447.90	372.14
448.27	370.98
448.64	369.39
449.01	368.23
449.37	366.24
449.74	364.36
450.11	362.13
450.48	359.71
450.85	357.19
451.22	355.06
451.59	353.04
451.96	351.12
452.33	348.57
452.70	346.19
453.07	343.42
453.43	340.53
453.80	337.76
454.17	335.13
454.54	332.58
454.91	329.87
455.28	327.23
455.65	324.73
456.02	322.30
456.38	320.18
456.75	317.53
457.12	315.31
457.49	313.08
457.86	310.94
458.23	309.09
458.59	307.08
458.96	305.02
459.33	303.21
459.70	301.34
460.07	299.86
460.43	298.19
460.80	296.55
461.17	295.11
461.54	293.64
461.91	292.25
462.27	290.85
462.64	289.61
463.01	288.26
463.38	287.01
463.74	285.65
464.11	284.46
464.48	283.48
464.85	282.42
465.21	281.54
465.58	280.57
465.95	279.52
466.32	278.60
466.68	277.74
467.05	276.86
467.42	276.02
467.78	275.08
468.15	274.20
468.52	273.54
468.88	272.66
469.25	271.89
469.62	271.24
469.98	270.56
470.35	269.90
470.72	269.32
471.08	268.64
471.45	268.12
471.82	267.64
472.18	267.06
472.55	266.58
472.92	266.10
473.28	265.67
473.65	265.21
474.02	264.77
474.38	264.37
474.75	264.05
475.11	263.66
475.48	263.39
475.85	263.17
476.21	262.97
476.58	262.83
476.94	262.70
477.31	262.55
477.67	262.43
478.04	262.38
478.41	262.34
478.77	262.38
479.14	262.33
479.50	262.36
479.87	262.43
480.23	262.50
480.60	262.57
480.96	262.66
481.33	262.86
481.69	263.02
482.06	263.24
482.42	263.43
482.79	263.70
483.15	264.01
483.52	264.41
483.88	264.73
484.25	265.14
484.61	265.58
484.98	266.06
485.34	266.58
485.71	267.16
486.07	267.76
486.44	268.35
486.80	269.03
487.17	269.72
487.53	270.54
487.90	271.41
488.26	272.37
488.62	273.41
488.99	274.41
489.35	275.51
489.72	276.62
490.08	277.81
490.44	279.07
490.81	280.42
491.17	281.80
491.54	283.32
491.90	284.80
492.26	286.43
492.63	288.15
492.99	289.95
493.36	291.85
493.72	293.94
494.08	296.04
494.45	298.27
494.81	300.64
495.17	303.10
495.54	305.67
495.90	308.33
496.26	311.10
496.63	314.09
496.99	317.17
497.35	320.48
497.72	323.90
498.08	327.43
498.44	331.08
498.80	334.98
499.17	338.99
499.53	343.18
499.89	347.59
500.26	352.11
500.62	356.80
500.98	361.83
501.34	366.85
501.71	372.23
502.07	377.76
502.43	383.38
502.79	389.22
503.16	395.30
503.52	401.52
503.88	407.97
504.24	414.57
504.60	421.47
504.97	428.56
505.33	435.88
505.69	443.63
506.05	451.45
506.41	459.35
506.78	467.52
507.14	476.02
507.50	484.69
507.86	493.68
508.22	502.89
508.59	512.10
508.95	521.70
509.31	531.46
509.67	541.50
510.03	551.84
510.39	562.41
510.75	573.16
511.12	584.18
511.48	595.51
511.84	606.99
512.20	618.57
512.56	630.51
512.92	642.71
513.28	655.08
513.64	667.52
514.00	680.29
514.37	693.23
514.73	706.27
515.09	719.28
515.45	732.57
515.81	746.09
516.17	759.99
516.53	774.10
516.89	788.24
517.25	802.37
517.61	816.74
517.97	831.12
518.33	845.59
518.69	860.35
519.05	875.23
519.41	890.32
519.77	905.74
520.13	921.16
520.49	936.47
520.85	951.85
521.21	967.48
521.57	983.62
521.93	999.36
522.29	1015.62
522.65	1031.87
523.01	1048.09
523.37	1064.09
523.73	1080.21
524.09	1096.16
524.45	1112.43
524.81	1128.98
525.17	1145.83
525.53	1162.56
525.89	1179.32
526.25	1196.10
526.61	1212.43
526.97	1229.14
527.33	1245.58
527.68	1262.18
528.04	1278.61
528.40	1295.01
528.76	1311.99
529.12	1328.53
529.48	1345.33
529.84	1361.26
530.20	1377.78
530.56	1394.66
530.91	1412.11
531.27	1428.96
531.63	1445.34
531.99	1461.92
532.35	1477.78
532.71	1493.61
533.07	1509.77
533.42	1525.66
533.78	1541.64
534.14	1557.81
534.50	1573.15
534.86	1588.95
535.21	1603.91
535.57	1619.72
535.93	1635.23
536.29	1650.08
536.65	1664.91
537.00	1679.52
537.36	1694.78
537.72	1709.23
538.08	1723.58
538.44	1737.23
538.79	1750.84
539.15	1764.33
539.51	1777.87
539.87	1792.10
540.22	1805.64
540.58	1819.35
540.94	1832.61
541.29	1845.41
541.65	1857.95
542.01	1870.94
542.37	1883.21
542.72	1895.58
543.08	1907.27
543.44	1919.39
543.79	1930.46
544.15	1941.48
544.51	1953.06
544.87	1963.90
545.22	1974.62
545.58	1984.62
545.94	1994.23
546.29	2003.99
546.65	2014.02
547.01	2023.25
547.36	2031.95
547.72	2040.31
548.07	2048.10
548.43	2056.13
548.79	2064.09
549.14	2071.76
549.50	2079.07
549.86	2086.58
550.21	2093.80
550.57	2100.90
550.92	2107.51
551.28	2114.42
551.64	2121.38
551.99	2127.84
552.35	2134.05
552.70	2140.15
553.06	2146.26
553.41	2152.61
553.77	2158.73
554.13	2164.77
554.48	2170.86
554.84	2176.43
555.19	2181.63
555.55	2186.83
555.90	2191.23
556.26	2196.09
556.61	2200.76
556.97	2205.14
557.32	2209.37
557.68	2213.64
558.03	2218.02
558.39	2221.74
558.74	2226.48
559.10	2230.42
559.45	2234.03
559.81	2238.16
560.16	2242.00
560.52	2245.26
560.87	2248.71
561.23	2251.30
561.58	2254.30
561.94	2256.87
562.29	2259.17
562.64	2261.99
563.00	2264.53
563.35	2268.16
563.71	2271.16
564.06	2274.37
564.42	2277.23
564.77	2279.65
565.12	2281.92
565.48	2283.81
565.83	2285.75
566.19	2286.99
566.54	2287.91
566.89	2289.13
567.25	2289.92
567.60	2291.22
567.96	2292.87
568.31	2293.72
568.66	2294.90
569.02	2295.51
569.37	2295.88
569.72	2296.83
570.08	2296.97
570.43	2297.21
570.78	2296.70
571.14	2295.27
571.49	2293.87
571.84	2293.56
572.20	2292.57
572.55	2291.51
572.90	2289.93
573.26	2288.66
573.61	2287.10
573.96	2285.33
574.31	2282.36
574.67	2279.45
575.02	2276.02
575.37	2272.74
575.72	2268.95
576.08	2265.58
576.43	2262.24
576.78	2258.64
577.13	2255.42
577.49	2252.48
577.84	2249.06
578.19	2245.32
578.54	2241.86
578.90	2237.78
579.25	2232.16
579.60	2227.23
579.95	2222.33
580.30	2217.48
580.66	2212.36
581.01	2207.44
581.36	2202.68
581.71	2198.55
582.06	2193.97
582.42	2189.47
582.77	2184.26
583.12	2179.85
583.47	2175.29
583.82	2170.35
584.17	2165.12
584.53	2159.67
584.88	2154.01
585.23	2148.22
585.58	2142.76
585.93	2137.41
586.28	2132.73
586.63	2127.82
586.98	2122.73
587.34	2118.09
587.69	2113.28
588.04	2107.96
588.39	2102.44
588.74	2095.97
589.09	2089.87
589.44	2083.33
589.79	2077.57
590.14	2072.11
590.49	2065.50
590.84	2059.20
591.19	2053.20
591.54	2046.87
591.89	2039.62
592.25	2032.89
592.60	2025.61
592.95	2018.10
593.30	2010.68
593.65	2003.05
594.00	1996.13
594.35	1989.03
594.70	1981.01
595.05	1973.79
595.40	1966.68
595.75	1959.26
596.10	1953.16
596.45	1946.63
596.80	1940.54
597.15	1933.79
597.50	1926.68
597.85	1920.28
598.19	1913.51
598.54	1906.42
598.89	1899.74
599.24	1893.86
599.59	1887.22
599.94	1881.26
600.29	1875.01
600.64	1868.51
600.99	1861.18
601.34	1854.31
601.69	1847.41
602.04	1840.65
602.39	1833.33
602.74	1826.43
603.08	1819.61
603.43	1812.75
603.78	1805.40
604.13	1798.20
604.48	1790.90
604.83	1784.07
605.18	1777.13
605.53	1769.29
605.87	1761.32
606.22	1754.17
606.57	1746.37
606.92	1739.02
607.27	1731.81
607.62	1724.88
607.96	1717.68
608.31	1710.96
608.66	1703.41
609.01	1695.77
609.36	1688.09
609.70	1680.15
610.05	1672.07
610.40	1664.40
610.75	1656.11
611.10	1648.47
611.44	1639.97
611.79	1632.03
612.14	1623.27
612.49	1614.12
612.83	1605.74
613.18	1597.62
613.53	1589.50
613.88	1580.75
614.22	1572.48
614.57	1563.85
614.92	1555.90
615.27	1548.26
615.61	1540.02
615.96	1531.91
616.31	1524.29
616.65	1516.96
617.00	1509.26
617.35	1501.60
617.70	1493.24
618.04	1484.76
618.39	1476.53
618.74	1468.96
619.08	1460.62
619.43	1453.13
619.78	1446.32
620.12	1439.07
620.47	1431.54
620.82	1423.35
621.16	1416.07
621.51	1408.49
621.85	1400.87
622.20	1392.26
622.55	1383.91
622.89	1376.11
623.24	1368.50
623.59	1361.08
623.93	1353.52
624.28	1346.48
624.62	1339.06
624.97	1331.84
625.32	1325.16
625.66	1318.10
626.01	1310.90
626.35	1303.58
626.70	1295.75
627.04	1287.97
627.39	1280.22
627.73	1272.84
628.08	1265.88
628.43	1258.52
628.77	1251.08
629.12	1243.54
629.46	1236.44
629.81	1228.97
630.15	1221.69
630.50	1214.26
630.84	1206.08
631.19	1198.25
631.53	1190.54
631.88	1182.90
632.22	1175.35
632.57	1168.01
632.91	1160.43
633.26	1153.01
633.60	1145.58
633.95	1138.56
634.29	1131.58
634.64	1124.89
634.98	1117.48
635.32	1110.33
635.67	1103.80
636.01	1097.18
636.36	1090.32
636.70	1083.70
637.05	1077.05
637.39	1070.57
637.73	1064.07
638.08	1058.23
638.42	1052.22
638.77	1045.88
639.11	1039.29
639.45	1032.84
639.80	1026.19
640.14	1019.84
640.49	1013.24
640.83	1006.82
641.17	1000.49
641.52	994.03
641.86	987.59
642.20	981.76
642.55	975.51
642.89	968.95
643.23	962.45
643.58	956.66
643.92	950.42
644.26	944.51
644.61	938.52
644.95	932.48
645.29	925.88
645.64	919.11
645.98	912.74
646.32	906.89
646.66	900.86
647.01	895.04
647.35	889.32
647.69	883.47
648.04	878.02
648.38	872.28
648.72	866.24
649.06	860.18
649.41	854.23
649.75	848.26
650.09	842.38
650.43	836.60
650.78	830.57
651.12	824.64
651.46	818.79
651.80	812.99
652.14	807.60
652.49	802.16
652.83	796.99
653.17	791.29
653.51	785.55
653.85	780.17
654.20	774.50
654.54	768.43
654.88	762.75
655.22	756.78
655.56	751.08
655.90	745.77
656.25	740.50
656.59	735.19
656.93	730.12
657.27	724.93
657.61	719.48
657.95	714.31
658.29	709.21
658.64	704.01
658.98	698.73
659.32	693.22
659.66	688.13
660.00	682.79
660.34	677.85
660.68	672.94
661.02	667.93
661.36	663.28
661.70	658.83
662.05	654.49
662.39	650.19
662.73	645.74
663.07	641.32
663.41	636.86
663.75	632.35
664.09	627.67
664.43	623.30
664.77	619.10
665.11	614.84
665.45	610.73
665.79	606.61
666.13	602.49
666.47	598.47
666.81	594.22
667.15	590.13
667.49	586.28
667.83	582.46
668.17	578.49
668.51	574.42
668.85	570.40
669.19	566.57
669.53	562.74
669.87	558.87
670.21	555.14
670.55	551.55
670.89	548.11
671.23	544.74
671.57	541.20
671.91	537.68
672.25	534.15
672.58	530.62
672.92	527.24
673.26	524.05
673.60	520.82
673.94	517.75
674.28	514.81
674.62	511.80
674.96	508.71
675.30	505.89
675.64	502.94
675.97	500.12
676.31	497.22
676.65	494.23
676.99	491.51
677.33	488.65
677.67	485.81
678.01	482.76
678.34	479.78
678.68	476.90
679.02	474.07
679.36	471.31
679.70	468.62
680.04	465.85
680.37	462.96
680.71	460.14
681.05	457.50
681.39	454.76
681.73	452.12
682.06	449.57
682.40	446.90
682.74	444.36
683.08	441.80
683.42	439.16
683.75	436.66
684.09	434.07
684.43	431.58
684.77	429.09
685.10	426.77
685.44	424.46
685.78	422.19
686.12	419.95
686.45	417.68
686.79	415.34
687.13	413.12
687.46	410.97
687.80	408.88
688.14	406.65
688.48	404.63
688.81	402.39
689.15	400.27
689.49	398.13
689.82	396.05
690.16	394.00
690.50	392.08
690.83	390.15
691.17	388.17
691.51	386.25
691.84	384.42
692.18	382.46
692.52	380.48
692.85	378.49
693.19	376.61
693.52	374.76
693.86	372.98
694.20	371.22
694.53	369.37
694.87	367.48
695.21	365.71
695.54	363.87
695.88	362.14
696.21	360.37
696.55	358.67
696.88	356.94
697.22	355.23
697.56	353.57
697.89	351.93
698.23	350.31
698.56	348.71
698.90	347.10
699.23	345.46
699.57	343.94
699.90	342.45
700.24	340.89
700.58	339.36
700.91	337.83
701.25	336.38
701.58	335.05
701.92	333.70
702.25	332.30
702.59	330.95
702.92	329.64
703.26	328.35
703.59	327.08
703.93	325.94
704.26	324.69
704.60	323.39
704.93	322.12
705.26	320.87
705.60	319.64
705.93	318.45
706.27	317.45
706.60	316.37
706.94	315.28
707.27	314.18
707.61	313.13
707.94	312.13
708.27	311.02
708.61	309.96
708.94	308.95
709.28	308.00
709.61	307.00
709.94	306.04
710.28	305.01
710.61	304.07
710.95	302.97
711.28	302.09
711.61	301.19
711.95	300.29
712.28	299.37
712.61	298.45
712.95	297.51
713.28	296.60
713.61	295.74
713.95	294.84
714.28	293.99
714.61	293.17
714.95	292.31
715.28	291.46
715.61	290.58
715.95	289.74
716.28	288.85
716.61	288.06
716.95	287.25
717.28	286.52
717.61	285.73
717.94	285.03
718.28	284.22
718.61	283.48
718.94	282.73
719.27	282.08
719.61	281.40
719.94	280.76
720.27	280.08
720.60	279.39
720.94	278.74
721.27	278.15
721.60	277.56
721.93	276.93
722.27	276.40
722.60	275.85
722.93	275.24
723.26	274.74
723.59	274.17
723.93	273.58
724.26	272.99
724.59	272.46
724.92	271.89
725.25	271.39
725.59	270.87
725.92	270.38
726.25	269.86
726.58	269.38
726.91	268.87
727.24	268.40
727.57	267.92
727.91	267.45
728.24	266.97
728.57	266.46
728.90	266.06
729.23	265.54
729.56	265.06
729.89	264.60
730.22	264.12
730.55	263.66
730.89	263.26
731.22	262.84
731.55	262.40
731.88	261.98
732.21	261.57
732.54	261.13
732.87	260.71
733.20	260.31
733.53	259.93
733.86	259.55
734.19	259.16
734.52	258.78
734.85	258.48
735.18	258.05
735.51	257.73
735.84	257.34
736.17	257.01
736.50	256.65
736.83	256.48
737.16	256.12
737.49	255.81
737.82	255.41
738.15	255.12
738.48	254.78
738.81	254.44
739.14	254.12
739.47	253.83
739.80	253.55
740.13	253.24
740.46	252.91
740.79	252.59
741.12	252.27
741.45	251.95
741.78	251.54
742.11	251.27
742.44	250.92
742.77	250.64
743.10	250.32
743.43	250.02
743.75	249.60
744.08	249.46
744.41	249.16
744.74	248.91
745.07	248.60
745.40	248.37
745.73	248.17
746.06	247.87
746.39	247.61
746.71	247.32
747.04	247.03
747.37	246.75
747.70	246.53
748.03	246.29
748.36	246.06
748.68	245.88
749.01	245.63
749.34	245.41
749.67	245.16
750.00	244.96
750.33	244.78
750.65	244.56
750.98	244.22
751.31	244.00
751.64	243.78
751.97	243.61
752.29	243.40
752.62	243.13
752.95	242.92
753.28	242.68
753.60	242.47
753.93	242.30
754.26	242.11
754.59	241.87
754.91	241.61
755.24	241.40
755.57	241.20
755.90	241.02
756.22	240.83
756.55	240.59
756.88	240.38
757.20	240.16
757.53	239.96
757.86	239.79
758.19	239.63
758.51	239.46
758.84	239.23
759.17	239.02
759.49	238.83
759.82	238.70
760.15	238.55
760.47	238.40
760.80	238.24
761.13	238.10
761.45	237.94
761.78	237.86
762.11	237.70
762.43	237.54
762.76	237.42
763.08	237.28
763.41	237.19
763.74	237.06
764.06	236.92
764.39	236.78
764.71	236.62
765.04	236.47
765.37	236.33
765.69	236.23
766.02	236.12
766.34	236.03
766.67	235.86
767.00	235.73
767.32	235.63
767.65	235.60
767.97	235.51
768.30	235.40
768.62	235.29
768.95	235.19
769.27	235.06
769.60	234.94
769.92	234.82
770.25	234.71
770.57	234.60
770.90	234.52
771.22	234.43
771.55	234.36
771.87	234.28
772.20	234.19
772.52	234.16
772.85	234.17
773.17	234.08
773.50	233.97
773.82	233.88
774.15	233.77
774.47	233.58
774.80	233.44
775.12	233.35
775.45	233.26
775.77	233.20
776.09	233.14
776.42	233.08
776.74	233.05
777.07	232.96
777.39	232.87
777.72	232.80
778.04	232.77
778.36	232.70
778.69	232.64
779.01	232.58
779.33	232.44
779.66	232.27
779.98	232.21
780.31	232.19
780.63	232.21
780.95	232.19
781.28	232.12
781.60	232.08
781.92	232.00
782.25	231.94
782.57	231.86
782.89	231.79
783.22	231.72
783.54	231.61
783.86	231.55
784.19	231.49
784.51	231.46
784.83	231.37
785.16	231.30
785.48	231.23
785.80	231.20
786.12	231.14
786.45	231.09
786.77	231.05
787.09	230.96
