SpectraSuite Data File
++++++++++++++++++++++++++++++++++++
Date: Fri Feb 01 15:52:49 EST 2013
User: group
Dark Spectrum Present: No
Reference Spectrum Present: No
Number of Sampled Component Spectra: 1
Spectrometers: USB2E7196
Integration Time (usec): 35000 (USB2E7196)
Spectra Averaged: 100 (USB2E7196)
Boxcar Smoothing: 10 (USB2E7196)
Correct for Electrical Dark: No (USB2E7196)
Strobe/Lamp Enabled: No (USB2E7196)
Correct for Detector Non-linearity: No (USB2E7196)
Correct for Stray Light: No (USB2E7196)
Number of Pixels in Processed Spectrum: 2048
>>>>>Begin Processed Spectral Data<<<<<
339.09	0.00
339.48	214.89
339.86	215.78
340.24	217.19
340.63	219.16
341.01	221.98
341.39	222.07
341.78	223.08
342.16	224.69
342.54	224.56
342.93	213.20
343.31	223.99
343.69	224.51
344.07	224.98
344.46	225.43
344.84	225.80
345.22	226.03
345.60	226.24
345.99	226.40
346.37	226.51
346.75	226.66
347.13	226.74
347.52	226.81
347.90	226.87
348.28	226.89
348.66	226.91
349.05	226.90
349.43	226.91
349.81	226.96
350.19	226.97
350.57	227.01
350.96	227.03
351.34	227.11
351.72	227.18
352.10	227.29
352.48	227.35
352.87	227.40
353.25	227.46
353.63	227.55
354.01	227.65
354.39	227.69
354.77	227.73
355.15	227.82
355.54	227.88
355.92	227.93
356.30	228.00
356.68	228.14
357.06	228.20
357.44	228.27
357.82	228.34
358.20	228.44
358.58	228.54
358.97	228.60
359.35	228.67
359.73	228.76
360.11	228.81
360.49	228.87
360.87	228.89
361.25	228.93
361.63	229.00
362.01	229.04
362.39	229.12
362.77	229.15
363.15	229.16
363.53	229.18
363.91	229.21
364.29	229.24
364.67	229.17
365.05	229.21
365.43	229.23
365.81	229.27
366.19	229.34
366.57	229.34
366.95	229.36
367.33	229.30
367.71	229.29
368.09	229.33
368.47	229.33
368.85	229.34
369.23	229.34
369.61	229.27
369.99	229.27
370.37	229.23
370.75	229.25
371.13	229.20
371.51	229.14
371.89	229.12
372.27	229.04
372.65	229.00
373.03	228.94
373.41	228.88
373.78	228.77
374.16	228.63
374.54	228.58
374.92	228.53
375.30	228.52
375.68	228.42
376.06	228.35
376.44	228.28
376.82	228.22
377.19	228.15
377.57	228.09
377.95	227.99
378.33	227.92
378.71	227.82
379.09	227.78
379.47	227.74
379.84	227.63
380.22	227.58
380.60	227.50
380.98	227.44
381.36	227.39
381.73	227.35
382.11	227.30
382.49	227.25
382.87	227.17
383.25	227.08
383.62	227.14
384.00	227.03
384.38	226.98
384.76	226.97
385.13	226.97
385.51	226.89
385.89	226.83
386.27	226.76
386.64	226.71
387.02	226.62
387.40	226.57
387.78	226.58
388.15	226.55
388.53	226.49
388.91	226.46
389.29	226.43
389.66	226.41
390.04	226.37
390.42	226.36
390.79	226.33
391.17	226.33
391.55	226.18
391.92	226.16
392.30	226.17
392.68	226.14
393.05	226.14
393.43	226.20
393.81	226.24
394.18	226.25
394.56	226.27
394.94	226.32
395.31	226.35
395.69	226.38
396.06	226.40
396.44	226.45
396.82	226.48
397.19	226.57
397.57	226.61
397.95	226.68
398.32	226.72
398.70	226.78
399.07	226.83
399.45	226.93
399.82	227.05
400.20	227.12
400.58	227.18
400.95	227.18
401.33	227.25
401.70	227.40
402.08	227.50
402.45	227.60
402.83	227.74
403.20	227.81
403.58	227.89
403.95	228.03
404.33	228.17
404.71	228.29
405.08	228.46
405.46	228.60
405.83	228.76
406.21	228.90
406.58	229.06
406.96	229.26
407.33	229.45
407.70	229.62
408.08	229.85
408.45	230.08
408.83	230.33
409.20	230.54
409.58	230.70
409.95	230.97
410.33	231.24
410.70	231.45
411.08	231.79
411.45	232.12
411.82	232.46
412.20	232.81
412.57	233.25
412.95	233.54
413.32	233.93
413.69	234.34
414.07	234.78
414.44	235.25
414.82	235.73
415.19	236.26
415.56	236.80
415.94	237.35
416.31	237.98
416.68	238.60
417.06	239.34
417.43	240.05
417.81	240.80
418.18	241.53
418.55	242.39
418.93	243.28
419.30	244.21
419.67	245.13
420.04	246.08
420.42	247.05
420.79	248.20
421.16	249.34
421.54	250.53
421.91	251.72
422.28	252.98
422.66	254.31
423.03	255.61
423.40	256.96
423.77	258.42
424.15	259.82
424.52	261.31
424.89	262.90
425.26	264.42
425.64	265.86
426.01	267.47
426.38	269.11
426.75	270.74
427.13	272.42
427.50	274.24
427.87	276.11
428.24	277.97
428.61	279.74
428.99	281.69
429.36	283.77
429.73	285.83
430.10	287.83
430.47	289.85
430.85	291.97
431.22	294.22
431.59	296.57
431.96	298.80
432.33	301.28
432.70	303.63
433.08	306.43
433.45	309.06
433.82	311.72
434.19	314.61
434.56	317.44
434.93	320.11
435.30	322.68
435.68	325.55
436.05	328.34
436.42	331.13
436.79	333.64
437.16	336.33
437.53	339.20
437.90	342.04
438.27	344.74
438.64	347.54
439.01	350.12
439.38	352.34
439.75	354.50
440.13	357.02
440.50	359.38
440.87	361.21
441.24	363.13
441.61	365.21
441.98	366.69
442.35	368.45
442.72	370.27
443.09	372.05
443.46	373.02
443.83	373.64
444.20	374.17
444.57	375.01
444.94	375.26
445.31	375.53
445.68	375.84
446.05	375.98
446.42	375.60
446.79	375.12
447.16	374.69
447.53	374.43
447.90	373.21
448.27	372.01
448.64	370.39
449.01	369.34
449.37	367.43
449.74	365.54
450.11	363.29
450.48	360.80
450.85	358.33
451.22	356.19
451.59	354.17
451.96	352.19
452.33	349.59
452.70	347.25
453.07	344.46
453.43	341.57
453.80	338.78
454.17	336.08
454.54	333.61
454.91	330.86
455.28	328.15
455.65	325.69
456.02	323.29
456.38	321.21
456.75	318.50
457.12	316.21
457.49	313.99
457.86	311.89
458.23	310.07
458.59	307.96
458.96	305.88
459.33	304.00
459.70	302.16
460.07	300.66
460.43	298.95
460.80	297.31
461.17	295.92
461.54	294.43
461.91	293.04
462.27	291.58
462.64	290.35
463.01	289.01
463.38	287.72
463.74	286.31
464.11	285.13
464.48	284.14
464.85	283.06
465.21	282.19
465.58	281.25
465.95	280.17
466.32	279.31
466.68	278.43
467.05	277.56
467.42	276.68
467.78	275.78
468.15	274.90
468.52	274.26
468.88	273.42
469.25	272.64
469.62	272.02
469.98	271.35
470.35	270.74
470.72	270.12
471.08	269.49
471.45	268.97
471.82	268.42
472.18	267.81
472.55	267.36
472.92	266.84
473.28	266.35
473.65	265.91
474.02	265.46
474.38	265.17
474.75	264.86
475.11	264.51
475.48	264.21
475.85	264.02
476.21	263.77
476.58	263.54
476.94	263.41
477.31	263.23
477.67	263.04
478.04	262.94
478.41	262.91
478.77	262.94
479.14	262.87
479.50	262.91
479.87	263.00
480.23	263.06
480.60	263.12
480.96	263.21
481.33	263.42
481.69	263.64
482.06	263.77
482.42	263.95
482.79	264.19
483.15	264.50
483.52	264.89
483.88	265.24
484.25	265.63
484.61	266.07
484.98	266.54
485.34	267.12
485.71	267.70
486.07	268.31
486.44	268.85
486.80	269.56
487.17	270.27
487.53	271.08
487.90	271.95
488.26	272.92
488.62	273.94
488.99	274.90
489.35	275.90
489.72	276.99
490.08	278.21
490.44	279.44
490.81	280.79
491.17	282.13
491.54	283.62
491.90	285.13
492.26	286.75
492.63	288.49
492.99	290.28
493.36	292.16
493.72	294.20
494.08	296.33
494.45	298.60
494.81	300.96
495.17	303.35
495.54	305.91
495.90	308.56
496.26	311.32
496.63	314.28
496.99	317.41
497.35	320.69
497.72	324.09
498.08	327.64
498.44	331.28
498.80	335.20
499.17	339.22
499.53	343.44
499.89	347.84
500.26	352.32
500.62	357.01
500.98	361.94
501.34	366.98
501.71	372.29
502.07	377.78
502.43	383.40
502.79	389.28
503.16	395.31
503.52	401.59
503.88	408.02
504.24	414.72
504.60	421.62
504.97	428.75
505.33	436.12
505.69	443.81
506.05	451.61
506.41	459.52
506.78	467.70
507.14	476.20
507.50	484.92
507.86	493.93
508.22	503.06
508.59	512.33
508.95	521.97
509.31	531.80
509.67	541.90
510.03	552.22
510.39	562.80
510.75	573.64
511.12	584.60
511.48	595.88
511.84	607.29
512.20	618.80
512.56	630.72
512.92	642.85
513.28	655.22
513.64	667.71
514.00	680.40
514.37	693.38
514.73	706.43
515.09	719.41
515.45	732.68
515.81	746.37
516.17	760.34
516.53	774.44
516.89	788.61
517.25	802.71
517.61	817.08
517.97	831.44
518.33	845.90
518.69	860.68
519.05	875.71
519.41	890.93
519.77	906.53
520.13	922.03
520.49	937.40
520.85	952.72
521.21	968.52
521.57	984.85
521.93	1000.58
522.29	1016.89
522.65	1033.18
523.01	1049.40
523.37	1065.35
523.73	1081.50
524.09	1097.49
524.45	1113.74
524.81	1130.45
525.17	1147.26
525.53	1164.21
525.89	1181.01
526.25	1197.82
526.61	1214.14
526.97	1230.77
527.33	1247.19
527.68	1263.83
528.04	1280.27
528.40	1296.97
528.76	1313.96
529.12	1330.39
529.48	1347.31
529.84	1363.28
530.20	1379.92
530.56	1396.94
530.91	1414.42
531.27	1431.14
531.63	1447.69
531.99	1464.35
532.35	1480.25
532.71	1496.10
533.07	1512.33
533.42	1528.17
533.78	1544.17
534.14	1560.51
534.50	1575.86
534.86	1591.79
535.21	1606.87
535.57	1622.76
535.93	1638.27
536.29	1652.94
536.65	1668.07
537.00	1682.71
537.36	1697.97
537.72	1712.42
538.08	1726.77
538.44	1740.41
538.79	1754.42
539.15	1768.06
539.51	1781.71
539.87	1796.09
540.22	1809.86
540.58	1823.51
540.94	1836.94
541.29	1849.78
541.65	1862.40
542.01	1875.64
542.37	1887.87
542.72	1900.30
543.08	1912.15
543.44	1924.42
543.79	1935.70
544.15	1946.70
544.51	1958.37
544.87	1969.45
545.22	1980.37
545.58	1990.53
545.94	2000.31
546.29	2010.00
546.65	2019.93
547.01	2029.18
547.36	2037.70
547.72	2046.04
548.07	2053.97
548.43	2062.12
548.79	2070.23
549.14	2077.66
549.50	2085.01
549.86	2092.73
550.21	2100.06
550.57	2107.22
550.92	2113.81
551.28	2120.87
551.64	2127.86
551.99	2134.33
552.35	2140.52
552.70	2146.64
553.06	2152.64
553.41	2159.01
553.77	2165.03
554.13	2170.94
554.48	2177.20
554.84	2182.68
555.19	2188.04
555.55	2193.20
555.90	2197.62
556.26	2202.38
556.61	2207.31
556.97	2211.57
557.32	2215.63
557.68	2219.79
558.03	2223.98
558.39	2227.61
558.74	2232.25
559.10	2236.17
559.45	2239.81
559.81	2243.94
560.16	2247.64
560.52	2250.90
560.87	2254.44
561.23	2257.10
561.58	2260.09
561.94	2262.53
562.29	2264.99
562.64	2267.70
563.00	2270.27
563.35	2273.69
563.71	2276.86
564.06	2280.02
564.42	2282.79
564.77	2285.35
565.12	2287.49
565.48	2289.50
565.83	2291.54
566.19	2292.70
566.54	2293.52
566.89	2294.54
567.25	2295.23
567.60	2296.54
567.96	2298.35
568.31	2299.12
568.66	2300.40
569.02	2300.94
569.37	2301.19
569.72	2302.05
570.08	2302.14
570.43	2302.21
570.78	2301.77
571.14	2300.27
571.49	2298.94
571.84	2298.75
572.20	2297.61
572.55	2296.63
572.90	2295.02
573.26	2293.61
573.61	2292.00
573.96	2290.33
574.31	2287.45
574.67	2284.42
575.02	2280.86
575.37	2277.38
575.72	2273.47
576.08	2270.05
576.43	2266.93
576.78	2263.31
577.13	2260.14
577.49	2257.13
577.84	2253.57
578.19	2249.81
578.54	2246.09
578.90	2241.81
579.25	2236.06
579.60	2231.12
579.95	2226.13
580.30	2221.15
580.66	2215.92
581.01	2211.02
581.36	2206.15
581.71	2201.93
582.06	2197.48
582.42	2192.89
582.77	2187.64
583.12	2183.21
583.47	2178.39
583.82	2173.30
584.17	2168.00
584.53	2162.41
584.88	2156.72
585.23	2150.96
585.58	2145.51
585.93	2140.08
586.28	2135.24
586.63	2130.32
586.98	2125.15
587.34	2120.50
587.69	2115.57
588.04	2110.21
588.39	2104.48
588.74	2097.98
589.09	2091.84
589.44	2084.97
589.79	2079.13
590.14	2073.67
590.49	2067.08
590.84	2060.71
591.19	2054.64
591.54	2048.18
591.89	2040.85
592.25	2034.06
592.60	2026.82
592.95	2019.21
593.30	2011.84
593.65	2004.25
594.00	1997.26
594.35	1990.13
594.70	1981.93
595.05	1974.65
595.40	1967.37
595.75	1959.89
596.10	1953.60
596.45	1946.85
596.80	1940.74
597.15	1934.12
597.50	1926.80
597.85	1920.38
598.19	1913.67
598.54	1906.44
598.89	1899.85
599.24	1893.94
599.59	1887.10
599.94	1880.94
600.29	1874.60
600.64	1868.13
600.99	1860.73
601.34	1853.78
601.69	1846.64
602.04	1839.83
602.39	1832.59
602.74	1825.83
603.08	1819.06
603.43	1812.38
603.78	1805.19
604.13	1798.04
604.48	1790.68
604.83	1783.98
605.18	1776.91
605.53	1768.96
605.87	1761.05
606.22	1753.81
606.57	1745.89
606.92	1738.70
607.27	1731.54
607.62	1724.52
607.96	1717.15
608.31	1710.44
608.66	1702.88
609.01	1695.36
609.36	1687.86
609.70	1679.85
610.05	1671.73
610.40	1664.05
610.75	1655.68
611.10	1647.90
611.44	1639.46
611.79	1631.44
612.14	1622.48
612.49	1613.26
612.83	1604.91
613.18	1596.82
613.53	1588.68
613.88	1580.07
614.22	1571.75
614.57	1563.16
614.92	1555.19
615.27	1547.63
615.61	1539.23
615.96	1531.28
616.31	1523.77
616.65	1516.37
617.00	1508.73
617.35	1501.13
617.70	1492.77
618.04	1484.37
618.39	1476.24
618.74	1468.64
619.08	1460.38
619.43	1452.91
619.78	1446.09
620.12	1438.85
620.47	1431.24
620.82	1423.13
621.16	1415.87
621.51	1408.38
621.85	1400.76
622.20	1392.28
622.55	1383.90
622.89	1376.24
623.24	1368.54
623.59	1361.06
623.93	1353.49
624.28	1346.28
624.62	1338.69
624.97	1331.56
625.32	1324.74
625.66	1317.73
626.01	1310.51
626.35	1302.96
626.70	1295.39
627.04	1287.58
627.39	1279.82
627.73	1272.42
628.08	1265.46
628.43	1258.03
628.77	1250.61
629.12	1243.02
629.46	1235.82
629.81	1228.49
630.15	1221.16
630.50	1213.72
630.84	1205.64
631.19	1197.80
631.53	1190.31
631.88	1182.80
632.22	1175.15
632.57	1167.79
632.91	1160.09
633.26	1152.66
633.60	1145.45
633.95	1138.30
634.29	1131.32
634.64	1124.65
634.98	1117.21
635.32	1110.09
635.67	1103.63
636.01	1096.93
636.36	1090.08
636.70	1083.67
637.05	1077.05
637.39	1070.58
637.73	1064.04
638.08	1058.06
638.42	1051.99
638.77	1045.55
639.11	1038.95
639.45	1032.56
639.80	1025.91
640.14	1019.64
640.49	1013.17
640.83	1006.74
641.17	1000.33
641.52	993.99
641.86	987.60
642.20	981.86
642.55	975.58
642.89	969.01
643.23	962.51
643.58	956.81
643.92	950.55
644.26	944.51
644.61	938.46
644.95	932.48
645.29	925.87
645.64	919.18
645.98	912.82
646.32	907.04
646.66	901.01
647.01	895.23
647.35	889.51
647.69	883.63
648.04	878.13
648.38	872.46
648.72	866.44
649.06	860.34
649.41	854.49
649.75	848.43
650.09	842.49
650.43	836.72
650.78	830.46
651.12	824.46
651.46	818.72
651.80	812.99
652.14	807.56
652.49	802.24
652.83	797.00
653.17	791.24
653.51	785.37
653.85	779.98
654.20	774.32
654.54	768.29
654.88	762.61
655.22	756.74
655.56	751.06
655.90	745.67
656.25	740.40
656.59	735.01
656.93	730.01
657.27	724.87
657.61	719.40
657.95	714.30
658.29	709.27
658.64	704.04
658.98	698.79
659.32	693.25
659.66	688.02
660.00	682.66
660.34	677.77
660.68	672.93
661.02	667.88
661.36	663.13
661.70	658.63
662.05	654.22
662.39	649.87
662.73	645.50
663.07	641.07
663.41	636.65
663.75	632.15
664.09	627.53
664.43	623.19
664.77	619.06
665.11	614.79
665.45	610.68
665.79	606.59
666.13	602.48
666.47	598.49
666.81	594.33
667.15	590.28
667.49	586.38
667.83	582.59
668.17	578.66
668.51	574.64
668.85	570.57
669.19	566.76
669.53	562.90
669.87	558.93
670.21	555.22
670.55	551.64
670.89	548.22
671.23	544.75
671.57	541.16
671.91	537.64
672.25	534.20
672.58	530.64
672.92	527.26
673.26	524.01
673.60	520.90
673.94	517.82
674.28	514.92
674.62	511.97
674.96	508.84
675.30	505.93
675.64	502.97
675.97	500.24
676.31	497.30
676.65	494.38
676.99	491.68
677.33	488.84
677.67	486.00
678.01	482.96
678.34	479.98
678.68	477.18
679.02	474.34
679.36	471.62
679.70	468.90
680.04	466.06
680.37	463.22
680.71	460.38
681.05	457.69
681.39	454.94
681.73	452.25
682.06	449.75
682.40	447.21
682.74	444.67
683.08	442.10
683.42	439.54
683.75	437.07
684.09	434.51
684.43	432.05
684.77	429.59
685.10	427.21
685.44	424.96
685.78	422.68
686.12	420.46
686.45	418.15
686.79	415.88
687.13	413.74
687.46	411.59
687.80	409.46
688.14	407.30
688.48	405.27
688.81	403.06
689.15	400.92
689.49	398.79
689.82	396.69
690.16	394.61
690.50	392.64
690.83	390.67
691.17	388.71
691.51	386.80
691.84	384.91
692.18	382.94
692.52	380.94
692.85	378.95
693.19	377.04
693.52	375.19
693.86	373.37
694.20	371.56
694.53	369.79
694.87	367.92
695.21	366.12
695.54	364.25
695.88	362.52
696.21	360.75
696.55	359.05
696.88	357.41
697.22	355.76
697.56	354.16
697.89	352.47
698.23	350.85
698.56	349.28
698.90	347.68
699.23	346.10
699.57	344.55
699.90	343.06
700.24	341.55
700.58	340.00
700.91	338.48
701.25	337.03
701.58	335.66
701.92	334.33
702.25	332.97
702.59	331.66
702.92	330.33
703.26	329.07
703.59	327.78
703.93	326.60
704.26	325.33
704.60	323.99
704.93	322.75
705.26	321.52
705.60	320.32
705.93	319.21
706.27	318.16
706.60	317.10
706.94	316.00
707.27	314.87
707.61	313.81
707.94	312.81
708.27	311.74
708.61	310.65
708.94	309.61
709.28	308.64
709.61	307.68
709.94	306.77
710.28	305.76
710.61	304.84
710.95	303.75
711.28	302.86
711.61	301.96
711.95	301.01
712.28	300.06
712.61	299.06
712.95	298.11
713.28	297.23
713.61	296.36
713.95	295.45
714.28	294.63
714.61	293.80
714.95	292.94
715.28	292.03
715.61	291.20
715.95	290.33
716.28	289.44
716.61	288.60
716.95	287.75
717.28	286.99
717.61	286.20
717.94	285.48
718.28	284.66
718.61	283.98
718.94	283.33
719.27	282.65
719.61	282.01
719.94	281.31
720.27	280.64
720.60	279.96
720.94	279.32
721.27	278.70
721.60	278.12
721.93	277.57
722.27	277.04
722.60	276.43
722.93	275.90
723.26	275.37
723.59	274.79
723.93	274.25
724.26	273.69
724.59	273.13
724.92	272.61
725.25	272.13
725.59	271.56
725.92	271.00
726.25	270.48
726.58	269.98
726.91	269.54
727.24	269.01
727.57	268.55
727.91	268.08
728.24	267.63
728.57	267.11
728.90	266.64
729.23	266.16
729.56	265.76
729.89	265.28
730.22	264.81
730.55	264.35
730.89	263.89
731.22	263.47
731.55	263.04
731.88	262.60
732.21	262.15
732.54	261.76
732.87	261.38
733.20	261.00
733.53	260.63
733.86	260.25
734.19	259.87
734.52	259.50
734.85	259.21
735.18	258.79
735.51	258.44
735.84	258.04
736.17	257.68
736.50	257.24
736.83	257.00
737.16	256.67
737.49	256.35
737.82	256.01
738.15	255.67
738.48	255.31
738.81	254.97
739.14	254.64
739.47	254.28
739.80	253.95
740.13	253.64
740.46	253.30
740.79	252.95
741.12	252.67
741.45	252.34
741.78	251.96
742.11	251.69
742.44	251.39
742.77	251.11
743.10	250.81
743.43	250.54
743.75	250.15
744.08	250.00
744.41	249.69
744.74	249.43
745.07	249.12
745.40	248.91
745.73	248.65
746.06	248.38
746.39	248.11
746.71	247.83
747.04	247.53
747.37	247.28
747.70	247.03
748.03	246.73
748.36	246.51
748.68	246.27
749.01	245.97
749.34	245.73
749.67	245.48
750.00	245.26
750.33	245.08
750.65	244.90
750.98	244.54
751.31	244.33
751.64	244.09
751.97	243.93
752.29	243.71
752.62	243.47
752.95	243.24
753.28	243.04
753.60	242.85
753.93	242.70
754.26	242.49
754.59	242.24
754.91	242.03
755.24	241.86
755.57	241.65
755.90	241.51
756.22	241.32
756.55	241.14
756.88	240.93
757.20	240.71
757.53	240.50
757.86	240.33
758.19	240.18
758.51	240.05
758.84	239.83
759.17	239.63
759.49	239.50
759.82	239.44
760.15	239.30
760.47	239.16
760.80	238.98
761.13	238.88
761.45	238.73
761.78	238.59
762.11	238.40
762.43	238.27
762.76	238.12
763.08	238.01
763.41	237.87
763.74	237.78
764.06	237.63
764.39	237.47
764.71	237.34
765.04	237.20
765.37	237.05
765.69	236.91
766.02	236.81
766.34	236.67
766.67	236.50
767.00	236.41
767.32	236.32
767.65	236.27
767.97	236.10
768.30	236.02
768.62	235.93
768.95	235.81
769.27	235.73
769.60	235.64
769.92	235.50
770.25	235.37
770.57	235.22
770.90	235.14
771.22	235.06
771.55	234.99
771.87	234.90
772.20	234.82
772.52	234.83
772.85	234.89
773.17	234.80
773.50	234.66
773.82	234.57
774.15	234.45
774.47	234.30
774.80	234.24
775.12	234.15
775.45	234.08
775.77	234.02
776.09	233.94
776.42	233.84
776.74	233.81
777.07	233.75
777.39	233.69
777.72	233.61
778.04	233.56
778.36	233.45
778.69	233.40
779.01	233.33
779.33	233.19
779.66	232.98
779.98	232.87
780.31	232.85
780.63	232.80
780.95	232.77
781.28	232.67
781.60	232.59
781.92	232.55
782.25	232.49
782.57	232.43
782.89	232.36
783.22	232.33
783.54	232.27
783.86	232.21
784.19	232.15
784.51	232.14
784.83	232.05
785.16	232.01
785.48	231.94
785.80	231.90
786.12	231.84
786.45	231.78
786.77	231.75
787.09	231.65
