SpectraSuite Data File
++++++++++++++++++++++++++++++++++++
Date: Fri Feb 01 14:50:57 EST 2013
User: group
Dark Spectrum Present: No
Reference Spectrum Present: No
Number of Sampled Component Spectra: 1
Spectrometers: USB2E7196
Integration Time (usec): 35000 (USB2E7196)
Spectra Averaged: 100 (USB2E7196)
Boxcar Smoothing: 10 (USB2E7196)
Correct for Electrical Dark: No (USB2E7196)
Strobe/Lamp Enabled: No (USB2E7196)
Correct for Detector Non-linearity: No (USB2E7196)
Correct for Stray Light: No (USB2E7196)
Number of Pixels in Processed Spectrum: 2048
>>>>>Begin Processed Spectral Data<<<<<
339.09	0.00
339.48	215.68
339.86	217.18
340.24	218.08
340.63	220.04
341.01	222.19
341.39	222.42
341.78	223.33
342.16	225.82
342.54	226.01
342.93	213.87
343.31	224.69
343.69	225.23
344.07	225.66
344.46	226.10
344.84	226.47
345.22	226.73
345.60	226.99
345.99	227.20
346.37	227.29
346.75	227.38
347.13	227.47
347.52	227.55
347.90	227.61
348.28	227.65
348.66	227.73
349.05	227.74
349.43	227.79
349.81	227.82
350.19	227.86
350.57	227.90
350.96	227.96
351.34	228.02
351.72	228.09
352.10	228.23
352.48	228.29
352.87	228.34
353.25	228.43
353.63	228.48
354.01	228.54
354.39	228.63
354.77	228.70
355.15	228.81
355.54	228.87
355.92	228.87
356.30	228.94
356.68	229.06
357.06	229.14
357.44	229.19
357.82	229.27
358.20	229.37
358.58	229.43
358.97	229.50
359.35	229.59
359.73	229.68
360.11	229.73
360.49	229.81
360.87	229.88
361.25	229.87
361.63	229.91
362.01	229.96
362.39	229.96
362.77	230.01
363.15	230.01
363.53	230.05
363.91	230.11
364.29	230.14
364.67	230.05
365.05	230.03
365.43	230.07
365.81	230.08
366.19	230.11
366.57	230.14
366.95	230.13
367.33	230.10
367.71	230.04
368.09	230.05
368.47	230.01
368.85	229.97
369.23	229.99
369.61	229.92
369.99	229.92
370.37	229.90
370.75	229.88
371.13	229.81
371.51	229.72
371.89	229.64
372.27	229.56
372.65	229.51
373.03	229.42
373.41	229.34
373.78	229.25
374.16	229.10
374.54	228.98
374.92	228.89
375.30	228.83
375.68	228.71
376.06	228.61
376.44	228.51
376.82	228.42
377.19	228.35
377.57	228.29
377.95	228.14
378.33	228.08
378.71	227.92
379.09	227.87
379.47	227.81
379.84	227.76
380.22	227.69
380.60	227.55
380.98	227.51
381.36	227.41
381.73	227.34
382.11	227.30
382.49	227.23
382.87	227.14
383.25	227.06
383.62	227.12
384.00	227.06
384.38	226.99
384.76	226.96
385.13	226.91
385.51	226.86
385.89	226.83
386.27	226.78
386.64	226.74
387.02	226.66
387.40	226.62
387.78	226.54
388.15	226.49
388.53	226.51
388.91	226.47
389.29	226.43
389.66	226.41
390.04	226.37
390.42	226.39
390.79	226.38
391.17	226.38
391.55	226.29
391.92	226.30
392.30	226.32
392.68	226.32
393.05	226.31
393.43	226.34
393.81	226.36
394.18	226.39
394.56	226.44
394.94	226.51
395.31	226.57
395.69	226.65
396.06	226.74
396.44	226.78
396.82	226.85
397.19	226.97
397.57	227.03
397.95	227.14
398.32	227.20
398.70	227.31
399.07	227.41
399.45	227.48
399.82	227.56
400.20	227.67
400.58	227.77
400.95	227.86
401.33	227.97
401.70	228.14
402.08	228.26
402.45	228.36
402.83	228.50
403.20	228.64
403.58	228.77
403.95	228.94
404.33	229.09
404.71	229.24
405.08	229.45
405.46	229.61
405.83	229.75
406.21	229.92
406.58	230.10
406.96	230.28
407.33	230.50
407.70	230.71
408.08	230.97
408.45	231.19
408.83	231.43
409.20	231.67
409.58	231.85
409.95	232.09
410.33	232.40
410.70	232.68
411.08	232.97
411.45	233.26
411.82	233.53
412.20	233.88
412.57	234.30
412.95	234.57
413.32	234.99
413.69	235.42
414.07	235.85
414.44	236.29
414.82	236.77
415.19	237.30
415.56	237.86
415.94	238.40
416.31	239.05
416.68	239.66
417.06	240.36
417.43	241.05
417.81	241.79
418.18	242.54
418.55	243.35
418.93	244.20
419.30	245.11
419.67	246.00
420.04	246.95
420.42	247.92
420.79	249.11
421.16	250.24
421.54	251.39
421.91	252.58
422.28	253.81
422.66	255.11
423.03	256.39
423.40	257.70
423.77	259.08
424.15	260.47
424.52	261.91
424.89	263.48
425.26	265.00
425.64	266.44
426.01	268.03
426.38	269.65
426.75	271.34
427.13	273.03
427.50	274.89
427.87	276.74
428.24	278.57
428.61	280.28
428.99	282.21
429.36	284.30
429.73	286.37
430.10	288.39
430.47	290.39
430.85	292.48
431.22	294.73
431.59	297.10
431.96	299.36
432.33	301.88
432.70	304.26
433.08	307.09
433.45	309.71
433.82	312.30
434.19	315.20
434.56	317.94
434.93	320.57
435.30	323.20
435.68	326.10
436.05	328.93
436.42	331.70
436.79	334.24
437.16	336.91
437.53	339.80
437.90	342.64
438.27	345.43
438.64	348.27
439.01	350.85
439.38	353.12
439.75	355.26
440.13	357.71
440.50	360.08
440.87	361.92
441.24	363.88
441.61	366.05
441.98	367.51
442.35	369.35
442.72	371.23
443.09	373.02
443.46	374.02
443.83	374.64
444.20	375.17
444.57	376.00
444.94	376.33
445.31	376.60
445.68	376.92
446.05	376.96
446.42	376.61
446.79	376.22
447.16	375.76
447.53	375.46
447.90	374.34
448.27	373.13
448.64	371.57
449.01	370.45
449.37	368.49
449.74	366.66
450.11	364.44
450.48	362.01
450.85	359.45
451.22	357.32
451.59	355.31
451.96	353.39
452.33	350.79
452.70	348.47
453.07	345.68
453.43	342.80
453.80	340.09
454.17	337.41
454.54	334.84
454.91	332.15
455.28	329.47
455.65	327.03
456.02	324.61
456.38	322.43
456.75	319.80
457.12	317.56
457.49	315.36
457.86	313.15
458.23	311.25
458.59	309.24
458.96	307.13
459.33	305.25
459.70	303.36
460.07	301.86
460.43	300.15
460.80	298.52
461.17	297.12
461.54	295.63
461.91	294.20
462.27	292.76
462.64	291.51
463.01	290.13
463.38	288.80
463.74	287.44
464.11	286.34
464.48	285.27
464.85	284.13
465.21	283.21
465.58	282.26
465.95	281.19
466.32	280.26
466.68	279.34
467.05	278.48
467.42	277.62
467.78	276.68
468.15	275.79
468.52	275.06
468.88	274.13
469.25	273.32
469.62	272.71
469.98	272.03
470.35	271.37
470.72	270.77
471.08	270.11
471.45	269.55
471.82	268.91
472.18	268.28
472.55	267.81
472.92	267.27
473.28	266.82
473.65	266.34
474.02	265.88
474.38	265.52
474.75	265.14
475.11	264.78
475.48	264.49
475.85	264.22
476.21	264.02
476.58	263.83
476.94	263.65
477.31	263.43
477.67	263.24
478.04	263.10
478.41	263.00
478.77	262.99
479.14	262.95
479.50	263.00
479.87	263.07
480.23	263.16
480.60	263.24
480.96	263.33
481.33	263.50
481.69	263.66
482.06	263.84
482.42	264.05
482.79	264.27
483.15	264.55
483.52	264.87
483.88	265.20
484.25	265.58
484.61	266.00
484.98	266.43
485.34	267.00
485.71	267.58
486.07	268.21
486.44	268.77
486.80	269.45
487.17	270.12
487.53	270.94
487.90	271.75
488.26	272.68
488.62	273.66
488.99	274.67
489.35	275.74
489.72	276.84
490.08	278.02
490.44	279.24
490.81	280.59
491.17	281.94
491.54	283.44
491.90	284.96
492.26	286.60
492.63	288.34
492.99	290.10
493.36	292.00
493.72	293.98
494.08	296.07
494.45	298.28
494.81	300.64
495.17	303.05
495.54	305.59
495.90	308.27
496.26	311.00
496.63	313.93
496.99	317.00
497.35	320.24
497.72	323.66
498.08	327.16
498.44	330.79
498.80	334.72
499.17	338.69
499.53	342.83
499.89	347.17
500.26	351.64
500.62	356.26
500.98	361.17
501.34	366.23
501.71	371.50
502.07	376.92
502.43	382.47
502.79	388.21
503.16	394.26
503.52	400.50
503.88	406.88
504.24	413.45
504.60	420.33
504.97	427.44
505.33	434.65
505.69	442.23
506.05	449.91
506.41	457.75
506.78	465.85
507.14	474.26
507.50	482.89
507.86	491.78
508.22	500.94
508.59	510.13
508.95	519.67
509.31	529.40
509.67	539.51
510.03	549.84
510.39	560.38
510.75	571.11
511.12	582.04
511.48	593.29
511.84	604.68
512.20	616.16
512.56	628.03
512.92	640.24
513.28	652.59
513.64	665.08
514.00	677.74
514.37	690.60
514.73	703.57
515.09	716.63
515.45	730.01
515.81	743.57
516.17	757.51
516.53	771.58
516.89	785.91
517.25	800.00
517.61	814.31
517.97	828.76
518.33	843.08
518.69	857.80
519.05	872.84
519.41	888.07
519.77	903.55
520.13	918.99
520.49	934.37
520.85	949.86
521.21	965.58
521.57	981.84
521.93	997.71
522.29	1014.23
522.65	1030.52
523.01	1046.82
523.37	1062.91
523.73	1079.15
524.09	1095.32
524.45	1111.60
524.81	1128.25
525.17	1145.33
525.53	1162.21
525.89	1179.23
526.25	1196.03
526.61	1212.52
526.97	1229.22
527.33	1245.72
527.68	1262.46
528.04	1279.05
528.40	1295.71
528.76	1312.90
529.12	1329.48
529.48	1346.40
529.84	1362.41
530.20	1379.11
530.56	1396.07
530.91	1413.45
531.27	1430.25
531.63	1446.69
531.99	1463.32
532.35	1479.36
532.71	1495.03
533.07	1511.42
533.42	1527.32
533.78	1543.41
534.14	1559.63
534.50	1575.07
534.86	1591.00
535.21	1606.20
535.57	1622.15
535.93	1637.64
536.29	1652.46
536.65	1667.71
537.00	1682.61
537.36	1698.02
537.72	1712.63
538.08	1727.13
538.44	1741.09
538.79	1755.03
539.15	1768.96
539.51	1782.72
539.87	1797.20
540.22	1811.20
540.58	1825.13
540.94	1838.52
541.29	1851.64
541.65	1864.28
542.01	1877.50
542.37	1889.88
542.72	1902.35
543.08	1914.13
543.44	1926.59
543.79	1937.81
544.15	1948.84
544.51	1960.38
544.87	1971.43
545.22	1982.19
545.58	1992.54
545.94	2002.33
546.29	2012.24
546.65	2021.99
547.01	2031.24
547.36	2040.00
547.72	2048.40
548.07	2056.17
548.43	2064.33
548.79	2072.23
549.14	2079.82
549.50	2087.30
549.86	2095.16
550.21	2102.44
550.57	2109.58
550.92	2116.11
551.28	2123.15
551.64	2130.06
551.99	2136.65
552.35	2142.67
552.70	2148.81
553.06	2154.63
553.41	2160.89
553.77	2166.79
554.13	2172.78
554.48	2178.79
554.84	2184.06
555.19	2189.36
555.55	2194.29
555.90	2198.77
556.26	2203.60
556.61	2208.17
556.97	2212.19
557.32	2216.06
557.68	2220.16
558.03	2224.35
558.39	2228.02
558.74	2232.44
559.10	2236.14
559.45	2239.45
559.81	2243.78
560.16	2247.32
560.52	2250.44
560.87	2253.75
561.23	2256.28
561.58	2259.07
561.94	2261.53
562.29	2263.88
562.64	2266.40
563.00	2268.98
563.35	2272.28
563.71	2275.26
564.06	2278.28
564.42	2281.09
564.77	2283.40
565.12	2285.37
565.48	2287.11
565.83	2288.66
566.19	2289.89
566.54	2290.86
566.89	2292.05
567.25	2292.36
567.60	2293.63
567.96	2295.16
568.31	2295.84
568.66	2296.69
569.02	2297.07
569.37	2297.20
569.72	2297.71
570.08	2297.52
570.43	2297.26
570.78	2296.36
571.14	2294.55
571.49	2293.04
571.84	2292.54
572.20	2290.96
572.55	2289.85
572.90	2287.92
573.26	2286.24
573.61	2284.30
573.96	2282.22
574.31	2278.82
574.67	2275.50
575.02	2271.60
575.37	2267.90
575.72	2263.74
576.08	2260.23
576.43	2256.68
576.78	2252.80
577.13	2249.42
577.49	2246.03
577.84	2242.43
578.19	2238.53
578.54	2234.70
578.90	2230.35
579.25	2224.59
579.60	2219.69
579.95	2214.28
580.30	2209.24
580.66	2204.02
581.01	2198.90
581.36	2193.74
581.71	2189.44
582.06	2184.82
582.42	2180.31
582.77	2174.99
583.12	2170.24
583.47	2165.20
583.82	2159.96
584.17	2154.58
584.53	2148.96
584.88	2143.16
585.23	2137.17
585.58	2131.62
585.93	2126.04
586.28	2121.08
586.63	2115.73
586.98	2110.49
587.34	2105.84
587.69	2100.67
588.04	2095.26
588.39	2089.50
588.74	2082.82
589.09	2076.63
589.44	2069.69
589.79	2063.36
590.14	2057.53
590.49	2050.76
590.84	2044.33
591.19	2038.28
591.54	2031.62
591.89	2024.19
592.25	2017.39
592.60	2010.09
592.95	2002.39
593.30	1994.81
593.65	1987.08
594.00	1980.04
594.35	1972.65
594.70	1964.37
595.05	1957.19
595.40	1949.85
595.75	1942.33
596.10	1935.93
596.45	1928.94
596.80	1922.69
597.15	1915.99
597.50	1908.84
597.85	1902.40
598.19	1895.68
598.54	1888.40
598.89	1881.76
599.24	1875.71
599.59	1868.96
599.94	1862.70
600.29	1856.37
600.64	1849.89
600.99	1842.48
601.34	1835.63
601.69	1828.66
602.04	1821.62
602.39	1814.18
602.74	1807.30
603.08	1800.57
603.43	1794.01
603.78	1786.79
604.13	1779.55
604.48	1772.32
604.83	1765.43
605.18	1758.54
605.53	1750.59
605.87	1742.73
606.22	1735.50
606.57	1727.63
606.92	1720.42
607.27	1713.24
607.62	1706.28
607.96	1699.10
608.31	1692.53
608.66	1684.91
609.01	1677.32
609.36	1670.03
609.70	1662.10
610.05	1654.21
610.40	1646.57
610.75	1638.33
611.10	1630.65
611.44	1622.34
611.79	1614.40
612.14	1605.74
612.49	1596.69
612.83	1588.46
613.18	1580.39
613.53	1572.37
613.88	1563.97
614.22	1555.72
614.57	1547.30
614.92	1539.43
615.27	1531.92
615.61	1523.58
615.96	1515.64
616.31	1508.18
616.65	1500.82
617.00	1493.35
617.35	1485.66
617.70	1477.19
618.04	1468.65
618.39	1460.63
618.74	1453.18
619.08	1445.00
619.43	1437.62
619.78	1430.88
620.12	1423.82
620.47	1416.48
620.82	1408.41
621.16	1400.98
621.51	1393.40
621.85	1385.89
622.20	1377.43
622.55	1369.21
622.89	1361.54
623.24	1354.14
623.59	1346.84
623.93	1339.43
624.28	1332.21
624.62	1324.77
624.97	1317.78
625.32	1311.19
625.66	1304.12
626.01	1297.05
626.35	1289.67
626.70	1282.01
627.04	1274.24
627.39	1266.49
627.73	1259.09
628.08	1252.24
628.43	1245.03
628.77	1237.78
629.12	1230.22
629.46	1223.16
629.81	1215.78
630.15	1208.64
630.50	1201.19
630.84	1193.11
631.19	1185.40
631.53	1178.02
631.88	1170.56
632.22	1163.12
632.57	1156.04
632.91	1148.81
633.26	1141.43
633.60	1134.19
633.95	1127.23
634.29	1120.32
634.64	1113.70
634.98	1106.39
635.32	1099.36
635.67	1092.94
636.01	1086.46
636.36	1079.76
636.70	1073.37
637.05	1066.90
637.39	1060.64
637.73	1054.35
638.08	1048.64
638.42	1042.69
638.77	1036.43
639.11	1030.02
639.45	1023.73
639.80	1017.00
640.14	1010.58
640.49	1004.17
640.83	997.99
641.17	991.93
641.52	985.72
641.86	979.44
642.20	973.76
642.55	967.61
642.89	961.16
643.23	954.69
643.58	949.05
643.92	942.98
644.26	936.91
644.61	930.87
644.95	924.79
645.29	918.17
645.64	911.52
645.98	905.25
646.32	899.47
646.66	893.46
647.01	887.82
647.35	882.16
647.69	876.40
648.04	870.91
648.38	865.07
648.72	859.10
649.06	853.14
649.41	847.38
649.75	841.27
650.09	835.43
650.43	829.63
650.78	823.50
651.12	817.60
651.46	812.03
651.80	806.27
652.14	801.03
652.49	795.81
652.83	790.67
653.17	785.02
653.51	779.28
653.85	773.95
654.20	768.34
654.54	762.46
654.88	756.79
655.22	750.98
655.56	745.36
655.90	739.96
656.25	734.74
656.59	729.41
656.93	724.57
657.27	719.47
657.61	714.20
657.95	709.11
658.29	704.02
658.64	698.83
658.98	693.59
659.32	688.04
659.66	682.91
660.00	677.66
660.34	672.77
660.68	667.99
661.02	662.94
661.36	658.28
661.70	653.81
662.05	649.49
662.39	645.19
662.73	640.82
663.07	636.55
663.41	632.12
663.75	627.66
664.09	623.08
664.43	618.69
664.77	614.53
665.11	610.41
665.45	606.34
665.79	602.30
666.13	598.31
666.47	594.38
666.81	590.20
667.15	586.13
667.49	582.29
667.83	578.51
668.17	574.72
668.51	570.74
668.85	566.76
669.19	562.93
669.53	559.17
669.87	555.32
670.21	551.56
670.55	547.98
670.89	544.60
671.23	541.25
671.57	537.83
671.91	534.37
672.25	530.88
672.58	527.41
672.92	524.10
673.26	520.96
673.60	517.87
673.94	514.82
674.28	511.96
674.62	509.05
674.96	506.00
675.30	503.10
675.64	500.19
675.97	497.46
676.31	494.64
676.65	491.71
676.99	489.02
677.33	486.26
677.67	483.46
678.01	480.42
678.34	477.46
678.68	474.69
679.02	471.91
679.36	469.19
679.70	466.51
680.04	463.72
680.37	460.86
680.71	458.09
681.05	455.49
681.39	452.82
681.73	450.15
682.06	447.67
682.40	445.16
682.74	442.65
683.08	440.10
683.42	437.59
683.75	435.20
684.09	432.71
684.43	430.33
684.77	427.91
685.10	425.61
685.44	423.33
685.78	421.05
686.12	418.85
686.45	416.62
686.79	414.34
687.13	412.17
687.46	410.06
687.80	407.94
688.14	405.79
688.48	403.77
688.81	401.58
689.15	399.45
689.49	397.36
689.82	395.34
690.16	393.28
690.50	391.33
690.83	389.39
691.17	387.45
691.51	385.59
691.84	383.76
692.18	381.85
692.52	379.95
692.85	378.02
693.19	376.18
693.52	374.41
693.86	372.65
694.20	370.86
694.53	369.06
694.87	367.27
695.21	365.49
695.54	363.66
695.88	361.98
696.21	360.26
696.55	358.58
696.88	356.84
697.22	355.23
697.56	353.60
697.89	351.88
698.23	350.29
698.56	348.64
698.90	347.07
699.23	345.46
699.57	343.89
699.90	342.36
700.24	340.83
700.58	339.28
700.91	337.78
701.25	336.37
701.58	335.03
701.92	333.65
702.25	332.30
702.59	331.00
702.92	329.69
703.26	328.42
703.59	327.16
703.93	326.11
704.26	324.92
704.60	323.69
704.93	322.49
705.26	321.24
705.60	320.11
705.93	318.99
706.27	317.97
706.60	316.96
706.94	315.93
707.27	314.82
707.61	313.81
707.94	312.81
708.27	311.77
708.61	310.72
708.94	309.73
709.28	308.79
709.61	307.84
709.94	306.90
710.28	305.86
710.61	304.91
710.95	303.80
711.28	302.86
711.61	301.93
711.95	301.03
712.28	300.14
712.61	299.14
712.95	298.23
713.28	297.36
713.61	296.49
713.95	295.57
714.28	294.78
714.61	293.92
714.95	293.11
715.28	292.24
715.61	291.37
715.95	290.55
716.28	289.71
716.61	288.91
716.95	288.13
717.28	287.40
717.61	286.62
717.94	285.94
718.28	285.19
718.61	284.49
718.94	283.83
719.27	283.15
719.61	282.57
719.94	281.91
720.27	281.21
720.60	280.55
720.94	279.96
721.27	279.34
721.60	278.77
721.93	278.16
722.27	277.65
722.60	277.09
722.93	276.54
723.26	276.02
723.59	275.43
723.93	274.88
724.26	274.36
724.59	273.82
724.92	273.28
725.25	272.77
725.59	272.23
725.92	271.68
726.25	271.17
726.58	270.69
726.91	270.16
727.24	269.70
727.57	269.20
727.91	268.65
728.24	268.19
728.57	267.71
728.90	267.27
729.23	266.76
729.56	266.31
729.89	265.77
730.22	265.25
730.55	264.79
730.89	264.30
731.22	263.87
731.55	263.42
731.88	262.96
732.21	262.54
732.54	262.10
732.87	261.67
733.20	261.31
733.53	260.91
733.86	260.51
734.19	260.09
734.52	259.71
734.85	259.40
735.18	258.95
735.51	258.54
735.84	258.15
736.17	257.81
736.50	257.41
736.83	257.22
737.16	256.90
737.49	256.56
737.82	256.22
738.15	255.86
738.48	255.51
738.81	255.18
739.14	254.85
739.47	254.49
739.80	254.21
740.13	253.88
740.46	253.53
740.79	253.24
741.12	252.93
741.45	252.65
741.78	252.32
742.11	252.04
742.44	251.73
742.77	251.46
743.10	251.15
743.43	250.87
743.75	250.48
744.08	250.29
744.41	250.00
744.74	249.76
745.07	249.49
745.40	249.24
745.73	249.05
746.06	248.79
746.39	248.57
746.71	248.30
747.04	248.03
747.37	247.77
747.70	247.49
748.03	247.26
748.36	247.03
748.68	246.79
749.01	246.54
749.34	246.32
749.67	246.11
750.00	245.88
750.33	245.70
750.65	245.49
750.98	245.17
751.31	244.98
751.64	244.76
751.97	244.59
752.29	244.41
752.62	244.14
752.95	243.93
753.28	243.70
753.60	243.50
753.93	243.34
754.26	243.16
754.59	242.95
754.91	242.75
755.24	242.56
755.57	242.41
755.90	242.27
756.22	242.08
756.55	241.88
756.88	241.73
757.20	241.56
757.53	241.37
757.86	241.22
758.19	241.06
758.51	240.88
758.84	240.69
759.17	240.53
759.49	240.41
759.82	240.29
760.15	240.18
760.47	240.03
760.80	239.86
761.13	239.72
761.45	239.61
761.78	239.51
762.11	239.36
762.43	239.20
762.76	239.05
763.08	238.93
763.41	238.81
763.74	238.68
764.06	238.56
764.39	238.45
764.71	238.33
765.04	238.20
765.37	238.11
765.69	238.03
766.02	237.92
766.34	237.78
766.67	237.65
767.00	237.54
767.32	237.48
767.65	237.43
767.97	237.33
768.30	237.20
768.62	237.05
768.95	236.91
769.27	236.80
769.60	236.70
769.92	236.58
770.25	236.47
770.57	236.32
770.90	236.20
771.22	236.07
771.55	235.95
771.87	235.89
772.20	235.75
772.52	235.69
772.85	235.68
773.17	235.60
773.50	235.46
773.82	235.36
774.15	235.21
774.47	235.06
774.80	234.93
775.12	234.86
775.45	234.77
775.77	234.72
776.09	234.64
776.42	234.55
776.74	234.51
777.07	234.40
777.39	234.34
777.72	234.23
778.04	234.18
778.36	234.10
778.69	233.98
779.01	233.93
779.33	233.78
779.66	233.62
779.98	233.54
780.31	233.49
780.63	233.44
780.95	233.41
781.28	233.33
781.60	233.28
781.92	233.21
782.25	233.17
782.57	233.13
782.89	233.05
783.22	233.00
783.54	232.91
783.86	232.87
784.19	232.78
784.51	232.76
784.83	232.69
785.16	232.61
785.48	232.56
785.80	232.50
786.12	232.46
786.45	232.39
786.77	232.35
787.09	232.28
