SpectraSuite Data File
++++++++++++++++++++++++++++++++++++
Date: Fri Feb 01 16:53:11 EST 2013
User: group
Dark Spectrum Present: No
Reference Spectrum Present: No
Number of Sampled Component Spectra: 1
Spectrometers: USB2E7196
Integration Time (usec): 35000 (USB2E7196)
Spectra Averaged: 100 (USB2E7196)
Boxcar Smoothing: 10 (USB2E7196)
Correct for Electrical Dark: No (USB2E7196)
Strobe/Lamp Enabled: No (USB2E7196)
Correct for Detector Non-linearity: No (USB2E7196)
Correct for Stray Light: No (USB2E7196)
Number of Pixels in Processed Spectrum: 2048
>>>>>Begin Processed Spectral Data<<<<<
339.09	0.00
339.48	213.76
339.86	214.84
340.24	215.85
340.63	217.91
341.01	220.62
341.39	220.30
341.78	221.70
342.16	223.13
342.54	223.82
342.93	211.91
343.31	222.62
343.69	223.15
344.07	223.59
344.46	224.05
344.84	224.39
345.22	224.62
345.60	224.80
345.99	224.95
346.37	225.09
346.75	225.19
347.13	225.26
347.52	225.27
347.90	225.32
348.28	225.31
348.66	225.33
349.05	225.31
349.43	225.34
349.81	225.36
350.19	225.41
350.57	225.44
350.96	225.53
351.34	225.60
351.72	225.65
352.10	225.74
352.48	225.78
352.87	225.85
353.25	225.91
353.63	226.04
354.01	226.12
354.39	226.18
354.77	226.22
355.15	226.30
355.54	226.37
355.92	226.41
356.30	226.47
356.68	226.63
357.06	226.70
357.44	226.79
357.82	226.84
358.20	226.91
358.58	226.98
358.97	227.05
359.35	227.10
359.73	227.23
360.11	227.28
360.49	227.34
360.87	227.39
361.25	227.45
361.63	227.52
362.01	227.58
362.39	227.60
362.77	227.67
363.15	227.67
363.53	227.72
363.91	227.77
364.29	227.84
364.67	227.76
365.05	227.76
365.43	227.75
365.81	227.82
366.19	227.86
366.57	227.88
366.95	227.87
367.33	227.83
367.71	227.80
368.09	227.81
368.47	227.81
368.85	227.81
369.23	227.80
369.61	227.76
369.99	227.78
370.37	227.75
370.75	227.78
371.13	227.75
371.51	227.68
371.89	227.62
372.27	227.56
372.65	227.52
373.03	227.51
373.41	227.47
373.78	227.40
374.16	227.31
374.54	227.22
374.92	227.16
375.30	227.12
375.68	227.08
376.06	227.06
376.44	227.01
376.82	226.96
377.19	226.87
377.57	226.82
377.95	226.71
378.33	226.66
378.71	226.52
379.09	226.49
379.47	226.46
379.84	226.42
380.22	226.34
380.60	226.26
380.98	226.20
381.36	226.14
381.73	226.07
382.11	226.01
382.49	225.98
382.87	225.90
383.25	225.86
383.62	225.88
384.00	225.78
384.38	225.73
384.76	225.69
385.13	225.69
385.51	225.60
385.89	225.54
386.27	225.47
386.64	225.47
387.02	225.39
387.40	225.31
387.78	225.24
388.15	225.22
388.53	225.22
388.91	225.18
389.29	225.12
389.66	225.10
390.04	225.05
390.42	225.03
390.79	224.98
391.17	224.96
391.55	224.83
391.92	224.80
392.30	224.77
392.68	224.73
393.05	224.71
393.43	224.74
393.81	224.77
394.18	224.78
394.56	224.75
394.94	224.78
395.31	224.78
395.69	224.82
396.06	224.85
396.44	224.88
396.82	224.90
397.19	224.98
397.57	225.00
397.95	225.06
398.32	225.08
398.70	225.16
399.07	225.21
399.45	225.25
399.82	225.31
400.20	225.37
400.58	225.40
400.95	225.44
401.33	225.51
401.70	225.65
402.08	225.70
402.45	225.82
402.83	225.94
403.20	226.07
403.58	226.16
403.95	226.27
404.33	226.36
404.71	226.44
405.08	226.63
405.46	226.73
405.83	226.88
406.21	227.02
406.58	227.19
406.96	227.38
407.33	227.58
407.70	227.77
408.08	228.00
408.45	228.26
408.83	228.47
409.20	228.66
409.58	228.80
409.95	229.10
410.33	229.34
410.70	229.58
411.08	229.85
411.45	230.18
411.82	230.48
412.20	230.83
412.57	231.27
412.95	231.53
413.32	231.97
413.69	232.39
414.07	232.83
414.44	233.31
414.82	233.75
415.19	234.28
415.56	234.85
415.94	235.41
416.31	236.06
416.68	236.68
417.06	237.43
417.43	238.16
417.81	238.91
418.18	239.72
418.55	240.55
418.93	241.45
419.30	242.34
419.67	243.29
420.04	244.27
420.42	245.24
420.79	246.47
421.16	247.60
421.54	248.80
421.91	250.05
422.28	251.28
422.66	252.62
423.03	253.95
423.40	255.31
423.77	256.73
424.15	258.16
424.52	259.64
424.89	261.23
425.26	262.75
425.64	264.17
426.01	265.74
426.38	267.36
426.75	268.99
427.13	270.73
427.50	272.53
427.87	274.40
428.24	276.24
428.61	277.93
428.99	279.85
429.36	281.92
429.73	283.91
430.10	285.92
430.47	287.98
430.85	290.04
431.22	292.20
431.59	294.57
431.96	296.77
432.33	299.25
432.70	301.60
433.08	304.40
433.45	307.02
433.82	309.59
434.19	312.47
434.56	315.27
434.93	317.87
435.30	320.43
435.68	323.30
436.05	326.12
436.42	328.94
436.79	331.43
437.16	334.10
437.53	336.95
437.90	339.72
438.27	342.44
438.64	345.23
439.01	347.78
439.38	349.99
439.75	352.14
440.13	354.57
440.50	356.90
440.87	358.73
441.24	360.66
441.61	362.80
441.98	364.30
442.35	366.08
442.72	367.92
443.09	369.72
443.46	370.71
443.83	371.32
444.20	371.78
444.57	372.61
444.94	372.91
445.31	373.22
445.68	373.55
446.05	373.60
446.42	373.19
446.79	372.79
447.16	372.31
447.53	372.02
447.90	370.91
448.27	369.76
448.64	368.17
449.01	367.02
449.37	365.08
449.74	363.17
450.11	360.97
450.48	358.53
450.85	356.01
451.22	353.87
451.59	351.86
451.96	349.96
452.33	347.41
452.70	345.04
453.07	342.22
453.43	339.41
453.80	336.73
454.17	334.12
454.54	331.61
454.91	328.95
455.28	326.28
455.65	323.78
456.02	321.38
456.38	319.23
456.75	316.61
457.12	314.37
457.49	312.14
457.86	309.95
458.23	308.10
458.59	306.09
458.96	304.04
459.33	302.14
459.70	300.29
460.07	298.79
460.43	297.11
460.80	295.52
461.17	294.06
461.54	292.52
461.91	291.11
462.27	289.69
462.64	288.44
463.01	287.10
463.38	285.85
463.74	284.49
464.11	283.35
464.48	282.37
464.85	281.26
465.21	280.47
465.58	279.59
465.95	278.52
466.32	277.63
466.68	276.75
467.05	275.90
467.42	275.04
467.78	274.12
468.15	273.24
468.52	272.60
468.88	271.81
469.25	271.08
469.62	270.49
469.98	269.84
470.35	269.22
470.72	268.62
471.08	268.00
471.45	267.46
471.82	266.96
472.18	266.35
472.55	265.96
472.92	265.44
473.28	264.97
473.65	264.53
474.02	264.10
474.38	263.72
474.75	263.43
475.11	263.11
475.48	262.89
475.85	262.68
476.21	262.47
476.58	262.27
476.94	262.16
477.31	261.98
477.67	261.82
478.04	261.71
478.41	261.68
478.77	261.73
479.14	261.72
479.50	261.76
479.87	261.85
480.23	261.90
480.60	261.97
480.96	262.07
481.33	262.31
481.69	262.53
482.06	262.75
482.42	262.95
482.79	263.18
483.15	263.50
483.52	263.88
483.88	264.24
484.25	264.65
484.61	265.06
484.98	265.53
485.34	266.11
485.71	266.72
486.07	267.35
486.44	267.89
486.80	268.53
487.17	269.26
487.53	270.05
487.90	270.92
488.26	271.88
488.62	272.90
488.99	273.81
489.35	274.85
489.72	275.94
490.08	277.12
490.44	278.38
490.81	279.68
491.17	281.06
491.54	282.51
491.90	284.01
492.26	285.61
492.63	287.33
492.99	289.13
493.36	291.02
493.72	293.05
494.08	295.19
494.45	297.45
494.81	299.78
495.17	302.22
495.54	304.76
495.90	307.40
496.26	310.20
496.63	313.20
496.99	316.29
497.35	319.56
497.72	322.96
498.08	326.43
498.44	330.12
498.80	334.01
499.17	338.03
499.53	342.17
499.89	346.58
500.26	351.10
500.62	355.71
500.98	360.67
501.34	365.75
501.71	371.06
502.07	376.51
502.43	382.09
502.79	387.92
503.16	394.00
503.52	400.27
503.88	406.64
504.24	413.25
504.60	420.09
504.97	427.19
505.33	434.47
505.69	442.17
506.05	449.91
506.41	457.79
506.78	465.90
507.14	474.35
507.50	482.99
507.86	491.93
508.22	501.10
508.59	510.24
508.95	519.74
509.31	529.39
509.67	539.39
510.03	549.56
510.39	559.97
510.75	570.67
511.12	581.51
511.48	592.69
511.84	604.05
512.20	615.51
512.56	627.30
512.92	639.37
513.28	651.61
513.64	664.03
514.00	676.56
514.37	689.39
514.73	702.32
515.09	715.21
515.45	728.43
515.81	741.86
516.17	755.61
516.53	769.52
516.89	783.57
517.25	797.61
517.61	811.97
517.97	826.27
518.33	840.53
518.69	855.05
519.05	869.74
519.41	884.72
519.77	900.09
520.13	915.37
520.49	930.48
520.85	945.66
521.21	961.13
521.57	977.15
521.93	992.77
522.29	1008.94
522.65	1025.00
523.01	1040.91
523.37	1056.67
523.73	1072.75
524.09	1088.67
524.45	1104.78
524.81	1121.05
525.17	1137.45
525.53	1154.21
525.89	1170.85
526.25	1187.44
526.61	1203.72
526.97	1220.24
527.33	1236.48
527.68	1252.86
528.04	1269.22
528.40	1285.47
528.76	1302.10
529.12	1318.39
529.48	1334.94
529.84	1350.62
530.20	1366.84
530.56	1383.54
530.91	1400.74
531.27	1417.20
531.63	1433.42
531.99	1449.71
532.35	1465.54
532.71	1481.28
533.07	1497.31
533.42	1513.00
533.78	1528.77
534.14	1544.81
534.50	1559.82
534.86	1575.40
535.21	1590.30
535.57	1605.90
535.93	1621.27
536.29	1635.91
536.65	1650.69
537.00	1665.18
537.36	1680.26
537.72	1694.62
538.08	1708.94
538.44	1722.60
538.79	1736.20
539.15	1749.48
539.51	1762.85
539.87	1776.89
540.22	1790.32
540.58	1803.75
540.94	1816.82
541.29	1829.59
541.65	1842.01
542.01	1854.98
542.37	1867.18
542.72	1879.47
543.08	1890.95
543.44	1903.23
543.79	1914.41
544.15	1925.31
544.51	1936.78
544.87	1947.57
545.22	1958.23
545.58	1968.22
545.94	1977.68
546.29	1987.38
546.65	1997.29
547.01	2006.60
547.36	2015.24
547.72	2023.69
548.07	2031.50
548.43	2039.54
548.79	2047.41
549.14	2054.86
549.50	2062.10
549.86	2069.45
550.21	2076.62
550.57	2083.85
550.92	2090.22
551.28	2097.18
551.64	2104.12
551.99	2110.77
552.35	2116.92
552.70	2123.03
553.06	2128.93
553.41	2135.33
553.77	2141.51
554.13	2147.55
554.48	2153.67
554.84	2159.23
555.19	2164.47
555.55	2169.52
555.90	2173.99
556.26	2178.93
556.61	2183.73
556.97	2188.15
557.32	2192.46
557.68	2196.63
558.03	2200.90
558.39	2204.65
558.74	2209.33
559.10	2213.39
559.45	2216.79
559.81	2221.12
560.16	2224.96
560.52	2228.43
560.87	2231.82
561.23	2234.33
561.58	2237.20
561.94	2239.76
562.29	2242.02
562.64	2244.73
563.00	2247.30
563.35	2250.87
563.71	2254.10
564.06	2257.23
564.42	2260.19
564.77	2262.76
565.12	2265.19
565.48	2267.30
565.83	2269.41
566.19	2270.80
566.54	2271.66
566.89	2272.94
567.25	2273.66
567.60	2275.27
567.96	2277.01
568.31	2277.98
568.66	2279.40
569.02	2280.18
569.37	2280.72
569.72	2281.81
570.08	2282.16
570.43	2282.48
570.78	2282.24
571.14	2280.84
571.49	2279.59
571.84	2279.40
572.20	2278.50
572.55	2277.62
572.90	2276.10
573.26	2274.80
573.61	2273.13
573.96	2271.76
574.31	2269.02
574.67	2266.29
575.02	2262.84
575.37	2259.52
575.72	2255.99
576.08	2252.67
576.43	2249.53
576.78	2245.84
577.13	2242.76
577.49	2239.82
577.84	2236.54
578.19	2232.78
578.54	2229.42
578.90	2225.51
579.25	2220.19
579.60	2215.37
579.95	2210.52
580.30	2205.77
580.66	2200.79
581.01	2196.02
581.36	2191.17
581.71	2187.23
582.06	2182.99
582.42	2178.54
582.77	2173.66
583.12	2169.20
583.47	2164.79
583.82	2160.02
584.17	2155.03
584.53	2149.77
584.88	2144.38
585.23	2138.84
585.58	2133.48
585.93	2128.20
586.28	2123.57
586.63	2118.64
586.98	2113.77
587.34	2109.21
587.69	2104.60
588.04	2099.51
588.39	2094.12
588.74	2087.73
589.09	2081.75
589.44	2074.99
589.79	2069.06
590.14	2063.55
590.49	2057.12
590.84	2050.84
591.19	2044.91
591.54	2038.54
591.89	2031.34
592.25	2024.69
592.60	2017.47
592.95	2010.12
593.30	2002.86
593.65	1995.41
594.00	1988.50
594.35	1981.41
594.70	1973.38
595.05	1966.28
595.40	1959.06
595.75	1951.59
596.10	1945.64
596.45	1939.08
596.80	1933.14
597.15	1926.72
597.50	1919.72
597.85	1913.30
598.19	1906.76
598.54	1899.75
598.89	1893.20
599.24	1887.43
599.59	1880.86
599.94	1874.92
600.29	1868.74
600.64	1862.16
600.99	1854.94
601.34	1848.16
601.69	1841.28
602.04	1834.64
602.39	1827.33
602.74	1820.56
603.08	1814.04
603.43	1807.29
603.78	1799.97
604.13	1792.76
604.48	1785.61
604.83	1778.72
605.18	1772.03
605.53	1764.09
605.87	1756.18
606.22	1749.12
606.57	1741.28
606.92	1733.93
607.27	1726.71
607.62	1719.87
607.96	1712.81
608.31	1706.31
608.66	1698.91
609.01	1691.52
609.36	1684.02
609.70	1676.03
610.05	1668.09
610.40	1660.35
610.75	1652.17
611.10	1644.59
611.44	1636.22
611.79	1628.29
612.14	1619.79
612.49	1610.68
612.83	1602.35
613.18	1594.27
613.53	1586.23
613.88	1577.70
614.22	1569.52
614.57	1561.02
614.92	1552.96
615.27	1545.36
615.61	1536.95
615.96	1528.88
616.31	1521.15
616.65	1513.81
617.00	1506.32
617.35	1498.66
617.70	1490.47
618.04	1481.91
618.39	1473.72
618.74	1466.10
619.08	1457.84
619.43	1450.15
619.78	1443.11
620.12	1435.93
620.47	1428.50
620.82	1420.33
621.16	1412.97
621.51	1405.34
621.85	1397.73
622.20	1389.19
622.55	1380.91
622.89	1373.01
623.24	1365.39
623.59	1357.92
623.93	1350.40
624.28	1343.20
624.62	1335.67
624.97	1328.42
625.32	1321.66
625.66	1314.70
626.01	1307.53
626.35	1300.12
626.70	1292.42
627.04	1284.87
627.39	1277.19
627.73	1269.71
628.08	1262.85
628.43	1255.59
628.77	1248.27
629.12	1240.63
629.46	1233.65
629.81	1226.07
630.15	1218.98
630.50	1211.60
630.84	1203.47
631.19	1195.63
631.53	1188.11
631.88	1180.65
632.22	1173.04
632.57	1165.65
632.91	1158.05
633.26	1150.82
633.60	1143.43
633.95	1136.35
634.29	1129.25
634.64	1122.61
634.98	1115.35
635.32	1108.16
635.67	1101.49
636.01	1094.87
636.36	1088.14
636.70	1081.51
637.05	1074.99
637.39	1068.52
637.73	1062.10
638.08	1056.27
638.42	1050.17
638.77	1043.69
639.11	1037.12
639.45	1030.74
639.80	1024.14
640.14	1017.82
640.49	1011.19
640.83	1004.89
641.17	998.74
641.52	992.36
641.86	985.85
642.20	979.98
642.55	973.64
642.89	967.16
643.23	960.59
643.58	954.81
643.92	948.68
644.26	942.69
644.61	936.62
644.95	930.48
645.29	923.87
645.64	917.17
645.98	910.86
646.32	905.00
646.66	898.96
647.01	893.25
647.35	887.47
647.69	881.59
648.04	876.04
648.38	870.19
648.72	864.20
649.06	858.12
649.41	852.24
649.75	846.39
650.09	840.46
650.43	834.72
650.78	828.63
651.12	822.58
651.46	816.90
651.80	811.26
652.14	805.85
652.49	800.52
652.83	795.41
653.17	789.79
653.51	784.06
653.85	778.74
654.20	773.11
654.54	767.14
654.88	761.47
655.22	755.59
655.56	749.90
655.90	744.51
656.25	739.30
656.59	733.91
656.93	728.79
657.27	723.62
657.61	718.19
657.95	713.07
658.29	708.09
658.64	702.82
658.98	697.47
659.32	692.13
659.66	686.92
660.00	681.58
660.34	676.63
660.68	671.71
661.02	666.72
661.36	662.05
661.70	657.61
662.05	653.25
662.39	648.93
662.73	644.48
663.07	640.09
663.41	635.57
663.75	631.12
664.09	626.58
664.43	622.27
664.77	618.15
665.11	613.90
665.45	609.67
665.79	605.55
666.13	601.41
666.47	597.29
666.81	593.15
667.15	589.07
667.49	585.09
667.83	581.31
668.17	577.36
668.51	573.25
668.85	569.20
669.19	565.35
669.53	561.51
669.87	557.59
670.21	553.90
670.55	550.27
670.89	546.82
671.23	543.38
671.57	539.86
671.91	536.32
672.25	532.83
672.58	529.40
672.92	525.99
673.26	522.77
673.60	519.58
673.94	516.45
674.28	513.53
674.62	510.60
674.96	507.48
675.30	504.54
675.64	501.61
675.97	498.78
676.31	495.92
676.65	492.97
676.99	490.35
677.33	487.48
677.67	484.72
678.01	481.73
678.34	478.73
678.68	475.86
679.02	473.10
679.36	470.35
679.70	467.68
680.04	464.94
680.37	462.12
680.71	459.34
681.05	456.74
681.39	453.98
681.73	451.33
682.06	448.80
682.40	446.26
682.74	443.75
683.08	441.22
683.42	438.60
683.75	436.15
684.09	433.53
684.43	431.10
684.77	428.65
685.10	426.27
685.44	423.95
685.78	421.64
686.12	419.35
686.45	417.03
686.79	414.65
687.13	412.45
687.46	410.28
687.80	408.12
688.14	405.90
688.48	403.86
688.81	401.64
689.15	399.50
689.49	397.37
689.82	395.30
690.16	393.19
690.50	391.27
690.83	389.32
691.17	387.40
691.51	385.50
691.84	383.64
692.18	381.71
692.52	379.77
692.85	377.84
693.19	375.98
693.52	374.15
693.86	372.37
694.20	370.61
694.53	368.80
694.87	366.96
695.21	365.18
695.54	363.35
695.88	361.65
696.21	359.93
696.55	358.22
696.88	356.54
697.22	354.88
697.56	353.22
697.89	351.56
698.23	349.94
698.56	348.28
698.90	346.68
699.23	345.09
699.57	343.54
699.90	341.99
700.24	340.43
700.58	338.91
700.91	337.40
701.25	335.98
701.58	334.62
701.92	333.28
702.25	331.84
702.59	330.46
702.92	329.12
703.26	327.81
703.59	326.57
703.93	325.38
704.26	324.14
704.60	322.85
704.93	321.55
705.26	320.28
705.60	319.10
705.93	317.92
706.27	316.84
706.60	315.77
706.94	314.71
707.27	313.57
707.61	312.49
707.94	311.43
708.27	310.30
708.61	309.22
708.94	308.20
709.28	307.26
709.61	306.30
709.94	305.33
710.28	304.29
710.61	303.22
710.95	302.11
711.28	301.21
711.61	300.25
711.95	299.32
712.28	298.40
712.61	297.41
712.95	296.47
713.28	295.56
713.61	294.66
713.95	293.74
714.28	292.88
714.61	292.07
714.95	291.25
715.28	290.40
715.61	289.50
715.95	288.65
716.28	287.76
716.61	286.91
716.95	286.07
717.28	285.33
717.61	284.59
717.94	283.87
718.28	283.02
718.61	282.27
718.94	281.58
719.27	280.92
719.61	280.27
719.94	279.63
720.27	278.92
720.60	278.23
720.94	277.62
721.27	276.98
721.60	276.37
721.93	275.71
722.27	275.12
722.60	274.57
722.93	273.98
723.26	273.46
723.59	272.92
723.93	272.38
724.26	271.81
724.59	271.25
724.92	270.73
725.25	270.23
725.59	269.74
725.92	269.23
726.25	268.70
726.58	268.28
726.91	267.75
727.24	267.31
727.57	266.89
727.91	266.40
728.24	265.96
728.57	265.47
728.90	265.07
729.23	264.59
729.56	264.21
729.89	263.75
730.22	263.28
730.55	262.84
730.89	262.40
731.22	261.99
731.55	261.57
731.88	261.15
732.21	260.74
732.54	260.36
732.87	259.95
733.20	259.56
733.53	259.13
733.86	258.76
734.19	258.37
734.52	257.96
734.85	257.64
735.18	257.25
735.51	256.92
735.84	256.55
736.17	256.22
736.50	255.80
736.83	255.59
737.16	255.27
737.49	254.94
737.82	254.57
738.15	254.24
738.48	253.91
738.81	253.60
739.14	253.27
739.47	252.90
739.80	252.60
740.13	252.32
740.46	252.00
740.79	251.71
741.12	251.39
741.45	251.10
741.78	250.71
742.11	250.44
742.44	250.11
742.77	249.82
743.10	249.52
743.43	249.21
743.75	248.81
744.08	248.69
744.41	248.39
744.74	248.16
745.07	247.86
745.40	247.62
745.73	247.38
746.06	247.13
746.39	246.90
746.71	246.64
747.04	246.32
747.37	246.02
747.70	245.77
748.03	245.51
748.36	245.29
748.68	245.10
749.01	244.86
749.34	244.64
749.67	244.39
750.00	244.17
750.33	244.03
750.65	243.84
750.98	243.45
751.31	243.25
751.64	243.02
751.97	242.89
752.29	242.68
752.62	242.43
752.95	242.21
753.28	241.94
753.60	241.72
753.93	241.57
754.26	241.40
754.59	241.19
754.91	240.96
755.24	240.75
755.57	240.54
755.90	240.34
756.22	240.11
756.55	239.89
756.88	239.67
757.20	239.45
757.53	239.19
757.86	239.02
758.19	238.86
758.51	238.68
758.84	238.41
759.17	238.20
759.49	238.04
759.82	237.90
760.15	237.78
760.47	237.61
760.80	237.41
761.13	237.25
761.45	237.03
761.78	236.88
762.11	236.71
762.43	236.55
762.76	236.41
763.08	236.29
763.41	236.16
763.74	236.04
764.06	235.88
764.39	235.72
764.71	235.56
765.04	235.39
765.37	235.25
765.69	235.15
766.02	235.00
766.34	234.85
766.67	234.70
767.00	234.61
767.32	234.53
767.65	234.50
767.97	234.40
768.30	234.33
768.62	234.23
768.95	234.11
769.27	234.00
769.60	233.91
769.92	233.77
770.25	233.70
770.57	233.57
770.90	233.46
771.22	233.36
771.55	233.29
771.87	233.21
772.20	233.12
772.52	233.11
772.85	233.16
773.17	233.11
773.50	233.00
773.82	232.91
774.15	232.82
774.47	232.63
774.80	232.53
775.12	232.43
775.45	232.38
775.77	232.31
776.09	232.25
776.42	232.13
776.74	232.09
777.07	231.99
777.39	231.93
777.72	231.85
778.04	231.82
778.36	231.75
778.69	231.66
779.01	231.60
779.33	231.46
779.66	231.27
779.98	231.19
780.31	231.14
780.63	231.12
780.95	231.09
781.28	231.10
781.60	231.04
781.92	230.99
782.25	230.93
782.57	230.88
782.89	230.80
783.22	230.77
783.54	230.72
783.86	230.66
784.19	230.62
784.51	230.61
784.83	230.54
785.16	230.49
785.48	230.49
785.80	230.44
786.12	230.40
786.45	230.35
786.77	230.30
787.09	230.27
