SpectraSuite Data File
++++++++++++++++++++++++++++++++++++
Date: Fri Feb 01 15:23:29 EST 2013
User: group
Dark Spectrum Present: No
Reference Spectrum Present: No
Number of Sampled Component Spectra: 1
Spectrometers: USB2E7196
Integration Time (usec): 35000 (USB2E7196)
Spectra Averaged: 100 (USB2E7196)
Boxcar Smoothing: 10 (USB2E7196)
Correct for Electrical Dark: No (USB2E7196)
Strobe/Lamp Enabled: No (USB2E7196)
Correct for Detector Non-linearity: No (USB2E7196)
Correct for Stray Light: No (USB2E7196)
Number of Pixels in Processed Spectrum: 2048
>>>>>Begin Processed Spectral Data<<<<<
339.09	0.00
339.48	215.41
339.86	216.54
340.24	217.63
340.63	218.80
341.01	222.21
341.39	221.81
341.78	223.11
342.16	224.50
342.54	224.91
342.93	213.30
343.31	224.04
343.69	224.55
344.07	225.00
344.46	225.43
344.84	225.84
345.22	226.05
345.60	226.30
345.99	226.48
346.37	226.60
346.75	226.69
347.13	226.73
347.52	226.79
347.90	226.87
348.28	226.89
348.66	226.94
349.05	226.93
349.43	226.95
349.81	226.99
350.19	227.00
350.57	227.08
350.96	227.14
351.34	227.28
351.72	227.40
352.10	227.50
352.48	227.60
352.87	227.66
353.25	227.74
353.63	227.79
354.01	227.87
354.39	227.97
354.77	228.06
355.15	228.20
355.54	228.23
355.92	228.28
356.30	228.33
356.68	228.48
357.06	228.57
357.44	228.62
357.82	228.70
358.20	228.77
358.58	228.84
358.97	228.86
359.35	228.91
359.73	228.96
360.11	229.03
360.49	229.03
360.87	229.07
361.25	229.13
361.63	229.23
362.01	229.27
362.39	229.27
362.77	229.29
363.15	229.27
363.53	229.35
363.91	229.40
364.29	229.47
364.67	229.40
365.05	229.41
365.43	229.45
365.81	229.50
366.19	229.55
366.57	229.57
366.95	229.62
367.33	229.60
367.71	229.62
368.09	229.60
368.47	229.62
368.85	229.58
369.23	229.56
369.61	229.47
369.99	229.49
370.37	229.46
370.75	229.45
371.13	229.40
371.51	229.31
371.89	229.28
372.27	229.20
372.65	229.16
373.03	229.09
373.41	229.04
373.78	228.95
374.16	228.84
374.54	228.70
374.92	228.58
375.30	228.50
375.68	228.33
376.06	228.31
376.44	228.22
376.82	228.15
377.19	228.07
377.57	228.01
377.95	227.90
378.33	227.83
378.71	227.74
379.09	227.70
379.47	227.66
379.84	227.58
380.22	227.50
380.60	227.37
380.98	227.29
381.36	227.19
381.73	227.11
382.11	227.05
382.49	227.04
382.87	226.98
383.25	226.92
383.62	227.03
384.00	226.93
384.38	226.88
384.76	226.85
385.13	226.81
385.51	226.77
385.89	226.71
386.27	226.66
386.64	226.60
387.02	226.54
387.40	226.46
387.78	226.40
388.15	226.40
388.53	226.42
388.91	226.40
389.29	226.37
389.66	226.33
390.04	226.34
390.42	226.34
390.79	226.34
391.17	226.37
391.55	226.24
391.92	226.23
392.30	226.23
392.68	226.22
393.05	226.23
393.43	226.25
393.81	226.29
394.18	226.32
394.56	226.34
394.94	226.36
395.31	226.40
395.69	226.45
396.06	226.48
396.44	226.52
396.82	226.54
397.19	226.67
397.57	226.70
397.95	226.76
398.32	226.77
398.70	226.82
399.07	226.84
399.45	226.92
399.82	227.00
400.20	227.08
400.58	227.19
400.95	227.26
401.33	227.37
401.70	227.52
402.08	227.57
402.45	227.71
402.83	227.86
403.20	228.01
403.58	228.12
403.95	228.27
404.33	228.39
404.71	228.56
405.08	228.72
405.46	228.88
405.83	229.02
406.21	229.20
406.58	229.39
406.96	229.57
407.33	229.76
407.70	229.95
408.08	230.20
408.45	230.39
408.83	230.61
409.20	230.81
409.58	231.01
409.95	231.28
410.33	231.53
410.70	231.76
411.08	232.04
411.45	232.36
411.82	232.65
412.20	233.01
412.57	233.41
412.95	233.73
413.32	234.18
413.69	234.57
414.07	235.00
414.44	235.47
414.82	235.94
415.19	236.50
415.56	237.07
415.94	237.63
416.31	238.30
416.68	238.95
417.06	239.67
417.43	240.34
417.81	241.12
418.18	241.91
418.55	242.78
418.93	243.67
419.30	244.57
419.67	245.50
420.04	246.43
420.42	247.43
420.79	248.56
421.16	249.68
421.54	250.89
421.91	252.10
422.28	253.35
422.66	254.69
423.03	255.95
423.40	257.25
423.77	258.63
424.15	260.04
424.52	261.52
424.89	263.12
425.26	264.66
425.64	266.12
426.01	267.73
426.38	269.36
426.75	271.06
427.13	272.79
427.50	274.65
427.87	276.52
428.24	278.37
428.61	280.16
428.99	282.11
429.36	284.21
429.73	286.27
430.10	288.30
430.47	290.35
430.85	292.48
431.22	294.73
431.59	297.14
431.96	299.40
432.33	301.87
432.70	304.25
433.08	307.06
433.45	309.67
433.82	312.25
434.19	315.16
434.56	317.95
434.93	320.59
435.30	323.15
435.68	326.10
436.05	328.92
436.42	331.71
436.79	334.25
437.16	336.97
437.53	339.83
437.90	342.65
438.27	345.46
438.64	348.33
439.01	350.93
439.38	353.21
439.75	355.36
440.13	357.82
440.50	360.20
440.87	362.08
441.24	364.04
441.61	366.15
441.98	367.66
442.35	369.44
442.72	371.31
443.09	373.15
443.46	374.08
443.83	374.68
444.20	375.16
444.57	375.97
444.94	376.25
445.31	376.57
445.68	376.91
446.05	376.91
446.42	376.51
446.79	376.11
447.16	375.61
447.53	375.29
447.90	374.18
448.27	372.95
448.64	371.37
449.01	370.23
449.37	368.31
449.74	366.40
450.11	364.15
450.48	361.67
450.85	359.13
451.22	356.99
451.59	354.95
451.96	353.02
452.33	350.41
452.70	348.00
453.07	345.17
453.43	342.27
453.80	339.55
454.17	336.83
454.54	334.27
454.91	331.56
455.28	328.89
455.65	326.35
456.02	323.92
456.38	321.74
456.75	319.12
457.12	316.86
457.49	314.63
457.86	312.44
458.23	310.56
458.59	308.52
458.96	306.44
459.33	304.59
459.70	302.71
460.07	301.23
460.43	299.56
460.80	297.97
461.17	296.53
461.54	295.03
461.91	293.62
462.27	292.18
462.64	290.94
463.01	289.60
463.38	288.37
463.74	287.00
464.11	285.86
464.48	284.80
464.85	283.67
465.21	282.80
465.58	281.86
465.95	280.76
466.32	279.86
466.68	278.92
467.05	278.01
467.42	277.15
467.78	276.23
468.15	275.33
468.52	274.64
468.88	273.77
469.25	273.01
469.62	272.36
469.98	271.69
470.35	271.01
470.72	270.40
471.08	269.71
471.45	269.16
471.82	268.61
472.18	268.02
472.55	267.58
472.92	267.06
473.28	266.61
473.65	266.16
474.02	265.74
474.38	265.43
474.75	265.15
475.11	264.79
475.48	264.51
475.85	264.30
476.21	264.04
476.58	263.89
476.94	263.72
477.31	263.57
477.67	263.44
478.04	263.35
478.41	263.27
478.77	263.31
479.14	263.28
479.50	263.28
479.87	263.34
480.23	263.44
480.60	263.49
480.96	263.58
481.33	263.82
481.69	263.98
482.06	264.18
482.42	264.32
482.79	264.56
483.15	264.87
483.52	265.24
483.88	265.61
484.25	265.95
484.61	266.39
484.98	266.83
485.34	267.35
485.71	267.91
486.07	268.50
486.44	269.06
486.80	269.76
487.17	270.44
487.53	271.24
487.90	272.05
488.26	272.99
488.62	273.97
488.99	274.94
489.35	275.97
489.72	277.10
490.08	278.31
490.44	279.57
490.81	280.84
491.17	282.17
491.54	283.65
491.90	285.20
492.26	286.81
492.63	288.53
492.99	290.29
493.36	292.19
493.72	294.28
494.08	296.34
494.45	298.55
494.81	300.93
495.17	303.34
495.54	305.91
495.90	308.57
496.26	311.37
496.63	314.27
496.99	317.37
497.35	320.61
497.72	323.98
498.08	327.48
498.44	331.16
498.80	335.10
499.17	339.12
499.53	343.29
499.89	347.62
500.26	352.08
500.62	356.72
500.98	361.66
501.34	366.69
501.71	372.00
502.07	377.44
502.43	383.05
502.79	388.94
503.16	395.01
503.52	401.22
503.88	407.59
504.24	414.22
504.60	421.10
504.97	428.18
505.33	435.53
505.69	443.23
506.05	451.02
506.41	458.88
506.78	467.01
507.14	475.48
507.50	484.28
507.86	493.34
508.22	502.60
508.59	511.73
508.95	521.31
509.31	531.16
509.67	541.19
510.03	551.46
510.39	561.94
510.75	572.72
511.12	583.78
511.48	595.13
511.84	606.64
512.20	618.19
512.56	630.17
512.92	642.37
513.28	654.65
513.64	667.15
514.00	679.87
514.37	692.83
514.73	705.90
515.09	718.91
515.45	732.23
515.81	745.83
516.17	759.93
516.53	774.07
516.89	788.27
517.25	802.54
517.61	817.03
517.97	831.50
518.33	846.04
518.69	860.81
519.05	875.83
519.41	891.01
519.77	906.61
520.13	922.13
520.49	937.60
520.85	953.11
521.21	968.94
521.57	985.22
521.93	1001.05
522.29	1017.48
522.65	1033.80
523.01	1050.08
523.37	1066.25
523.73	1082.51
524.09	1098.66
524.45	1115.13
524.81	1131.85
525.17	1148.73
525.53	1165.81
525.89	1182.68
526.25	1199.60
526.61	1216.01
526.97	1232.90
527.33	1249.43
527.68	1266.11
528.04	1282.60
528.40	1299.37
528.76	1316.39
529.12	1332.98
529.48	1349.92
529.84	1366.01
530.20	1382.62
530.56	1399.68
530.91	1417.09
531.27	1433.83
531.63	1450.35
531.99	1466.94
532.35	1482.89
532.71	1498.89
533.07	1515.15
533.42	1531.21
533.78	1547.23
534.14	1563.61
534.50	1578.95
534.86	1594.86
535.21	1610.01
535.57	1626.02
535.93	1641.61
536.29	1656.37
536.65	1671.69
537.00	1686.55
537.36	1701.93
537.72	1716.55
538.08	1730.96
538.44	1744.96
538.79	1758.91
539.15	1772.72
539.51	1786.55
539.87	1801.06
540.22	1814.86
540.58	1828.69
540.94	1842.06
541.29	1855.15
541.65	1867.79
542.01	1881.05
542.37	1893.37
542.72	1905.86
543.08	1917.69
543.44	1930.03
543.79	1941.32
544.15	1952.15
544.51	1963.65
544.87	1974.59
545.22	1985.39
545.58	1995.59
545.94	2005.18
546.29	2015.01
546.65	2024.91
547.01	2034.14
547.36	2042.87
547.72	2051.23
548.07	2059.13
548.43	2067.29
548.79	2075.35
549.14	2082.99
549.50	2090.36
549.86	2098.16
550.21	2105.48
550.57	2112.70
550.92	2119.29
551.28	2126.52
551.64	2133.69
551.99	2140.32
552.35	2146.47
552.70	2152.74
553.06	2158.99
553.41	2165.33
553.77	2171.45
554.13	2177.45
554.48	2183.50
554.84	2188.84
555.19	2194.30
555.55	2199.39
555.90	2203.76
556.26	2208.49
556.61	2213.22
556.97	2217.43
557.32	2221.51
557.68	2225.67
558.03	2229.88
558.39	2233.60
558.74	2238.22
559.10	2242.08
559.45	2245.73
559.81	2250.22
560.16	2253.98
560.52	2257.20
560.87	2260.67
561.23	2263.32
561.58	2266.26
561.94	2268.83
562.29	2271.39
562.64	2274.06
563.00	2276.78
563.35	2280.41
563.71	2283.52
564.06	2286.67
564.42	2289.51
564.77	2291.98
565.12	2294.08
565.48	2295.88
565.83	2297.66
566.19	2298.77
566.54	2299.80
566.89	2300.85
567.25	2301.28
567.60	2302.68
567.96	2304.10
568.31	2304.94
568.66	2306.04
569.02	2306.48
569.37	2306.78
569.72	2307.43
570.08	2307.46
570.43	2307.37
570.78	2306.61
571.14	2305.18
571.49	2303.94
571.84	2303.70
572.20	2302.30
572.55	2301.49
572.90	2300.03
573.26	2298.67
573.61	2297.07
573.96	2295.04
574.31	2292.07
574.67	2288.86
575.02	2285.10
575.37	2281.69
575.72	2277.62
576.08	2274.25
576.43	2270.98
576.78	2267.31
577.13	2264.22
577.49	2260.99
577.84	2257.51
578.19	2253.71
578.54	2249.84
578.90	2245.42
579.25	2239.71
579.60	2234.93
579.95	2229.74
580.30	2224.54
580.66	2219.31
581.01	2214.29
581.36	2209.22
581.71	2205.04
582.06	2200.49
582.42	2196.02
582.77	2190.79
583.12	2186.22
583.47	2181.28
583.82	2176.16
584.17	2170.74
584.53	2165.06
584.88	2159.24
585.23	2153.10
585.58	2147.68
585.93	2142.29
586.28	2137.32
586.63	2132.24
586.98	2126.99
587.34	2122.14
587.69	2117.29
588.04	2111.83
588.39	2105.94
588.74	2099.61
589.09	2093.42
589.44	2086.65
589.79	2080.53
590.14	2074.71
590.49	2067.99
590.84	2061.59
591.19	2055.55
591.54	2049.06
591.89	2041.54
592.25	2034.83
592.60	2027.69
592.95	2019.88
593.30	2012.47
593.65	2004.92
594.00	1997.79
594.35	1990.53
594.70	1982.51
595.05	1975.05
595.40	1967.78
595.75	1960.26
596.10	1953.78
596.45	1946.68
596.80	1940.38
597.15	1933.58
597.50	1926.43
597.85	1920.19
598.19	1913.50
598.54	1906.25
598.89	1899.65
599.24	1893.86
599.59	1887.08
599.94	1880.84
600.29	1874.54
600.64	1867.83
600.99	1860.38
601.34	1853.37
601.69	1846.43
602.04	1839.43
602.39	1832.12
602.74	1825.22
603.08	1818.56
603.43	1811.94
603.78	1804.80
604.13	1797.57
604.48	1790.25
604.83	1783.33
605.18	1776.17
605.53	1768.10
605.87	1760.00
606.22	1752.65
606.57	1744.56
606.92	1737.24
607.27	1730.06
607.62	1723.10
607.96	1715.71
608.31	1708.98
608.66	1701.41
609.01	1693.80
609.36	1686.16
609.70	1678.08
610.05	1669.97
610.40	1662.11
610.75	1653.82
611.10	1646.05
611.44	1637.69
611.79	1629.82
612.14	1621.25
612.49	1612.22
612.83	1603.85
613.18	1595.86
613.53	1587.87
613.88	1579.45
614.22	1571.09
614.57	1562.52
614.92	1554.47
615.27	1546.92
615.61	1538.62
615.96	1530.62
616.31	1522.88
616.65	1515.63
617.00	1508.22
617.35	1500.61
617.70	1492.25
618.04	1483.58
618.39	1475.43
618.74	1467.80
619.08	1459.38
619.43	1451.76
619.78	1444.75
620.12	1437.54
620.47	1429.92
620.82	1421.64
621.16	1414.11
621.51	1406.53
621.85	1398.87
622.20	1390.37
622.55	1382.02
622.89	1374.20
623.24	1366.61
623.59	1359.31
623.93	1351.71
624.28	1344.41
624.62	1336.83
624.97	1329.72
625.32	1323.06
625.66	1316.05
626.01	1308.90
626.35	1301.48
626.70	1293.76
627.04	1286.07
627.39	1278.39
627.73	1271.00
628.08	1264.06
628.43	1256.72
628.77	1249.24
629.12	1241.63
629.46	1234.40
629.81	1227.08
630.15	1219.82
630.50	1212.28
630.84	1203.97
631.19	1196.08
631.53	1188.53
631.88	1181.05
632.22	1173.48
632.57	1166.16
632.91	1158.60
633.26	1151.12
633.60	1143.77
633.95	1136.66
634.29	1129.69
634.64	1122.96
634.98	1115.62
635.32	1108.45
635.67	1102.06
636.01	1095.43
636.36	1088.65
636.70	1082.13
637.05	1075.45
637.39	1068.95
637.73	1062.53
638.08	1056.75
638.42	1050.81
638.77	1044.36
639.11	1037.64
639.45	1031.27
639.80	1024.51
640.14	1018.09
640.49	1011.58
640.83	1005.33
641.17	999.06
641.52	992.61
641.86	986.26
642.20	980.49
642.55	974.22
642.89	967.59
643.23	961.19
643.58	955.42
643.92	949.27
644.26	943.24
644.61	937.22
644.95	931.24
645.29	924.68
645.64	917.91
645.98	911.64
646.32	905.87
646.66	899.79
647.01	894.09
647.35	888.37
647.69	882.56
648.04	877.00
648.38	871.31
648.72	865.30
649.06	859.14
649.41	853.18
649.75	847.19
650.09	841.29
650.43	835.48
650.78	829.29
651.12	823.30
651.46	817.59
651.80	811.83
652.14	806.40
652.49	801.05
652.83	795.94
653.17	790.16
653.51	784.41
653.85	779.10
654.20	773.50
654.54	767.54
654.88	761.87
655.22	755.98
655.56	750.27
655.90	744.88
656.25	739.67
656.59	734.31
656.93	729.25
657.27	724.08
657.61	718.61
657.95	713.65
658.29	708.56
658.64	703.34
658.98	698.15
659.32	692.66
659.66	687.46
660.00	682.11
660.34	677.26
660.68	672.42
661.02	667.37
661.36	662.62
661.70	658.13
662.05	653.75
662.39	649.40
662.73	644.93
663.07	640.53
663.41	636.06
663.75	631.60
664.09	627.03
664.43	622.69
664.77	618.59
665.11	614.23
665.45	610.14
665.79	606.12
666.13	601.93
666.47	597.92
666.81	593.74
667.15	589.63
667.49	585.74
667.83	581.94
668.17	578.05
668.51	573.98
668.85	569.88
669.19	566.04
669.53	562.25
669.87	558.39
670.21	554.72
670.55	551.18
670.89	547.73
671.23	544.36
671.57	540.87
671.91	537.33
672.25	533.87
672.58	530.38
672.92	526.91
673.26	523.83
673.60	520.65
673.94	517.53
674.28	514.59
674.62	511.59
674.96	508.44
675.30	505.48
675.64	502.57
675.97	499.88
676.31	497.00
676.65	494.04
676.99	491.31
677.33	488.41
677.67	485.50
678.01	482.49
678.34	479.44
678.68	476.52
679.02	473.70
679.36	470.97
679.70	468.29
680.04	465.54
680.37	462.63
680.71	459.86
681.05	457.22
681.39	454.52
681.73	451.91
682.06	449.44
682.40	446.89
682.74	444.35
683.08	441.82
683.42	439.26
683.75	436.81
684.09	434.27
684.43	431.81
684.77	429.35
685.10	427.02
685.44	424.70
685.78	422.44
686.12	420.26
686.45	417.91
686.79	415.60
687.13	413.42
687.46	411.25
687.80	409.10
688.14	406.94
688.48	404.91
688.81	402.65
689.15	400.49
689.49	398.41
689.82	396.37
690.16	394.25
690.50	392.27
690.83	390.33
691.17	388.39
691.51	386.55
691.84	384.69
692.18	382.74
692.52	380.80
692.85	378.86
693.19	376.96
693.52	375.24
693.86	373.42
694.20	371.71
694.53	369.92
694.87	368.11
695.21	366.35
695.54	364.49
695.88	362.79
696.21	361.07
696.55	359.37
696.88	357.69
697.22	356.09
697.56	354.51
697.89	352.86
698.23	351.24
698.56	349.60
698.90	348.02
699.23	346.40
699.57	344.86
699.90	343.32
700.24	341.81
700.58	340.24
700.91	338.76
701.25	337.29
701.58	335.90
701.92	334.54
702.25	333.18
702.59	331.87
702.92	330.56
703.26	329.27
703.59	327.99
703.93	326.77
704.26	325.54
704.60	324.22
704.93	322.95
705.26	321.69
705.60	320.54
705.93	319.39
706.27	318.39
706.60	317.37
706.94	316.32
707.27	315.23
707.61	314.20
707.94	313.18
708.27	312.07
708.61	310.99
708.94	309.95
709.28	308.95
709.61	307.98
709.94	307.03
710.28	306.01
710.61	305.05
710.95	303.99
711.28	303.08
711.61	302.12
711.95	301.20
712.28	300.26
712.61	299.24
712.95	298.31
713.28	297.41
713.61	296.47
713.95	295.59
714.28	294.70
714.61	293.80
714.95	292.93
715.28	292.06
715.61	291.21
715.95	290.36
716.28	289.51
716.61	288.67
716.95	287.86
717.28	287.07
717.61	286.27
717.94	285.53
718.28	284.69
718.61	283.96
718.94	283.26
719.27	282.60
719.61	281.96
719.94	281.33
720.27	280.57
720.60	279.91
720.94	279.25
721.27	278.64
721.60	278.05
721.93	277.44
722.27	276.93
722.60	276.35
722.93	275.80
723.26	275.23
723.59	274.67
723.93	274.10
724.26	273.53
724.59	272.97
724.92	272.48
725.25	271.97
725.59	271.50
725.92	270.98
726.25	270.48
726.58	269.95
726.91	269.44
727.24	269.00
727.57	268.56
727.91	268.08
728.24	267.62
728.57	267.15
728.90	266.70
729.23	266.22
729.56	265.81
729.89	265.31
730.22	264.83
730.55	264.36
730.89	263.93
731.22	263.51
731.55	263.09
731.88	262.62
732.21	262.18
732.54	261.72
732.87	261.33
733.20	260.93
733.53	260.55
733.86	260.15
734.19	259.75
734.52	259.35
734.85	259.04
735.18	258.69
735.51	258.31
735.84	257.95
736.17	257.62
736.50	257.21
736.83	256.98
737.16	256.70
737.49	256.38
737.82	256.06
738.15	255.76
738.48	255.43
738.81	255.13
739.14	254.84
739.47	254.55
739.80	254.23
740.13	253.94
740.46	253.69
740.79	253.37
741.12	253.07
741.45	252.79
741.78	252.44
742.11	252.13
742.44	251.83
742.77	251.54
743.10	251.23
743.43	250.96
743.75	250.59
744.08	250.45
744.41	250.17
744.74	249.89
745.07	249.57
745.40	249.35
745.73	249.12
746.06	248.84
746.39	248.56
746.71	248.30
747.04	247.99
747.37	247.68
747.70	247.46
748.03	247.22
748.36	246.98
748.68	246.77
749.01	246.51
749.34	246.25
749.67	246.00
750.00	245.75
750.33	245.59
750.65	245.37
750.98	245.02
751.31	244.84
751.64	244.63
751.97	244.45
752.29	244.20
752.62	243.94
752.95	243.72
753.28	243.49
753.60	243.27
753.93	243.08
754.26	242.89
754.59	242.62
754.91	242.40
755.24	242.20
755.57	241.99
755.90	241.79
756.22	241.64
756.55	241.46
756.88	241.23
757.20	240.98
757.53	240.78
757.86	240.56
758.19	240.36
758.51	240.16
758.84	239.97
759.17	239.80
759.49	239.65
759.82	239.53
760.15	239.38
760.47	239.27
760.80	239.11
761.13	238.98
761.45	238.87
761.78	238.72
762.11	238.57
762.43	238.39
762.76	238.26
763.08	238.10
763.41	237.99
763.74	237.88
764.06	237.74
764.39	237.60
764.71	237.47
765.04	237.33
765.37	237.18
765.69	237.06
766.02	236.94
766.34	236.81
766.67	236.65
767.00	236.56
767.32	236.49
767.65	236.45
767.97	236.31
768.30	236.20
768.62	236.12
768.95	235.96
769.27	235.86
769.60	235.75
769.92	235.63
770.25	235.47
770.57	235.33
770.90	235.22
771.22	235.12
771.55	235.04
771.87	234.93
772.20	234.89
772.52	234.89
772.85	234.94
773.17	234.87
773.50	234.80
773.82	234.69
774.15	234.52
774.47	234.39
774.80	234.31
775.12	234.25
775.45	234.18
775.77	234.11
776.09	234.07
776.42	234.04
776.74	234.03
777.07	233.98
777.39	233.94
777.72	233.87
778.04	233.81
778.36	233.75
778.69	233.73
779.01	233.65
779.33	233.47
779.66	233.29
779.98	233.22
780.31	233.15
780.63	233.12
780.95	233.10
781.28	233.04
781.60	232.96
781.92	232.91
782.25	232.83
782.57	232.79
782.89	232.72
783.22	232.64
783.54	232.54
783.86	232.48
784.19	232.43
784.51	232.42
784.83	232.40
785.16	232.36
785.48	232.31
785.80	232.28
786.12	232.25
786.45	232.19
786.77	232.15
787.09	232.13
