SpectraSuite Data File
++++++++++++++++++++++++++++++++++++
Date: Fri Feb 01 17:36:12 EST 2013
User: group
Dark Spectrum Present: No
Reference Spectrum Present: No
Number of Sampled Component Spectra: 1
Spectrometers: USB2E7196
Integration Time (usec): 35000 (USB2E7196)
Spectra Averaged: 100 (USB2E7196)
Boxcar Smoothing: 10 (USB2E7196)
Correct for Electrical Dark: No (USB2E7196)
Strobe/Lamp Enabled: No (USB2E7196)
Correct for Detector Non-linearity: No (USB2E7196)
Correct for Stray Light: No (USB2E7196)
Number of Pixels in Processed Spectrum: 2048
>>>>>Begin Processed Spectral Data<<<<<
339.09	0.00
339.48	212.59
339.86	214.49
340.24	216.11
340.63	217.66
341.01	220.26
341.39	220.18
341.78	222.03
342.16	222.73
342.54	222.94
342.93	211.57
343.31	222.28
343.69	222.87
344.07	223.35
344.46	223.76
344.84	224.14
345.22	224.37
345.60	224.60
345.99	224.75
346.37	224.86
346.75	224.98
347.13	225.06
347.52	225.13
347.90	225.21
348.28	225.21
348.66	225.22
349.05	225.21
349.43	225.26
349.81	225.30
350.19	225.33
350.57	225.37
350.96	225.45
351.34	225.51
351.72	225.57
352.10	225.67
352.48	225.76
352.87	225.81
353.25	225.87
353.63	225.93
354.01	226.01
354.39	226.08
354.77	226.13
355.15	226.22
355.54	226.27
355.92	226.30
356.30	226.40
356.68	226.52
357.06	226.60
357.44	226.63
357.82	226.73
358.20	226.81
358.58	226.85
358.97	226.90
359.35	226.98
359.73	227.05
360.11	227.09
360.49	227.11
360.87	227.13
361.25	227.21
361.63	227.29
362.01	227.30
362.39	227.33
362.77	227.39
363.15	227.42
363.53	227.42
363.91	227.43
364.29	227.42
364.67	227.36
365.05	227.35
365.43	227.37
365.81	227.38
366.19	227.42
366.57	227.49
366.95	227.49
367.33	227.44
367.71	227.43
368.09	227.42
368.47	227.40
368.85	227.39
369.23	227.37
369.61	227.33
369.99	227.34
370.37	227.33
370.75	227.34
371.13	227.26
371.51	227.24
371.89	227.22
372.27	227.18
372.65	227.17
373.03	227.13
373.41	227.10
373.78	227.05
374.16	226.92
374.54	226.84
374.92	226.78
375.30	226.74
375.68	226.67
376.06	226.59
376.44	226.53
376.82	226.44
377.19	226.39
377.57	226.32
377.95	226.23
378.33	226.15
378.71	226.02
379.09	226.00
379.47	225.94
379.84	225.87
380.22	225.83
380.60	225.73
380.98	225.68
381.36	225.58
381.73	225.49
382.11	225.45
382.49	225.36
382.87	225.26
383.25	225.19
383.62	225.26
384.00	225.20
384.38	225.17
384.76	225.17
385.13	225.14
385.51	225.09
385.89	225.02
386.27	225.00
386.64	225.01
387.02	224.93
387.40	224.89
387.78	224.83
388.15	224.77
388.53	224.75
388.91	224.71
389.29	224.69
389.66	224.66
390.04	224.63
390.42	224.62
390.79	224.66
391.17	224.65
391.55	224.50
391.92	224.51
392.30	224.47
392.68	224.44
393.05	224.42
393.43	224.42
393.81	224.43
394.18	224.43
394.56	224.41
394.94	224.43
395.31	224.41
395.69	224.50
396.06	224.54
396.44	224.54
396.82	224.59
397.19	224.69
397.57	224.69
397.95	224.75
398.32	224.77
398.70	224.79
399.07	224.86
399.45	224.93
399.82	224.98
400.20	225.07
400.58	225.14
400.95	225.18
401.33	225.26
401.70	225.39
402.08	225.44
402.45	225.54
402.83	225.67
403.20	225.80
403.58	225.85
403.95	225.99
404.33	226.14
404.71	226.25
405.08	226.40
405.46	226.56
405.83	226.70
406.21	226.86
406.58	227.07
406.96	227.23
407.33	227.42
407.70	227.59
408.08	227.87
408.45	228.08
408.83	228.29
409.20	228.50
409.58	228.69
409.95	228.99
410.33	229.27
410.70	229.50
411.08	229.77
411.45	230.14
411.82	230.44
412.20	230.78
412.57	231.20
412.95	231.50
413.32	231.95
413.69	232.38
414.07	232.80
414.44	233.24
414.82	233.75
415.19	234.29
415.56	234.86
415.94	235.42
416.31	236.07
416.68	236.76
417.06	237.48
417.43	238.20
417.81	238.97
418.18	239.80
418.55	240.70
418.93	241.62
419.30	242.53
419.67	243.49
420.04	244.51
420.42	245.54
420.79	246.79
421.16	247.98
421.54	249.20
421.91	250.47
422.28	251.78
422.66	253.18
423.03	254.52
423.40	255.93
423.77	257.40
424.15	258.90
424.52	260.46
424.89	262.17
425.26	263.77
425.64	265.31
426.01	266.97
426.38	268.68
426.75	270.43
427.13	272.24
427.50	274.15
427.87	276.08
428.24	278.04
428.61	279.85
428.99	281.86
429.36	284.09
429.73	286.26
430.10	288.36
430.47	290.49
430.85	292.70
431.22	294.98
431.59	297.48
431.96	299.77
432.33	302.35
432.70	304.81
433.08	307.81
433.45	310.55
433.82	313.24
434.19	316.26
434.56	319.18
434.93	321.97
435.30	324.67
435.68	327.72
436.05	330.67
436.42	333.56
436.79	336.22
437.16	338.99
437.53	341.95
437.90	344.89
438.27	347.75
438.64	350.71
439.01	353.49
439.38	355.79
439.75	358.08
440.13	360.64
440.50	363.14
440.87	365.01
441.24	367.05
441.61	369.33
441.98	370.94
442.35	372.88
442.72	374.79
443.09	376.75
443.46	377.80
443.83	378.41
444.20	378.95
444.57	379.82
444.94	380.19
445.31	380.56
445.68	380.95
446.05	381.04
446.42	380.68
446.79	380.26
447.16	379.83
447.53	379.56
447.90	378.42
448.27	377.20
448.64	375.58
449.01	374.38
449.37	372.35
449.74	370.32
450.11	368.01
450.48	365.42
450.85	362.74
451.22	360.47
451.59	358.41
451.96	356.41
452.33	353.73
452.70	351.28
453.07	348.33
453.43	345.33
453.80	342.45
454.17	339.68
454.54	337.01
454.91	334.19
455.28	331.41
455.65	328.80
456.02	326.24
456.38	323.99
456.75	321.23
457.12	318.87
457.49	316.59
457.86	314.26
458.23	312.36
458.59	310.22
458.96	308.10
459.33	306.14
459.70	304.16
460.07	302.58
460.43	300.72
460.80	299.04
461.17	297.53
461.54	295.97
461.91	294.47
462.27	292.95
462.64	291.62
463.01	290.15
463.38	288.80
463.74	287.37
464.11	286.13
464.48	285.07
464.85	283.93
465.21	283.01
465.58	282.06
465.95	280.91
466.32	279.98
466.68	279.01
467.05	278.08
467.42	277.16
467.78	276.19
468.15	275.28
468.52	274.57
468.88	273.72
469.25	272.91
469.62	272.26
469.98	271.53
470.35	270.89
470.72	270.29
471.08	269.60
471.45	269.07
471.82	268.53
472.18	267.91
472.55	267.44
472.92	266.89
473.28	266.44
473.65	265.97
474.02	265.49
474.38	265.08
474.75	264.75
475.11	264.44
475.48	264.18
475.85	263.94
476.21	263.71
476.58	263.50
476.94	263.34
477.31	263.13
477.67	263.02
478.04	262.90
478.41	262.85
478.77	262.88
479.14	262.77
479.50	262.78
479.87	262.86
480.23	262.91
480.60	262.98
480.96	263.05
481.33	263.24
481.69	263.43
482.06	263.65
482.42	263.85
482.79	264.07
483.15	264.37
483.52	264.76
483.88	265.08
484.25	265.47
484.61	265.93
484.98	266.39
485.34	266.93
485.71	267.52
486.07	268.12
486.44	268.66
486.80	269.40
487.17	270.10
487.53	270.86
487.90	271.70
488.26	272.63
488.62	273.63
488.99	274.59
489.35	275.65
489.72	276.77
490.08	277.95
490.44	279.22
490.81	280.56
491.17	281.92
491.54	283.36
491.90	284.92
492.26	286.52
492.63	288.24
492.99	290.01
493.36	291.86
493.72	293.88
494.08	295.95
494.45	298.18
494.81	300.57
495.17	303.02
495.54	305.56
495.90	308.19
496.26	310.94
496.63	313.86
496.99	316.95
497.35	320.22
497.72	323.59
498.08	327.06
498.44	330.69
498.80	334.56
499.17	338.62
499.53	342.72
499.89	347.02
500.26	351.46
500.62	356.05
500.98	360.97
501.34	365.98
501.71	371.27
502.07	376.61
502.43	382.06
502.79	387.78
503.16	393.76
503.52	399.96
503.88	406.24
504.24	412.71
504.60	419.46
504.97	426.44
505.33	433.63
505.69	441.20
506.05	448.85
506.41	456.51
506.78	464.51
507.14	472.76
507.50	481.31
507.86	490.15
508.22	499.18
508.59	508.19
508.95	517.54
509.31	527.12
509.67	537.00
510.03	547.10
510.39	557.45
510.75	568.02
511.12	578.65
511.48	589.66
511.84	600.90
512.20	612.14
512.56	623.77
512.92	635.65
513.28	647.66
513.64	659.78
514.00	672.22
514.37	684.73
514.73	697.43
515.09	710.07
515.45	723.01
515.81	736.19
516.17	749.76
516.53	763.42
516.89	777.24
517.25	790.95
517.61	805.00
517.97	818.97
518.33	832.88
518.69	847.26
519.05	861.84
519.41	876.58
519.77	891.58
520.13	906.51
520.49	921.40
520.85	936.29
521.21	951.48
521.57	967.16
521.93	982.44
522.29	998.11
522.65	1013.89
523.01	1029.61
523.37	1045.08
523.73	1060.74
524.09	1076.39
524.45	1092.13
524.81	1108.22
525.17	1124.36
525.53	1140.66
525.89	1157.05
526.25	1173.32
526.61	1189.11
526.97	1205.26
527.33	1221.19
527.68	1237.30
528.04	1253.26
528.40	1269.28
528.76	1285.76
529.12	1301.88
529.48	1318.27
529.84	1333.92
530.20	1350.02
530.56	1366.41
530.91	1383.25
531.27	1399.49
531.63	1415.46
531.99	1431.55
532.35	1447.18
532.71	1462.55
533.07	1478.38
533.42	1493.93
533.78	1509.59
534.14	1525.48
534.50	1540.50
534.86	1556.04
535.21	1570.81
535.57	1586.33
535.93	1601.48
536.29	1616.05
536.65	1630.68
537.00	1644.89
537.36	1659.95
537.72	1674.10
538.08	1688.30
538.44	1701.90
538.79	1715.58
539.15	1728.87
539.51	1742.30
539.87	1756.33
540.22	1769.92
540.58	1783.32
540.94	1796.22
541.29	1808.73
541.65	1821.17
542.01	1834.08
542.37	1846.20
542.72	1858.47
543.08	1870.24
543.44	1882.53
543.79	1893.73
544.15	1904.67
544.51	1916.38
544.87	1927.06
545.22	1938.02
545.58	1948.17
545.94	1957.98
546.29	1967.72
546.65	1977.76
547.01	1987.23
547.36	1995.93
547.72	2004.55
548.07	2012.88
548.43	2021.25
548.79	2029.43
549.14	2037.27
549.50	2044.67
549.86	2052.41
550.21	2059.89
550.57	2067.12
550.92	2073.84
551.28	2080.95
551.64	2088.27
551.99	2094.96
552.35	2101.67
552.70	2107.97
553.06	2114.21
553.41	2120.74
553.77	2126.97
554.13	2133.22
554.48	2139.42
554.84	2145.45
555.19	2151.04
555.55	2156.30
555.90	2161.13
556.26	2166.61
556.61	2171.53
556.97	2176.45
557.32	2181.06
557.68	2185.55
558.03	2190.07
558.39	2194.31
558.74	2199.28
559.10	2203.47
559.45	2207.44
559.81	2211.82
560.16	2216.02
560.52	2219.68
560.87	2223.53
561.23	2226.72
561.58	2229.90
561.94	2232.96
562.29	2235.39
562.64	2238.56
563.00	2241.52
563.35	2245.40
563.71	2248.79
564.06	2252.21
564.42	2255.49
564.77	2258.46
565.12	2261.35
565.48	2263.87
565.83	2266.24
566.19	2268.16
566.54	2269.38
566.89	2271.21
567.25	2272.60
567.60	2274.19
567.96	2276.37
568.31	2277.63
568.66	2279.19
569.02	2280.35
569.37	2281.08
569.72	2282.60
570.08	2283.14
570.43	2283.57
570.78	2283.54
571.14	2282.47
571.49	2281.62
571.84	2281.55
572.20	2280.78
572.55	2280.09
572.90	2278.66
573.26	2277.57
573.61	2276.02
573.96	2275.05
574.31	2272.45
574.67	2269.80
575.02	2266.58
575.37	2263.53
575.72	2260.29
576.08	2257.24
576.43	2254.09
576.78	2251.06
577.13	2248.03
577.49	2245.01
577.84	2242.06
578.19	2238.52
578.54	2235.39
578.90	2231.87
579.25	2226.79
579.60	2222.51
579.95	2217.96
580.30	2213.63
580.66	2208.82
581.01	2204.35
581.36	2199.51
581.71	2195.75
582.06	2191.78
582.42	2187.89
582.77	2183.06
583.12	2178.90
583.47	2174.74
583.82	2170.33
584.17	2165.28
584.53	2160.34
584.88	2155.12
585.23	2149.73
585.58	2144.65
585.93	2139.34
586.28	2134.54
586.63	2129.88
586.98	2124.96
587.34	2120.27
587.69	2115.47
588.04	2110.58
588.39	2105.18
588.74	2098.97
589.09	2093.08
589.44	2086.46
589.79	2080.48
590.14	2075.00
590.49	2068.46
590.84	2062.13
591.19	2056.34
591.54	2050.11
591.89	2043.08
592.25	2036.91
592.60	2029.94
592.95	2022.81
593.30	2015.73
593.65	2008.37
594.00	2001.26
594.35	1994.16
594.70	1986.31
595.05	1979.58
595.40	1972.45
595.75	1965.11
596.10	1959.27
596.45	1952.79
596.80	1946.84
597.15	1940.58
597.50	1933.89
597.85	1927.64
598.19	1921.19
598.54	1914.61
598.89	1908.21
599.24	1902.24
599.59	1895.73
599.94	1889.42
600.29	1882.99
600.64	1876.57
600.99	1869.38
601.34	1862.85
601.69	1855.94
602.04	1849.46
602.39	1842.21
602.74	1835.54
603.08	1829.05
603.43	1822.23
603.78	1814.97
604.13	1807.77
604.48	1800.65
604.83	1793.71
605.18	1787.04
605.53	1779.21
605.87	1770.96
606.22	1763.70
606.57	1755.90
606.92	1748.25
607.27	1741.40
607.62	1734.68
607.96	1727.54
608.31	1721.19
608.66	1713.67
609.01	1706.25
609.36	1698.67
609.70	1690.61
610.05	1682.59
610.40	1674.94
610.75	1666.68
611.10	1658.98
611.44	1650.40
611.79	1642.25
612.14	1633.66
612.49	1624.37
612.83	1615.89
613.18	1607.79
613.53	1599.53
613.88	1591.02
614.22	1582.78
614.57	1574.00
614.92	1565.87
615.27	1558.30
615.61	1549.76
615.96	1541.58
616.31	1533.76
616.65	1526.22
617.00	1518.60
617.35	1510.80
617.70	1502.32
618.04	1493.85
618.39	1485.47
618.74	1477.91
619.08	1469.41
619.43	1461.75
619.78	1454.66
620.12	1447.50
620.47	1439.80
620.82	1431.57
621.16	1423.89
621.51	1416.18
621.85	1408.28
622.20	1399.67
622.55	1391.05
622.89	1383.11
623.24	1375.34
623.59	1367.77
623.93	1360.15
624.28	1352.71
624.62	1345.12
624.97	1337.86
625.32	1330.87
625.66	1323.83
626.01	1316.56
626.35	1309.35
626.70	1301.43
627.04	1293.65
627.39	1285.71
627.73	1278.26
628.08	1271.22
628.43	1263.95
628.77	1256.61
629.12	1249.10
629.46	1241.88
629.81	1234.27
630.15	1226.89
630.50	1219.57
630.84	1211.51
631.19	1203.45
631.53	1195.85
631.88	1188.17
632.22	1180.48
632.57	1173.20
632.91	1165.56
633.26	1158.12
633.60	1150.55
633.95	1143.22
634.29	1136.12
634.64	1129.33
634.98	1121.87
635.32	1114.78
635.67	1108.05
636.01	1101.31
636.36	1094.42
636.70	1087.82
637.05	1081.28
637.39	1074.86
637.73	1068.27
638.08	1062.26
638.42	1056.23
638.77	1049.77
639.11	1043.25
639.45	1036.77
639.80	1030.00
640.14	1023.56
640.49	1017.07
640.83	1010.71
641.17	1004.58
641.52	998.16
641.86	991.68
642.20	985.89
642.55	979.38
642.89	972.96
643.23	966.28
643.58	960.59
643.92	954.26
644.26	948.31
644.61	942.21
644.95	936.17
645.29	929.64
645.64	922.92
645.98	916.55
646.32	910.44
646.66	904.44
647.01	898.65
647.35	892.89
647.69	886.86
648.04	881.23
648.38	875.40
648.72	869.47
649.06	863.51
649.41	857.45
649.75	851.67
650.09	845.68
650.43	839.97
650.78	833.71
651.12	827.89
651.46	822.02
651.80	816.37
652.14	810.88
652.49	805.47
652.83	800.30
653.17	794.71
653.51	789.11
653.85	783.67
654.20	777.95
654.54	771.95
654.88	766.17
655.22	760.25
655.56	754.57
655.90	749.08
656.25	743.77
656.59	738.46
656.93	733.30
657.27	728.14
657.61	722.67
657.95	717.63
658.29	712.51
658.64	707.22
658.98	701.72
659.32	696.21
659.66	690.95
660.00	685.64
660.34	680.65
660.68	675.71
661.02	670.64
661.36	666.00
661.70	661.51
662.05	657.22
662.39	652.97
662.73	648.50
663.07	644.08
663.41	639.64
663.75	635.16
664.09	630.51
664.43	626.17
664.77	622.12
665.11	617.86
665.45	613.62
665.79	609.53
666.13	605.47
666.47	601.41
666.81	597.30
667.15	593.14
667.49	589.18
667.83	585.26
668.17	581.29
668.51	577.22
668.85	573.15
669.19	569.23
669.53	565.41
669.87	561.54
670.21	557.87
670.55	554.15
670.89	550.69
671.23	547.31
671.57	543.71
671.91	540.18
672.25	536.61
672.58	533.17
672.92	529.75
673.26	526.53
673.60	523.29
673.94	520.16
674.28	517.25
674.62	514.34
674.96	511.35
675.30	508.43
675.64	505.47
675.97	502.65
676.31	499.81
676.65	496.85
676.99	494.10
677.33	491.12
677.67	488.35
678.01	485.33
678.34	482.35
678.68	479.43
679.02	476.54
679.36	473.76
679.70	470.99
680.04	468.25
680.37	465.38
680.71	462.61
681.05	459.92
681.39	457.15
681.73	454.43
682.06	451.85
682.40	449.34
682.74	446.79
683.08	444.23
683.42	441.59
683.75	439.01
684.09	436.39
684.43	433.94
684.77	431.41
685.10	429.03
685.44	426.65
685.78	424.39
686.12	422.11
686.45	419.79
686.79	417.47
687.13	415.24
687.46	413.04
687.80	410.80
688.14	408.57
688.48	406.48
688.81	404.24
689.15	402.05
689.49	399.84
689.82	397.71
690.16	395.59
690.50	393.57
690.83	391.66
691.17	389.68
691.51	387.75
691.84	385.86
692.18	383.88
692.52	381.94
692.85	379.93
693.19	378.04
693.52	376.21
693.86	374.32
694.20	372.49
694.53	370.71
694.87	368.85
695.21	367.01
695.54	365.18
695.88	363.41
696.21	361.68
696.55	360.03
696.88	358.32
697.22	356.59
697.56	354.92
697.89	353.20
698.23	351.61
698.56	349.98
698.90	348.40
699.23	346.82
699.57	345.20
699.90	343.61
700.24	342.01
700.58	340.46
700.91	338.97
701.25	337.49
701.58	336.12
701.92	334.78
702.25	333.41
702.59	332.00
702.92	330.65
703.26	329.28
703.59	327.93
703.93	326.75
704.26	325.54
704.60	324.27
704.93	323.05
705.26	321.76
705.60	320.54
705.93	319.34
706.27	318.27
706.60	317.22
706.94	316.13
707.27	314.98
707.61	313.87
707.94	312.81
708.27	311.71
708.61	310.57
708.94	309.53
709.28	308.53
709.61	307.56
709.94	306.58
710.28	305.57
710.61	304.60
710.95	303.43
711.28	302.52
711.61	301.54
711.95	300.58
712.28	299.65
712.61	298.69
712.95	297.78
713.28	296.83
713.61	295.92
713.95	295.05
714.28	294.23
714.61	293.41
714.95	292.56
715.28	291.74
715.61	290.87
715.95	290.00
716.28	289.10
716.61	288.26
716.95	287.41
717.28	286.62
717.61	285.82
717.94	285.11
718.28	284.29
718.61	283.54
718.94	282.80
719.27	282.09
719.61	281.43
719.94	280.76
720.27	280.04
720.60	279.35
720.94	278.72
721.27	278.12
721.60	277.48
721.93	276.86
722.27	276.25
722.60	275.68
722.93	275.12
723.26	274.61
723.59	274.03
723.93	273.51
724.26	272.98
724.59	272.39
724.92	271.86
725.25	271.37
725.59	270.83
725.92	270.32
726.25	269.79
726.58	269.26
726.91	268.75
727.24	268.26
727.57	267.80
727.91	267.24
728.24	266.76
728.57	266.28
728.90	265.84
729.23	265.36
729.56	264.94
729.89	264.45
730.22	263.92
730.55	263.45
730.89	262.98
731.22	262.52
731.55	262.07
731.88	261.64
732.21	261.16
732.54	260.75
732.87	260.33
733.20	259.92
733.53	259.54
733.86	259.14
734.19	258.73
734.52	258.33
734.85	258.01
735.18	257.54
735.51	257.20
735.84	256.82
736.17	256.44
736.50	256.00
736.83	255.77
737.16	255.45
737.49	255.10
737.82	254.72
738.15	254.39
738.48	254.03
738.81	253.68
739.14	253.37
739.47	253.05
739.80	252.67
740.13	252.38
740.46	252.04
740.79	251.71
741.12	251.41
741.45	251.10
741.78	250.74
742.11	250.50
742.44	250.11
742.77	249.79
743.10	249.46
743.43	249.19
743.75	248.79
744.08	248.61
744.41	248.36
744.74	248.14
745.07	247.88
745.40	247.68
745.73	247.41
746.06	247.13
746.39	246.86
746.71	246.63
747.04	246.35
747.37	246.10
747.70	245.86
748.03	245.60
748.36	245.39
748.68	245.17
749.01	244.92
749.34	244.74
749.67	244.54
750.00	244.34
750.33	244.14
750.65	243.94
750.98	243.62
751.31	243.39
751.64	243.13
751.97	242.96
752.29	242.69
752.62	242.47
752.95	242.32
753.28	242.08
753.60	241.86
753.93	241.69
754.26	241.51
754.59	241.27
754.91	241.08
755.24	240.85
755.57	240.66
755.90	240.47
756.22	240.26
756.55	240.03
756.88	239.82
757.20	239.59
757.53	239.39
757.86	239.23
758.19	239.08
758.51	238.93
758.84	238.69
759.17	238.55
759.49	238.39
759.82	238.22
760.15	238.08
760.47	237.96
760.80	237.81
761.13	237.67
761.45	237.54
761.78	237.36
762.11	237.22
762.43	237.06
762.76	236.90
763.08	236.75
763.41	236.61
763.74	236.47
764.06	236.34
764.39	236.19
764.71	236.04
765.04	235.85
765.37	235.71
765.69	235.58
766.02	235.44
766.34	235.31
766.67	235.14
767.00	235.05
767.32	234.97
767.65	234.88
767.97	234.76
768.30	234.65
768.62	234.53
768.95	234.39
769.27	234.30
769.60	234.18
769.92	234.08
770.25	233.94
770.57	233.82
770.90	233.70
771.22	233.64
771.55	233.51
771.87	233.45
772.20	233.35
772.52	233.34
772.85	233.35
773.17	233.24
773.50	233.18
773.82	233.05
774.15	232.90
774.47	232.72
774.80	232.59
775.12	232.47
775.45	232.38
775.77	232.29
776.09	232.18
776.42	232.11
776.74	232.06
777.07	231.98
777.39	231.90
777.72	231.80
778.04	231.70
778.36	231.61
778.69	231.51
779.01	231.41
779.33	231.23
779.66	231.03
779.98	230.96
780.31	230.85
780.63	230.83
780.95	230.79
781.28	230.74
781.60	230.67
781.92	230.62
782.25	230.52
782.57	230.46
782.89	230.40
783.22	230.27
783.54	230.18
783.86	230.14
784.19	230.08
784.51	230.05
784.83	229.97
785.16	229.92
785.48	229.87
785.80	229.82
786.12	229.78
786.45	229.72
786.77	229.67
787.09	229.67
