SpectraSuite Data File
++++++++++++++++++++++++++++++++++++
Date: Fri Feb 01 15:46:35 EST 2013
User: group
Dark Spectrum Present: No
Reference Spectrum Present: No
Number of Sampled Component Spectra: 1
Spectrometers: USB2E7196
Integration Time (usec): 35000 (USB2E7196)
Spectra Averaged: 100 (USB2E7196)
Boxcar Smoothing: 10 (USB2E7196)
Correct for Electrical Dark: No (USB2E7196)
Strobe/Lamp Enabled: No (USB2E7196)
Correct for Detector Non-linearity: No (USB2E7196)
Correct for Stray Light: No (USB2E7196)
Number of Pixels in Processed Spectrum: 2048
>>>>>Begin Processed Spectral Data<<<<<
339.09	0.00
339.48	215.17
339.86	216.36
340.24	218.23
340.63	219.54
341.01	222.41
341.39	222.07
341.78	223.40
342.16	224.58
342.54	224.97
342.93	213.44
343.31	224.22
343.69	224.76
344.07	225.26
344.46	225.69
344.84	226.07
345.22	226.28
345.60	226.52
345.99	226.71
346.37	226.87
346.75	226.98
347.13	227.04
347.52	227.08
347.90	227.17
348.28	227.24
348.66	227.26
349.05	227.27
349.43	227.30
349.81	227.35
350.19	227.36
350.57	227.43
350.96	227.48
351.34	227.57
351.72	227.62
352.10	227.70
352.48	227.75
352.87	227.80
353.25	227.85
353.63	227.90
354.01	227.95
354.39	227.99
354.77	228.05
355.15	228.17
355.54	228.23
355.92	228.23
356.30	228.27
356.68	228.40
357.06	228.44
357.44	228.54
357.82	228.58
358.20	228.65
358.58	228.72
358.97	228.77
359.35	228.81
359.73	228.90
360.11	228.93
360.49	228.97
360.87	228.98
361.25	229.07
361.63	229.14
362.01	229.18
362.39	229.22
362.77	229.24
363.15	229.25
363.53	229.27
363.91	229.32
364.29	229.33
364.67	229.24
365.05	229.24
365.43	229.21
365.81	229.22
366.19	229.25
366.57	229.26
366.95	229.26
367.33	229.26
367.71	229.24
368.09	229.23
368.47	229.24
368.85	229.19
369.23	229.15
369.61	229.09
369.99	229.08
370.37	229.01
370.75	229.04
371.13	229.00
371.51	228.93
371.89	228.90
372.27	228.84
372.65	228.80
373.03	228.79
373.41	228.72
373.78	228.65
374.16	228.57
374.54	228.46
374.92	228.40
375.30	228.32
375.68	228.22
376.06	228.18
376.44	228.07
376.82	228.06
377.19	227.99
377.57	227.92
377.95	227.83
378.33	227.78
378.71	227.66
379.09	227.60
379.47	227.57
379.84	227.47
380.22	227.41
380.60	227.33
380.98	227.25
381.36	227.18
381.73	227.12
382.11	227.05
382.49	227.00
382.87	226.92
383.25	226.85
383.62	226.94
384.00	226.85
384.38	226.81
384.76	226.76
385.13	226.76
385.51	226.72
385.89	226.71
386.27	226.64
386.64	226.61
387.02	226.53
387.40	226.50
387.78	226.48
388.15	226.46
388.53	226.43
388.91	226.40
389.29	226.38
389.66	226.39
390.04	226.38
390.42	226.37
390.79	226.41
391.17	226.40
391.55	226.24
391.92	226.23
392.30	226.27
392.68	226.27
393.05	226.26
393.43	226.30
393.81	226.31
394.18	226.34
394.56	226.34
394.94	226.43
395.31	226.44
395.69	226.49
396.06	226.53
396.44	226.58
396.82	226.64
397.19	226.75
397.57	226.81
397.95	226.87
398.32	226.92
398.70	226.95
399.07	227.05
399.45	227.13
399.82	227.20
400.20	227.27
400.58	227.32
400.95	227.35
401.33	227.42
401.70	227.57
402.08	227.65
402.45	227.74
402.83	227.83
403.20	227.91
403.58	228.01
403.95	228.15
404.33	228.28
404.71	228.41
405.08	228.57
405.46	228.68
405.83	228.80
406.21	228.93
406.58	229.13
406.96	229.27
407.33	229.45
407.70	229.62
408.08	229.89
408.45	230.14
408.83	230.39
409.20	230.60
409.58	230.75
409.95	231.03
410.33	231.31
410.70	231.55
411.08	231.88
411.45	232.18
411.82	232.49
412.20	232.83
412.57	233.21
412.95	233.48
413.32	233.89
413.69	234.34
414.07	234.81
414.44	235.26
414.82	235.73
415.19	236.27
415.56	236.82
415.94	237.34
416.31	237.95
416.68	238.58
417.06	239.30
417.43	239.99
417.81	240.77
418.18	241.56
418.55	242.39
418.93	243.29
419.30	244.19
419.67	245.11
420.04	246.05
420.42	247.04
420.79	248.24
421.16	249.37
421.54	250.55
421.91	251.77
422.28	252.99
422.66	254.30
423.03	255.64
423.40	256.98
423.77	258.40
424.15	259.84
424.52	261.32
424.89	262.93
425.26	264.49
425.64	265.96
426.01	267.55
426.38	269.21
426.75	270.82
427.13	272.55
427.50	274.33
427.87	276.22
428.24	278.07
428.61	279.82
428.99	281.80
429.36	283.89
429.73	285.92
430.10	287.97
430.47	290.08
430.85	292.19
431.22	294.43
431.59	296.80
431.96	299.02
432.33	301.49
432.70	303.90
433.08	306.71
433.45	309.34
433.82	311.97
434.19	314.87
434.56	317.74
434.93	320.42
435.30	323.10
435.68	326.05
436.05	328.88
436.42	331.63
436.79	334.18
437.16	336.90
437.53	339.77
437.90	342.56
438.27	345.31
438.64	348.16
439.01	350.75
439.38	353.02
439.75	355.21
440.13	357.77
440.50	360.11
440.87	361.95
441.24	363.95
441.61	366.07
441.98	367.53
442.35	369.30
442.72	371.16
443.09	372.94
443.46	373.88
443.83	374.45
444.20	375.01
444.57	375.77
444.94	376.06
445.31	376.37
445.68	376.72
446.05	376.76
446.42	376.38
446.79	375.94
447.16	375.47
447.53	375.16
447.90	373.96
448.27	372.72
448.64	371.13
449.01	369.94
449.37	367.94
449.74	366.04
450.11	363.81
450.48	361.32
450.85	358.81
451.22	356.68
451.59	354.66
451.96	352.69
452.33	350.12
452.70	347.72
453.07	344.89
453.43	342.01
453.80	339.25
454.17	336.54
454.54	334.02
454.91	331.26
455.28	328.58
455.65	326.10
456.02	323.68
456.38	321.55
456.75	318.85
457.12	316.60
457.49	314.39
457.86	312.23
458.23	310.38
458.59	308.31
458.96	306.19
459.33	304.33
459.70	302.47
460.07	300.94
460.43	299.25
460.80	297.63
461.17	296.16
461.54	294.67
461.91	293.26
462.27	291.79
462.64	290.58
463.01	289.18
463.38	287.89
463.74	286.52
464.11	285.36
464.48	284.36
464.85	283.24
465.21	282.35
465.58	281.39
465.95	280.26
466.32	279.33
466.68	278.45
467.05	277.59
467.42	276.70
467.78	275.73
468.15	274.85
468.52	274.18
468.88	273.34
469.25	272.59
469.62	271.96
469.98	271.30
470.35	270.66
470.72	270.06
471.08	269.37
471.45	268.82
471.82	268.24
472.18	267.65
472.55	267.25
472.92	266.75
473.28	266.29
473.65	265.84
474.02	265.38
474.38	265.01
474.75	264.65
475.11	264.31
475.48	264.11
475.85	263.89
476.21	263.64
476.58	263.44
476.94	263.26
477.31	263.10
477.67	262.91
478.04	262.82
478.41	262.78
478.77	262.84
479.14	262.79
479.50	262.78
479.87	262.85
480.23	262.93
480.60	263.00
480.96	263.10
481.33	263.30
481.69	263.53
482.06	263.73
482.42	263.96
482.79	264.23
483.15	264.57
483.52	264.92
483.88	265.27
484.25	265.69
484.61	266.11
484.98	266.56
485.34	267.16
485.71	267.75
486.07	268.34
486.44	268.89
486.80	269.62
487.17	270.36
487.53	271.21
487.90	272.06
488.26	273.00
488.62	273.98
488.99	274.99
489.35	276.04
489.72	277.16
490.08	278.34
490.44	279.57
490.81	280.89
491.17	282.27
491.54	283.78
491.90	285.34
492.26	287.00
492.63	288.72
492.99	290.47
493.36	292.37
493.72	294.42
494.08	296.52
494.45	298.78
494.81	301.17
495.17	303.56
495.54	306.14
495.90	308.83
496.26	311.63
496.63	314.61
496.99	317.75
497.35	321.02
497.72	324.43
498.08	327.94
498.44	331.61
498.80	335.53
499.17	339.51
499.53	343.66
499.89	348.02
500.26	352.53
500.62	357.23
500.98	362.18
501.34	367.27
501.71	372.65
502.07	378.08
502.43	383.69
502.79	389.52
503.16	395.57
503.52	401.89
503.88	408.33
504.24	414.97
504.60	421.90
504.97	429.07
505.33	436.45
505.69	444.17
506.05	451.93
506.41	459.80
506.78	468.01
507.14	476.46
507.50	485.17
507.86	494.21
508.22	503.40
508.59	512.61
508.95	522.21
509.31	531.93
509.67	542.07
510.03	552.38
510.39	562.96
510.75	573.80
511.12	584.77
511.48	596.09
511.84	607.53
512.20	618.99
512.56	630.91
512.92	643.10
513.28	655.46
513.64	667.97
514.00	680.69
514.37	693.65
514.73	706.75
515.09	719.82
515.45	733.03
515.81	746.66
516.17	760.74
516.53	774.87
516.89	789.12
517.25	803.20
517.61	817.59
517.97	832.04
518.33	846.44
518.69	861.18
519.05	876.09
519.41	891.32
519.77	906.89
520.13	922.40
520.49	937.73
520.85	953.26
521.21	969.00
521.57	985.24
521.93	1001.05
522.29	1017.54
522.65	1033.78
523.01	1050.12
523.37	1066.09
523.73	1082.17
524.09	1098.26
524.45	1114.60
524.81	1131.23
525.17	1148.06
525.53	1164.95
525.89	1181.81
526.25	1198.64
526.61	1215.03
526.97	1231.74
527.33	1248.17
527.68	1264.79
528.04	1281.31
528.40	1297.76
528.76	1314.81
529.12	1331.45
529.48	1348.23
529.84	1364.22
530.20	1380.92
530.56	1398.07
530.91	1415.61
531.27	1432.34
531.63	1448.83
531.99	1465.45
532.35	1481.51
532.71	1497.42
533.07	1513.68
533.42	1529.51
533.78	1545.49
534.14	1561.90
534.50	1577.25
534.86	1593.21
535.21	1608.43
535.57	1624.32
535.93	1639.94
536.29	1654.73
536.65	1669.78
537.00	1684.59
537.36	1699.93
537.72	1714.41
538.08	1728.70
538.44	1742.36
538.79	1756.41
539.15	1770.05
539.51	1783.78
539.87	1798.20
540.22	1811.85
540.58	1825.73
540.94	1839.24
541.29	1852.30
541.65	1864.83
542.01	1877.95
542.37	1890.24
542.72	1902.65
543.08	1914.50
543.44	1926.78
543.79	1938.07
544.15	1949.01
544.51	1960.57
544.87	1971.58
545.22	1982.48
545.58	1992.59
545.94	2002.54
546.29	2012.37
546.65	2022.27
547.01	2031.41
547.36	2040.16
547.72	2048.73
548.07	2056.53
548.43	2064.67
548.79	2072.60
549.14	2080.24
549.50	2087.73
549.86	2095.55
550.21	2102.84
550.57	2109.97
550.92	2116.66
551.28	2123.69
551.64	2130.71
551.99	2137.33
552.35	2143.31
552.70	2149.42
553.06	2155.50
553.41	2161.78
553.77	2167.79
554.13	2173.84
554.48	2180.12
554.84	2185.38
555.19	2190.65
555.55	2195.74
555.90	2200.15
556.26	2205.08
556.61	2209.84
556.97	2213.98
557.32	2217.97
557.68	2222.02
558.03	2226.29
558.39	2230.10
558.74	2234.77
559.10	2238.84
559.45	2242.51
559.81	2246.90
560.16	2250.78
560.52	2253.98
560.87	2257.37
561.23	2260.09
561.58	2263.04
561.94	2265.45
562.29	2267.94
562.64	2270.64
563.00	2273.34
563.35	2276.82
563.71	2279.84
564.06	2282.98
564.42	2285.94
564.77	2288.26
565.12	2290.49
565.48	2292.39
565.83	2294.12
566.19	2295.28
566.54	2296.18
566.89	2297.24
567.25	2297.71
567.60	2298.97
567.96	2300.63
568.31	2301.53
568.66	2302.55
569.02	2303.16
569.37	2303.52
569.72	2304.29
570.08	2304.50
570.43	2304.45
570.78	2303.76
571.14	2302.40
571.49	2301.15
571.84	2300.89
572.20	2299.73
572.55	2298.78
572.90	2297.24
573.26	2295.76
573.61	2294.24
573.96	2292.35
574.31	2289.16
574.67	2286.16
575.02	2282.53
575.37	2279.18
575.72	2275.13
576.08	2271.78
576.43	2268.39
576.78	2264.68
577.13	2261.60
577.49	2258.42
577.84	2254.96
578.19	2251.36
578.54	2247.64
578.90	2243.29
579.25	2237.60
579.60	2232.71
579.95	2227.62
580.30	2222.68
580.66	2217.52
581.01	2212.50
581.36	2207.59
581.71	2203.59
582.06	2199.17
582.42	2194.69
582.77	2189.40
583.12	2184.94
583.47	2180.04
583.82	2175.01
584.17	2169.65
584.53	2163.96
584.88	2158.39
585.23	2152.54
585.58	2147.05
585.93	2141.49
586.28	2136.78
586.63	2131.75
586.98	2126.67
587.34	2122.06
587.69	2117.06
588.04	2111.87
588.39	2106.03
588.74	2099.47
589.09	2093.31
589.44	2086.38
589.79	2080.45
590.14	2074.87
590.49	2068.26
590.84	2062.01
591.19	2055.89
591.54	2049.61
591.89	2042.24
592.25	2035.26
592.60	2028.09
592.95	2020.36
593.30	2013.03
593.65	2005.39
594.00	1998.31
594.35	1991.11
594.70	1983.04
595.05	1975.66
595.40	1968.34
595.75	1960.92
596.10	1954.71
596.45	1947.98
596.80	1941.88
597.15	1935.03
597.50	1927.85
597.85	1921.45
598.19	1914.81
598.54	1907.69
598.89	1900.99
599.24	1895.09
599.59	1888.39
599.94	1882.20
600.29	1875.89
600.64	1869.30
600.99	1861.77
601.34	1854.92
601.69	1848.06
602.04	1841.04
602.39	1833.73
602.74	1826.70
603.08	1819.87
603.43	1813.10
603.78	1805.63
604.13	1798.40
604.48	1791.22
604.83	1784.30
605.18	1777.18
605.53	1769.16
605.87	1761.22
606.22	1753.93
606.57	1746.05
606.92	1738.72
607.27	1731.48
607.62	1724.60
607.96	1717.25
608.31	1710.69
608.66	1703.09
609.01	1695.44
609.36	1687.89
609.70	1679.99
610.05	1672.06
610.40	1664.34
610.75	1655.99
611.10	1648.40
611.44	1640.09
611.79	1632.08
612.14	1623.47
612.49	1614.32
612.83	1605.92
613.18	1597.69
613.53	1589.56
613.88	1581.09
614.22	1572.86
614.57	1564.27
614.92	1556.19
615.27	1548.69
615.61	1540.23
615.96	1532.18
616.31	1524.57
616.65	1517.23
617.00	1509.65
617.35	1502.08
617.70	1493.81
618.04	1485.40
618.39	1477.15
618.74	1469.41
619.08	1461.09
619.43	1453.45
619.78	1446.63
620.12	1439.43
620.47	1431.97
620.82	1423.80
621.16	1416.34
621.51	1408.81
621.85	1401.12
622.20	1392.52
622.55	1384.09
622.89	1376.38
623.24	1368.67
623.59	1361.32
623.93	1353.74
624.28	1346.47
624.62	1338.88
624.97	1331.65
625.32	1324.87
625.66	1317.89
626.01	1310.80
626.35	1303.29
626.70	1295.59
627.04	1287.86
627.39	1280.05
627.73	1272.64
628.08	1265.69
628.43	1258.24
628.77	1250.74
629.12	1243.22
629.46	1236.09
629.81	1228.74
630.15	1221.44
630.50	1214.05
630.84	1205.74
631.19	1197.88
631.53	1190.40
631.88	1182.83
632.22	1175.26
632.57	1167.98
632.91	1160.36
633.26	1152.88
633.60	1145.52
633.95	1138.43
634.29	1131.35
634.64	1124.65
634.98	1117.28
635.32	1110.22
635.67	1103.72
636.01	1097.12
636.36	1090.31
636.70	1083.82
637.05	1077.19
637.39	1070.75
637.73	1064.30
638.08	1058.50
638.42	1052.53
638.77	1046.03
639.11	1039.40
639.45	1033.04
639.80	1026.32
640.14	1019.94
640.49	1013.40
640.83	1007.06
641.17	1000.80
641.52	994.39
641.86	987.99
642.20	982.08
642.55	975.78
642.89	969.27
643.23	962.79
643.58	957.04
643.92	950.81
644.26	944.71
644.61	938.64
644.95	932.53
645.29	925.78
645.64	919.00
645.98	912.68
646.32	906.85
646.66	900.86
647.01	895.05
647.35	889.35
647.69	883.60
648.04	878.13
648.38	872.31
648.72	866.35
649.06	860.32
649.41	854.53
649.75	848.47
650.09	842.57
650.43	836.71
650.78	830.59
651.12	824.63
651.46	818.88
651.80	813.13
652.14	807.74
652.49	802.45
652.83	797.25
653.17	791.56
653.51	785.79
653.85	780.37
654.20	774.72
654.54	768.69
654.88	762.89
655.22	756.97
655.56	751.30
655.90	745.88
656.25	740.56
656.59	735.17
656.93	730.11
657.27	724.96
657.61	719.53
657.95	714.32
658.29	709.26
658.64	704.12
658.98	698.78
659.32	693.35
659.66	688.17
660.00	682.81
660.34	677.91
660.68	673.07
661.02	667.95
661.36	663.23
661.70	658.71
662.05	654.38
662.39	650.12
662.73	645.70
663.07	641.36
663.41	636.92
663.75	632.39
664.09	627.86
664.43	623.46
664.77	619.34
665.11	615.11
665.45	610.98
665.79	606.89
666.13	602.80
666.47	598.76
666.81	594.52
667.15	590.43
667.49	586.48
667.83	582.69
668.17	578.84
668.51	574.82
668.85	570.86
669.19	566.96
669.53	563.04
669.87	559.11
670.21	555.32
670.55	551.74
670.89	548.44
671.23	544.98
671.57	541.44
671.91	537.93
672.25	534.46
672.58	530.96
672.92	527.54
673.26	524.37
673.60	521.19
673.94	518.07
674.28	515.24
674.62	512.32
674.96	509.20
675.30	506.27
675.64	503.30
675.97	500.51
676.31	497.65
676.65	494.75
676.99	492.04
677.33	489.20
677.67	486.38
678.01	483.20
678.34	480.19
678.68	477.35
679.02	474.46
679.36	471.71
679.70	468.98
680.04	466.24
680.37	463.37
680.71	460.62
681.05	458.04
681.39	455.28
681.73	452.57
682.06	450.01
682.40	447.44
682.74	444.91
683.08	442.35
683.42	439.77
683.75	437.24
684.09	434.67
684.43	432.25
684.77	429.77
685.10	427.52
685.44	425.29
685.78	422.99
686.12	420.80
686.45	418.44
686.79	416.16
687.13	413.96
687.46	411.76
687.80	409.56
688.14	407.40
688.48	405.28
688.81	403.04
689.15	400.87
689.49	398.72
689.82	396.65
690.16	394.57
690.50	392.64
690.83	390.74
691.17	388.79
691.51	386.84
691.84	384.97
692.18	382.96
692.52	380.89
692.85	378.97
693.19	377.09
693.52	375.31
693.86	373.47
694.20	371.70
694.53	369.91
694.87	368.09
695.21	366.24
695.54	364.49
695.88	362.77
696.21	361.10
696.55	359.45
696.88	357.76
697.22	356.13
697.56	354.47
697.89	352.75
698.23	351.14
698.56	349.52
698.90	347.95
699.23	346.35
699.57	344.84
699.90	343.30
700.24	341.75
700.58	340.19
700.91	338.66
701.25	337.21
701.58	335.85
701.92	334.46
702.25	333.08
702.59	331.67
702.92	330.36
703.26	329.06
703.59	327.78
703.93	326.61
704.26	325.37
704.60	324.07
704.93	322.80
705.26	321.59
705.60	320.42
705.93	319.24
706.27	318.18
706.60	317.13
706.94	315.99
707.27	314.85
707.61	313.80
707.94	312.86
708.27	311.78
708.61	310.72
708.94	309.76
709.28	308.78
709.61	307.83
709.94	306.92
710.28	305.88
710.61	304.86
710.95	303.79
711.28	302.86
711.61	301.92
711.95	301.03
712.28	300.05
712.61	299.06
712.95	298.19
713.28	297.35
713.61	296.42
713.95	295.57
714.28	294.73
714.61	293.88
714.95	293.00
715.28	292.16
715.61	291.29
715.95	290.43
716.28	289.62
716.61	288.83
716.95	287.99
717.28	287.25
717.61	286.48
717.94	285.73
718.28	284.96
718.61	284.24
718.94	283.57
719.27	282.95
719.61	282.31
719.94	281.63
720.27	280.89
720.60	280.28
720.94	279.64
721.27	279.05
721.60	278.50
721.93	277.90
722.27	277.35
722.60	276.81
722.93	276.21
723.26	275.66
723.59	275.10
723.93	274.53
724.26	273.97
724.59	273.44
724.92	272.89
725.25	272.35
725.59	271.83
725.92	271.31
726.25	270.83
726.58	270.36
726.91	269.88
727.24	269.42
727.57	268.94
727.91	268.44
728.24	267.96
728.57	267.44
728.90	267.00
729.23	266.47
729.56	266.04
729.89	265.58
730.22	265.07
730.55	264.59
730.89	264.16
731.22	263.71
731.55	263.25
731.88	262.84
732.21	262.42
732.54	262.00
732.87	261.55
733.20	261.12
733.53	260.73
733.86	260.32
734.19	259.94
734.52	259.56
734.85	259.29
735.18	258.87
735.51	258.51
735.84	258.12
736.17	257.76
736.50	257.34
736.83	257.09
737.16	256.80
737.49	256.48
737.82	256.13
738.15	255.80
738.48	255.46
738.81	255.15
739.14	254.83
739.47	254.49
739.80	254.20
740.13	253.87
740.46	253.53
740.79	253.22
741.12	252.91
741.45	252.61
741.78	252.26
742.11	252.00
742.44	251.68
742.77	251.38
743.10	251.10
743.43	250.80
743.75	250.42
744.08	250.25
744.41	249.99
744.74	249.72
745.07	249.44
745.40	249.18
745.73	248.92
746.06	248.65
746.39	248.37
746.71	248.10
747.04	247.80
747.37	247.56
747.70	247.33
748.03	247.04
748.36	246.78
748.68	246.54
749.01	246.28
749.34	246.10
749.67	245.90
750.00	245.68
750.33	245.53
750.65	245.34
750.98	245.01
751.31	244.79
751.64	244.57
751.97	244.42
752.29	244.20
752.62	243.96
752.95	243.76
753.28	243.57
753.60	243.36
753.93	243.28
754.26	243.07
754.59	242.83
754.91	242.63
755.24	242.45
755.57	242.25
755.90	242.04
756.22	241.83
756.55	241.62
756.88	241.40
757.20	241.18
757.53	240.97
757.86	240.78
758.19	240.61
758.51	240.41
758.84	240.18
759.17	240.03
759.49	239.90
759.82	239.77
760.15	239.62
760.47	239.45
760.80	239.22
761.13	239.10
761.45	238.94
761.78	238.80
762.11	238.67
762.43	238.51
762.76	238.38
763.08	238.23
763.41	238.08
763.74	237.96
764.06	237.83
764.39	237.70
764.71	237.56
765.04	237.41
765.37	237.27
765.69	237.14
766.02	237.01
766.34	236.85
766.67	236.68
767.00	236.58
767.32	236.56
767.65	236.48
767.97	236.35
768.30	236.22
768.62	236.13
768.95	236.01
769.27	235.90
769.60	235.80
769.92	235.69
770.25	235.58
770.57	235.45
770.90	235.36
771.22	235.22
771.55	235.12
771.87	235.02
772.20	234.93
772.52	234.93
772.85	234.92
773.17	234.84
773.50	234.73
773.82	234.61
774.15	234.43
774.47	234.27
774.80	234.14
775.12	234.06
775.45	233.96
775.77	233.83
776.09	233.74
776.42	233.68
776.74	233.64
777.07	233.55
777.39	233.48
777.72	233.36
778.04	233.33
778.36	233.23
778.69	233.20
779.01	233.12
779.33	232.95
779.66	232.77
779.98	232.70
780.31	232.69
780.63	232.69
780.95	232.64
781.28	232.63
781.60	232.58
781.92	232.52
782.25	232.44
782.57	232.40
782.89	232.31
783.22	232.22
783.54	232.13
783.86	232.09
784.19	232.03
784.51	232.00
784.83	231.95
785.16	231.91
785.48	231.84
785.80	231.79
786.12	231.78
786.45	231.76
786.77	231.71
787.09	231.63
