SpectraSuite Data File
++++++++++++++++++++++++++++++++++++
Date: Fri Feb 01 17:41:48 EST 2013
User: group
Dark Spectrum Present: No
Reference Spectrum Present: No
Number of Sampled Component Spectra: 1
Spectrometers: USB2E7196
Integration Time (usec): 35000 (USB2E7196)
Spectra Averaged: 100 (USB2E7196)
Boxcar Smoothing: 10 (USB2E7196)
Correct for Electrical Dark: No (USB2E7196)
Strobe/Lamp Enabled: No (USB2E7196)
Correct for Detector Non-linearity: No (USB2E7196)
Correct for Stray Light: No (USB2E7196)
Number of Pixels in Processed Spectrum: 2048
>>>>>Begin Processed Spectral Data<<<<<
339.09	0.00
339.48	212.30
339.86	214.49
340.24	215.70
340.63	216.86
341.01	219.43
341.39	219.65
341.78	220.51
342.16	222.41
342.54	223.06
342.93	211.21
343.31	221.86
343.69	222.41
344.07	222.90
344.46	223.32
344.84	223.70
345.22	223.95
345.60	224.19
345.99	224.39
346.37	224.50
346.75	224.59
347.13	224.64
347.52	224.71
347.90	224.77
348.28	224.74
348.66	224.79
349.05	224.77
349.43	224.83
349.81	224.87
350.19	224.90
350.57	224.93
350.96	225.01
351.34	225.13
351.72	225.23
352.10	225.29
352.48	225.38
352.87	225.42
353.25	225.47
353.63	225.53
354.01	225.58
354.39	225.68
354.77	225.73
355.15	225.88
355.54	225.91
355.92	225.98
356.30	226.07
356.68	226.22
357.06	226.29
357.44	226.30
357.82	226.36
358.20	226.45
358.58	226.54
358.97	226.61
359.35	226.70
359.73	226.77
360.11	226.83
360.49	226.87
360.87	226.95
361.25	227.07
361.63	227.18
362.01	227.27
362.39	227.27
362.77	227.32
363.15	227.32
363.53	227.37
363.91	227.38
364.29	227.44
364.67	227.34
365.05	227.39
365.43	227.41
365.81	227.45
366.19	227.48
366.57	227.53
366.95	227.54
367.33	227.49
367.71	227.47
368.09	227.47
368.47	227.47
368.85	227.42
369.23	227.39
369.61	227.31
369.99	227.32
370.37	227.32
370.75	227.37
371.13	227.34
371.51	227.28
371.89	227.27
372.27	227.21
372.65	227.19
373.03	227.14
373.41	227.13
373.78	227.07
374.16	227.00
374.54	226.87
374.92	226.80
375.30	226.74
375.68	226.71
376.06	226.69
376.44	226.62
376.82	226.58
377.19	226.52
377.57	226.43
377.95	226.31
378.33	226.22
378.71	226.08
379.09	226.04
379.47	225.98
379.84	225.91
380.22	225.86
380.60	225.76
380.98	225.71
381.36	225.62
381.73	225.54
382.11	225.50
382.49	225.47
382.87	225.43
383.25	225.35
383.62	225.37
384.00	225.28
384.38	225.23
384.76	225.19
385.13	225.18
385.51	225.15
385.89	225.08
386.27	225.07
386.64	225.05
387.02	224.96
387.40	224.91
387.78	224.85
388.15	224.81
388.53	224.77
388.91	224.69
389.29	224.63
389.66	224.62
390.04	224.57
390.42	224.52
390.79	224.49
391.17	224.48
391.55	224.39
391.92	224.38
392.30	224.39
392.68	224.37
393.05	224.34
393.43	224.34
393.81	224.37
394.18	224.33
394.56	224.33
394.94	224.36
395.31	224.38
395.69	224.45
396.06	224.45
396.44	224.50
396.82	224.57
397.19	224.66
397.57	224.72
397.95	224.79
398.32	224.83
398.70	224.92
399.07	225.00
399.45	225.04
399.82	225.08
400.20	225.15
400.58	225.22
400.95	225.26
401.33	225.37
401.70	225.51
402.08	225.62
402.45	225.71
402.83	225.85
403.20	225.93
403.58	225.99
403.95	226.13
404.33	226.27
404.71	226.38
405.08	226.57
405.46	226.70
405.83	226.83
406.21	227.01
406.58	227.17
406.96	227.32
407.33	227.51
407.70	227.71
408.08	227.98
408.45	228.22
408.83	228.45
409.20	228.71
409.58	228.93
409.95	229.21
410.33	229.50
410.70	229.75
411.08	230.12
411.45	230.49
411.82	230.83
412.20	231.20
412.57	231.67
412.95	232.02
413.32	232.48
413.69	232.95
414.07	233.43
414.44	233.93
414.82	234.47
415.19	235.09
415.56	235.73
415.94	236.36
416.31	237.12
416.68	237.86
417.06	238.66
417.43	239.42
417.81	240.33
418.18	241.24
418.55	242.22
418.93	243.20
419.30	244.21
419.67	245.29
420.04	246.39
420.42	247.56
420.79	248.88
421.16	250.21
421.54	251.56
421.91	252.95
422.28	254.39
422.66	255.94
423.03	257.44
423.40	258.98
423.77	260.62
424.15	262.25
424.52	263.95
424.89	265.77
425.26	267.57
425.64	269.25
426.01	271.05
426.38	272.96
426.75	274.93
427.13	276.90
427.50	278.99
427.87	281.18
428.24	283.27
428.61	285.33
428.99	287.55
429.36	289.97
429.73	292.36
430.10	294.70
430.47	297.01
430.85	299.46
431.22	302.02
431.59	304.73
431.96	307.29
432.33	310.12
432.70	312.87
433.08	316.08
433.45	319.11
433.82	322.10
434.19	325.40
434.56	328.59
434.93	331.64
435.30	334.65
435.68	337.96
436.05	341.22
436.42	344.36
436.79	347.27
437.16	350.37
437.53	353.66
437.90	356.87
438.27	360.08
438.64	363.35
439.01	366.31
439.38	368.89
439.75	371.39
440.13	374.30
440.50	377.00
440.87	379.10
441.24	381.36
441.61	383.87
441.98	385.58
442.35	387.68
442.72	389.82
443.09	391.93
443.46	393.07
443.83	393.80
444.20	394.48
444.57	395.47
444.94	395.82
445.31	396.21
445.68	396.62
446.05	396.69
446.42	396.25
446.79	395.78
447.16	395.27
447.53	394.97
447.90	393.64
448.27	392.31
448.64	390.56
449.01	389.21
449.37	386.99
449.74	384.82
450.11	382.27
450.48	379.46
450.85	376.57
451.22	374.14
451.59	371.83
451.96	369.57
452.33	366.57
452.70	363.88
453.07	360.60
453.43	357.31
453.80	354.14
454.17	351.06
454.54	348.12
454.91	344.97
455.28	341.84
455.65	338.96
456.02	336.09
456.38	333.60
456.75	330.55
457.12	327.92
457.49	325.39
457.86	322.87
458.23	320.71
458.59	318.32
458.96	315.89
459.33	313.73
459.70	311.56
460.07	309.81
460.43	307.80
460.80	305.91
461.17	304.23
461.54	302.45
461.91	300.82
462.27	299.18
462.64	297.75
463.01	296.16
463.38	294.68
463.74	293.15
464.11	291.79
464.48	290.62
464.85	289.32
465.21	288.30
465.58	287.22
465.95	285.94
466.32	284.90
466.68	283.85
467.05	282.85
467.42	281.84
467.78	280.76
468.15	279.77
468.52	279.02
468.88	278.04
469.25	277.19
469.62	276.45
469.98	275.67
470.35	274.97
470.72	274.29
471.08	273.50
471.45	272.84
471.82	272.20
472.18	271.50
472.55	271.03
472.92	270.44
473.28	269.90
473.65	269.39
474.02	268.88
474.38	268.42
474.75	267.99
475.11	267.58
475.48	267.26
475.85	266.96
476.21	266.67
476.58	266.45
476.94	266.28
477.31	266.06
477.67	265.87
478.04	265.71
478.41	265.60
478.77	265.62
479.14	265.57
479.50	265.55
479.87	265.55
480.23	265.60
480.60	265.59
480.96	265.66
481.33	265.85
481.69	266.02
482.06	266.23
482.42	266.42
482.79	266.65
483.15	266.97
483.52	267.36
483.88	267.69
484.25	268.08
484.61	268.47
484.98	268.90
485.34	269.46
485.71	270.05
486.07	270.63
486.44	271.23
486.80	271.94
487.17	272.70
487.53	273.55
487.90	274.36
488.26	275.32
488.62	276.33
488.99	277.31
489.35	278.37
489.72	279.48
490.08	280.70
490.44	281.96
490.81	283.32
491.17	284.68
491.54	286.22
491.90	287.72
492.26	289.39
492.63	291.15
492.99	292.95
493.36	294.84
493.72	296.90
494.08	299.05
494.45	301.29
494.81	303.67
495.17	306.15
495.54	308.75
495.90	311.51
496.26	314.31
496.63	317.31
496.99	320.45
497.35	323.81
497.72	327.24
498.08	330.78
498.44	334.46
498.80	338.45
499.17	342.50
499.53	346.73
499.89	351.15
500.26	355.71
500.62	360.41
500.98	365.43
501.34	370.60
501.71	375.89
502.07	381.41
502.43	387.06
502.79	392.88
503.16	399.02
503.52	405.33
503.88	411.82
504.24	418.48
504.60	425.41
504.97	432.57
505.33	439.95
505.69	447.75
506.05	455.66
506.41	463.54
506.78	471.71
507.14	480.29
507.50	489.08
507.86	498.20
508.22	507.55
508.59	516.81
508.95	526.52
509.31	536.44
509.67	546.61
510.03	556.98
510.39	567.65
510.75	578.56
511.12	589.58
511.48	601.04
511.84	612.62
512.20	624.24
512.56	636.31
512.92	648.51
513.28	660.98
513.64	673.56
514.00	686.43
514.37	699.61
514.73	712.86
515.09	725.95
515.45	739.40
515.81	753.04
516.17	767.17
516.53	781.35
516.89	795.76
517.25	810.05
517.61	824.75
517.97	839.40
518.33	853.95
518.69	868.92
519.05	883.97
519.41	899.30
519.77	915.03
520.13	930.75
520.49	946.45
520.85	962.02
521.21	977.83
521.57	994.30
521.93	1010.30
522.29	1026.86
522.65	1043.44
523.01	1059.81
523.37	1076.21
523.73	1092.61
524.09	1109.02
524.45	1125.54
524.81	1142.45
525.17	1159.50
525.53	1176.65
525.89	1193.93
526.25	1211.07
526.61	1227.84
526.97	1244.97
527.33	1261.72
527.68	1278.50
528.04	1295.34
528.40	1312.26
528.76	1329.76
529.12	1346.74
529.48	1363.91
529.84	1380.26
530.20	1397.22
530.56	1414.65
530.91	1432.31
531.27	1449.53
531.63	1466.40
531.99	1483.44
532.35	1500.02
532.71	1516.40
533.07	1533.14
533.42	1549.53
533.78	1566.19
534.14	1582.85
534.50	1598.77
534.86	1615.22
535.21	1631.11
535.57	1647.46
535.93	1663.54
536.29	1678.76
536.65	1694.40
537.00	1709.78
537.36	1725.81
537.72	1741.00
538.08	1756.13
538.44	1770.58
538.79	1785.21
539.15	1799.48
539.51	1813.83
539.87	1828.89
540.22	1843.27
540.58	1857.71
540.94	1871.56
541.29	1884.84
541.65	1898.28
542.01	1912.15
542.37	1925.30
542.72	1938.27
543.08	1950.99
543.44	1964.19
543.79	1976.52
544.15	1988.36
544.51	2000.77
544.87	2012.53
545.22	2024.23
545.58	2035.29
545.94	2045.98
546.29	2056.75
546.65	2067.57
547.01	2077.91
547.36	2087.48
547.72	2096.85
548.07	2105.82
548.43	2114.93
548.79	2123.81
549.14	2132.44
549.50	2140.51
549.86	2148.87
550.21	2157.12
550.57	2165.09
550.92	2172.51
551.28	2180.37
551.64	2188.22
551.99	2195.63
552.35	2202.84
552.70	2209.72
553.06	2216.51
553.41	2223.75
553.77	2230.51
554.13	2237.38
554.48	2244.32
554.84	2250.75
555.19	2256.73
555.55	2262.61
555.90	2268.03
556.26	2274.05
556.61	2279.51
556.97	2284.97
557.32	2290.12
557.68	2295.27
558.03	2300.35
558.39	2304.77
558.74	2310.05
559.10	2314.65
559.45	2319.14
559.81	2324.03
560.16	2328.77
560.52	2332.84
560.87	2336.94
561.23	2340.29
561.58	2343.88
561.94	2347.10
562.29	2349.97
562.64	2353.68
563.00	2357.03
563.35	2361.23
563.71	2365.03
564.06	2368.87
564.42	2372.48
564.77	2375.68
565.12	2378.79
565.48	2381.48
565.83	2384.24
566.19	2386.44
566.54	2387.99
566.89	2389.96
567.25	2391.25
567.60	2393.11
567.96	2395.73
568.31	2397.14
568.66	2399.13
569.02	2400.35
569.37	2401.27
569.72	2402.78
570.08	2403.46
570.43	2403.90
570.78	2403.90
571.14	2402.92
571.49	2401.95
571.84	2401.88
572.20	2401.31
572.55	2400.45
572.90	2399.23
573.26	2398.24
573.61	2396.80
573.96	2395.84
574.31	2393.13
574.67	2390.40
575.02	2387.06
575.37	2383.75
575.72	2380.44
576.08	2377.10
576.43	2373.97
576.78	2370.78
577.13	2367.77
577.49	2364.76
577.84	2361.82
578.19	2358.28
578.54	2354.98
578.90	2351.28
579.25	2346.13
579.60	2341.43
579.95	2336.84
580.30	2331.96
580.66	2327.07
581.01	2322.12
581.36	2317.10
581.71	2313.18
582.06	2309.17
582.42	2304.99
582.77	2299.76
583.12	2295.15
583.47	2290.89
583.82	2286.17
584.17	2280.77
584.53	2275.38
584.88	2269.89
585.23	2264.04
585.58	2258.57
585.93	2252.93
586.28	2247.83
586.63	2242.68
586.98	2237.60
587.34	2232.74
587.69	2227.82
588.04	2222.63
588.39	2217.09
588.74	2210.53
589.09	2204.05
589.44	2197.06
589.79	2190.70
590.14	2185.00
590.49	2178.42
590.84	2171.55
591.19	2165.40
591.54	2158.85
591.89	2151.47
592.25	2144.62
592.60	2137.21
592.95	2129.63
593.30	2122.13
593.65	2114.45
594.00	2107.15
594.35	2099.58
594.70	2091.17
595.05	2084.09
595.40	2076.35
595.75	2068.69
596.10	2062.34
596.45	2055.60
596.80	2048.96
597.15	2042.24
597.50	2035.16
597.85	2028.41
598.19	2021.70
598.54	2014.55
598.89	2007.60
599.24	2001.44
599.59	1994.57
599.94	1988.04
600.29	1981.33
600.64	1974.38
600.99	1966.63
601.34	1959.51
601.69	1952.10
602.04	1945.12
602.39	1937.14
602.74	1930.06
603.08	1923.06
603.43	1915.89
603.78	1908.14
604.13	1900.66
604.48	1893.17
604.83	1885.79
605.18	1878.65
605.53	1870.34
605.87	1861.82
606.22	1854.21
606.57	1845.74
606.92	1837.78
607.27	1830.27
607.62	1822.98
607.96	1815.41
608.31	1808.69
608.66	1800.72
609.01	1792.81
609.36	1784.85
609.70	1776.42
610.05	1767.86
610.40	1759.61
610.75	1750.92
611.10	1742.73
611.44	1733.86
611.79	1725.18
612.14	1716.04
612.49	1706.17
612.83	1697.10
613.18	1688.37
613.53	1679.64
613.88	1670.69
614.22	1661.78
614.57	1652.45
614.92	1643.86
615.27	1635.92
615.61	1626.99
615.96	1618.28
616.31	1610.07
616.65	1602.02
617.00	1594.02
617.35	1585.85
617.70	1577.13
618.04	1568.00
618.39	1559.21
618.74	1551.11
619.08	1542.28
619.43	1534.09
619.78	1526.67
620.12	1519.04
620.47	1510.99
620.82	1502.24
621.16	1493.99
621.51	1485.86
621.85	1477.65
622.20	1468.60
622.55	1459.58
622.89	1451.14
623.24	1442.95
623.59	1434.93
623.93	1427.03
624.28	1419.12
624.62	1411.01
624.97	1403.15
625.32	1395.65
625.66	1388.00
626.01	1380.22
626.35	1372.37
626.70	1364.08
627.04	1355.89
627.39	1347.55
627.73	1339.56
628.08	1332.18
628.43	1324.59
628.77	1316.92
629.12	1308.95
629.46	1301.21
629.81	1293.03
630.15	1285.12
630.50	1277.23
630.84	1268.61
631.19	1259.88
631.53	1251.90
631.88	1243.71
632.22	1235.56
632.57	1227.85
632.91	1219.79
633.26	1211.82
633.60	1203.79
633.95	1196.05
634.29	1188.29
634.64	1181.10
634.98	1173.33
635.32	1165.66
635.67	1158.39
636.01	1151.12
636.36	1143.91
636.70	1136.88
637.05	1129.95
637.39	1123.03
637.73	1116.12
638.08	1109.73
638.42	1103.33
638.77	1096.39
639.11	1089.53
639.45	1082.69
639.80	1075.62
640.14	1068.85
640.49	1061.96
640.83	1055.22
641.17	1048.67
641.52	1042.04
641.86	1035.10
642.20	1028.79
642.55	1022.03
642.89	1015.22
643.23	1008.23
643.58	1002.10
643.92	995.45
644.26	989.12
644.61	982.66
644.95	976.23
645.29	969.34
645.64	962.29
645.98	955.55
646.32	949.12
646.66	942.71
647.01	936.46
647.35	930.45
647.69	924.19
648.04	918.37
648.38	912.26
648.72	905.96
649.06	899.59
649.41	893.28
649.75	886.98
650.09	880.70
650.43	874.54
650.78	867.92
651.12	861.73
651.46	855.55
651.80	849.61
652.14	843.91
652.49	838.19
652.83	832.65
653.17	826.74
653.51	820.80
653.85	814.93
654.20	809.02
654.54	802.59
654.88	796.45
655.22	790.16
655.56	783.96
655.90	778.03
656.25	772.43
656.59	766.83
656.93	761.44
657.27	756.05
657.61	750.25
657.95	744.83
658.29	739.37
658.64	733.77
658.98	728.03
659.32	722.17
659.66	716.65
660.00	711.09
660.34	705.82
660.68	700.55
661.02	695.26
661.36	690.35
661.70	685.54
662.05	680.93
662.39	676.38
662.73	671.69
663.07	667.09
663.41	662.39
663.75	657.59
664.09	652.78
664.43	648.07
664.77	643.77
665.11	639.31
665.45	634.91
665.79	630.64
666.13	626.29
666.47	621.90
666.81	617.49
667.15	613.03
667.49	608.78
667.83	604.67
668.17	600.54
668.51	596.18
668.85	591.94
669.19	587.85
669.53	583.78
669.87	579.72
670.21	575.78
670.55	571.90
670.89	568.24
671.23	564.63
671.57	560.83
671.91	557.13
672.25	553.31
672.58	549.58
672.92	545.92
673.26	542.53
673.60	539.16
673.94	535.86
674.28	532.72
674.62	529.57
674.96	526.32
675.30	523.18
675.64	520.04
675.97	517.06
676.31	514.02
676.65	510.93
676.99	508.02
677.33	505.00
677.67	501.95
678.01	498.77
678.34	495.59
678.68	492.54
679.02	489.55
679.36	486.60
679.70	483.71
680.04	480.74
680.37	477.76
680.71	474.81
681.05	472.01
681.39	469.19
681.73	466.36
682.06	463.67
682.40	461.02
682.74	458.31
683.08	455.51
683.42	452.72
683.75	450.04
684.09	447.27
684.43	444.61
684.77	442.01
685.10	439.49
685.44	436.93
685.78	434.51
686.12	432.05
686.45	429.60
686.79	427.14
687.13	424.83
687.46	422.50
687.80	420.16
688.14	417.75
688.48	415.48
688.81	413.21
689.15	410.95
689.49	408.63
689.82	406.40
690.16	404.21
690.50	402.10
690.83	400.01
691.17	397.85
691.51	395.85
691.84	393.87
692.18	391.84
692.52	389.83
692.85	387.73
693.19	385.76
693.52	383.83
693.86	381.87
694.20	379.95
694.53	378.09
694.87	376.14
695.21	374.28
695.54	372.33
695.88	370.43
696.21	368.58
696.55	366.79
696.88	365.00
697.22	363.23
697.56	361.47
697.89	359.71
698.23	358.06
698.56	356.33
698.90	354.65
699.23	352.89
699.57	351.19
699.90	349.56
700.24	347.87
700.58	346.26
700.91	344.76
701.25	343.28
701.58	341.75
701.92	340.34
702.25	338.91
702.59	337.48
702.92	336.08
703.26	334.68
703.59	333.35
703.93	332.10
704.26	330.81
704.60	329.49
704.93	328.15
705.26	326.82
705.60	325.50
705.93	324.25
706.27	323.17
706.60	322.08
706.94	320.90
707.27	319.69
707.61	318.53
707.94	317.39
708.27	316.17
708.61	314.99
708.94	313.90
709.28	312.78
709.61	311.74
709.94	310.70
710.28	309.61
710.61	308.51
710.95	307.33
711.28	306.34
711.61	305.32
711.95	304.33
712.28	303.30
712.61	302.32
712.95	301.32
713.28	300.32
713.61	299.33
713.95	298.39
714.28	297.49
714.61	296.58
714.95	295.64
715.28	294.73
715.61	293.82
715.95	292.87
716.28	291.95
716.61	291.05
716.95	290.17
717.28	289.34
717.61	288.53
717.94	287.77
718.28	286.91
718.61	286.12
718.94	285.38
719.27	284.69
719.61	283.99
719.94	283.28
720.27	282.52
720.60	281.80
720.94	281.15
721.27	280.50
721.60	279.86
721.93	279.23
722.27	278.65
722.60	278.07
722.93	277.46
723.26	276.87
723.59	276.27
723.93	275.62
724.26	275.04
724.59	274.40
724.92	273.79
725.25	273.25
725.59	272.67
725.92	272.09
726.25	271.54
726.58	270.97
726.91	270.46
727.24	269.93
727.57	269.40
727.91	268.84
728.24	268.35
728.57	267.80
728.90	267.32
729.23	266.76
729.56	266.26
729.89	265.73
730.22	265.21
730.55	264.71
730.89	264.33
731.22	263.86
731.55	263.43
731.88	262.98
732.21	262.53
732.54	262.06
732.87	261.65
733.20	261.18
733.53	260.77
733.86	260.34
734.19	259.93
734.52	259.56
734.85	259.21
735.18	258.79
735.51	258.40
735.84	257.98
736.17	257.60
736.50	257.17
736.83	256.93
737.16	256.61
737.49	256.27
737.82	255.88
738.15	255.54
738.48	255.19
738.81	254.83
739.14	254.49
739.47	254.14
739.80	253.81
740.13	253.50
740.46	253.16
740.79	252.83
741.12	252.50
741.45	252.15
741.78	251.78
742.11	251.48
742.44	251.18
742.77	250.90
743.10	250.62
743.43	250.31
743.75	249.93
744.08	249.74
744.41	249.45
744.74	249.14
745.07	248.82
745.40	248.54
745.73	248.32
746.06	248.01
746.39	247.74
746.71	247.43
747.04	247.14
747.37	246.86
747.70	246.62
748.03	246.35
748.36	246.12
748.68	245.90
749.01	245.64
749.34	245.42
749.67	245.16
750.00	244.92
750.33	244.73
750.65	244.53
750.98	244.14
751.31	243.91
751.64	243.70
751.97	243.55
752.29	243.31
752.62	243.06
752.95	242.84
753.28	242.61
753.60	242.40
753.93	242.24
754.26	242.02
754.59	241.80
754.91	241.59
755.24	241.39
755.57	241.18
755.90	240.96
756.22	240.69
756.55	240.45
756.88	240.24
757.20	240.00
757.53	239.76
757.86	239.62
758.19	239.45
758.51	239.26
758.84	239.01
759.17	238.80
759.49	238.62
759.82	238.50
760.15	238.37
760.47	238.20
760.80	237.99
761.13	237.86
761.45	237.65
761.78	237.49
762.11	237.30
762.43	237.13
762.76	236.95
763.08	236.82
763.41	236.70
763.74	236.56
764.06	236.42
764.39	236.26
764.71	236.08
765.04	235.92
765.37	235.76
765.69	235.65
766.02	235.52
766.34	235.39
766.67	235.19
767.00	235.06
767.32	234.97
767.65	234.91
767.97	234.78
768.30	234.65
768.62	234.51
768.95	234.35
769.27	234.23
769.60	234.17
769.92	234.01
770.25	233.87
770.57	233.74
770.90	233.62
771.22	233.51
771.55	233.42
771.87	233.31
772.20	233.19
772.52	233.16
772.85	233.19
773.17	233.09
773.50	233.00
773.82	232.89
774.15	232.72
774.47	232.57
774.80	232.44
775.12	232.38
775.45	232.29
775.77	232.23
776.09	232.16
776.42	232.04
776.74	232.01
777.07	231.93
777.39	231.83
777.72	231.75
778.04	231.68
778.36	231.59
778.69	231.49
779.01	231.44
779.33	231.30
779.66	231.14
779.98	231.06
780.31	231.00
780.63	231.00
780.95	230.98
781.28	230.91
781.60	230.85
781.92	230.78
782.25	230.73
782.57	230.68
782.89	230.62
783.22	230.56
783.54	230.48
783.86	230.44
784.19	230.42
784.51	230.37
784.83	230.33
785.16	230.27
785.48	230.23
785.80	230.18
786.12	230.12
786.45	230.03
786.77	230.00
