SpectraSuite Data File
++++++++++++++++++++++++++++++++++++
Date: Fri Feb 01 16:15:30 EST 2013
User: group
Dark Spectrum Present: No
Reference Spectrum Present: No
Number of Sampled Component Spectra: 1
Spectrometers: USB2E7196
Integration Time (usec): 35000 (USB2E7196)
Spectra Averaged: 100 (USB2E7196)
Boxcar Smoothing: 10 (USB2E7196)
Correct for Electrical Dark: No (USB2E7196)
Strobe/Lamp Enabled: No (USB2E7196)
Correct for Detector Non-linearity: No (USB2E7196)
Correct for Stray Light: No (USB2E7196)
Number of Pixels in Processed Spectrum: 2048
>>>>>Begin Processed Spectral Data<<<<<
339.09	0.00
339.48	214.79
339.86	216.35
340.24	217.54
340.63	218.40
341.01	221.22
341.39	221.11
341.78	222.37
342.16	223.96
342.54	224.67
342.93	212.82
343.31	223.56
343.69	224.11
344.07	224.54
344.46	224.96
344.84	225.35
345.22	225.59
345.60	225.85
345.99	226.06
346.37	226.17
346.75	226.29
347.13	226.38
347.52	226.42
347.90	226.51
348.28	226.56
348.66	226.62
349.05	226.63
349.43	226.68
349.81	226.74
350.19	226.81
350.57	226.85
350.96	226.88
351.34	226.96
351.72	227.04
352.10	227.14
352.48	227.21
352.87	227.26
353.25	227.36
353.63	227.41
354.01	227.45
354.39	227.55
354.77	227.61
355.15	227.69
355.54	227.75
355.92	227.80
356.30	227.87
356.68	227.98
357.06	228.07
357.44	228.08
357.82	228.12
358.20	228.19
358.58	228.24
358.97	228.32
359.35	228.41
359.73	228.47
360.11	228.51
360.49	228.55
360.87	228.60
361.25	228.62
361.63	228.68
362.01	228.76
362.39	228.73
362.77	228.73
363.15	228.73
363.53	228.77
363.91	228.79
364.29	228.79
364.67	228.70
365.05	228.67
365.43	228.72
365.81	228.72
366.19	228.77
366.57	228.78
366.95	228.77
367.33	228.72
367.71	228.69
368.09	228.68
368.47	228.66
368.85	228.64
369.23	228.62
369.61	228.56
369.99	228.52
370.37	228.53
370.75	228.55
371.13	228.47
371.51	228.39
371.89	228.35
372.27	228.29
372.65	228.23
373.03	228.19
373.41	228.13
373.78	228.06
374.16	227.97
374.54	227.87
374.92	227.83
375.30	227.74
375.68	227.67
376.06	227.58
376.44	227.48
376.82	227.42
377.19	227.38
377.57	227.32
377.95	227.24
378.33	227.15
378.71	227.04
379.09	227.03
379.47	226.96
379.84	226.87
380.22	226.82
380.60	226.73
380.98	226.64
381.36	226.51
381.73	226.46
382.11	226.40
382.49	226.37
382.87	226.26
383.25	226.22
383.62	226.26
384.00	226.21
384.38	226.16
384.76	226.09
385.13	226.03
385.51	225.96
385.89	225.87
386.27	225.80
386.64	225.77
387.02	225.73
387.40	225.69
387.78	225.67
388.15	225.64
388.53	225.63
388.91	225.59
389.29	225.59
389.66	225.56
390.04	225.49
390.42	225.48
390.79	225.49
391.17	225.49
391.55	225.37
391.92	225.37
392.30	225.39
392.68	225.39
393.05	225.40
393.43	225.42
393.81	225.45
394.18	225.46
394.56	225.46
394.94	225.47
395.31	225.48
395.69	225.52
396.06	225.56
396.44	225.59
396.82	225.63
397.19	225.73
397.57	225.77
397.95	225.86
398.32	225.88
398.70	225.96
399.07	226.03
399.45	226.06
399.82	226.14
400.20	226.20
400.58	226.28
400.95	226.32
401.33	226.41
401.70	226.59
402.08	226.69
402.45	226.79
402.83	226.90
403.20	227.01
403.58	227.15
403.95	227.30
404.33	227.42
404.71	227.55
405.08	227.72
405.46	227.86
405.83	228.03
406.21	228.14
406.58	228.26
406.96	228.41
407.33	228.64
407.70	228.85
408.08	229.10
408.45	229.32
408.83	229.56
409.20	229.79
409.58	229.96
409.95	230.27
410.33	230.54
410.70	230.80
411.08	231.11
411.45	231.39
411.82	231.67
412.20	232.03
412.57	232.48
412.95	232.75
413.32	233.14
413.69	233.53
414.07	233.99
414.44	234.48
414.82	234.97
415.19	235.49
415.56	235.98
415.94	236.56
416.31	237.21
416.68	237.87
417.06	238.58
417.43	239.29
417.81	240.02
418.18	240.80
418.55	241.62
418.93	242.49
419.30	243.36
419.67	244.28
420.04	245.24
420.42	246.18
420.79	247.39
421.16	248.57
421.54	249.76
421.91	250.99
422.28	252.25
422.66	253.58
423.03	254.90
423.40	256.27
423.77	257.65
424.15	259.05
424.52	260.53
424.89	262.11
425.26	263.63
425.64	265.10
426.01	266.65
426.38	268.30
426.75	269.98
427.13	271.71
427.50	273.51
427.87	275.38
428.24	277.25
428.61	278.96
428.99	280.90
429.36	282.98
429.73	285.01
430.10	287.02
430.47	289.09
430.85	291.17
431.22	293.37
431.59	295.77
431.96	298.01
432.33	300.49
432.70	302.84
433.08	305.65
433.45	308.26
433.82	310.89
434.19	313.78
434.56	316.60
434.93	319.30
435.30	321.86
435.68	324.74
436.05	327.56
436.42	330.36
436.79	332.83
437.16	335.54
437.53	338.34
437.90	341.13
438.27	343.83
438.64	346.62
439.01	349.23
439.38	351.39
439.75	353.54
440.13	356.02
440.50	358.34
440.87	360.18
441.24	362.11
441.61	364.27
441.98	365.74
442.35	367.50
442.72	369.29
443.09	371.15
443.46	372.09
443.83	372.73
444.20	373.16
444.57	374.01
444.94	374.25
445.31	374.61
445.68	374.93
446.05	375.00
446.42	374.69
446.79	374.27
447.16	373.85
447.53	373.55
447.90	372.36
448.27	371.20
448.64	369.60
449.01	368.45
449.37	366.47
449.74	364.57
450.11	362.30
450.48	359.84
450.85	357.31
451.22	355.22
451.59	353.17
451.96	351.27
452.33	348.63
452.70	346.28
453.07	343.46
453.43	340.58
453.80	337.83
454.17	335.13
454.54	332.60
454.91	329.89
455.28	327.21
455.65	324.73
456.02	322.30
456.38	320.16
456.75	317.53
457.12	315.30
457.49	313.10
457.86	310.95
458.23	309.13
458.59	307.11
458.96	305.03
459.33	303.18
459.70	301.34
460.07	299.89
460.43	298.23
460.80	296.64
461.17	295.27
461.54	293.80
461.91	292.40
462.27	290.98
462.64	289.73
463.01	288.42
463.38	287.15
463.74	285.78
464.11	284.63
464.48	283.63
464.85	282.50
465.21	281.64
465.58	280.73
465.95	279.67
466.32	278.78
466.68	277.88
467.05	277.00
467.42	276.11
467.78	275.19
468.15	274.33
468.52	273.63
468.88	272.75
469.25	271.97
469.62	271.35
469.98	270.68
470.35	270.08
470.72	269.46
471.08	268.84
471.45	268.33
471.82	267.83
472.18	267.22
472.55	266.80
472.92	266.29
473.28	265.81
473.65	265.34
474.02	264.87
474.38	264.54
474.75	264.21
475.11	263.86
475.48	263.59
475.85	263.34
476.21	263.14
476.58	262.97
476.94	262.84
477.31	262.65
477.67	262.52
478.04	262.43
478.41	262.36
478.77	262.42
479.14	262.35
479.50	262.34
479.87	262.40
480.23	262.50
480.60	262.57
480.96	262.68
481.33	262.89
481.69	263.12
482.06	263.28
482.42	263.49
482.79	263.78
483.15	264.10
483.52	264.52
483.88	264.89
484.25	265.20
484.61	265.65
484.98	266.14
485.34	266.62
485.71	267.20
486.07	267.77
486.44	268.33
486.80	269.07
487.17	269.80
487.53	270.64
487.90	271.46
488.26	272.42
488.62	273.42
488.99	274.39
489.35	275.41
489.72	276.55
490.08	277.74
490.44	278.99
490.81	280.32
491.17	281.65
491.54	283.11
491.90	284.68
492.26	286.30
492.63	287.98
492.99	289.79
493.36	291.67
493.72	293.74
494.08	295.84
494.45	298.06
494.81	300.44
495.17	302.85
495.54	305.39
495.90	308.06
496.26	310.89
496.63	313.85
496.99	316.92
497.35	320.12
497.72	323.63
498.08	327.15
498.44	330.84
498.80	334.78
499.17	338.85
499.53	343.06
499.89	347.41
500.26	352.01
500.62	356.71
500.98	361.67
501.34	366.74
501.71	372.09
502.07	377.58
502.43	383.19
502.79	389.00
503.16	395.15
503.52	401.46
503.88	407.89
504.24	414.53
504.60	421.47
504.97	428.72
505.33	436.04
505.69	443.76
506.05	451.59
506.41	459.41
506.78	467.57
507.14	476.05
507.50	484.79
507.86	493.80
508.22	502.99
508.59	512.20
508.95	521.84
509.31	531.69
509.67	541.81
510.03	552.11
510.39	562.74
510.75	573.54
511.12	584.42
511.48	595.67
511.84	607.16
512.20	618.70
512.56	630.55
512.92	642.68
513.28	654.98
513.64	667.40
514.00	680.18
514.37	693.17
514.73	706.12
515.09	719.15
515.45	732.43
515.81	746.00
516.17	759.99
516.53	774.11
516.89	788.25
517.25	802.34
517.61	816.69
517.97	831.01
518.33	845.38
518.69	860.18
519.05	875.19
519.41	890.27
519.77	905.70
520.13	921.17
520.49	936.46
520.85	951.83
521.21	967.46
521.57	983.66
521.93	999.31
522.29	1015.74
522.65	1031.92
523.01	1048.08
523.37	1064.02
523.73	1080.07
524.09	1096.08
524.45	1112.28
524.81	1128.96
525.17	1145.79
525.53	1162.73
525.89	1179.55
526.25	1196.22
526.61	1212.56
526.97	1229.34
527.33	1245.87
527.68	1262.30
528.04	1278.73
528.40	1295.19
528.76	1312.25
529.12	1328.69
529.48	1345.50
529.84	1361.43
530.20	1378.05
530.56	1394.97
530.91	1412.33
531.27	1429.11
531.63	1445.55
531.99	1462.00
532.35	1477.76
532.71	1493.55
533.07	1509.69
533.42	1525.53
533.78	1541.62
534.14	1557.79
534.50	1572.96
534.86	1588.70
535.21	1604.02
535.57	1619.95
535.93	1635.51
536.29	1650.23
536.65	1665.21
537.00	1679.94
537.36	1695.26
537.72	1709.53
538.08	1723.83
538.44	1737.61
538.79	1751.44
539.15	1764.96
539.51	1778.77
539.87	1793.11
540.22	1806.80
540.58	1820.48
540.94	1833.77
541.29	1846.46
541.65	1859.18
542.01	1872.23
542.37	1884.44
542.72	1896.70
543.08	1908.37
543.44	1920.64
543.79	1931.77
544.15	1942.75
544.51	1954.22
544.87	1964.99
545.22	1975.84
545.58	1986.01
545.94	1995.75
546.29	2005.59
546.65	2015.39
547.01	2024.62
547.36	2033.36
547.72	2041.68
548.07	2049.52
548.43	2057.59
548.79	2065.85
549.14	2073.24
549.50	2080.68
549.86	2088.33
550.21	2095.68
550.57	2102.81
550.92	2109.34
551.28	2116.39
551.64	2123.39
551.99	2129.86
552.35	2136.06
552.70	2142.33
553.06	2148.28
553.41	2154.55
553.77	2160.55
554.13	2166.70
554.48	2172.75
554.84	2178.11
555.19	2183.42
555.55	2188.53
555.90	2193.10
556.26	2197.83
556.61	2202.59
556.97	2206.92
557.32	2211.08
557.68	2215.00
558.03	2219.36
558.39	2223.03
558.74	2227.79
559.10	2231.77
559.45	2235.40
559.81	2239.61
560.16	2243.40
560.52	2246.70
560.87	2250.10
561.23	2252.74
561.58	2255.74
561.94	2258.22
562.29	2260.56
562.64	2263.30
563.00	2265.93
563.35	2269.38
563.71	2272.43
564.06	2275.70
564.42	2278.56
564.77	2281.05
565.12	2283.47
565.48	2285.39
565.83	2287.40
566.19	2288.58
566.54	2289.38
566.89	2290.61
567.25	2291.30
567.60	2292.49
567.96	2294.21
568.31	2295.08
568.66	2296.18
569.02	2296.62
569.37	2296.95
569.72	2297.84
570.08	2298.04
570.43	2298.10
570.78	2297.65
571.14	2296.12
571.49	2294.68
571.84	2294.33
572.20	2293.39
572.55	2292.50
572.90	2290.98
573.26	2289.54
573.61	2287.97
573.96	2286.32
574.31	2283.44
574.67	2280.51
575.02	2277.02
575.37	2273.60
575.72	2269.89
576.08	2266.78
576.43	2263.61
576.78	2260.16
577.13	2257.11
577.49	2254.11
577.84	2250.72
578.19	2246.94
578.54	2243.39
578.90	2239.26
579.25	2233.87
579.60	2228.79
579.95	2223.63
580.30	2218.47
580.66	2213.36
581.01	2208.45
581.36	2203.62
581.71	2199.43
582.06	2195.00
582.42	2190.64
582.77	2185.53
583.12	2181.03
583.47	2176.16
583.82	2171.20
584.17	2165.90
584.53	2160.34
584.88	2154.67
585.23	2148.95
585.58	2143.39
585.93	2137.98
586.28	2133.21
586.63	2128.09
586.98	2123.03
587.34	2118.54
587.69	2113.73
588.04	2108.42
588.39	2102.60
588.74	2096.10
589.09	2089.83
589.44	2083.08
589.79	2076.95
590.14	2071.36
590.49	2064.80
590.84	2058.47
591.19	2052.38
591.54	2045.95
591.89	2038.70
592.25	2032.02
592.60	2024.84
592.95	2017.38
593.30	2010.03
593.65	2002.44
594.00	1995.44
594.35	1988.28
594.70	1980.17
595.05	1973.14
595.40	1966.02
595.75	1958.66
596.10	1952.59
596.45	1946.16
596.80	1940.01
597.15	1933.46
597.50	1926.52
597.85	1920.13
598.19	1913.57
598.54	1906.53
598.89	1899.86
599.24	1894.05
599.59	1887.31
599.94	1881.06
600.29	1874.81
600.64	1868.29
600.99	1860.98
601.34	1854.13
601.69	1847.18
602.04	1840.38
602.39	1833.01
602.74	1826.15
603.08	1819.41
603.43	1812.61
603.78	1805.19
604.13	1798.04
604.48	1790.85
604.83	1783.81
605.18	1776.85
605.53	1768.87
605.87	1760.77
606.22	1753.58
606.57	1745.57
606.92	1738.33
607.27	1731.25
607.62	1724.37
607.96	1717.05
608.31	1710.43
608.66	1702.81
609.01	1695.24
609.36	1687.68
609.70	1679.62
610.05	1671.60
610.40	1663.88
610.75	1655.57
611.10	1647.94
611.44	1639.55
611.79	1631.55
612.14	1622.95
612.49	1613.77
612.83	1605.43
613.18	1597.32
613.53	1589.16
613.88	1580.68
614.22	1572.31
614.57	1563.58
614.92	1555.53
615.27	1548.10
615.61	1539.70
615.96	1531.63
616.31	1524.01
616.65	1516.67
617.00	1509.08
617.35	1501.37
617.70	1493.20
618.04	1484.67
618.39	1476.45
618.74	1468.82
619.08	1460.50
619.43	1452.89
619.78	1446.00
620.12	1438.79
620.47	1431.34
620.82	1423.27
621.16	1415.72
621.51	1408.19
621.85	1400.55
622.20	1392.01
622.55	1383.60
622.89	1375.71
623.24	1368.13
623.59	1360.81
623.93	1353.27
624.28	1346.12
624.62	1338.63
624.97	1331.39
625.32	1324.57
625.66	1317.55
626.01	1310.37
626.35	1302.89
626.70	1295.10
627.04	1287.33
627.39	1279.51
627.73	1272.21
628.08	1265.24
628.43	1258.04
628.77	1250.63
629.12	1243.16
629.46	1236.01
629.81	1228.58
630.15	1221.49
630.50	1214.13
630.84	1205.87
631.19	1197.85
631.53	1190.28
631.88	1182.60
632.22	1174.99
632.57	1167.68
632.91	1160.10
633.26	1152.60
633.60	1145.16
633.95	1138.06
634.29	1130.97
634.64	1124.34
634.98	1116.93
635.32	1109.71
635.67	1103.14
636.01	1096.39
636.36	1089.56
636.70	1083.02
637.05	1076.40
637.39	1069.93
637.73	1063.35
638.08	1057.42
638.42	1051.40
638.77	1044.96
639.11	1038.52
639.45	1032.01
639.80	1025.34
640.14	1018.99
640.49	1012.57
640.83	1006.38
641.17	1000.19
641.52	993.89
641.86	987.32
642.20	981.37
642.55	975.08
642.89	968.63
643.23	962.20
643.58	956.51
643.92	950.32
644.26	944.34
644.61	938.30
644.95	932.38
645.29	925.81
645.64	919.16
645.98	912.83
646.32	906.95
646.66	900.91
647.01	895.22
647.35	889.50
647.69	883.58
648.04	877.97
648.38	872.03
648.72	866.07
649.06	860.05
649.41	854.22
649.75	848.35
650.09	842.40
650.43	836.56
650.78	830.31
651.12	824.29
651.46	818.51
651.80	812.70
652.14	807.30
652.49	801.91
652.83	796.74
653.17	791.08
653.51	785.33
653.85	780.06
654.20	774.36
654.54	768.42
654.88	762.70
655.22	756.82
655.56	751.26
655.90	745.89
656.25	740.69
656.59	735.30
656.93	730.13
657.27	724.94
657.61	719.53
657.95	714.41
658.29	709.40
658.64	704.20
658.98	698.93
659.32	693.47
659.66	688.33
660.00	682.98
660.34	678.03
660.68	673.12
661.02	667.99
661.36	663.27
661.70	658.70
662.05	654.26
662.39	649.95
662.73	645.42
663.07	640.95
663.41	636.44
663.75	631.98
664.09	627.52
664.43	623.10
664.77	618.94
665.11	614.72
665.45	610.53
665.79	606.39
666.13	602.25
666.47	598.11
666.81	593.85
667.15	589.78
667.49	585.86
667.83	582.00
668.17	578.11
668.51	574.02
668.85	569.99
669.19	566.24
669.53	562.40
669.87	558.53
670.21	554.84
670.55	551.17
670.89	547.74
671.23	544.25
671.57	540.70
671.91	537.16
672.25	533.64
672.58	530.13
672.92	526.71
673.26	523.50
673.60	520.31
673.94	517.27
674.28	514.37
674.62	511.43
674.96	508.40
675.30	505.52
675.64	502.57
675.97	499.82
676.31	496.98
676.65	494.08
676.99	491.38
677.33	488.51
677.67	485.73
678.01	482.66
678.34	479.69
678.68	476.84
679.02	474.03
679.36	471.28
679.70	468.57
680.04	465.80
680.37	462.96
680.71	460.20
681.05	457.54
681.39	454.80
681.73	452.10
682.06	449.58
682.40	446.99
682.74	444.52
683.08	441.90
683.42	439.26
683.75	436.75
684.09	434.20
684.43	431.73
684.77	429.26
685.10	426.94
685.44	424.60
685.78	422.29
686.12	420.03
686.45	417.73
686.79	415.42
687.13	413.24
687.46	411.11
687.80	408.91
688.14	406.73
688.48	404.64
688.81	402.40
689.15	400.23
689.49	398.10
689.82	396.02
690.16	393.99
690.50	392.02
690.83	390.07
691.17	388.11
691.51	386.21
691.84	384.36
692.18	382.43
692.52	380.48
692.85	378.57
693.19	376.71
693.52	374.90
693.86	373.10
694.20	371.32
694.53	369.50
694.87	367.71
695.21	365.94
695.54	364.14
695.88	362.45
696.21	360.73
696.55	359.04
696.88	357.32
697.22	355.61
697.56	354.00
697.89	352.36
698.23	350.72
698.56	349.10
698.90	347.50
699.23	345.84
699.57	344.31
699.90	342.76
700.24	341.24
700.58	339.75
700.91	338.22
701.25	336.79
701.58	335.44
701.92	334.08
702.25	332.69
702.59	331.28
702.92	329.93
703.26	328.63
703.59	327.34
703.93	326.15
704.26	324.94
704.60	323.61
704.93	322.31
705.26	321.04
705.60	319.88
705.93	318.72
706.27	317.66
706.60	316.58
706.94	315.53
707.27	314.38
707.61	313.28
707.94	312.28
708.27	311.19
708.61	310.09
708.94	309.04
709.28	308.07
709.61	307.15
709.94	306.23
710.28	305.19
710.61	304.23
710.95	303.15
711.28	302.22
711.61	301.30
711.95	300.39
712.28	299.45
712.61	298.49
712.95	297.57
713.28	296.71
713.61	295.83
713.95	294.91
714.28	294.06
714.61	293.20
714.95	292.31
715.28	291.42
715.61	290.53
715.95	289.68
716.28	288.80
716.61	287.96
716.95	287.09
717.28	286.33
717.61	285.56
717.94	284.84
718.28	284.02
718.61	283.31
718.94	282.64
719.27	281.96
719.61	281.29
719.94	280.61
720.27	279.89
720.60	279.16
720.94	278.51
721.27	277.90
721.60	277.32
721.93	276.74
722.27	276.19
722.60	275.65
722.93	275.10
723.26	274.54
723.59	273.98
723.93	273.46
724.26	272.93
724.59	272.37
724.92	271.85
725.25	271.37
725.59	270.86
725.92	270.34
726.25	269.83
726.58	269.35
726.91	268.82
727.24	268.35
727.57	267.91
727.91	267.43
728.24	266.98
728.57	266.52
728.90	266.07
729.23	265.62
729.56	265.20
729.89	264.74
730.22	264.33
730.55	263.88
730.89	263.43
731.22	263.00
731.55	262.56
731.88	262.12
732.21	261.69
732.54	261.20
732.87	260.79
733.20	260.38
733.53	259.97
733.86	259.63
734.19	259.21
734.52	258.86
734.85	258.55
735.18	258.13
735.51	257.75
735.84	257.38
736.17	257.07
736.50	256.65
736.83	256.40
737.16	256.02
737.49	255.68
737.82	255.33
738.15	255.00
738.48	254.68
738.81	254.38
739.14	254.05
739.47	253.75
739.80	253.44
740.13	253.19
740.46	252.92
740.79	252.59
741.12	252.31
741.45	252.01
741.78	251.68
742.11	251.41
742.44	251.12
742.77	250.85
743.10	250.50
743.43	250.20
743.75	249.79
744.08	249.67
744.41	249.39
744.74	249.13
745.07	248.82
745.40	248.56
745.73	248.32
746.06	248.06
746.39	247.81
746.71	247.54
747.04	247.23
747.37	246.91
747.70	246.67
748.03	246.40
748.36	246.14
748.68	245.89
749.01	245.60
749.34	245.38
749.67	245.13
750.00	244.91
750.33	244.76
750.65	244.57
750.98	244.22
751.31	244.04
751.64	243.81
751.97	243.67
752.29	243.48
752.62	243.20
752.95	242.97
753.28	242.72
753.60	242.49
753.93	242.33
754.26	242.12
754.59	241.90
754.91	241.73
755.24	241.52
755.57	241.30
755.90	241.11
756.22	240.86
756.55	240.64
756.88	240.44
757.20	240.20
757.53	239.99
757.86	239.79
758.19	239.60
758.51	239.39
758.84	239.15
759.17	238.94
759.49	238.79
759.82	238.67
760.15	238.57
760.47	238.41
760.80	238.19
761.13	238.08
761.45	237.92
761.78	237.73
762.11	237.58
762.43	237.42
762.76	237.31
763.08	237.19
763.41	237.06
763.74	236.95
764.06	236.79
764.39	236.66
764.71	236.54
765.04	236.39
765.37	236.28
765.69	236.18
766.02	236.07
766.34	235.92
766.67	235.80
767.00	235.68
767.32	235.62
767.65	235.65
767.97	235.52
768.30	235.41
768.62	235.35
768.95	235.26
769.27	235.18
769.60	235.09
769.92	234.97
770.25	234.88
770.57	234.75
770.90	234.68
771.22	234.58
771.55	234.49
771.87	234.44
772.20	234.32
772.52	234.29
772.85	234.29
773.17	234.24
773.50	234.11
773.82	233.98
774.15	233.88
774.47	233.67
774.80	233.59
775.12	233.50
775.45	233.38
775.77	233.31
776.09	233.24
776.42	233.17
776.74	233.17
777.07	233.08
777.39	233.03
777.72	232.94
778.04	232.90
778.36	232.83
778.69	232.75
779.01	232.72
779.33	232.60
779.66	232.46
779.98	232.39
780.31	232.36
780.63	232.38
780.95	232.33
781.28	232.28
781.60	232.20
781.92	232.17
782.25	232.15
782.57	232.06
782.89	231.97
783.22	231.93
783.54	231.83
783.86	231.78
784.19	231.70
784.51	231.67
784.83	231.59
785.16	231.57
785.48	231.50
785.80	231.44
786.12	231.40
786.45	231.33
786.77	231.27
787.09	231.23
