SpectraSuite Data File
++++++++++++++++++++++++++++++++++++
Date: Fri Feb 01 17:52:32 EST 2013
User: group
Dark Spectrum Present: No
Reference Spectrum Present: No
Number of Sampled Component Spectra: 1
Spectrometers: USB2E7196
Integration Time (usec): 35000 (USB2E7196)
Spectra Averaged: 100 (USB2E7196)
Boxcar Smoothing: 10 (USB2E7196)
Correct for Electrical Dark: No (USB2E7196)
Strobe/Lamp Enabled: No (USB2E7196)
Correct for Detector Non-linearity: No (USB2E7196)
Correct for Stray Light: No (USB2E7196)
Number of Pixels in Processed Spectrum: 2048
>>>>>Begin Processed Spectral Data<<<<<
339.09	0.00
339.48	212.85
339.86	213.95
340.24	214.98
340.63	216.52
341.01	220.04
341.39	219.15
341.78	221.19
342.16	222.26
342.54	222.78
342.93	211.10
343.31	221.74
343.69	222.29
344.07	222.74
344.46	223.21
344.84	223.61
345.22	223.84
345.60	224.08
345.99	224.25
346.37	224.37
346.75	224.47
347.13	224.56
347.52	224.63
347.90	224.70
348.28	224.68
348.66	224.72
349.05	224.69
349.43	224.73
349.81	224.76
350.19	224.81
350.57	224.86
350.96	224.88
351.34	224.98
351.72	225.05
352.10	225.16
352.48	225.20
352.87	225.24
353.25	225.30
353.63	225.34
354.01	225.44
354.39	225.51
354.77	225.57
355.15	225.67
355.54	225.71
355.92	225.72
356.30	225.81
356.68	225.98
357.06	226.06
357.44	226.08
357.82	226.15
358.20	226.21
358.58	226.30
358.97	226.41
359.35	226.50
359.73	226.59
360.11	226.64
360.49	226.72
360.87	226.77
361.25	226.80
361.63	226.91
362.01	226.94
362.39	226.96
362.77	227.00
363.15	227.05
363.53	227.09
363.91	227.13
364.29	227.18
364.67	227.08
365.05	227.10
365.43	227.16
365.81	227.17
366.19	227.24
366.57	227.28
366.95	227.29
367.33	227.28
367.71	227.31
368.09	227.34
368.47	227.33
368.85	227.32
369.23	227.36
369.61	227.30
369.99	227.31
370.37	227.33
370.75	227.36
371.13	227.29
371.51	227.24
371.89	227.23
372.27	227.21
372.65	227.17
373.03	227.16
373.41	227.13
373.78	227.09
374.16	226.99
374.54	226.93
374.92	226.87
375.30	226.79
375.68	226.69
376.06	226.64
376.44	226.61
376.82	226.56
377.19	226.51
377.57	226.50
377.95	226.39
378.33	226.33
378.71	226.23
379.09	226.19
379.47	226.14
379.84	226.09
380.22	226.00
380.60	225.93
380.98	225.86
381.36	225.79
381.73	225.74
382.11	225.70
382.49	225.63
382.87	225.54
383.25	225.50
383.62	225.55
384.00	225.43
384.38	225.37
384.76	225.33
385.13	225.32
385.51	225.25
385.89	225.19
386.27	225.14
386.64	225.10
387.02	225.06
387.40	225.04
387.78	224.98
388.15	224.96
388.53	224.93
388.91	224.90
389.29	224.88
389.66	224.85
390.04	224.80
390.42	224.78
390.79	224.76
391.17	224.73
391.55	224.59
391.92	224.61
392.30	224.61
392.68	224.59
393.05	224.56
393.43	224.55
393.81	224.57
394.18	224.56
394.56	224.57
394.94	224.59
395.31	224.55
395.69	224.59
396.06	224.60
396.44	224.63
396.82	224.62
397.19	224.68
397.57	224.71
397.95	224.77
398.32	224.76
398.70	224.82
399.07	224.89
399.45	224.93
399.82	224.97
400.20	224.98
400.58	225.01
400.95	225.02
401.33	225.14
401.70	225.26
402.08	225.34
402.45	225.40
402.83	225.52
403.20	225.66
403.58	225.73
403.95	225.86
404.33	226.00
404.71	226.14
405.08	226.32
405.46	226.46
405.83	226.62
406.21	226.80
406.58	226.99
406.96	227.19
407.33	227.44
407.70	227.68
408.08	228.00
408.45	228.26
408.83	228.57
409.20	228.81
409.58	229.04
409.95	229.35
410.33	229.71
410.70	230.03
411.08	230.41
411.45	230.84
411.82	231.24
412.20	231.68
412.57	232.21
412.95	232.61
413.32	233.16
413.69	233.67
414.07	234.28
414.44	234.90
414.82	235.54
415.19	236.25
415.56	236.96
415.94	237.72
416.31	238.55
416.68	239.39
417.06	240.34
417.43	241.23
417.81	242.29
418.18	243.33
418.55	244.42
418.93	245.57
419.30	246.74
419.67	247.99
420.04	249.26
420.42	250.56
420.79	252.12
421.16	253.65
421.54	255.22
421.91	256.83
422.28	258.49
422.66	260.23
423.03	261.92
423.40	263.68
423.77	265.54
424.15	267.45
424.52	269.40
424.89	271.55
425.26	273.60
425.64	275.48
426.01	277.60
426.38	279.80
426.75	281.98
427.13	284.29
427.50	286.64
427.87	289.13
428.24	291.60
428.61	293.93
428.99	296.49
429.36	299.28
429.73	301.96
430.10	304.62
430.47	307.33
430.85	310.16
431.22	313.16
431.59	316.29
431.96	319.29
432.33	322.58
432.70	325.70
433.08	329.44
433.45	332.95
433.82	336.35
434.19	340.20
434.56	343.91
434.93	347.45
435.30	350.93
435.68	354.72
436.05	358.45
436.42	362.15
436.79	365.45
437.16	369.02
437.53	372.80
437.90	376.55
438.27	380.22
438.64	383.97
439.01	387.37
439.38	390.34
439.75	393.20
440.13	396.46
440.50	399.51
440.87	401.96
441.24	404.59
441.61	407.50
441.98	409.44
442.35	411.87
442.72	414.30
443.09	416.73
443.46	418.08
443.83	418.88
444.20	419.57
444.57	420.74
444.94	421.10
445.31	421.59
445.68	422.05
446.05	422.12
446.42	421.61
446.79	421.08
447.16	420.49
447.53	420.08
447.90	418.58
448.27	417.10
448.64	414.99
449.01	413.47
449.37	410.80
449.74	408.28
450.11	405.24
450.48	401.96
450.85	398.60
451.22	395.76
451.59	393.07
451.96	390.52
452.33	387.05
452.70	383.95
453.07	380.19
453.43	376.34
453.80	372.71
454.17	369.19
454.54	365.82
454.91	362.25
455.28	358.68
455.65	355.41
456.02	352.10
456.38	349.26
456.75	345.70
457.12	342.76
457.49	339.84
457.86	337.01
458.23	334.53
458.59	331.81
458.96	329.06
459.33	326.63
459.70	324.13
460.07	322.07
460.43	319.73
460.80	317.56
461.17	315.63
461.54	313.56
461.91	311.61
462.27	309.66
462.64	307.95
463.01	306.14
463.38	304.39
463.74	302.62
464.11	301.05
464.48	299.65
464.85	298.14
465.21	296.90
465.58	295.69
465.95	294.20
466.32	292.97
466.68	291.74
467.05	290.52
467.42	289.32
467.78	288.09
468.15	286.97
468.52	286.11
468.88	284.95
469.25	283.95
469.62	283.11
469.98	282.25
470.35	281.39
470.72	280.57
471.08	279.69
471.45	278.96
471.82	278.21
472.18	277.42
472.55	276.85
472.92	276.24
473.28	275.57
473.65	275.00
474.02	274.43
474.38	273.92
474.75	273.48
475.11	273.00
475.48	272.63
475.85	272.32
476.21	271.94
476.58	271.70
476.94	271.46
477.31	271.21
477.67	270.98
478.04	270.82
478.41	270.72
478.77	270.71
479.14	270.57
479.50	270.55
479.87	270.58
480.23	270.59
480.60	270.57
480.96	270.60
481.33	270.75
481.69	270.86
482.06	270.98
482.42	271.11
482.79	271.34
483.15	271.63
483.52	271.98
483.88	272.31
484.25	272.67
484.61	273.10
484.98	273.49
485.34	274.02
485.71	274.59
486.07	275.20
486.44	275.74
486.80	276.44
487.17	277.16
487.53	277.98
487.90	278.82
488.26	279.75
488.62	280.79
488.99	281.81
489.35	282.92
489.72	284.10
490.08	285.33
490.44	286.63
490.81	288.01
491.17	289.41
491.54	290.91
491.90	292.50
492.26	294.20
492.63	296.05
492.99	297.89
493.36	299.81
493.72	301.99
494.08	304.19
494.45	306.57
494.81	309.06
495.17	311.62
495.54	314.35
495.90	317.23
496.26	320.14
496.63	323.25
496.99	326.54
497.35	329.98
497.72	333.59
498.08	337.27
498.44	341.17
498.80	345.28
499.17	349.60
499.53	353.98
499.89	358.59
500.26	363.34
500.62	368.20
500.98	373.47
501.34	378.76
501.71	384.40
502.07	390.12
502.43	396.04
502.79	402.18
503.16	408.58
503.52	415.18
503.88	421.95
504.24	428.92
504.60	436.17
504.97	443.66
505.33	451.32
505.69	459.49
506.05	467.69
506.41	476.00
506.78	484.59
507.14	493.57
507.50	502.80
507.86	512.31
508.22	522.16
508.59	531.98
508.95	542.14
509.31	552.55
509.67	563.27
510.03	574.24
510.39	585.50
510.75	596.95
511.12	608.57
511.48	620.59
511.84	632.89
512.20	645.19
512.56	657.95
512.92	670.97
513.28	684.24
513.64	697.52
514.00	711.18
514.37	725.07
514.73	738.99
515.09	752.93
515.45	767.22
515.81	781.70
516.17	796.63
516.53	811.78
516.89	827.01
517.25	842.28
517.61	857.76
517.97	873.31
518.33	888.79
518.69	904.78
519.05	920.85
519.41	937.14
519.77	953.83
520.13	970.49
520.49	987.19
520.85	1003.78
521.21	1020.73
521.57	1038.19
521.93	1055.29
522.29	1073.06
522.65	1090.77
523.01	1108.33
523.37	1125.84
523.73	1143.44
524.09	1161.01
524.45	1178.79
524.81	1196.91
525.17	1215.18
525.53	1233.57
525.89	1252.01
526.25	1270.38
526.61	1288.45
526.97	1306.89
527.33	1325.03
527.68	1343.26
528.04	1361.28
528.40	1379.47
528.76	1398.29
529.12	1416.74
529.48	1435.29
529.84	1453.02
530.20	1471.32
530.56	1490.16
530.91	1509.44
531.27	1528.05
531.63	1546.35
531.99	1564.72
532.35	1582.59
532.71	1600.41
533.07	1618.64
533.42	1636.49
533.78	1654.52
534.14	1672.65
534.50	1689.90
534.86	1707.59
535.21	1724.84
535.57	1742.88
535.93	1760.41
536.29	1777.06
536.65	1794.03
537.00	1810.77
537.36	1828.20
537.72	1844.73
538.08	1861.17
538.44	1876.93
538.79	1892.75
539.15	1908.26
539.51	1923.93
539.87	1940.32
540.22	1956.10
540.58	1971.82
540.94	1987.17
541.29	2001.91
541.65	2016.75
542.01	2031.90
542.37	2046.41
542.72	2060.82
543.08	2074.68
543.44	2089.18
543.79	2102.69
544.15	2115.78
544.51	2129.43
544.87	2142.36
545.22	2155.21
545.58	2167.58
545.94	2179.37
546.29	2191.36
546.65	2203.40
547.01	2214.68
547.36	2225.24
547.72	2235.62
548.07	2245.56
548.43	2255.54
548.79	2265.42
549.14	2274.81
549.50	2283.94
549.86	2293.45
550.21	2302.61
550.57	2311.53
550.92	2319.87
551.28	2328.73
551.64	2337.59
551.99	2346.01
552.35	2353.97
552.70	2361.98
553.06	2369.58
553.41	2377.68
553.77	2385.25
554.13	2393.01
554.48	2400.94
554.84	2408.46
555.19	2415.29
555.55	2422.13
555.90	2428.40
556.26	2435.05
556.61	2441.44
556.97	2447.54
557.32	2453.27
557.68	2458.92
558.03	2464.77
558.39	2469.82
558.74	2475.89
559.10	2481.20
559.45	2486.20
559.81	2491.66
560.16	2496.87
560.52	2501.52
560.87	2506.14
561.23	2510.16
561.58	2514.33
561.94	2518.23
562.29	2521.51
562.64	2525.69
563.00	2529.38
563.35	2534.08
563.71	2538.49
564.06	2542.80
564.42	2546.87
564.77	2550.65
565.12	2554.23
565.48	2557.28
565.83	2560.48
566.19	2562.97
566.54	2564.62
566.89	2566.90
567.25	2568.73
567.60	2570.92
567.96	2573.75
568.31	2575.56
568.66	2577.79
569.02	2579.23
569.37	2580.27
569.72	2582.08
570.08	2582.86
570.43	2583.59
570.78	2583.77
571.14	2582.74
571.49	2581.84
571.84	2582.06
572.20	2581.50
572.55	2580.87
572.90	2579.69
573.26	2578.67
573.61	2577.18
573.96	2576.13
574.31	2573.23
574.67	2570.46
575.02	2567.06
575.37	2563.67
575.72	2560.17
576.08	2556.73
576.43	2553.31
576.78	2549.92
577.13	2546.71
577.49	2543.65
577.84	2540.31
578.19	2536.38
578.54	2532.92
578.90	2528.85
579.25	2522.88
579.60	2517.77
579.95	2512.69
580.30	2507.28
580.66	2501.90
581.01	2496.83
581.36	2491.55
581.71	2487.33
582.06	2482.81
582.42	2478.18
582.77	2472.65
583.12	2467.67
583.47	2462.82
583.82	2457.83
584.17	2452.23
584.53	2446.33
584.88	2440.44
585.23	2434.30
585.58	2428.39
585.93	2422.27
586.28	2416.87
586.63	2411.61
586.98	2405.92
587.34	2400.52
587.69	2395.26
588.04	2389.67
588.39	2383.47
588.74	2376.29
589.09	2369.47
589.44	2361.93
589.79	2354.97
590.14	2348.64
590.49	2341.42
590.84	2334.23
591.19	2327.39
591.54	2320.03
591.89	2311.95
592.25	2304.42
592.60	2296.39
592.95	2288.05
593.30	2279.89
593.65	2271.46
594.00	2263.47
594.35	2255.28
594.70	2246.37
595.05	2238.61
595.40	2230.19
595.75	2221.57
596.10	2214.76
596.45	2207.23
596.80	2200.24
597.15	2193.10
597.50	2185.34
597.85	2177.98
598.19	2170.42
598.54	2162.71
598.89	2155.23
599.24	2148.47
599.59	2141.06
599.94	2133.67
600.29	2126.47
600.64	2118.92
600.99	2110.58
601.34	2102.95
601.69	2094.90
602.04	2087.06
602.39	2078.48
602.74	2070.81
603.08	2063.15
603.43	2055.13
603.78	2046.64
604.13	2038.39
604.48	2029.97
604.83	2022.05
605.18	2014.27
605.53	2005.36
605.87	1995.90
606.22	1987.50
606.57	1978.21
606.92	1969.46
607.27	1961.39
607.62	1953.53
607.96	1945.28
608.31	1937.74
608.66	1928.93
609.01	1920.41
609.36	1911.74
609.70	1902.60
610.05	1893.30
610.40	1884.50
610.75	1875.14
611.10	1866.39
611.44	1856.47
611.79	1847.03
612.14	1836.99
612.49	1826.20
612.83	1816.24
613.18	1806.78
613.53	1797.50
613.88	1787.71
614.22	1778.00
614.57	1767.83
614.92	1758.36
615.27	1749.67
615.61	1740.12
615.96	1730.76
616.31	1721.82
616.65	1713.20
617.00	1704.34
617.35	1695.35
617.70	1685.76
618.04	1675.89
618.39	1666.22
618.74	1657.54
619.08	1647.95
619.43	1639.00
619.78	1630.88
620.12	1622.63
620.47	1613.91
620.82	1604.28
621.16	1595.57
621.51	1586.77
621.85	1577.88
622.20	1567.99
622.55	1558.02
622.89	1548.63
623.24	1539.68
623.59	1531.03
623.93	1522.24
624.28	1513.76
624.62	1504.91
624.97	1496.42
625.32	1488.35
625.66	1480.14
626.01	1471.77
626.35	1463.28
626.70	1454.26
627.04	1445.33
627.39	1436.17
627.73	1427.55
628.08	1419.47
628.43	1411.13
628.77	1402.64
629.12	1394.06
629.46	1385.66
629.81	1376.89
630.15	1368.49
630.50	1359.87
630.84	1350.37
631.19	1341.06
631.53	1332.17
631.88	1323.43
632.22	1314.61
632.57	1306.01
632.91	1297.26
633.26	1288.63
633.60	1279.94
633.95	1271.49
634.29	1263.29
634.64	1255.55
634.98	1246.95
635.32	1238.67
635.67	1230.85
636.01	1223.02
636.36	1215.08
636.70	1207.58
637.05	1200.13
637.39	1192.66
637.73	1185.10
638.08	1178.26
638.42	1171.32
638.77	1163.93
639.11	1156.41
639.45	1149.00
639.80	1141.49
640.14	1134.03
640.49	1126.55
640.83	1119.26
641.17	1112.23
641.52	1104.87
641.86	1097.33
642.20	1090.56
642.55	1083.18
642.89	1075.74
643.23	1068.16
643.58	1061.48
643.92	1054.27
644.26	1047.40
644.61	1040.39
644.95	1033.53
645.29	1026.09
645.64	1018.39
645.98	1011.16
646.32	1004.19
646.66	997.20
647.01	990.56
647.35	984.09
647.69	977.24
648.04	970.91
648.38	964.34
648.72	957.61
649.06	950.85
649.41	944.08
649.75	937.34
650.09	930.53
650.43	924.01
650.78	916.95
651.12	910.13
651.46	903.51
651.80	896.98
652.14	890.73
652.49	884.59
652.83	878.66
653.17	872.16
653.51	865.86
653.85	859.67
654.20	853.15
654.54	846.27
654.88	839.75
655.22	832.93
655.56	826.29
655.90	819.91
656.25	813.83
656.59	807.80
656.93	801.93
657.27	796.10
657.61	789.80
657.95	784.00
658.29	778.21
658.64	772.17
658.98	766.07
659.32	759.82
659.66	753.83
660.00	747.80
660.34	742.14
660.68	736.44
661.02	730.74
661.36	725.48
661.70	720.30
662.05	715.32
662.39	710.46
662.73	705.37
663.07	700.44
663.41	695.32
663.75	690.20
664.09	685.00
664.43	679.95
664.77	675.33
665.11	670.46
665.45	665.73
665.79	661.06
666.13	656.37
666.47	651.70
666.81	646.94
667.15	642.24
667.49	637.74
667.83	633.35
668.17	628.86
668.51	624.16
668.85	619.50
669.19	614.99
669.53	610.61
669.87	606.20
670.21	601.88
670.55	597.72
670.89	593.76
671.23	589.93
671.57	585.89
671.91	581.84
672.25	577.82
672.58	573.77
672.92	569.89
673.26	566.26
673.60	562.61
673.94	559.02
674.28	555.64
674.62	552.26
674.96	548.70
675.30	545.39
675.64	542.05
675.97	538.90
676.31	535.67
676.65	532.30
676.99	529.21
677.33	525.95
677.67	522.75
678.01	519.33
678.34	515.88
678.68	512.60
679.02	509.37
679.36	506.20
679.70	503.10
680.04	499.96
680.37	496.71
680.71	493.51
681.05	490.50
681.39	487.41
681.73	484.36
682.06	481.43
682.40	478.47
682.74	475.52
683.08	472.59
683.42	469.65
683.75	466.73
684.09	463.76
684.43	460.88
684.77	458.09
685.10	455.33
685.44	452.67
685.78	450.02
686.12	447.40
686.45	444.76
686.79	442.12
687.13	439.53
687.46	437.00
687.80	434.49
688.14	431.91
688.48	429.54
688.81	426.97
689.15	424.51
689.49	422.06
689.82	419.66
690.16	417.25
690.50	414.94
690.83	412.76
691.17	410.53
691.51	408.39
691.84	406.22
692.18	404.11
692.52	401.92
692.85	399.70
693.19	397.60
693.52	395.48
693.86	393.40
694.20	391.33
694.53	389.27
694.87	387.17
695.21	385.10
695.54	382.97
695.88	380.99
696.21	379.01
696.55	377.05
696.88	375.12
697.22	373.21
697.56	371.35
697.89	369.44
698.23	367.63
698.56	365.77
698.90	363.97
699.23	362.07
699.57	360.24
699.90	358.45
700.24	356.60
700.58	354.87
700.91	353.19
701.25	351.55
701.58	350.00
701.92	348.47
702.25	346.93
702.59	345.36
702.92	343.79
703.26	342.30
703.59	340.85
703.93	339.51
704.26	338.13
704.60	336.66
704.93	335.20
705.26	333.72
705.60	332.34
705.93	330.98
706.27	329.80
706.60	328.59
706.94	327.35
707.27	326.10
707.61	324.86
707.94	323.65
708.27	322.38
708.61	321.12
708.94	319.95
709.28	318.81
709.61	317.73
709.94	316.68
710.28	315.51
710.61	314.33
710.95	313.08
711.28	312.01
711.61	310.92
711.95	309.86
712.28	308.76
712.61	307.67
712.95	306.59
713.28	305.48
713.61	304.36
713.95	303.34
714.28	302.38
714.61	301.40
714.95	300.40
715.28	299.45
715.61	298.43
715.95	297.42
716.28	296.43
716.61	295.49
716.95	294.52
717.28	293.66
717.61	292.85
717.94	292.04
718.28	291.09
718.61	290.20
718.94	289.45
719.27	288.73
719.61	287.96
719.94	287.18
720.27	286.38
720.60	285.68
720.94	284.95
721.27	284.22
721.60	283.56
721.93	282.90
722.27	282.23
722.60	281.59
722.93	280.94
723.26	280.33
723.59	279.66
723.93	279.02
724.26	278.37
724.59	277.69
724.92	277.05
725.25	276.48
725.59	275.93
725.92	275.31
726.25	274.69
726.58	274.12
726.91	273.56
727.24	273.03
727.57	272.47
727.91	271.87
728.24	271.32
728.57	270.72
728.90	270.15
729.23	269.61
729.56	269.10
729.89	268.56
730.22	268.00
730.55	267.49
730.89	266.98
731.22	266.45
731.55	265.97
731.88	265.48
732.21	264.99
732.54	264.53
732.87	264.04
733.20	263.57
733.53	263.14
733.86	262.72
734.19	262.30
734.52	261.86
734.85	261.55
735.18	261.09
735.51	260.68
735.84	260.25
736.17	259.86
736.50	259.41
736.83	259.15
737.16	258.80
737.49	258.40
737.82	258.02
738.15	257.68
738.48	257.31
738.81	256.95
739.14	256.61
739.47	256.25
739.80	255.90
740.13	255.55
740.46	255.18
740.79	254.81
741.12	254.45
741.45	254.09
741.78	253.71
742.11	253.41
742.44	253.08
742.77	252.76
743.10	252.38
743.43	252.05
743.75	251.64
744.08	251.43
744.41	251.10
744.74	250.80
745.07	250.47
745.40	250.17
745.73	249.91
746.06	249.56
746.39	249.26
746.71	248.97
747.04	248.69
747.37	248.39
747.70	248.10
748.03	247.79
748.36	247.54
748.68	247.26
749.01	246.96
749.34	246.69
749.67	246.46
750.00	246.25
750.33	246.07
750.65	245.80
750.98	245.42
751.31	245.21
751.64	244.99
751.97	244.81
752.29	244.56
752.62	244.29
752.95	244.04
753.28	243.78
753.60	243.51
753.93	243.33
754.26	243.08
754.59	242.82
754.91	242.64
755.24	242.39
755.57	242.13
755.90	241.93
756.22	241.69
756.55	241.42
756.88	241.18
757.20	240.92
757.53	240.70
757.86	240.51
758.19	240.32
758.51	240.11
758.84	239.87
759.17	239.66
759.49	239.45
759.82	239.36
760.15	239.16
760.47	238.99
760.80	238.79
761.13	238.64
761.45	238.48
761.78	238.28
762.11	238.14
762.43	237.98
762.76	237.78
763.08	237.64
763.41	237.51
763.74	237.35
764.06	237.18
764.39	237.02
764.71	236.88
765.04	236.67
765.37	236.50
765.69	236.31
766.02	236.18
766.34	236.01
766.67	235.78
767.00	235.67
767.32	235.59
767.65	235.48
767.97	235.34
768.30	235.21
768.62	235.06
768.95	234.88
769.27	234.75
769.60	234.64
769.92	234.45
770.25	234.27
770.57	234.12
770.90	233.97
771.22	233.83
771.55	233.68
771.87	233.58
772.20	233.47
772.52	233.46
772.85	233.46
773.17	233.36
773.50	233.26
773.82	233.13
774.15	232.98
774.47	232.84
774.80	232.72
775.12	232.61
775.45	232.54
775.77	232.47
776.09	232.41
776.42	232.32
776.74	232.29
777.07	232.21
777.39	232.15
777.72	232.06
778.04	232.01
778.36	231.90
778.69	231.82
779.01	231.74
779.33	231.60
779.66	231.40
779.98	231.31
780.31	231.25
780.63	231.24
780.95	231.18
781.28	231.09
781.60	231.01
781.92	230.97
782.25	230.88
782.57	230.85
782.89	230.76
783.22	230.71
783.54	230.64
783.86	230.59
784.19	230.50
784.51	230.48
784.83	230.45
785.16	230.44
785.48	230.41
785.80	230.35
786.12	230.28
786.45	230.23
