SpectraSuite Data File
++++++++++++++++++++++++++++++++++++
Date: Fri Feb 01 15:22:45 EST 2013
User: group
Dark Spectrum Present: No
Reference Spectrum Present: No
Number of Sampled Component Spectra: 1
Spectrometers: USB2E7196
Integration Time (usec): 35000 (USB2E7196)
Spectra Averaged: 100 (USB2E7196)
Boxcar Smoothing: 10 (USB2E7196)
Correct for Electrical Dark: No (USB2E7196)
Strobe/Lamp Enabled: No (USB2E7196)
Correct for Detector Non-linearity: No (USB2E7196)
Correct for Stray Light: No (USB2E7196)
Number of Pixels in Processed Spectrum: 2048
>>>>>Begin Processed Spectral Data<<<<<
339.09	0.00
339.48	214.76
339.86	216.80
340.24	218.41
340.63	218.84
341.01	221.87
341.39	221.69
341.78	223.42
342.16	224.19
342.54	225.16
342.93	213.44
343.31	224.25
343.69	224.81
344.07	225.28
344.46	225.70
344.84	226.07
345.22	226.31
345.60	226.59
345.99	226.75
346.37	226.88
346.75	226.96
347.13	227.00
347.52	227.05
347.90	227.12
348.28	227.18
348.66	227.19
349.05	227.18
349.43	227.24
349.81	227.30
350.19	227.36
350.57	227.38
350.96	227.44
351.34	227.52
351.72	227.60
352.10	227.67
352.48	227.71
352.87	227.78
353.25	227.84
353.63	227.86
354.01	227.92
354.39	228.04
354.77	228.11
355.15	228.21
355.54	228.27
355.92	228.28
356.30	228.31
356.68	228.44
357.06	228.51
357.44	228.54
357.82	228.58
358.20	228.64
358.58	228.71
358.97	228.79
359.35	228.83
359.73	228.90
360.11	228.95
360.49	228.99
360.87	229.04
361.25	229.10
361.63	229.20
362.01	229.27
362.39	229.29
362.77	229.32
363.15	229.34
363.53	229.36
363.91	229.41
364.29	229.44
364.67	229.37
365.05	229.40
365.43	229.41
365.81	229.42
366.19	229.46
366.57	229.47
366.95	229.42
367.33	229.41
367.71	229.38
368.09	229.39
368.47	229.40
368.85	229.37
369.23	229.38
369.61	229.30
369.99	229.27
370.37	229.23
370.75	229.25
371.13	229.20
371.51	229.14
371.89	229.08
372.27	229.06
372.65	229.01
373.03	228.93
373.41	228.87
373.78	228.80
374.16	228.70
374.54	228.64
374.92	228.58
375.30	228.51
375.68	228.43
376.06	228.35
376.44	228.28
376.82	228.23
377.19	228.18
377.57	228.09
377.95	227.99
378.33	227.92
378.71	227.80
379.09	227.73
379.47	227.69
379.84	227.60
380.22	227.52
380.60	227.42
380.98	227.36
381.36	227.32
381.73	227.25
382.11	227.18
382.49	227.13
382.87	227.08
383.25	227.02
383.62	227.11
384.00	227.05
384.38	226.99
384.76	226.96
385.13	226.89
385.51	226.86
385.89	226.82
386.27	226.76
386.64	226.73
387.02	226.70
387.40	226.64
387.78	226.61
388.15	226.59
388.53	226.55
388.91	226.52
389.29	226.47
389.66	226.43
390.04	226.44
390.42	226.42
390.79	226.41
391.17	226.40
391.55	226.23
391.92	226.21
392.30	226.19
392.68	226.20
393.05	226.21
393.43	226.23
393.81	226.24
394.18	226.24
394.56	226.25
394.94	226.31
395.31	226.33
395.69	226.40
396.06	226.46
396.44	226.54
396.82	226.58
397.19	226.69
397.57	226.78
397.95	226.81
398.32	226.83
398.70	226.89
399.07	226.97
399.45	227.07
399.82	227.16
400.20	227.24
400.58	227.26
400.95	227.34
401.33	227.46
401.70	227.63
402.08	227.74
402.45	227.84
402.83	227.93
403.20	228.03
403.58	228.12
403.95	228.20
404.33	228.29
404.71	228.44
405.08	228.60
405.46	228.72
405.83	228.90
406.21	229.07
406.58	229.23
406.96	229.41
407.33	229.56
407.70	229.73
408.08	230.01
408.45	230.29
408.83	230.52
409.20	230.68
409.58	230.86
409.95	231.15
410.33	231.42
410.70	231.70
411.08	232.03
411.45	232.32
411.82	232.67
412.20	233.04
412.57	233.45
412.95	233.77
413.32	234.17
413.69	234.56
414.07	235.02
414.44	235.47
414.82	235.94
415.19	236.50
415.56	237.06
415.94	237.62
416.31	238.25
416.68	238.87
417.06	239.58
417.43	240.28
417.81	241.01
418.18	241.78
418.55	242.60
418.93	243.44
419.30	244.34
419.67	245.27
420.04	246.26
420.42	247.25
420.79	248.40
421.16	249.56
421.54	250.80
421.91	252.01
422.28	253.30
422.66	254.65
423.03	256.00
423.40	257.36
423.77	258.75
424.15	260.15
424.52	261.65
424.89	263.26
425.26	264.82
425.64	266.27
426.01	267.91
426.38	269.58
426.75	271.25
427.13	273.01
427.50	274.84
427.87	276.68
428.24	278.57
428.61	280.32
428.99	282.24
429.36	284.34
429.73	286.39
430.10	288.38
430.47	290.43
430.85	292.58
431.22	294.80
431.59	297.21
431.96	299.48
432.33	301.97
432.70	304.39
433.08	307.16
433.45	309.85
433.82	312.42
434.19	315.32
434.56	318.18
434.93	320.83
435.30	323.47
435.68	326.45
436.05	329.27
436.42	332.14
436.79	334.68
437.16	337.39
437.53	340.26
437.90	343.11
438.27	345.87
438.64	348.66
439.01	351.30
439.38	353.49
439.75	355.67
440.13	358.15
440.50	360.48
440.87	362.35
441.24	364.28
441.61	366.48
441.98	367.96
442.35	369.75
442.72	371.59
443.09	373.35
443.46	374.32
443.83	374.92
444.20	375.41
444.57	376.28
444.94	376.56
445.31	376.82
445.68	377.16
446.05	377.22
446.42	376.79
446.79	376.32
447.16	375.87
447.53	375.51
447.90	374.34
448.27	373.16
448.64	371.59
449.01	370.42
449.37	368.43
449.74	366.55
450.11	364.28
450.48	361.84
450.85	359.32
451.22	357.14
451.59	355.11
451.96	353.12
452.33	350.47
452.70	348.08
453.07	345.29
453.43	342.36
453.80	339.54
454.17	336.87
454.54	334.32
454.91	331.60
455.28	328.93
455.65	326.46
456.02	324.00
456.38	321.84
456.75	319.20
457.12	316.96
457.49	314.72
457.86	312.54
458.23	310.64
458.59	308.59
458.96	306.52
459.33	304.65
459.70	302.74
460.07	301.23
460.43	299.51
460.80	297.88
461.17	296.46
461.54	295.01
461.91	293.60
462.27	292.20
462.64	290.97
463.01	289.61
463.38	288.33
463.74	286.98
464.11	285.81
464.48	284.76
464.85	283.62
465.21	282.72
465.58	281.82
465.95	280.74
466.32	279.82
466.68	278.88
467.05	277.98
467.42	277.13
467.78	276.19
468.15	275.35
468.52	274.71
468.88	273.80
469.25	272.99
469.62	272.32
469.98	271.61
470.35	271.00
470.72	270.40
471.08	269.68
471.45	269.10
471.82	268.53
472.18	267.92
472.55	267.47
472.92	266.96
473.28	266.45
473.65	265.98
474.02	265.56
474.38	265.19
474.75	264.86
475.11	264.53
475.48	264.27
475.85	264.04
476.21	263.76
476.58	263.65
476.94	263.52
477.31	263.39
477.67	263.24
478.04	263.12
478.41	263.05
478.77	263.13
479.14	263.09
479.50	263.10
479.87	263.19
480.23	263.30
480.60	263.36
480.96	263.47
481.33	263.71
481.69	263.89
482.06	264.09
482.42	264.33
482.79	264.58
483.15	264.92
483.52	265.25
483.88	265.61
484.25	265.97
484.61	266.43
484.98	266.84
485.34	267.41
485.71	267.97
486.07	268.58
486.44	269.13
486.80	269.84
487.17	270.59
487.53	271.41
487.90	272.22
488.26	273.16
488.62	274.12
488.99	275.08
489.35	276.13
489.72	277.25
490.08	278.42
490.44	279.66
490.81	281.00
491.17	282.36
491.54	283.85
491.90	285.37
492.26	286.99
492.63	288.73
492.99	290.53
493.36	292.40
493.72	294.47
494.08	296.59
494.45	298.82
494.81	301.15
495.17	303.55
495.54	306.16
495.90	308.86
496.26	311.65
496.63	314.61
496.99	317.73
497.35	320.96
497.72	324.34
498.08	327.86
498.44	331.49
498.80	335.40
499.17	339.43
499.53	343.60
499.89	347.95
500.26	352.51
500.62	357.16
500.98	362.16
501.34	367.19
501.71	372.48
502.07	377.93
502.43	383.59
502.79	389.41
503.16	395.49
503.52	401.68
503.88	408.14
504.24	414.76
504.60	421.65
504.97	428.78
505.33	436.07
505.69	443.72
506.05	451.48
506.41	459.39
506.78	467.58
507.14	476.03
507.50	484.78
507.86	493.79
508.22	502.97
508.59	512.13
508.95	521.71
509.31	531.52
509.67	541.66
510.03	551.93
510.39	562.53
510.75	573.28
511.12	584.30
511.48	595.62
511.84	607.13
512.20	618.70
512.56	630.68
512.92	642.96
513.28	655.35
513.64	667.76
514.00	680.50
514.37	693.41
514.73	706.46
515.09	719.49
515.45	732.74
515.81	746.34
516.17	760.38
516.53	774.47
516.89	788.74
517.25	802.90
517.61	817.41
517.97	831.84
518.33	846.37
518.69	861.15
519.05	876.20
519.41	891.41
519.77	907.00
520.13	922.42
520.49	937.81
520.85	953.31
521.21	969.18
521.57	985.44
521.93	1001.23
522.29	1017.62
522.65	1033.97
523.01	1050.26
523.37	1066.37
523.73	1082.63
524.09	1098.87
524.45	1115.14
524.81	1131.87
525.17	1148.78
525.53	1165.80
525.89	1182.72
526.25	1199.55
526.61	1215.96
526.97	1232.66
527.33	1249.14
527.68	1265.84
528.04	1282.43
528.40	1299.06
528.76	1316.20
529.12	1332.77
529.48	1349.71
529.84	1365.83
530.20	1382.48
530.56	1399.60
530.91	1417.08
531.27	1433.88
531.63	1450.42
531.99	1467.10
532.35	1483.10
532.71	1498.93
533.07	1515.19
533.42	1531.13
533.78	1547.24
534.14	1563.50
534.50	1578.95
534.86	1594.83
535.21	1610.05
535.57	1625.99
535.93	1641.61
536.29	1656.52
536.65	1671.80
537.00	1686.71
537.36	1702.04
537.72	1716.66
538.08	1731.12
538.44	1744.88
538.79	1758.85
539.15	1772.63
539.51	1786.36
539.87	1800.87
540.22	1814.59
540.58	1828.34
540.94	1841.85
541.29	1854.93
541.65	1867.79
542.01	1881.21
542.37	1893.61
542.72	1906.16
543.08	1917.84
543.44	1930.22
543.79	1941.40
544.15	1952.45
544.51	1963.95
544.87	1975.11
545.22	1985.96
545.58	1996.24
545.94	2006.10
546.29	2016.03
546.65	2025.78
547.01	2035.06
547.36	2043.74
547.72	2052.29
548.07	2060.20
548.43	2068.52
548.79	2076.54
549.14	2084.07
549.50	2091.33
549.86	2099.04
550.21	2106.50
550.57	2113.77
550.92	2120.24
551.28	2127.28
551.64	2134.25
551.99	2140.88
552.35	2146.89
552.70	2153.17
553.06	2159.03
553.41	2165.36
553.77	2171.39
554.13	2177.58
554.48	2183.81
554.84	2189.26
555.19	2194.69
555.55	2199.87
555.90	2204.16
556.26	2208.97
556.61	2213.61
556.97	2217.81
557.32	2222.02
557.68	2225.98
558.03	2230.38
558.39	2234.33
558.74	2238.99
559.10	2242.90
559.45	2246.56
559.81	2250.96
560.16	2254.74
560.52	2258.11
560.87	2261.58
561.23	2264.22
561.58	2267.10
561.94	2269.56
562.29	2271.97
562.64	2274.62
563.00	2277.27
563.35	2280.61
563.71	2283.73
564.06	2287.05
564.42	2289.83
564.77	2292.17
565.12	2294.27
565.48	2295.97
565.83	2297.63
566.19	2298.82
566.54	2299.77
566.89	2300.87
567.25	2301.32
567.60	2302.60
567.96	2304.20
568.31	2304.87
568.66	2305.96
569.02	2306.46
569.37	2306.64
569.72	2307.39
570.08	2307.37
570.43	2307.25
570.78	2306.75
571.14	2305.12
571.49	2303.75
571.84	2303.40
572.20	2302.04
572.55	2301.05
572.90	2299.66
573.26	2298.13
573.61	2296.36
573.96	2294.52
574.31	2291.55
574.67	2288.40
575.02	2284.67
575.37	2281.22
575.72	2277.48
576.08	2274.06
576.43	2270.77
576.78	2267.21
577.13	2263.97
577.49	2260.89
577.84	2257.45
578.19	2253.63
578.54	2249.95
578.90	2245.44
579.25	2239.91
579.60	2235.08
579.95	2230.05
580.30	2224.83
580.66	2219.63
581.01	2214.70
581.36	2209.66
581.71	2205.27
582.06	2200.85
582.42	2196.12
582.77	2190.73
583.12	2185.95
583.47	2181.00
583.82	2175.71
584.17	2170.40
584.53	2164.84
584.88	2159.14
585.23	2153.08
585.58	2147.47
585.93	2141.89
586.28	2137.14
586.63	2131.90
586.98	2126.81
587.34	2122.00
587.69	2117.04
588.04	2111.78
588.39	2106.00
588.74	2099.38
589.09	2093.16
589.44	2086.19
589.79	2080.31
590.14	2074.67
590.49	2068.12
590.84	2061.80
591.19	2055.74
591.54	2049.11
591.89	2041.49
592.25	2034.59
592.60	2027.56
592.95	2019.91
593.30	2012.57
593.65	2004.99
594.00	1998.02
594.35	1990.60
594.70	1982.52
595.05	1975.03
595.40	1967.65
595.75	1960.09
596.10	1953.77
596.45	1946.92
596.80	1940.86
597.15	1934.03
597.50	1926.80
597.85	1920.34
598.19	1913.45
598.54	1906.17
598.89	1899.51
599.24	1893.74
599.59	1886.98
599.94	1880.55
600.29	1874.36
600.64	1867.64
600.99	1859.99
601.34	1852.95
601.69	1845.97
602.04	1839.06
602.39	1831.82
602.74	1824.97
603.08	1818.27
603.43	1811.65
603.78	1804.40
604.13	1797.14
604.48	1789.71
604.83	1782.92
605.18	1775.83
605.53	1767.84
605.87	1759.85
606.22	1752.60
606.57	1744.52
606.92	1737.19
607.27	1730.04
607.62	1722.90
607.96	1715.63
608.31	1709.01
608.66	1701.38
609.01	1693.88
609.36	1686.20
609.70	1678.18
610.05	1670.08
610.40	1662.23
610.75	1653.77
611.10	1645.98
611.44	1637.49
611.79	1629.67
612.14	1620.98
612.49	1611.85
612.83	1603.60
613.18	1595.59
613.53	1587.47
613.88	1578.92
614.22	1570.68
614.57	1562.10
614.92	1553.99
615.27	1546.38
615.61	1538.05
615.96	1530.06
616.31	1522.40
616.65	1515.12
617.00	1507.66
617.35	1500.00
617.70	1491.64
618.04	1483.10
618.39	1474.88
618.74	1467.33
619.08	1459.03
619.43	1451.46
619.78	1444.60
620.12	1437.34
620.47	1429.76
620.82	1421.69
621.16	1414.46
621.51	1406.81
621.85	1399.06
622.20	1390.66
622.55	1382.48
622.89	1374.66
623.24	1367.08
623.59	1359.71
623.93	1352.10
624.28	1344.78
624.62	1337.30
624.97	1330.21
625.32	1323.56
625.66	1316.58
626.01	1309.31
626.35	1301.73
626.70	1294.04
627.04	1286.16
627.39	1278.46
627.73	1271.07
628.08	1264.09
628.43	1256.64
628.77	1249.22
629.12	1241.70
629.46	1234.47
629.81	1226.92
630.15	1219.64
630.50	1212.23
630.84	1204.02
631.19	1196.24
631.53	1188.78
631.88	1181.19
632.22	1173.54
632.57	1166.19
632.91	1158.72
633.26	1151.40
633.60	1144.14
633.95	1137.00
634.29	1130.05
634.64	1123.29
634.98	1115.95
635.32	1108.79
635.67	1102.26
636.01	1095.57
636.36	1088.86
636.70	1082.38
637.05	1075.89
637.39	1069.47
637.73	1062.97
638.08	1057.11
638.42	1051.02
638.77	1044.56
639.11	1037.97
639.45	1031.68
639.80	1025.03
640.14	1018.47
640.49	1011.87
640.83	1005.57
641.17	999.18
641.52	992.81
641.86	986.46
642.20	980.65
642.55	974.34
642.89	967.82
643.23	961.38
643.58	955.57
643.92	949.40
644.26	943.27
644.61	937.30
644.95	931.26
645.29	924.66
645.64	917.92
645.98	911.58
646.32	905.81
646.66	899.75
647.01	893.95
647.35	888.33
647.69	882.56
648.04	877.02
648.38	871.35
648.72	865.35
649.06	859.22
649.41	853.35
649.75	847.42
650.09	841.47
650.43	835.61
650.78	829.40
651.12	823.46
651.46	817.82
651.80	812.07
652.14	806.67
652.49	801.30
652.83	796.13
653.17	790.41
653.51	784.63
653.85	779.29
654.20	773.67
654.54	767.69
654.88	761.96
655.22	756.12
655.56	750.36
655.90	744.96
656.25	739.73
656.59	734.34
656.93	729.19
657.27	724.05
657.61	718.62
657.95	713.57
658.29	708.44
658.64	703.19
658.98	697.90
659.32	692.48
659.66	687.23
660.00	681.91
660.34	677.00
660.68	672.15
661.02	667.11
661.36	662.44
661.70	657.92
662.05	653.52
662.39	649.17
662.73	644.78
663.07	640.38
663.41	635.97
663.75	631.48
664.09	626.94
664.43	622.56
664.77	618.53
665.11	614.30
665.45	610.25
665.79	606.18
666.13	602.02
666.47	597.91
666.81	593.77
667.15	589.66
667.49	585.83
667.83	582.04
668.17	578.08
668.51	573.98
668.85	569.98
669.19	566.18
669.53	562.30
669.87	558.40
670.21	554.71
670.55	551.10
670.89	547.67
671.23	544.27
671.57	540.77
671.91	537.17
672.25	533.68
672.58	530.15
672.92	526.70
673.26	523.55
673.60	520.44
673.94	517.37
674.28	514.48
674.62	511.50
674.96	508.31
675.30	505.40
675.64	502.44
675.97	499.70
676.31	496.80
676.65	493.92
676.99	491.27
677.33	488.41
677.67	485.62
678.01	482.57
678.34	479.54
678.68	476.69
679.02	473.96
679.36	471.21
679.70	468.44
680.04	465.67
680.37	462.78
680.71	459.94
681.05	457.31
681.39	454.62
681.73	451.98
682.06	449.51
682.40	446.98
682.74	444.51
683.08	441.93
683.42	439.39
683.75	436.92
684.09	434.36
684.43	431.96
684.77	429.46
685.10	427.17
685.44	424.91
685.78	422.66
686.12	420.38
686.45	418.09
686.79	415.89
687.13	413.75
687.46	411.65
687.80	409.51
688.14	407.32
688.48	405.32
688.81	403.09
689.15	400.92
689.49	398.80
689.82	396.70
690.16	394.62
690.50	392.66
690.83	390.70
691.17	388.74
691.51	386.78
691.84	384.92
692.18	383.00
692.52	381.04
692.85	379.14
693.19	377.27
693.52	375.43
693.86	373.62
694.20	371.81
694.53	370.00
694.87	368.20
695.21	366.44
695.54	364.54
695.88	362.79
696.21	361.10
696.55	359.42
696.88	357.73
697.22	356.11
697.56	354.52
697.89	352.84
698.23	351.20
698.56	349.59
698.90	347.97
699.23	346.31
699.57	344.71
699.90	343.18
700.24	341.64
700.58	340.12
700.91	338.60
701.25	337.16
701.58	335.77
701.92	334.42
702.25	333.03
702.59	331.67
702.92	330.35
703.26	329.08
703.59	327.81
703.93	326.60
704.26	325.34
704.60	324.01
704.93	322.74
705.26	321.53
705.60	320.36
705.93	319.24
706.27	318.21
706.60	317.19
706.94	316.06
707.27	314.87
707.61	313.82
707.94	312.79
708.27	311.70
708.61	310.65
708.94	309.64
709.28	308.70
709.61	307.78
709.94	306.85
710.28	305.78
710.61	304.80
710.95	303.70
711.28	302.78
711.61	301.84
711.95	300.95
712.28	299.97
712.61	298.98
712.95	298.04
713.28	297.20
713.61	296.29
713.95	295.40
714.28	294.60
714.61	293.77
714.95	292.94
715.28	292.10
715.61	291.19
715.95	290.29
716.28	289.40
716.61	288.57
716.95	287.74
717.28	287.01
717.61	286.25
717.94	285.61
718.28	284.83
718.61	284.13
718.94	283.46
719.27	282.88
719.61	282.28
719.94	281.66
720.27	280.93
720.60	280.31
720.94	279.71
721.27	279.11
721.60	278.51
721.93	277.91
722.27	277.35
722.60	276.85
722.93	276.33
723.26	275.79
723.59	275.24
723.93	274.71
724.26	274.17
724.59	273.59
724.92	273.06
725.25	272.55
725.59	272.03
725.92	271.53
726.25	270.99
726.58	270.47
726.91	269.94
727.24	269.49
727.57	269.00
727.91	268.50
728.24	268.05
728.57	267.59
728.90	267.12
729.23	266.64
729.56	266.21
729.89	265.72
730.22	265.23
730.55	264.76
730.89	264.30
731.22	263.85
731.55	263.44
731.88	262.98
732.21	262.55
732.54	262.13
732.87	261.68
733.20	261.27
733.53	260.92
733.86	260.56
734.19	260.16
734.52	259.78
734.85	259.48
735.18	259.08
735.51	258.73
735.84	258.39
736.17	258.05
736.50	257.62
736.83	257.39
737.16	257.06
737.49	256.71
737.82	256.39
738.15	256.10
738.48	255.75
738.81	255.44
739.14	255.14
739.47	254.84
739.80	254.53
740.13	254.21
740.46	253.85
740.79	253.57
741.12	253.23
741.45	252.89
741.78	252.54
742.11	252.22
742.44	251.86
742.77	251.56
743.10	251.24
743.43	250.97
743.75	250.59
744.08	250.45
744.41	250.16
744.74	249.87
745.07	249.56
745.40	249.32
745.73	249.08
746.06	248.76
746.39	248.46
746.71	248.19
747.04	247.96
747.37	247.72
747.70	247.46
748.03	247.19
748.36	246.98
748.68	246.74
749.01	246.49
749.34	246.26
749.67	245.99
750.00	245.78
750.33	245.60
750.65	245.39
750.98	245.03
751.31	244.82
751.64	244.62
751.97	244.45
752.29	244.21
752.62	243.95
752.95	243.79
753.28	243.57
753.60	243.35
753.93	243.17
754.26	242.94
754.59	242.65
754.91	242.44
755.24	242.25
755.57	242.04
755.90	241.87
756.22	241.70
756.55	241.54
756.88	241.31
757.20	241.11
757.53	240.94
757.86	240.79
758.19	240.64
758.51	240.47
758.84	240.24
759.17	240.07
759.49	239.93
759.82	239.77
760.15	239.62
760.47	239.50
760.80	239.30
761.13	239.18
761.45	239.05
761.78	238.93
762.11	238.76
762.43	238.65
762.76	238.51
763.08	238.39
763.41	238.27
763.74	238.13
764.06	237.96
764.39	237.80
764.71	237.63
765.04	237.47
765.37	237.28
765.69	237.16
766.02	237.00
766.34	236.88
766.67	236.75
767.00	236.65
767.32	236.58
767.65	236.51
767.97	236.37
768.30	236.27
768.62	236.17
768.95	236.07
769.27	235.93
769.60	235.85
769.92	235.68
770.25	235.53
770.57	235.45
770.90	235.39
771.22	235.28
771.55	235.19
771.87	235.13
772.20	235.09
772.52	235.09
772.85	235.13
773.17	235.01
773.50	234.90
773.82	234.82
774.15	234.67
774.47	234.54
774.80	234.46
775.12	234.39
775.45	234.32
775.77	234.25
776.09	234.20
776.42	234.09
776.74	234.06
777.07	233.99
777.39	233.90
777.72	233.80
778.04	233.73
778.36	233.68
778.69	233.62
779.01	233.56
779.33	233.45
779.66	233.28
779.98	233.21
780.31	233.18
780.63	233.15
780.95	233.11
781.28	233.06
781.60	233.00
781.92	232.96
782.25	232.89
782.57	232.85
782.89	232.78
783.22	232.71
783.54	232.66
783.86	232.61
784.19	232.58
784.51	232.58
784.83	232.51
785.16	232.46
785.48	232.38
785.80	232.33
786.12	232.26
786.45	232.23
786.77	232.20
787.09	232.13
