SpectraSuite Data File
++++++++++++++++++++++++++++++++++++
Date: Fri Feb 01 16:21:03 EST 2013
User: group
Dark Spectrum Present: No
Reference Spectrum Present: No
Number of Sampled Component Spectra: 1
Spectrometers: USB2E7196
Integration Time (usec): 35000 (USB2E7196)
Spectra Averaged: 100 (USB2E7196)
Boxcar Smoothing: 10 (USB2E7196)
Correct for Electrical Dark: No (USB2E7196)
Strobe/Lamp Enabled: No (USB2E7196)
Correct for Detector Non-linearity: No (USB2E7196)
Correct for Stray Light: No (USB2E7196)
Number of Pixels in Processed Spectrum: 2048
>>>>>Begin Processed Spectral Data<<<<<
339.09	0.00
339.48	213.89
339.86	216.41
340.24	216.77
340.63	218.40
341.01	221.63
341.39	221.04
341.78	223.07
342.16	223.13
342.54	223.98
342.93	212.65
343.31	223.42
343.69	223.98
344.07	224.39
344.46	224.84
344.84	225.22
345.22	225.45
345.60	225.73
345.99	225.87
346.37	226.00
346.75	226.11
347.13	226.17
347.52	226.22
347.90	226.27
348.28	226.26
348.66	226.29
349.05	226.26
349.43	226.31
349.81	226.34
350.19	226.39
350.57	226.45
350.96	226.51
351.34	226.56
351.72	226.67
352.10	226.78
352.48	226.81
352.87	226.89
353.25	226.93
353.63	226.97
354.01	227.03
354.39	227.12
354.77	227.19
355.15	227.33
355.54	227.38
355.92	227.43
356.30	227.50
356.68	227.65
357.06	227.70
357.44	227.73
357.82	227.81
358.20	227.88
358.58	227.93
358.97	228.01
359.35	228.08
359.73	228.10
360.11	228.13
360.49	228.20
360.87	228.22
361.25	228.28
361.63	228.35
362.01	228.39
362.39	228.44
362.77	228.47
363.15	228.46
363.53	228.50
363.91	228.51
364.29	228.54
364.67	228.46
365.05	228.48
365.43	228.49
365.81	228.51
366.19	228.55
366.57	228.61
366.95	228.63
367.33	228.61
367.71	228.61
368.09	228.65
368.47	228.64
368.85	228.63
369.23	228.63
369.61	228.58
369.99	228.61
370.37	228.56
370.75	228.59
371.13	228.55
371.51	228.47
371.89	228.45
372.27	228.38
372.65	228.35
373.03	228.32
373.41	228.28
373.78	228.22
374.16	228.11
374.54	228.03
374.92	227.93
375.30	227.87
375.68	227.80
376.06	227.73
376.44	227.64
376.82	227.59
377.19	227.52
377.57	227.47
377.95	227.36
378.33	227.31
378.71	227.17
379.09	227.10
379.47	227.06
379.84	226.99
380.22	226.94
380.60	226.85
380.98	226.77
381.36	226.70
381.73	226.62
382.11	226.60
382.49	226.53
382.87	226.47
383.25	226.41
383.62	226.44
384.00	226.36
384.38	226.31
384.76	226.27
385.13	226.23
385.51	226.13
385.89	226.09
386.27	226.05
386.64	226.06
387.02	226.02
387.40	225.96
387.78	225.94
388.15	225.91
388.53	225.85
388.91	225.80
389.29	225.75
389.66	225.72
390.04	225.67
390.42	225.66
390.79	225.65
391.17	225.63
391.55	225.54
391.92	225.55
392.30	225.58
392.68	225.53
393.05	225.54
393.43	225.58
393.81	225.57
394.18	225.54
394.56	225.51
394.94	225.56
395.31	225.54
395.69	225.60
396.06	225.64
396.44	225.71
396.82	225.74
397.19	225.84
397.57	225.87
397.95	225.91
398.32	225.96
398.70	225.99
399.07	226.04
399.45	226.08
399.82	226.10
400.20	226.15
400.58	226.23
400.95	226.27
401.33	226.38
401.70	226.54
402.08	226.65
402.45	226.77
402.83	226.88
403.20	227.02
403.58	227.09
403.95	227.21
404.33	227.35
404.71	227.49
405.08	227.67
405.46	227.80
405.83	227.97
406.21	228.07
406.58	228.24
406.96	228.41
407.33	228.62
407.70	228.82
408.08	229.08
408.45	229.31
408.83	229.55
409.20	229.73
409.58	229.92
409.95	230.15
410.33	230.43
410.70	230.65
411.08	230.96
411.45	231.27
411.82	231.58
412.20	231.86
412.57	232.25
412.95	232.54
413.32	232.97
413.69	233.38
414.07	233.81
414.44	234.30
414.82	234.81
415.19	235.36
415.56	235.91
415.94	236.42
416.31	237.05
416.68	237.64
417.06	238.36
417.43	239.01
417.81	239.78
418.18	240.53
418.55	241.36
418.93	242.23
419.30	243.11
419.67	244.04
420.04	245.03
420.42	246.07
420.79	247.21
421.16	248.34
421.54	249.52
421.91	250.75
422.28	252.00
422.66	253.30
423.03	254.60
423.40	255.92
423.77	257.34
424.15	258.75
424.52	260.22
424.89	261.82
425.26	263.37
425.64	264.82
426.01	266.42
426.38	268.12
426.75	269.80
427.13	271.49
427.50	273.28
427.87	275.15
428.24	276.97
428.61	278.69
428.99	280.63
429.36	282.73
429.73	284.80
430.10	286.82
430.47	288.85
430.85	290.97
431.22	293.21
431.59	295.58
431.96	297.83
432.33	300.34
432.70	302.73
433.08	305.58
433.45	308.18
433.82	310.81
434.19	313.68
434.56	316.47
434.93	319.18
435.30	321.77
435.68	324.65
436.05	327.48
436.42	330.29
436.79	332.83
437.16	335.51
437.53	338.32
437.90	341.15
438.27	343.91
438.64	346.71
439.01	349.30
439.38	351.52
439.75	353.67
440.13	356.14
440.50	358.46
440.87	360.26
441.24	362.24
441.61	364.34
441.98	365.83
442.35	367.61
442.72	369.41
443.09	371.22
443.46	372.15
443.83	372.72
444.20	373.27
444.57	374.10
444.94	374.38
445.31	374.73
445.68	375.02
446.05	375.06
446.42	374.64
446.79	374.21
447.16	373.77
447.53	373.51
447.90	372.33
448.27	371.15
448.64	369.62
449.01	368.48
449.37	366.53
449.74	364.60
450.11	362.38
450.48	359.94
450.85	357.42
451.22	355.36
451.59	353.36
451.96	351.38
452.33	348.74
452.70	346.40
453.07	343.58
453.43	340.72
453.80	337.99
454.17	335.35
454.54	332.77
454.91	330.08
455.28	327.38
455.65	324.90
456.02	322.46
456.38	320.26
456.75	317.58
457.12	315.36
457.49	313.18
457.86	310.97
458.23	309.14
458.59	307.13
458.96	305.04
459.33	303.21
459.70	301.38
460.07	299.92
460.43	298.21
460.80	296.59
461.17	295.17
461.54	293.70
461.91	292.29
462.27	290.89
462.64	289.62
463.01	288.29
463.38	287.03
463.74	285.69
464.11	284.54
464.48	283.51
464.85	282.41
465.21	281.52
465.58	280.63
465.95	279.53
466.32	278.61
466.68	277.74
467.05	276.83
467.42	275.94
467.78	275.01
468.15	274.14
468.52	273.48
468.88	272.64
469.25	271.84
469.62	271.23
469.98	270.55
470.35	269.93
470.72	269.29
471.08	268.63
471.45	268.11
471.82	267.58
472.18	267.00
472.55	266.57
472.92	266.07
473.28	265.61
473.65	265.18
474.02	264.75
474.38	264.38
474.75	264.08
475.11	263.77
475.48	263.53
475.85	263.33
476.21	263.08
476.58	262.92
476.94	262.81
477.31	262.66
477.67	262.54
478.04	262.47
478.41	262.44
478.77	262.53
479.14	262.47
479.50	262.47
479.87	262.56
480.23	262.67
480.60	262.75
480.96	262.84
481.33	263.05
481.69	263.27
482.06	263.44
482.42	263.64
482.79	263.86
483.15	264.13
483.52	264.53
483.88	264.89
484.25	265.26
484.61	265.69
484.98	266.14
485.34	266.70
485.71	267.28
486.07	267.88
486.44	268.44
486.80	269.16
487.17	269.91
487.53	270.71
487.90	271.55
488.26	272.51
488.62	273.52
488.99	274.50
489.35	275.55
489.72	276.71
490.08	277.93
490.44	279.19
490.81	280.53
491.17	281.88
491.54	283.36
491.90	284.93
492.26	286.58
492.63	288.33
492.99	290.14
493.36	292.00
493.72	294.08
494.08	296.16
494.45	298.46
494.81	300.82
495.17	303.24
495.54	305.83
495.90	308.52
496.26	311.31
496.63	314.27
496.99	317.36
497.35	320.62
497.72	324.03
498.08	327.52
498.44	331.24
498.80	335.12
499.17	339.17
499.53	343.30
499.89	347.64
500.26	352.18
500.62	356.86
500.98	361.88
501.34	366.89
501.71	372.23
502.07	377.65
502.43	383.28
502.79	389.08
503.16	395.15
503.52	401.41
503.88	407.80
504.24	414.44
504.60	421.36
504.97	428.53
505.33	435.84
505.69	443.58
506.05	451.30
506.41	459.17
506.78	467.34
507.14	475.84
507.50	484.59
507.86	493.56
508.22	502.73
508.59	511.87
508.95	521.51
509.31	531.36
509.67	541.44
510.03	551.71
510.39	562.32
510.75	573.12
511.12	584.09
511.48	595.41
511.84	606.90
512.20	618.38
512.56	630.30
512.92	642.45
513.28	654.76
513.64	667.25
514.00	679.96
514.37	692.88
514.73	705.85
515.09	718.90
515.45	732.21
515.81	745.89
516.17	759.88
516.53	774.01
516.89	788.13
517.25	802.33
517.61	816.82
517.97	831.26
518.33	845.69
518.69	860.36
519.05	875.39
519.41	890.50
519.77	906.06
520.13	921.48
520.49	936.88
520.85	952.23
521.21	967.97
521.57	984.24
521.93	999.93
522.29	1016.39
522.65	1032.55
523.01	1048.66
523.37	1064.61
523.73	1080.79
524.09	1096.86
524.45	1113.19
524.81	1129.77
525.17	1146.57
525.53	1163.35
525.89	1180.17
526.25	1197.07
526.61	1213.33
526.97	1230.13
527.33	1246.49
527.68	1263.00
528.04	1279.48
528.40	1296.19
528.76	1313.17
529.12	1329.64
529.48	1346.51
529.84	1362.33
530.20	1378.93
530.56	1395.92
530.91	1413.36
531.27	1429.97
531.63	1446.33
531.99	1462.70
532.35	1478.65
532.71	1494.37
533.07	1510.68
533.42	1526.47
533.78	1542.34
534.14	1558.56
534.50	1573.78
534.86	1589.66
535.21	1604.86
535.57	1620.64
535.93	1636.04
536.29	1650.81
536.65	1665.78
537.00	1680.53
537.36	1695.84
537.72	1710.30
538.08	1724.69
538.44	1738.29
538.79	1752.25
539.15	1765.92
539.51	1779.66
539.87	1793.85
540.22	1807.64
540.58	1821.40
540.94	1834.67
541.29	1847.60
541.65	1860.18
542.01	1873.33
542.37	1885.48
542.72	1897.82
543.08	1909.55
543.44	1921.92
543.79	1933.06
544.15	1944.20
544.51	1955.71
544.87	1966.58
545.22	1977.38
545.58	1987.50
545.94	1997.32
546.29	2007.05
546.65	2016.88
547.01	2026.02
547.36	2034.67
547.72	2043.00
548.07	2050.61
548.43	2058.73
548.79	2066.73
549.14	2074.25
549.50	2081.51
549.86	2089.22
550.21	2096.44
550.57	2103.55
550.92	2109.98
551.28	2116.95
551.64	2123.84
551.99	2130.20
552.35	2136.38
552.70	2142.37
553.06	2148.34
553.41	2154.62
553.77	2160.58
554.13	2166.59
554.48	2172.74
554.84	2178.27
555.19	2183.45
555.55	2188.65
555.90	2193.12
556.26	2197.99
556.61	2202.80
556.97	2207.05
557.32	2211.19
557.68	2215.38
558.03	2219.73
558.39	2223.52
558.74	2228.23
559.10	2232.00
559.45	2235.79
559.81	2240.10
560.16	2244.03
560.52	2247.30
560.87	2250.62
561.23	2253.33
561.58	2256.13
561.94	2258.61
562.29	2260.76
562.64	2263.56
563.00	2266.13
563.35	2269.69
563.71	2272.73
564.06	2275.94
564.42	2278.86
564.77	2281.39
565.12	2283.53
565.48	2285.42
565.83	2287.17
566.19	2288.47
566.54	2289.38
566.89	2290.48
567.25	2291.01
567.60	2292.32
567.96	2294.11
568.31	2295.07
568.66	2296.36
569.02	2297.01
569.37	2297.62
569.72	2298.69
570.08	2298.87
570.43	2298.97
570.78	2298.41
571.14	2296.92
571.49	2295.49
571.84	2295.23
572.20	2294.09
572.55	2293.22
572.90	2291.70
573.26	2290.55
573.61	2288.88
573.96	2287.27
574.31	2284.45
574.67	2281.55
575.02	2277.96
575.37	2274.48
575.72	2270.66
576.08	2267.25
576.43	2264.04
576.78	2260.31
577.13	2257.24
577.49	2254.21
577.84	2250.89
578.19	2247.24
578.54	2243.73
578.90	2239.64
579.25	2234.13
579.60	2229.16
579.95	2224.02
580.30	2219.20
580.66	2213.96
581.01	2209.06
581.36	2204.21
581.71	2200.04
582.06	2195.64
582.42	2191.26
582.77	2186.10
583.12	2181.64
583.47	2176.90
583.82	2171.90
584.17	2166.74
584.53	2161.31
584.88	2155.84
585.23	2150.02
585.58	2144.47
585.93	2138.99
586.28	2134.27
586.63	2129.23
586.98	2124.42
587.34	2119.85
587.69	2114.81
588.04	2109.57
588.39	2104.04
588.74	2097.68
589.09	2091.65
589.44	2084.98
589.79	2079.09
590.14	2073.50
590.49	2066.92
590.84	2060.68
591.19	2054.73
591.54	2048.29
591.89	2040.95
592.25	2033.99
592.60	2026.75
592.95	2019.31
593.30	2011.98
593.65	2004.43
594.00	1997.50
594.35	1990.27
594.70	1982.41
595.05	1975.29
595.40	1968.01
595.75	1960.39
596.10	1954.11
596.45	1947.26
596.80	1941.15
597.15	1934.53
597.50	1927.52
597.85	1921.17
598.19	1914.45
598.54	1907.39
598.89	1900.61
599.24	1894.70
599.59	1888.05
599.94	1881.93
600.29	1875.59
600.64	1869.15
600.99	1861.73
601.34	1854.87
601.69	1847.91
602.04	1840.96
602.39	1833.67
602.74	1826.80
603.08	1820.10
603.43	1813.36
603.78	1806.03
604.13	1798.72
604.48	1791.36
604.83	1784.50
605.18	1777.43
605.53	1769.37
605.87	1761.38
606.22	1754.32
606.57	1746.43
606.92	1739.19
607.27	1731.98
607.62	1725.07
607.96	1717.73
608.31	1711.06
608.66	1703.53
609.01	1695.92
609.36	1688.39
609.70	1680.26
610.05	1672.25
610.40	1664.63
610.75	1656.27
611.10	1648.70
611.44	1640.32
611.79	1632.26
612.14	1623.58
612.49	1614.63
612.83	1606.33
613.18	1598.10
613.53	1589.96
613.88	1581.32
614.22	1572.98
614.57	1564.51
614.92	1556.42
615.27	1548.86
615.61	1540.54
615.96	1532.38
616.31	1524.76
616.65	1517.52
617.00	1509.99
617.35	1502.39
617.70	1494.06
618.04	1485.68
618.39	1477.45
618.74	1469.80
619.08	1461.63
619.43	1453.98
619.78	1446.99
620.12	1439.92
620.47	1432.56
620.82	1424.39
621.16	1417.04
621.51	1409.37
621.85	1401.58
622.20	1393.10
622.55	1384.75
622.89	1376.93
623.24	1369.37
623.59	1361.92
623.93	1354.31
624.28	1347.06
624.62	1339.47
624.97	1332.28
625.32	1325.45
625.66	1318.40
626.01	1311.28
626.35	1303.74
626.70	1296.03
627.04	1288.23
627.39	1280.45
627.73	1272.88
628.08	1265.92
628.43	1258.54
628.77	1251.27
629.12	1243.74
629.46	1236.69
629.81	1229.21
630.15	1221.94
630.50	1214.53
630.84	1206.34
631.19	1198.36
631.53	1190.88
631.88	1183.32
632.22	1175.75
632.57	1168.47
632.91	1160.95
633.26	1153.48
633.60	1146.10
633.95	1138.97
634.29	1131.95
634.64	1125.21
634.98	1117.91
635.32	1110.74
635.67	1104.21
636.01	1097.52
636.36	1090.72
636.70	1084.13
637.05	1077.62
637.39	1071.14
637.73	1064.53
638.08	1058.56
638.42	1052.51
638.77	1046.00
639.11	1039.43
639.45	1032.95
639.80	1026.30
640.14	1019.86
640.49	1013.40
640.83	1007.06
641.17	1000.80
641.52	994.46
641.86	987.95
642.20	982.12
642.55	975.90
642.89	969.37
643.23	962.84
643.58	957.05
643.92	950.86
644.26	944.68
644.61	938.72
644.95	932.72
645.29	926.18
645.64	919.54
645.98	913.25
646.32	907.51
646.66	901.47
647.01	895.67
647.35	889.97
647.69	884.13
648.04	878.67
648.38	872.84
648.72	866.81
649.06	860.74
649.41	854.87
649.75	848.81
650.09	842.87
650.43	837.11
650.78	830.94
651.12	824.92
651.46	819.27
651.80	813.50
652.14	808.12
652.49	802.84
652.83	797.62
653.17	791.89
653.51	786.13
653.85	780.69
654.20	775.04
654.54	769.01
654.88	763.16
655.22	757.19
655.56	751.54
655.90	746.06
656.25	740.83
656.59	735.35
656.93	730.29
657.27	725.16
657.61	719.64
657.95	714.54
658.29	709.48
658.64	704.18
658.98	698.81
659.32	693.40
659.66	688.06
660.00	682.72
660.34	677.79
660.68	672.84
661.02	667.79
661.36	663.05
661.70	658.55
662.05	654.24
662.39	649.95
662.73	645.44
663.07	641.09
663.41	636.61
663.75	632.17
664.09	627.62
664.43	623.20
664.77	619.11
665.11	614.85
665.45	610.74
665.79	606.66
666.13	602.51
666.47	598.33
666.81	594.17
667.15	590.05
667.49	586.16
667.83	582.27
668.17	578.34
668.51	574.21
668.85	570.19
669.19	566.41
669.53	562.58
669.87	558.70
670.21	554.96
670.55	551.34
670.89	547.87
671.23	544.43
671.57	540.93
671.91	537.40
672.25	533.86
672.58	530.28
672.92	526.87
673.26	523.75
673.60	520.63
673.94	517.54
674.28	514.66
674.62	511.68
674.96	508.63
675.30	505.76
675.64	502.83
675.97	500.02
676.31	497.06
676.65	494.10
676.99	491.37
677.33	488.49
677.67	485.67
678.01	482.65
678.34	479.62
678.68	476.71
679.02	473.86
679.36	471.15
679.70	468.44
680.04	465.69
680.37	462.77
680.71	459.96
681.05	457.36
681.39	454.61
681.73	451.98
682.06	449.44
682.40	446.90
682.74	444.40
683.08	441.87
683.42	439.26
683.75	436.79
684.09	434.31
684.43	431.90
684.77	429.40
685.10	427.06
685.44	424.78
685.78	422.50
686.12	420.28
686.45	417.99
686.79	415.71
687.13	413.48
687.46	411.29
687.80	409.14
688.14	406.93
688.48	404.88
688.81	402.58
689.15	400.40
689.49	398.28
689.82	396.20
690.16	394.12
690.50	392.22
690.83	390.24
691.17	388.22
691.51	386.30
691.84	384.50
692.18	382.59
692.52	380.63
692.85	378.72
693.19	376.80
693.52	374.96
693.86	373.11
694.20	371.33
694.53	369.57
694.87	367.72
695.21	365.90
695.54	364.06
695.88	362.39
696.21	360.70
696.55	359.00
696.88	357.27
697.22	355.65
697.56	353.99
697.89	352.38
698.23	350.78
698.56	349.14
698.90	347.50
699.23	345.86
699.57	344.26
699.90	342.69
700.24	341.16
700.58	339.63
700.91	338.15
701.25	336.71
701.58	335.34
701.92	333.94
702.25	332.57
702.59	331.24
702.92	329.92
703.26	328.62
703.59	327.35
703.93	326.18
704.26	324.92
704.60	323.57
704.93	322.27
705.26	321.05
705.60	319.91
705.93	318.76
706.27	317.71
706.60	316.68
706.94	315.61
707.27	314.51
707.61	313.44
707.94	312.46
708.27	311.39
708.61	310.32
708.94	309.35
709.28	308.31
709.61	307.31
709.94	306.31
710.28	305.27
710.61	304.25
710.95	303.17
711.28	302.21
711.61	301.32
711.95	300.39
712.28	299.45
712.61	298.45
712.95	297.54
713.28	296.66
713.61	295.75
713.95	294.86
714.28	294.02
714.61	293.19
714.95	292.29
715.28	291.41
715.61	290.55
715.95	289.67
716.28	288.84
716.61	288.00
716.95	287.17
717.28	286.44
717.61	285.68
717.94	284.99
718.28	284.19
718.61	283.44
718.94	282.77
719.27	282.06
719.61	281.42
719.94	280.72
720.27	279.99
720.60	279.34
720.94	278.71
721.27	278.09
721.60	277.51
721.93	276.96
722.27	276.44
722.60	275.86
722.93	275.29
723.26	274.78
723.59	274.28
723.93	273.76
724.26	273.18
724.59	272.62
724.92	272.09
725.25	271.61
725.59	271.09
725.92	270.57
726.25	270.06
726.58	269.56
726.91	269.07
727.24	268.63
727.57	268.14
727.91	267.62
728.24	267.14
728.57	266.64
728.90	266.11
729.23	265.61
729.56	265.16
729.89	264.70
730.22	264.21
730.55	263.71
730.89	263.28
731.22	262.88
731.55	262.44
731.88	261.97
732.21	261.53
732.54	261.10
732.87	260.66
733.20	260.25
733.53	259.88
733.86	259.52
734.19	259.09
734.52	258.73
734.85	258.44
735.18	258.04
735.51	257.68
735.84	257.33
736.17	256.99
736.50	256.58
736.83	256.38
737.16	256.01
737.49	255.70
737.82	255.34
738.15	254.99
738.48	254.67
738.81	254.36
739.14	254.02
739.47	253.71
739.80	253.43
740.13	253.14
740.46	252.76
740.79	252.45
741.12	252.15
741.45	251.82
741.78	251.45
742.11	251.18
742.44	250.81
742.77	250.54
743.10	250.28
743.43	249.97
743.75	249.58
744.08	249.45
744.41	249.14
744.74	248.87
745.07	248.56
745.40	248.30
745.73	248.09
746.06	247.80
746.39	247.56
746.71	247.26
747.04	246.98
747.37	246.75
747.70	246.49
748.03	246.23
748.36	246.00
748.68	245.75
749.01	245.49
749.34	245.27
749.67	245.02
750.00	244.71
750.33	244.58
750.65	244.36
750.98	244.01
751.31	243.83
751.64	243.62
751.97	243.46
752.29	243.26
752.62	242.98
752.95	242.78
753.28	242.53
753.60	242.33
753.93	242.17
754.26	241.99
754.59	241.75
754.91	241.54
755.24	241.34
755.57	241.20
755.90	241.00
756.22	240.81
756.55	240.61
756.88	240.44
757.20	240.18
757.53	239.96
757.86	239.79
758.19	239.61
758.51	239.41
758.84	239.21
759.17	239.00
759.49	238.84
759.82	238.76
760.15	238.58
760.47	238.43
760.80	238.24
761.13	238.10
761.45	237.95
761.78	237.81
762.11	237.68
762.43	237.50
762.76	237.38
763.08	237.25
763.41	237.13
763.74	237.00
764.06	236.89
764.39	236.74
764.71	236.59
765.04	236.46
765.37	236.36
765.69	236.20
766.02	236.09
766.34	236.01
766.67	235.84
767.00	235.77
767.32	235.70
767.65	235.65
767.97	235.56
768.30	235.45
768.62	235.34
768.95	235.20
769.27	235.11
769.60	235.06
769.92	234.96
770.25	234.82
770.57	234.72
770.90	234.61
771.22	234.52
771.55	234.44
771.87	234.38
772.20	234.28
772.52	234.29
772.85	234.35
773.17	234.25
773.50	234.15
773.82	234.04
774.15	233.93
774.47	233.78
774.80	233.66
775.12	233.59
775.45	233.55
775.77	233.51
776.09	233.44
776.42	233.30
776.74	233.25
777.07	233.17
777.39	233.13
777.72	233.06
778.04	233.02
778.36	232.95
778.69	232.86
779.01	232.79
779.33	232.66
779.66	232.45
779.98	232.35
780.31	232.27
780.63	232.27
780.95	232.17
781.28	232.13
781.60	232.06
781.92	231.98
782.25	231.90
782.57	231.82
782.89	231.75
783.22	231.71
783.54	231.64
783.86	231.57
784.19	231.47
784.51	231.43
784.83	231.37
785.16	231.28
785.48	231.23
785.80	231.19
786.12	231.13
786.45	231.07
786.77	231.04
787.09	231.03
