SpectraSuite Data File
++++++++++++++++++++++++++++++++++++
Date: Fri Feb 01 18:08:50 EST 2013
User: group
Dark Spectrum Present: No
Reference Spectrum Present: No
Number of Sampled Component Spectra: 1
Spectrometers: USB2E7196
Integration Time (usec): 35000 (USB2E7196)
Spectra Averaged: 100 (USB2E7196)
Boxcar Smoothing: 10 (USB2E7196)
Correct for Electrical Dark: No (USB2E7196)
Strobe/Lamp Enabled: No (USB2E7196)
Correct for Detector Non-linearity: No (USB2E7196)
Correct for Stray Light: No (USB2E7196)
Number of Pixels in Processed Spectrum: 2048
>>>>>Begin Processed Spectral Data<<<<<
339.09	0.00
339.48	213.51
339.86	213.91
340.24	216.01
340.63	217.86
341.01	220.24
341.39	220.62
341.78	221.11
342.16	222.32
342.54	222.45
342.93	211.47
343.31	222.17
343.69	222.67
344.07	223.15
344.46	223.59
344.84	223.94
345.22	224.17
345.60	224.41
345.99	224.63
346.37	224.79
346.75	224.91
347.13	224.98
347.52	225.05
347.90	225.13
348.28	225.15
348.66	225.19
349.05	225.21
349.43	225.29
349.81	225.34
350.19	225.40
350.57	225.44
350.96	225.52
351.34	225.60
351.72	225.72
352.10	225.85
352.48	225.90
352.87	225.98
353.25	226.05
353.63	226.10
354.01	226.12
354.39	226.21
354.77	226.30
355.15	226.39
355.54	226.46
355.92	226.50
356.30	226.58
356.68	226.70
357.06	226.77
357.44	226.82
357.82	226.87
358.20	226.94
358.58	227.01
358.97	227.08
359.35	227.17
359.73	227.22
360.11	227.26
360.49	227.33
360.87	227.39
361.25	227.46
361.63	227.52
362.01	227.59
362.39	227.59
362.77	227.65
363.15	227.67
363.53	227.71
363.91	227.73
364.29	227.75
364.67	227.70
365.05	227.74
365.43	227.77
365.81	227.79
366.19	227.83
366.57	227.89
366.95	227.86
367.33	227.83
367.71	227.82
368.09	227.81
368.47	227.76
368.85	227.74
369.23	227.71
369.61	227.69
369.99	227.66
370.37	227.68
370.75	227.68
371.13	227.61
371.51	227.56
371.89	227.55
372.27	227.51
372.65	227.49
373.03	227.42
373.41	227.35
373.78	227.31
374.16	227.23
374.54	227.15
374.92	227.10
375.30	227.05
375.68	226.99
376.06	226.97
376.44	226.92
376.82	226.87
377.19	226.80
377.57	226.73
377.95	226.67
378.33	226.60
378.71	226.50
379.09	226.48
379.47	226.43
379.84	226.38
380.22	226.34
380.60	226.24
380.98	226.17
381.36	226.12
381.73	226.03
382.11	226.01
382.49	225.94
382.87	225.88
383.25	225.82
383.62	225.87
384.00	225.79
384.38	225.75
384.76	225.68
385.13	225.68
385.51	225.66
385.89	225.63
386.27	225.60
386.64	225.55
387.02	225.51
387.40	225.46
387.78	225.40
388.15	225.37
388.53	225.37
388.91	225.33
389.29	225.29
389.66	225.30
390.04	225.25
390.42	225.25
390.79	225.25
391.17	225.22
391.55	225.08
391.92	225.06
392.30	225.08
392.68	225.09
393.05	225.07
393.43	225.05
393.81	225.04
394.18	225.01
394.56	225.00
394.94	225.01
395.31	224.99
395.69	225.04
396.06	225.10
396.44	225.11
396.82	225.13
397.19	225.22
397.57	225.25
397.95	225.29
398.32	225.29
398.70	225.33
399.07	225.43
399.45	225.51
399.82	225.57
400.20	225.60
400.58	225.64
400.95	225.67
401.33	225.79
401.70	225.93
402.08	226.02
402.45	226.12
402.83	226.25
403.20	226.36
403.58	226.47
403.95	226.56
404.33	226.69
404.71	226.81
405.08	226.98
405.46	227.12
405.83	227.25
406.21	227.46
406.58	227.64
406.96	227.79
407.33	228.00
407.70	228.22
408.08	228.58
408.45	228.83
408.83	229.11
409.20	229.37
409.58	229.60
409.95	229.94
410.33	230.28
410.70	230.61
411.08	231.04
411.45	231.43
411.82	231.82
412.20	232.29
412.57	232.87
412.95	233.31
413.32	233.87
413.69	234.46
414.07	235.05
414.44	235.69
414.82	236.35
415.19	237.10
415.56	237.89
415.94	238.63
416.31	239.53
416.68	240.42
417.06	241.38
417.43	242.34
417.81	243.39
418.18	244.49
418.55	245.65
418.93	246.84
419.30	248.10
419.67	249.44
420.04	250.79
420.42	252.18
420.79	253.76
421.16	255.38
421.54	257.03
421.91	258.71
422.28	260.43
422.66	262.31
423.03	264.09
423.40	265.94
423.77	267.91
424.15	269.93
424.52	272.01
424.89	274.23
425.26	276.41
425.64	278.44
426.01	280.63
426.38	282.98
426.75	285.30
427.13	287.73
427.50	290.26
427.87	292.89
428.24	295.53
428.61	298.05
428.99	300.76
429.36	303.70
429.73	306.60
430.10	309.48
430.47	312.36
430.85	315.40
431.22	318.53
431.59	321.84
431.96	324.95
432.33	328.40
432.70	331.76
433.08	335.67
433.45	339.31
433.82	342.96
434.19	346.96
434.56	350.89
434.93	354.56
435.30	358.20
435.68	362.21
436.05	366.08
436.42	369.97
436.79	373.47
437.16	377.27
437.53	381.20
437.90	385.11
438.27	388.91
438.64	392.87
439.01	396.43
439.38	399.58
439.75	402.62
440.13	406.15
440.50	409.37
440.87	411.97
441.24	414.76
441.61	417.79
441.98	419.89
442.35	422.41
442.72	425.04
443.09	427.60
443.46	429.02
443.83	429.88
444.20	430.58
444.57	431.82
444.94	432.24
445.31	432.76
445.68	433.21
446.05	433.34
446.42	432.82
446.79	432.27
447.16	431.63
447.53	431.19
447.90	429.55
448.27	427.98
448.64	425.73
449.01	424.07
449.37	421.31
449.74	418.62
450.11	415.45
450.48	412.01
450.85	408.46
451.22	405.47
451.59	402.61
451.96	399.91
452.33	396.23
452.70	392.91
453.07	388.93
453.43	384.90
453.80	381.07
454.17	377.29
454.54	373.72
454.91	369.93
455.28	366.17
455.65	362.73
456.02	359.20
456.38	356.23
456.75	352.57
457.12	349.42
457.49	346.33
457.86	343.36
458.23	340.72
458.59	337.81
458.96	334.90
459.33	332.36
459.70	329.74
460.07	327.58
460.43	325.15
460.80	322.85
461.17	320.82
461.54	318.66
461.91	316.62
462.27	314.62
462.64	312.88
463.01	311.01
463.38	309.15
463.74	307.31
464.11	305.68
464.48	304.22
464.85	302.68
465.21	301.46
465.58	300.14
465.95	298.59
466.32	297.34
466.68	296.05
467.05	294.75
467.42	293.46
467.78	292.17
468.15	290.92
468.52	289.98
468.88	288.79
469.25	287.72
469.62	286.84
469.98	285.89
470.35	284.92
470.72	284.00
471.08	283.08
471.45	282.26
471.82	281.47
472.18	280.60
472.55	279.95
472.92	279.15
473.28	278.46
473.65	277.80
474.02	277.14
474.38	276.62
474.75	276.15
475.11	275.64
475.48	275.25
475.85	274.91
476.21	274.52
476.58	274.21
476.94	273.93
477.31	273.66
477.67	273.39
478.04	273.23
478.41	273.11
478.77	273.06
479.14	272.94
479.50	272.88
479.87	272.86
480.23	272.85
480.60	272.87
480.96	272.90
481.33	273.04
481.69	273.21
482.06	273.34
482.42	273.47
482.79	273.66
483.15	273.93
483.52	274.25
483.88	274.59
484.25	274.91
484.61	275.31
484.98	275.72
485.34	276.26
485.71	276.85
486.07	277.41
486.44	277.95
486.80	278.66
487.17	279.36
487.53	280.21
487.90	281.05
488.26	282.00
488.62	282.99
488.99	284.02
489.35	285.06
489.72	286.22
490.08	287.47
490.44	288.79
490.81	290.14
491.17	291.53
491.54	293.13
491.90	294.77
492.26	296.50
492.63	298.32
492.99	300.18
493.36	302.15
493.72	304.33
494.08	306.60
494.45	308.96
494.81	311.48
495.17	314.05
495.54	316.82
495.90	319.66
496.26	322.70
496.63	325.83
496.99	329.13
497.35	332.60
497.72	336.28
498.08	340.03
498.44	343.97
498.80	348.18
499.17	352.43
499.53	356.94
499.89	361.63
500.26	366.51
500.62	371.51
500.98	376.86
501.34	382.33
501.71	388.02
502.07	393.91
502.43	399.99
502.79	406.24
503.16	412.80
503.52	419.56
503.88	426.43
504.24	433.54
504.60	441.00
504.97	448.68
505.33	456.51
505.69	464.79
506.05	473.19
506.41	481.63
506.78	490.51
507.14	499.63
507.50	509.05
507.86	518.74
508.22	528.69
508.59	538.65
508.95	549.03
509.31	559.64
509.67	570.47
510.03	581.63
510.39	593.05
510.75	604.71
511.12	616.63
511.48	628.88
511.84	641.38
512.20	653.88
512.56	666.87
512.92	680.11
513.28	693.54
513.64	707.09
514.00	721.02
514.37	735.05
514.73	749.33
515.09	763.59
515.45	778.16
515.81	793.00
516.17	808.34
516.53	823.91
516.89	839.57
517.25	855.14
517.61	870.94
517.97	886.82
518.33	902.74
518.69	919.01
519.05	935.44
519.41	952.09
519.77	969.28
520.13	986.36
520.49	1003.37
520.85	1020.45
521.21	1037.85
521.57	1055.80
521.93	1073.35
522.29	1091.51
522.65	1109.50
523.01	1127.46
523.37	1145.33
523.73	1163.22
524.09	1181.11
524.45	1199.08
524.81	1217.59
525.17	1236.40
525.53	1255.31
525.89	1274.23
526.25	1293.05
526.61	1311.50
526.97	1330.35
527.33	1348.77
527.68	1367.32
528.04	1385.81
528.40	1404.45
528.76	1423.61
529.12	1442.46
529.48	1461.54
529.84	1479.67
530.20	1498.63
530.56	1517.83
530.91	1537.64
531.27	1556.69
531.63	1575.39
531.99	1594.44
532.35	1612.78
532.71	1630.92
533.07	1649.56
533.42	1667.83
533.78	1686.19
534.14	1704.89
534.50	1722.56
534.86	1740.93
535.21	1758.59
535.57	1777.09
535.93	1795.10
536.29	1812.32
536.65	1829.73
537.00	1846.85
537.36	1864.76
537.72	1881.60
538.08	1898.64
538.44	1914.72
538.79	1930.97
539.15	1946.97
539.51	1963.02
539.87	1979.87
540.22	1996.11
540.58	2012.38
540.94	2028.15
541.29	2043.72
541.65	2058.94
542.01	2074.71
542.37	2089.57
542.72	2104.57
543.08	2118.88
543.44	2133.87
543.79	2147.71
544.15	2161.20
544.51	2175.42
544.87	2188.68
545.22	2202.04
545.58	2214.73
545.94	2226.95
546.29	2239.38
546.65	2251.76
547.01	2263.52
547.36	2274.59
547.72	2285.49
548.07	2295.77
548.43	2306.19
548.79	2316.44
549.14	2326.26
549.50	2336.02
549.86	2345.86
550.21	2355.28
550.57	2364.64
550.92	2373.33
551.28	2382.47
551.64	2391.77
551.99	2400.39
552.35	2408.79
552.70	2417.02
553.06	2425.10
553.41	2433.50
553.77	2441.57
554.13	2449.64
554.48	2458.02
554.84	2465.78
555.19	2472.89
555.55	2479.90
555.90	2486.36
556.26	2493.31
556.61	2499.86
556.97	2506.04
557.32	2511.93
557.68	2517.79
558.03	2523.84
558.39	2529.23
558.74	2535.68
559.10	2541.20
559.45	2546.49
559.81	2552.48
560.16	2558.04
560.52	2562.81
560.87	2567.82
561.23	2572.03
561.58	2576.52
561.94	2580.33
562.29	2583.90
562.64	2588.17
563.00	2592.17
563.35	2597.10
563.71	2601.60
564.06	2606.36
564.42	2610.46
564.77	2614.38
565.12	2618.29
565.48	2621.46
565.83	2624.69
566.19	2627.32
566.54	2629.21
566.89	2631.55
567.25	2633.21
567.60	2635.55
567.96	2638.51
568.31	2640.52
568.66	2642.77
569.02	2644.39
569.37	2645.76
569.72	2647.61
570.08	2648.57
570.43	2649.36
570.78	2649.56
571.14	2648.55
571.49	2647.59
571.84	2647.86
572.20	2647.53
572.55	2647.00
572.90	2645.83
573.26	2645.00
573.61	2643.71
573.96	2642.53
574.31	2639.86
574.67	2637.13
575.02	2633.63
575.37	2630.28
575.72	2626.52
576.08	2623.04
576.43	2619.73
576.78	2616.09
577.13	2612.95
577.49	2609.92
577.84	2606.55
578.19	2602.66
578.54	2598.97
578.90	2594.65
579.25	2588.85
579.60	2583.67
579.95	2578.23
580.30	2572.84
580.66	2567.21
581.01	2561.76
581.36	2556.42
581.71	2551.94
582.06	2547.08
582.42	2542.36
582.77	2536.73
583.12	2531.92
583.47	2527.03
583.82	2521.68
584.17	2515.92
584.53	2509.90
584.88	2503.65
585.23	2497.25
585.58	2491.28
585.93	2485.26
586.28	2480.04
586.63	2474.48
586.98	2468.54
587.34	2463.41
587.69	2458.06
588.04	2452.23
588.39	2445.85
588.74	2438.51
589.09	2431.57
589.44	2423.86
589.79	2416.79
590.14	2410.43
590.49	2402.73
590.84	2395.33
591.19	2388.35
591.54	2381.01
591.89	2372.67
592.25	2364.93
592.60	2356.57
592.95	2348.00
593.30	2339.45
593.65	2330.62
594.00	2322.47
594.35	2314.15
594.70	2304.69
595.05	2296.56
595.40	2288.00
595.75	2279.43
596.10	2272.32
596.45	2264.43
596.80	2257.47
597.15	2249.99
597.50	2241.71
597.85	2234.23
598.19	2226.57
598.54	2218.42
598.89	2210.49
599.24	2203.42
599.59	2195.69
599.94	2188.44
600.29	2180.93
600.64	2173.10
600.99	2164.42
601.34	2156.40
601.69	2148.30
602.04	2140.31
602.39	2131.43
602.74	2123.45
603.08	2115.44
603.43	2107.41
603.78	2098.64
604.13	2089.87
604.48	2081.21
604.83	2073.00
605.18	2064.81
605.53	2055.31
605.87	2045.70
606.22	2037.14
606.57	2027.70
606.92	2018.73
607.27	2010.29
607.62	2001.99
607.96	1993.46
608.31	1985.57
608.66	1976.43
609.01	1967.44
609.36	1958.40
609.70	1948.97
610.05	1939.31
610.40	1930.10
610.75	1920.13
611.10	1911.13
611.44	1900.93
611.79	1891.26
612.14	1880.95
612.49	1869.91
612.83	1859.88
613.18	1850.16
613.53	1840.57
613.88	1830.46
614.22	1820.74
614.57	1810.42
614.92	1800.85
615.27	1791.87
615.61	1782.03
615.96	1772.47
616.31	1763.20
616.65	1754.41
617.00	1745.22
617.35	1736.08
617.70	1726.13
618.04	1716.16
618.39	1706.34
618.74	1697.47
619.08	1687.59
619.43	1678.48
619.78	1670.27
620.12	1661.71
620.47	1652.84
620.82	1642.95
621.16	1633.96
621.51	1624.79
621.85	1615.51
622.20	1605.23
622.55	1595.10
622.89	1585.56
623.24	1576.30
623.59	1567.44
623.93	1558.43
624.28	1549.85
624.62	1540.81
624.97	1532.21
625.32	1523.95
625.66	1515.43
626.01	1506.91
626.35	1498.05
626.70	1488.69
627.04	1479.48
627.39	1470.07
627.73	1461.11
628.08	1452.79
628.43	1444.18
628.77	1435.46
629.12	1426.54
629.46	1418.09
629.81	1409.11
630.15	1400.51
630.50	1391.84
630.84	1382.01
631.19	1372.38
631.53	1363.37
631.88	1354.38
632.22	1345.35
632.57	1336.49
632.91	1327.46
633.26	1318.59
633.60	1309.76
633.95	1301.22
634.29	1292.73
634.64	1284.73
634.98	1275.99
635.32	1267.52
635.67	1259.52
636.01	1251.49
636.36	1243.32
636.70	1235.51
637.05	1227.79
637.39	1220.10
637.73	1212.25
638.08	1205.19
638.42	1198.09
638.77	1190.38
639.11	1182.53
639.45	1174.91
639.80	1167.16
640.14	1159.62
640.49	1151.78
640.83	1144.32
641.17	1137.05
641.52	1129.50
641.86	1121.75
642.20	1114.76
642.55	1107.11
642.89	1099.50
643.23	1091.71
643.58	1084.90
643.92	1077.62
644.26	1070.44
644.61	1063.22
644.95	1056.08
645.29	1048.43
645.64	1040.52
645.98	1032.94
646.32	1025.95
646.66	1018.82
647.01	1011.97
647.35	1005.16
647.69	998.31
648.04	991.70
648.38	984.86
648.72	977.91
649.06	970.88
649.41	963.95
649.75	957.02
650.09	949.98
650.43	943.18
650.78	935.94
651.12	928.83
651.46	922.09
651.80	915.39
652.14	909.05
652.49	902.67
652.83	896.56
653.17	890.04
653.51	883.37
653.85	876.91
654.20	870.26
654.54	863.24
654.88	856.46
655.22	849.53
655.56	842.77
655.90	836.31
656.25	830.13
656.59	823.81
656.93	817.81
657.27	811.73
657.61	805.31
657.95	799.25
658.29	793.21
658.64	787.00
658.98	780.75
659.32	774.26
659.66	768.15
660.00	761.89
660.34	756.00
660.68	750.18
661.02	744.34
661.36	738.78
661.70	733.47
662.05	728.35
662.39	723.37
662.73	718.12
663.07	712.94
663.41	707.69
663.75	702.42
664.09	697.08
664.43	691.95
664.77	687.14
665.11	682.15
665.45	677.33
665.79	672.54
666.13	667.71
666.47	662.93
666.81	658.11
667.15	653.30
667.49	648.71
667.83	644.25
668.17	639.70
668.51	634.97
668.85	630.23
669.19	625.69
669.53	621.11
669.87	616.61
670.21	612.23
670.55	608.02
670.89	603.98
671.23	599.97
671.57	595.85
671.91	591.69
672.25	587.60
672.58	583.46
672.92	579.41
673.26	575.71
673.60	571.96
673.94	568.25
674.28	564.85
674.62	561.47
674.96	557.85
675.30	554.41
675.64	550.94
675.97	547.69
676.31	544.34
676.65	540.87
676.99	537.67
677.33	534.33
677.67	531.00
678.01	527.50
678.34	523.96
678.68	520.56
679.02	517.29
679.36	514.06
679.70	510.84
680.04	507.71
680.37	504.34
680.71	501.12
681.05	498.04
681.39	494.83
681.73	491.68
682.06	488.72
682.40	485.68
682.74	482.78
683.08	479.76
683.42	476.73
683.75	473.78
684.09	470.73
684.43	467.86
684.77	464.94
685.10	462.12
685.44	459.40
685.78	456.71
686.12	453.99
686.45	451.27
686.79	448.56
687.13	445.94
687.46	443.33
687.80	440.78
688.14	438.17
688.48	435.76
688.81	433.13
689.15	430.55
689.49	428.05
689.82	425.51
690.16	423.05
690.50	420.74
690.83	418.50
691.17	416.21
691.51	413.93
691.84	411.79
692.18	409.53
692.52	407.21
692.85	404.91
693.19	402.73
693.52	400.51
693.86	398.40
694.20	396.21
694.53	394.13
694.87	391.95
695.21	389.86
695.54	387.71
695.88	385.64
696.21	383.61
696.55	381.55
696.88	379.57
697.22	377.59
697.56	375.66
697.89	373.69
698.23	371.77
698.56	369.88
698.90	367.97
699.23	366.04
699.57	364.23
699.90	362.42
700.24	360.59
700.58	358.82
700.91	357.03
701.25	355.37
701.58	353.78
701.92	352.18
702.25	350.57
702.59	348.91
702.92	347.37
703.26	345.84
703.59	344.37
703.93	342.96
704.26	341.56
704.60	340.06
704.93	338.55
705.26	337.11
705.60	335.70
705.93	334.34
706.27	333.10
706.60	331.87
706.94	330.57
707.27	329.24
707.61	327.98
707.94	326.79
708.27	325.50
708.61	324.17
708.94	322.96
709.28	321.76
709.61	320.65
709.94	319.50
710.28	318.28
710.61	317.11
710.95	315.83
711.28	314.74
711.61	313.61
711.95	312.54
712.28	311.46
712.61	310.31
712.95	309.22
713.28	308.16
713.61	307.08
713.95	306.07
714.28	305.07
714.61	304.07
714.95	303.05
715.28	302.05
715.61	301.03
715.95	300.05
716.28	299.07
716.61	298.05
716.95	297.08
717.28	296.19
717.61	295.29
717.94	294.46
718.28	293.49
718.61	292.60
718.94	291.80
719.27	290.98
719.61	290.18
719.94	289.39
720.27	288.53
720.60	287.74
720.94	287.00
721.27	286.30
721.60	285.62
721.93	284.95
722.27	284.30
722.60	283.63
722.93	282.90
723.26	282.26
723.59	281.62
723.93	280.98
724.26	280.34
724.59	279.69
724.92	279.03
725.25	278.41
725.59	277.82
725.92	277.19
726.25	276.58
726.58	276.02
726.91	275.41
727.24	274.84
727.57	274.28
727.91	273.65
728.24	273.08
728.57	272.51
728.90	271.94
729.23	271.39
729.56	270.86
729.89	270.33
730.22	269.75
730.55	269.19
730.89	268.64
731.22	268.08
731.55	267.55
731.88	267.05
732.21	266.55
732.54	266.02
732.87	265.49
733.20	265.00
733.53	264.53
733.86	264.10
734.19	263.61
734.52	263.17
734.85	262.77
735.18	262.30
735.51	261.87
735.84	261.44
736.17	260.96
736.50	260.50
736.83	260.15
737.16	259.76
737.49	259.38
737.82	258.95
738.15	258.58
738.48	258.22
738.81	257.82
739.14	257.44
739.47	257.06
739.80	256.73
740.13	256.38
740.46	256.00
740.79	255.62
741.12	255.28
741.45	254.93
741.78	254.52
742.11	254.16
742.44	253.76
742.77	253.43
743.10	253.10
743.43	252.75
743.75	252.33
744.08	252.13
744.41	251.80
744.74	251.50
745.07	251.17
745.40	250.88
745.73	250.59
746.06	250.29
746.39	249.99
746.71	249.67
747.04	249.34
747.37	249.03
747.70	248.75
748.03	248.47
748.36	248.22
748.68	247.98
749.01	247.70
749.34	247.48
749.67	247.19
750.00	246.94
750.33	246.77
750.65	246.54
750.98	246.13
751.31	245.85
751.64	245.62
751.97	245.40
752.29	245.14
752.62	244.85
752.95	244.57
753.28	244.32
753.60	244.10
753.93	243.89
754.26	243.68
754.59	243.42
754.91	243.17
755.24	242.91
755.57	242.69
755.90	242.50
756.22	242.25
756.55	242.03
756.88	241.79
757.20	241.53
757.53	241.31
757.86	241.12
758.19	240.97
758.51	240.77
758.84	240.54
759.17	240.31
759.49	240.16
759.82	240.06
760.15	239.88
760.47	239.70
760.80	239.50
761.13	239.37
761.45	239.15
761.78	239.02
762.11	238.82
762.43	238.64
762.76	238.48
763.08	238.34
763.41	238.20
763.74	238.04
764.06	237.88
764.39	237.70
764.71	237.56
765.04	237.40
765.37	237.23
765.69	237.09
766.02	236.99
766.34	236.84
766.67	236.63
767.00	236.53
767.32	236.44
767.65	236.38
767.97	236.20
768.30	236.10
768.62	235.96
768.95	235.84
769.27	235.70
769.60	235.59
769.92	235.41
770.25	235.27
770.57	235.16
770.90	235.02
771.22	234.92
771.55	234.81
771.87	234.71
772.20	234.61
772.52	234.57
772.85	234.54
773.17	234.45
773.50	234.32
773.82	234.18
774.15	234.03
774.47	233.85
774.80	233.76
775.12	233.62
775.45	233.51
775.77	233.40
776.09	233.31
776.42	233.23
776.74	233.15
777.07	233.07
777.39	232.96
777.72	232.87
778.04	232.77
778.36	232.68
778.69	232.56
779.01	232.49
779.33	232.30
779.66	232.11
779.98	232.01
780.31	231.96
780.63	231.90
780.95	231.83
781.28	231.75
781.60	231.65
781.92	231.62
782.25	231.55
782.57	231.49
782.89	231.45
783.22	231.33
783.54	231.26
783.86	231.20
784.19	231.11
784.51	231.08
784.83	231.02
785.16	230.96
785.48	230.91
785.80	230.85
786.12	230.78
786.45	230.71
