SpectraSuite Data File
++++++++++++++++++++++++++++++++++++
Date: Fri Feb 01 16:17:01 EST 2013
User: group
Dark Spectrum Present: No
Reference Spectrum Present: No
Number of Sampled Component Spectra: 1
Spectrometers: USB2E7196
Integration Time (usec): 35000 (USB2E7196)
Spectra Averaged: 100 (USB2E7196)
Boxcar Smoothing: 10 (USB2E7196)
Correct for Electrical Dark: No (USB2E7196)
Strobe/Lamp Enabled: No (USB2E7196)
Correct for Detector Non-linearity: No (USB2E7196)
Correct for Stray Light: No (USB2E7196)
Number of Pixels in Processed Spectrum: 2048
>>>>>Begin Processed Spectral Data<<<<<
339.09	0.00
339.48	214.02
339.86	215.37
340.24	216.73
340.63	218.79
341.01	220.88
341.39	220.98
341.78	222.81
342.16	223.31
342.54	224.10
342.93	212.53
343.31	223.27
343.69	223.83
344.07	224.32
344.46	224.76
344.84	225.12
345.22	225.37
345.60	225.60
345.99	225.75
346.37	225.89
346.75	225.99
347.13	226.08
347.52	226.14
347.90	226.21
348.28	226.20
348.66	226.25
349.05	226.22
349.43	226.24
349.81	226.25
350.19	226.32
350.57	226.35
350.96	226.44
351.34	226.53
351.72	226.63
352.10	226.71
352.48	226.78
352.87	226.83
353.25	226.88
353.63	226.97
354.01	227.06
354.39	227.13
354.77	227.19
355.15	227.31
355.54	227.34
355.92	227.36
356.30	227.45
356.68	227.60
357.06	227.70
357.44	227.75
357.82	227.81
358.20	227.87
358.58	227.96
358.97	228.01
359.35	228.09
359.73	228.12
360.11	228.18
360.49	228.26
360.87	228.31
361.25	228.40
361.63	228.48
362.01	228.51
362.39	228.57
362.77	228.63
363.15	228.63
363.53	228.69
363.91	228.74
364.29	228.78
364.67	228.68
365.05	228.68
365.43	228.70
365.81	228.77
366.19	228.82
366.57	228.87
366.95	228.87
367.33	228.82
367.71	228.81
368.09	228.81
368.47	228.78
368.85	228.75
369.23	228.70
369.61	228.62
369.99	228.61
370.37	228.55
370.75	228.55
371.13	228.53
371.51	228.48
371.89	228.47
372.27	228.41
372.65	228.37
373.03	228.30
373.41	228.25
373.78	228.15
374.16	228.06
374.54	227.95
374.92	227.86
375.30	227.81
375.68	227.72
376.06	227.67
376.44	227.58
376.82	227.50
377.19	227.46
377.57	227.41
377.95	227.33
378.33	227.26
378.71	227.14
379.09	227.08
379.47	227.02
379.84	226.93
380.22	226.87
380.60	226.81
380.98	226.76
381.36	226.70
381.73	226.64
382.11	226.60
382.49	226.52
382.87	226.45
383.25	226.40
383.62	226.47
384.00	226.37
384.38	226.33
384.76	226.31
385.13	226.27
385.51	226.22
385.89	226.14
386.27	226.07
386.64	226.05
387.02	225.99
387.40	225.96
387.78	225.89
388.15	225.85
388.53	225.79
388.91	225.74
389.29	225.68
389.66	225.66
390.04	225.63
390.42	225.65
390.79	225.65
391.17	225.63
391.55	225.52
391.92	225.54
392.30	225.56
392.68	225.57
393.05	225.58
393.43	225.58
393.81	225.57
394.18	225.61
394.56	225.62
394.94	225.65
395.31	225.63
395.69	225.72
396.06	225.76
396.44	225.77
396.82	225.81
397.19	225.91
397.57	225.96
397.95	225.99
398.32	226.00
398.70	226.04
399.07	226.12
399.45	226.16
399.82	226.22
400.20	226.27
400.58	226.33
400.95	226.38
401.33	226.51
401.70	226.67
402.08	226.79
402.45	226.87
402.83	226.98
403.20	227.13
403.58	227.21
403.95	227.34
404.33	227.51
404.71	227.64
405.08	227.81
405.46	227.94
405.83	228.08
406.21	228.24
406.58	228.43
406.96	228.57
407.33	228.76
407.70	228.92
408.08	229.21
408.45	229.46
408.83	229.66
409.20	229.84
409.58	230.03
409.95	230.27
410.33	230.56
410.70	230.80
411.08	231.09
411.45	231.39
411.82	231.68
412.20	232.04
412.57	232.48
412.95	232.79
413.32	233.17
413.69	233.60
414.07	233.99
414.44	234.44
414.82	234.93
415.19	235.47
415.56	236.01
415.94	236.52
416.31	237.11
416.68	237.75
417.06	238.48
417.43	239.15
417.81	239.94
418.18	240.69
418.55	241.52
418.93	242.37
419.30	243.25
419.67	244.17
420.04	245.11
420.42	246.06
420.79	247.25
421.16	248.39
421.54	249.54
421.91	250.77
422.28	252.02
422.66	253.34
423.03	254.66
423.40	256.02
423.77	257.45
424.15	258.81
424.52	260.24
424.89	261.83
425.26	263.38
425.64	264.75
426.01	266.31
426.38	267.96
426.75	269.65
427.13	271.37
427.50	273.16
427.87	275.00
428.24	276.87
428.61	278.58
428.99	280.52
429.36	282.63
429.73	284.69
430.10	286.71
430.47	288.78
430.85	290.87
431.22	293.10
431.59	295.43
431.96	297.68
432.33	300.18
432.70	302.51
433.08	305.32
433.45	308.01
433.82	310.60
434.19	313.47
434.56	316.27
434.93	318.90
435.30	321.51
435.68	324.40
436.05	327.25
436.42	330.05
436.79	332.57
437.16	335.22
437.53	338.04
437.90	340.86
438.27	343.59
438.64	346.42
439.01	349.00
439.38	351.27
439.75	353.47
440.13	355.94
440.50	358.31
440.87	360.13
441.24	362.07
441.61	364.23
441.98	365.73
442.35	367.53
442.72	369.38
443.09	371.18
443.46	372.15
443.83	372.70
444.20	373.19
444.57	374.00
444.94	374.30
445.31	374.66
445.68	374.98
446.05	375.05
446.42	374.68
446.79	374.21
447.16	373.72
447.53	373.37
447.90	372.23
448.27	371.09
448.64	369.51
449.01	368.36
449.37	366.39
449.74	364.51
450.11	362.24
450.48	359.81
450.85	357.30
451.22	355.21
451.59	353.18
451.96	351.26
452.33	348.70
452.70	346.35
453.07	343.56
453.43	340.71
453.80	337.95
454.17	335.27
454.54	332.76
454.91	330.06
455.28	327.42
455.65	324.98
456.02	322.55
456.38	320.39
456.75	317.73
457.12	315.53
457.49	313.30
457.86	311.15
458.23	309.32
458.59	307.27
458.96	305.21
459.33	303.35
459.70	301.48
460.07	299.97
460.43	298.26
460.80	296.60
461.17	295.13
461.54	293.65
461.91	292.26
462.27	290.84
462.64	289.63
463.01	288.28
463.38	286.99
463.74	285.60
464.11	284.46
464.48	283.47
464.85	282.34
465.21	281.51
465.58	280.58
465.95	279.45
466.32	278.56
466.68	277.65
467.05	276.79
467.42	275.89
467.78	274.97
468.15	274.09
468.52	273.45
468.88	272.60
469.25	271.83
469.62	271.18
469.98	270.50
470.35	269.86
470.72	269.28
471.08	268.63
471.45	268.11
471.82	267.56
472.18	266.92
472.55	266.48
472.92	265.95
473.28	265.50
473.65	265.07
474.02	264.63
474.38	264.28
474.75	263.94
475.11	263.58
475.48	263.33
475.85	263.13
476.21	262.89
476.58	262.74
476.94	262.60
477.31	262.48
477.67	262.31
478.04	262.17
478.41	262.04
478.77	262.10
479.14	262.02
479.50	262.02
479.87	262.14
480.23	262.23
480.60	262.32
480.96	262.37
481.33	262.57
481.69	262.81
482.06	262.99
482.42	263.17
482.79	263.45
483.15	263.77
483.52	264.16
483.88	264.50
484.25	264.92
484.61	265.32
484.98	265.74
485.34	266.32
485.71	266.91
486.07	267.58
486.44	268.09
486.80	268.80
487.17	269.57
487.53	270.39
487.90	271.23
488.26	272.12
488.62	273.11
488.99	274.07
489.35	275.04
489.72	276.22
490.08	277.46
490.44	278.74
490.81	280.07
491.17	281.43
491.54	282.94
491.90	284.44
492.26	286.12
492.63	287.86
492.99	289.65
493.36	291.58
493.72	293.61
494.08	295.77
494.45	298.05
494.81	300.44
495.17	302.88
495.54	305.48
495.90	308.18
496.26	311.00
496.63	313.96
496.99	317.12
497.35	320.39
497.72	323.79
498.08	327.29
498.44	331.02
498.80	334.92
499.17	338.96
499.53	343.12
499.89	347.52
500.26	352.03
500.62	356.72
500.98	361.69
501.34	366.77
501.71	372.08
502.07	377.53
502.43	383.15
502.79	388.99
503.16	395.04
503.52	401.33
503.88	407.77
504.24	414.38
504.60	421.20
504.97	428.33
505.33	435.70
505.69	443.46
506.05	451.19
506.41	459.08
506.78	467.21
507.14	475.71
507.50	484.44
507.86	493.52
508.22	502.69
508.59	511.85
508.95	521.44
509.31	531.29
509.67	541.42
510.03	551.70
510.39	562.27
510.75	573.05
511.12	583.94
511.48	595.26
511.84	606.80
512.20	618.38
512.56	630.29
512.92	642.50
513.28	654.85
513.64	667.28
514.00	680.01
514.37	692.96
514.73	705.94
515.09	718.95
515.45	732.15
515.81	745.80
516.17	759.82
516.53	774.02
516.89	788.18
517.25	802.30
517.61	816.68
517.97	831.06
518.33	845.50
518.69	860.27
519.05	875.18
519.41	890.30
519.77	905.83
520.13	921.24
520.49	936.56
520.85	951.85
521.21	967.58
521.57	983.73
521.93	999.48
522.29	1015.83
522.65	1032.02
523.01	1048.23
523.37	1064.25
523.73	1080.43
524.09	1096.42
524.45	1112.72
524.81	1129.32
525.17	1146.15
525.53	1163.08
525.89	1179.88
526.25	1196.72
526.61	1213.00
526.97	1229.76
527.33	1246.09
527.68	1262.66
528.04	1279.03
528.40	1295.59
528.76	1312.66
529.12	1329.28
529.48	1346.09
529.84	1362.14
530.20	1378.82
530.56	1395.78
530.91	1413.09
531.27	1429.73
531.63	1446.09
531.99	1462.57
532.35	1478.48
532.71	1494.27
533.07	1510.46
533.42	1526.42
533.78	1542.39
534.14	1558.73
534.50	1573.97
534.86	1589.85
535.21	1605.10
535.57	1621.01
535.93	1636.47
536.29	1651.08
536.65	1666.11
537.00	1680.78
537.36	1695.90
537.72	1710.27
538.08	1724.62
538.44	1738.36
538.79	1752.18
539.15	1765.75
539.51	1779.42
539.87	1793.74
540.22	1807.47
540.58	1821.08
540.94	1834.31
541.29	1847.00
541.65	1859.62
542.01	1872.79
542.37	1884.97
542.72	1897.18
543.08	1908.88
543.44	1921.15
543.79	1932.47
544.15	1943.29
544.51	1954.95
544.87	1965.94
545.22	1976.74
545.58	1986.86
545.94	1996.57
546.29	2006.40
546.65	2016.37
547.01	2025.73
547.36	2034.37
547.72	2042.88
548.07	2050.69
548.43	2058.71
548.79	2066.79
549.14	2074.26
549.50	2081.40
549.86	2089.07
550.21	2096.45
550.57	2103.68
550.92	2110.33
551.28	2117.18
551.64	2124.25
551.99	2130.72
552.35	2136.83
552.70	2142.87
553.06	2148.91
553.41	2155.23
553.77	2161.29
554.13	2167.22
554.48	2173.19
554.84	2178.68
555.19	2183.77
555.55	2188.90
555.90	2193.44
556.26	2198.33
556.61	2203.04
556.97	2207.48
557.32	2211.66
557.68	2215.65
558.03	2219.88
558.39	2223.48
558.74	2228.21
559.10	2232.14
559.45	2235.68
559.81	2239.90
560.16	2243.78
560.52	2246.91
560.87	2250.24
561.23	2252.94
561.58	2255.88
561.94	2258.26
562.29	2260.54
562.64	2263.33
563.00	2265.99
563.35	2269.44
563.71	2272.61
564.06	2275.72
564.42	2278.56
564.77	2281.22
565.12	2283.62
565.48	2285.51
565.83	2287.53
566.19	2288.78
566.54	2289.54
566.89	2290.71
567.25	2291.44
567.60	2292.73
567.96	2294.50
568.31	2295.42
568.66	2296.50
569.02	2297.06
569.37	2297.54
569.72	2298.47
570.08	2298.61
570.43	2298.73
570.78	2298.22
571.14	2296.59
571.49	2295.42
571.84	2295.10
572.20	2293.94
572.55	2292.91
572.90	2291.32
573.26	2290.00
573.61	2288.53
573.96	2286.99
574.31	2284.06
574.67	2281.09
575.02	2277.52
575.37	2274.07
575.72	2270.20
576.08	2266.84
576.43	2263.59
576.78	2259.88
577.13	2256.70
577.49	2253.55
577.84	2250.05
578.19	2246.41
578.54	2243.07
578.90	2238.81
579.25	2233.28
579.60	2228.38
579.95	2223.36
580.30	2218.44
580.66	2213.15
581.01	2208.06
581.36	2203.17
581.71	2199.15
582.06	2194.82
582.42	2190.45
582.77	2185.37
583.12	2181.07
583.47	2176.30
583.82	2171.45
584.17	2166.32
584.53	2160.84
584.88	2155.29
585.23	2149.58
585.58	2144.03
585.93	2138.52
586.28	2133.73
586.63	2128.83
586.98	2123.79
587.34	2119.11
587.69	2114.26
588.04	2109.13
588.39	2103.56
588.74	2096.98
589.09	2090.79
589.44	2083.93
589.79	2077.85
590.14	2072.15
590.49	2065.45
590.84	2059.15
591.19	2053.14
591.54	2046.68
591.89	2039.47
592.25	2032.83
592.60	2025.70
592.95	2018.26
593.30	2010.88
593.65	2003.35
594.00	1996.22
594.35	1988.98
594.70	1980.92
595.05	1973.86
595.40	1966.59
595.75	1959.17
596.10	1953.09
596.45	1946.53
596.80	1940.41
597.15	1933.85
597.50	1926.93
597.85	1920.62
598.19	1914.02
598.54	1906.91
598.89	1900.45
599.24	1894.59
599.59	1887.95
599.94	1881.65
600.29	1875.32
600.64	1868.76
600.99	1861.46
601.34	1854.69
601.69	1847.70
602.04	1840.93
602.39	1833.47
602.74	1826.65
603.08	1819.88
603.43	1813.16
603.78	1805.68
604.13	1798.49
604.48	1791.26
604.83	1784.31
605.18	1777.34
605.53	1769.39
605.87	1761.34
606.22	1753.93
606.57	1745.89
606.92	1738.48
607.27	1731.37
607.62	1724.39
607.96	1717.19
608.31	1710.54
608.66	1702.95
609.01	1695.47
609.36	1687.97
609.70	1680.09
610.05	1672.09
610.40	1664.35
610.75	1656.05
611.10	1648.44
611.44	1640.06
611.79	1631.97
612.14	1623.33
612.49	1614.14
612.83	1605.73
613.18	1597.63
613.53	1589.57
613.88	1581.04
614.22	1572.76
614.57	1564.20
614.92	1556.29
615.27	1548.79
615.61	1540.45
615.96	1532.37
616.31	1524.63
616.65	1517.10
617.00	1509.52
617.35	1501.72
617.70	1493.47
618.04	1484.92
618.39	1476.72
618.74	1469.12
619.08	1460.86
619.43	1453.19
619.78	1446.35
620.12	1439.20
620.47	1431.74
620.82	1423.62
621.16	1416.30
621.51	1408.64
621.85	1400.93
622.20	1392.36
622.55	1383.91
622.89	1376.05
623.24	1368.45
623.59	1361.11
623.93	1353.67
624.28	1346.34
624.62	1338.90
624.97	1331.69
625.32	1325.04
625.66	1317.92
626.01	1310.74
626.35	1303.31
626.70	1295.69
627.04	1287.97
627.39	1280.17
627.73	1272.76
628.08	1265.78
628.43	1258.32
628.77	1251.03
629.12	1243.50
629.46	1236.37
629.81	1228.85
630.15	1221.59
630.50	1214.19
630.84	1205.97
631.19	1198.04
631.53	1190.60
631.88	1183.02
632.22	1175.45
632.57	1168.02
632.91	1160.49
633.26	1153.02
633.60	1145.61
633.95	1138.50
634.29	1131.37
634.64	1124.72
634.98	1117.30
635.32	1110.24
635.67	1103.63
636.01	1097.00
636.36	1090.23
636.70	1083.62
637.05	1077.09
637.39	1070.74
637.73	1064.23
638.08	1058.32
638.42	1052.25
638.77	1045.77
639.11	1039.31
639.45	1032.87
639.80	1026.24
640.14	1019.86
640.49	1013.38
640.83	1007.08
641.17	1000.88
641.52	994.59
641.86	988.05
642.20	982.23
642.55	975.91
642.89	969.50
643.23	962.79
643.58	957.01
643.92	950.85
644.26	944.90
644.61	938.80
644.95	932.81
645.29	926.35
645.64	919.68
645.98	913.33
646.32	907.33
646.66	901.28
647.01	895.50
647.35	889.81
647.69	883.91
648.04	878.48
648.38	872.59
648.72	866.60
649.06	860.58
649.41	854.68
649.75	848.71
650.09	842.79
650.43	837.10
650.78	830.93
651.12	824.88
651.46	819.00
651.80	813.29
652.14	807.87
652.49	802.45
652.83	797.21
653.17	791.54
653.51	785.83
653.85	780.36
654.20	774.72
654.54	768.69
654.88	762.95
655.22	756.98
655.56	751.33
655.90	745.83
656.25	740.66
656.59	735.28
656.93	730.16
657.27	725.02
657.61	719.57
657.95	714.47
658.29	709.46
658.64	704.20
658.98	698.83
659.32	693.33
659.66	688.07
660.00	682.78
660.34	677.75
660.68	672.84
661.02	667.93
661.36	663.18
661.70	658.64
662.05	654.30
662.39	650.05
662.73	645.54
663.07	641.19
663.41	636.61
663.75	632.10
664.09	627.48
664.43	623.04
664.77	618.89
665.11	614.63
665.45	610.45
665.79	606.43
666.13	602.30
666.47	598.19
666.81	594.02
667.15	589.92
667.49	586.04
667.83	582.23
668.17	578.22
668.51	574.17
668.85	570.16
669.19	566.28
669.53	562.36
669.87	558.48
670.21	554.76
670.55	551.12
670.89	547.71
671.23	544.34
671.57	540.86
671.91	537.34
672.25	533.85
672.58	530.35
672.92	527.00
673.26	523.85
673.60	520.69
673.94	517.62
674.28	514.66
674.62	511.70
674.96	508.57
675.30	505.64
675.64	502.70
675.97	499.92
676.31	497.02
676.65	494.10
676.99	491.38
677.33	488.51
677.67	485.77
678.01	482.71
678.34	479.74
678.68	476.83
679.02	474.04
679.36	471.24
679.70	468.51
680.04	465.66
680.37	462.80
680.71	460.04
681.05	457.39
681.39	454.69
681.73	452.09
682.06	449.59
682.40	447.06
682.74	444.54
683.08	442.02
683.42	439.47
683.75	436.97
684.09	434.41
684.43	431.98
684.77	429.48
685.10	427.14
685.44	424.80
685.78	422.52
686.12	420.28
686.45	417.98
686.79	415.68
687.13	413.48
687.46	411.32
687.80	409.16
688.14	406.94
688.48	404.92
688.81	402.69
689.15	400.51
689.49	398.34
689.82	396.23
690.16	394.18
690.50	392.22
690.83	390.28
691.17	388.30
691.51	386.37
691.84	384.54
692.18	382.61
692.52	380.62
692.85	378.71
693.19	376.77
693.52	374.95
693.86	373.14
694.20	371.37
694.53	369.57
694.87	367.68
695.21	365.90
695.54	364.02
695.88	362.27
696.21	360.54
696.55	358.89
696.88	357.20
697.22	355.51
697.56	353.84
697.89	352.19
698.23	350.59
698.56	348.96
698.90	347.33
699.23	345.72
699.57	344.18
699.90	342.64
700.24	341.11
700.58	339.60
700.91	338.07
701.25	336.61
701.58	335.20
701.92	333.85
702.25	332.45
702.59	331.10
702.92	329.80
703.26	328.47
703.59	327.15
703.93	325.98
704.26	324.70
704.60	323.42
704.93	322.12
705.26	320.87
705.60	319.70
705.93	318.48
706.27	317.41
706.60	316.33
706.94	315.21
707.27	314.08
707.61	313.01
707.94	312.01
708.27	310.92
708.61	309.82
708.94	308.78
709.28	307.82
709.61	306.84
709.94	305.85
710.28	304.87
710.61	303.89
710.95	302.82
711.28	301.92
711.61	300.97
711.95	300.06
712.28	299.09
712.61	298.09
712.95	297.21
713.28	296.30
713.61	295.42
713.95	294.57
714.28	293.74
714.61	292.87
714.95	292.00
715.28	291.19
715.61	290.33
715.95	289.53
716.28	288.67
716.61	287.82
716.95	287.02
717.28	286.25
717.61	285.46
717.94	284.67
718.28	283.84
718.61	283.12
718.94	282.44
719.27	281.81
719.61	281.18
719.94	280.53
720.27	279.83
720.60	279.15
720.94	278.51
721.27	277.91
721.60	277.31
721.93	276.69
722.27	276.12
722.60	275.56
722.93	274.97
723.26	274.48
723.59	273.90
723.93	273.36
724.26	272.84
724.59	272.29
724.92	271.77
725.25	271.27
725.59	270.76
725.92	270.25
726.25	269.75
726.58	269.26
726.91	268.78
727.24	268.32
727.57	267.86
727.91	267.33
728.24	266.87
728.57	266.43
728.90	266.00
729.23	265.52
729.56	265.13
729.89	264.71
730.22	264.21
730.55	263.79
730.89	263.32
731.22	262.87
731.55	262.47
731.88	262.09
732.21	261.69
732.54	261.27
732.87	260.83
733.20	260.43
733.53	260.01
733.86	259.63
734.19	259.26
734.52	258.90
734.85	258.61
735.18	258.18
735.51	257.81
735.84	257.44
736.17	257.09
736.50	256.67
736.83	256.44
737.16	256.11
737.49	255.80
737.82	255.47
738.15	255.13
738.48	254.82
738.81	254.46
739.14	254.11
739.47	253.79
739.80	253.52
740.13	253.20
740.46	252.89
740.79	252.53
741.12	252.22
741.45	251.88
741.78	251.51
742.11	251.24
742.44	250.89
742.77	250.60
743.10	250.29
743.43	249.97
743.75	249.56
744.08	249.42
744.41	249.13
744.74	248.87
745.07	248.59
745.40	248.32
745.73	248.11
746.06	247.86
746.39	247.55
746.71	247.21
747.04	246.93
747.37	246.66
747.70	246.42
748.03	246.15
748.36	245.93
748.68	245.73
749.01	245.45
749.34	245.24
749.67	245.02
750.00	244.79
750.33	244.65
750.65	244.40
750.98	244.04
751.31	243.83
751.64	243.62
751.97	243.45
752.29	243.22
752.62	242.98
752.95	242.76
753.28	242.57
753.60	242.40
753.93	242.23
754.26	242.03
754.59	241.82
754.91	241.63
755.24	241.41
755.57	241.20
755.90	241.04
756.22	240.82
756.55	240.64
756.88	240.46
757.20	240.22
757.53	240.05
757.86	239.86
758.19	239.69
758.51	239.49
758.84	239.32
759.17	239.15
759.49	239.01
759.82	238.87
760.15	238.74
760.47	238.64
760.80	238.47
761.13	238.38
761.45	238.20
761.78	238.06
762.11	237.94
762.43	237.80
762.76	237.67
763.08	237.58
763.41	237.43
763.74	237.28
764.06	237.15
764.39	237.02
764.71	236.89
765.04	236.77
765.37	236.65
765.69	236.48
766.02	236.36
766.34	236.22
766.67	236.11
767.00	236.02
767.32	235.90
767.65	235.84
767.97	235.73
768.30	235.65
768.62	235.53
768.95	235.37
769.27	235.27
769.60	235.19
769.92	235.02
770.25	234.91
770.57	234.85
770.90	234.75
771.22	234.64
771.55	234.55
771.87	234.47
772.20	234.37
772.52	234.34
772.85	234.38
773.17	234.27
773.50	234.18
773.82	234.06
774.15	233.91
774.47	233.77
774.80	233.65
775.12	233.57
775.45	233.46
775.77	233.41
776.09	233.33
776.42	233.20
776.74	233.19
777.07	233.13
777.39	233.00
777.72	232.91
778.04	232.85
778.36	232.78
778.69	232.70
779.01	232.64
779.33	232.48
779.66	232.28
779.98	232.21
780.31	232.12
780.63	232.08
780.95	232.06
781.28	232.00
781.60	231.95
781.92	231.87
782.25	231.81
782.57	231.74
782.89	231.66
783.22	231.59
783.54	231.49
783.86	231.41
784.19	231.35
784.51	231.33
784.83	231.24
785.16	231.16
785.48	231.09
785.80	231.01
786.12	230.96
786.45	230.90
786.77	230.86
787.09	230.83
