SpectraSuite Data File
++++++++++++++++++++++++++++++++++++
Date: Fri Feb 01 16:26:27 EST 2013
User: group
Dark Spectrum Present: No
Reference Spectrum Present: No
Number of Sampled Component Spectra: 1
Spectrometers: USB2E7196
Integration Time (usec): 35000 (USB2E7196)
Spectra Averaged: 100 (USB2E7196)
Boxcar Smoothing: 10 (USB2E7196)
Correct for Electrical Dark: No (USB2E7196)
Strobe/Lamp Enabled: No (USB2E7196)
Correct for Detector Non-linearity: No (USB2E7196)
Correct for Stray Light: No (USB2E7196)
Number of Pixels in Processed Spectrum: 2048
>>>>>Begin Processed Spectral Data<<<<<
339.09	0.00
339.48	214.16
339.86	215.55
340.24	216.53
340.63	218.25
341.01	220.77
341.39	220.98
341.78	222.71
342.16	223.36
342.54	224.49
342.93	212.37
343.31	223.08
343.69	223.65
344.07	224.10
344.46	224.57
344.84	224.97
345.22	225.21
345.60	225.47
345.99	225.63
346.37	225.76
346.75	225.83
347.13	225.91
347.52	225.94
347.90	226.05
348.28	226.04
348.66	226.13
349.05	226.14
349.43	226.18
349.81	226.21
350.19	226.25
350.57	226.31
350.96	226.38
351.34	226.48
351.72	226.51
352.10	226.62
352.48	226.66
352.87	226.67
353.25	226.74
353.63	226.79
354.01	226.86
354.39	226.94
354.77	227.04
355.15	227.13
355.54	227.23
355.92	227.26
356.30	227.37
356.68	227.47
357.06	227.56
357.44	227.62
357.82	227.68
358.20	227.72
358.58	227.77
358.97	227.85
359.35	227.92
359.73	228.01
360.11	228.06
360.49	228.11
360.87	228.18
361.25	228.25
361.63	228.34
362.01	228.39
362.39	228.42
362.77	228.45
363.15	228.48
363.53	228.51
363.91	228.54
364.29	228.57
364.67	228.44
365.05	228.44
365.43	228.48
365.81	228.53
366.19	228.57
366.57	228.63
366.95	228.62
367.33	228.59
367.71	228.57
368.09	228.60
368.47	228.58
368.85	228.58
369.23	228.60
369.61	228.52
369.99	228.52
370.37	228.50
370.75	228.53
371.13	228.49
371.51	228.43
371.89	228.42
372.27	228.37
372.65	228.40
373.03	228.37
373.41	228.29
373.78	228.21
374.16	228.11
374.54	228.03
374.92	227.99
375.30	227.94
375.68	227.86
376.06	227.80
376.44	227.77
376.82	227.69
377.19	227.59
377.57	227.53
377.95	227.41
378.33	227.32
378.71	227.22
379.09	227.18
379.47	227.13
379.84	227.04
380.22	226.99
380.60	226.89
380.98	226.81
381.36	226.74
381.73	226.67
382.11	226.62
382.49	226.57
382.87	226.51
383.25	226.46
383.62	226.52
384.00	226.45
384.38	226.36
384.76	226.34
385.13	226.30
385.51	226.27
385.89	226.27
386.27	226.23
386.64	226.16
387.02	226.09
387.40	226.06
387.78	226.02
388.15	225.96
388.53	225.94
388.91	225.94
389.29	225.91
389.66	225.90
390.04	225.88
390.42	225.85
390.79	225.83
391.17	225.80
391.55	225.70
391.92	225.68
392.30	225.69
392.68	225.63
393.05	225.67
393.43	225.67
393.81	225.64
394.18	225.66
394.56	225.66
394.94	225.68
395.31	225.64
395.69	225.71
396.06	225.76
396.44	225.75
396.82	225.75
397.19	225.86
397.57	225.90
397.95	225.98
398.32	226.01
398.70	226.08
399.07	226.15
399.45	226.20
399.82	226.26
400.20	226.32
400.58	226.44
400.95	226.43
401.33	226.55
401.70	226.71
402.08	226.78
402.45	226.89
402.83	227.01
403.20	227.14
403.58	227.22
403.95	227.33
404.33	227.49
404.71	227.59
405.08	227.76
405.46	227.89
405.83	228.03
406.21	228.19
406.58	228.31
406.96	228.48
407.33	228.68
407.70	228.84
408.08	229.15
408.45	229.36
408.83	229.63
409.20	229.83
409.58	229.99
409.95	230.25
410.33	230.55
410.70	230.80
411.08	231.11
411.45	231.42
411.82	231.76
412.20	232.12
412.57	232.54
412.95	232.83
413.32	233.23
413.69	233.61
414.07	234.08
414.44	234.55
414.82	235.02
415.19	235.56
415.56	236.13
415.94	236.64
416.31	237.27
416.68	237.85
417.06	238.58
417.43	239.27
417.81	240.05
418.18	240.78
418.55	241.63
418.93	242.49
419.30	243.36
419.67	244.24
420.04	245.18
420.42	246.19
420.79	247.38
421.16	248.52
421.54	249.73
421.91	250.92
422.28	252.15
422.66	253.48
423.03	254.78
423.40	256.09
423.77	257.52
424.15	258.95
424.52	260.43
424.89	262.02
425.26	263.57
425.64	265.02
426.01	266.62
426.38	268.26
426.75	269.92
427.13	271.64
427.50	273.46
427.87	275.30
428.24	277.12
428.61	278.85
428.99	280.76
429.36	282.86
429.73	284.89
430.10	286.90
430.47	288.93
430.85	291.00
431.22	293.26
431.59	295.57
431.96	297.78
432.33	300.26
432.70	302.60
433.08	305.37
433.45	307.97
433.82	310.54
434.19	313.41
434.56	316.17
434.93	318.81
435.30	321.44
435.68	324.33
436.05	327.17
436.42	329.95
436.79	332.45
437.16	335.10
437.53	337.91
437.90	340.69
438.27	343.45
438.64	346.26
439.01	348.79
439.38	351.01
439.75	353.19
440.13	355.71
440.50	358.05
440.87	359.92
441.24	361.85
441.61	363.99
441.98	365.49
442.35	367.30
442.72	369.15
443.09	370.90
443.46	371.88
443.83	372.43
444.20	372.94
444.57	373.76
444.94	374.02
445.31	374.41
445.68	374.80
446.05	374.85
446.42	374.49
446.79	374.08
447.16	373.65
447.53	373.29
447.90	372.09
448.27	370.94
448.64	369.31
449.01	368.17
449.37	366.24
449.74	364.29
450.11	362.08
450.48	359.65
450.85	357.16
451.22	355.03
451.59	353.06
451.96	351.09
452.33	348.51
452.70	346.18
453.07	343.31
453.43	340.39
453.80	337.65
454.17	334.98
454.54	332.48
454.91	329.75
455.28	327.10
455.65	324.62
456.02	322.19
456.38	320.09
456.75	317.47
457.12	315.20
457.49	313.02
457.86	310.85
458.23	308.98
458.59	306.95
458.96	304.90
459.33	303.05
459.70	301.21
460.07	299.74
460.43	298.06
460.80	296.50
461.17	295.09
461.54	293.61
461.91	292.21
462.27	290.77
462.64	289.55
463.01	288.24
463.38	286.93
463.74	285.58
464.11	284.41
464.48	283.39
464.85	282.31
465.21	281.48
465.58	280.54
465.95	279.48
466.32	278.59
466.68	277.69
467.05	276.74
467.42	275.87
467.78	274.94
468.15	274.06
468.52	273.43
468.88	272.58
469.25	271.82
469.62	271.21
469.98	270.54
470.35	269.92
470.72	269.30
471.08	268.66
471.45	268.09
471.82	267.59
472.18	266.99
472.55	266.58
472.92	266.05
473.28	265.60
473.65	265.15
474.02	264.72
474.38	264.32
474.75	264.03
475.11	263.67
475.48	263.43
475.85	263.22
476.21	262.95
476.58	262.77
476.94	262.62
477.31	262.43
477.67	262.25
478.04	262.14
478.41	262.08
478.77	262.17
479.14	262.12
479.50	262.12
479.87	262.21
480.23	262.28
480.60	262.32
480.96	262.42
481.33	262.66
481.69	262.85
482.06	263.07
482.42	263.29
482.79	263.57
483.15	263.88
483.52	264.29
483.88	264.65
484.25	265.03
484.61	265.46
484.98	265.92
485.34	266.52
485.71	267.09
486.07	267.70
486.44	268.26
486.80	268.95
487.17	269.63
487.53	270.44
487.90	271.28
488.26	272.22
488.62	273.21
488.99	274.16
489.35	275.20
489.72	276.32
490.08	277.54
490.44	278.76
490.81	280.10
491.17	281.42
491.54	282.88
491.90	284.41
492.26	286.04
492.63	287.78
492.99	289.54
493.36	291.46
493.72	293.52
494.08	295.62
494.45	297.89
494.81	300.28
495.17	302.69
495.54	305.28
495.90	308.00
496.26	310.83
496.63	313.76
496.99	316.85
497.35	320.08
497.72	323.49
498.08	327.04
498.44	330.74
498.80	334.63
499.17	338.66
499.53	342.90
499.89	347.29
500.26	351.76
500.62	356.46
500.98	361.40
501.34	366.49
501.71	371.82
502.07	377.27
502.43	382.91
502.79	388.77
503.16	394.85
503.52	401.10
503.88	407.52
504.24	414.14
504.60	421.04
504.97	428.21
505.33	435.52
505.69	443.23
506.05	450.99
506.41	458.88
506.78	467.07
507.14	475.48
507.50	484.29
507.86	493.41
508.22	502.64
508.59	511.87
508.95	521.50
509.31	531.31
509.67	541.43
510.03	551.74
510.39	562.32
510.75	573.13
511.12	584.17
511.48	595.44
511.84	606.95
512.20	618.51
512.56	630.48
512.92	642.69
513.28	655.02
513.64	667.53
514.00	680.29
514.37	693.19
514.73	706.28
515.09	719.28
515.45	732.52
515.81	746.12
516.17	760.12
516.53	774.21
516.89	788.36
517.25	802.48
517.61	816.86
517.97	831.34
518.33	845.76
518.69	860.46
519.05	875.28
519.41	890.46
519.77	905.98
520.13	921.36
520.49	936.70
520.85	952.16
521.21	967.83
521.57	984.08
521.93	999.75
522.29	1016.11
522.65	1032.21
523.01	1048.38
523.37	1064.36
523.73	1080.45
524.09	1096.45
524.45	1112.80
524.81	1129.37
525.17	1146.09
525.53	1162.82
525.89	1179.53
526.25	1196.36
526.61	1212.83
526.97	1229.48
527.33	1245.87
527.68	1262.41
528.04	1278.81
528.40	1295.16
528.76	1312.15
529.12	1328.60
529.48	1345.51
529.84	1361.44
530.20	1378.10
530.56	1395.11
530.91	1412.46
531.27	1429.12
531.63	1445.57
531.99	1461.95
532.35	1477.79
532.71	1493.70
533.07	1509.86
533.42	1525.89
533.78	1541.77
534.14	1557.96
534.50	1573.14
534.86	1588.86
535.21	1603.90
535.57	1619.82
535.93	1635.30
536.29	1649.98
536.65	1664.88
537.00	1679.48
537.36	1694.65
537.72	1709.02
538.08	1723.25
538.44	1736.77
538.79	1750.54
539.15	1764.11
539.51	1777.77
539.87	1792.02
540.22	1805.61
540.58	1819.25
540.94	1832.29
541.29	1845.05
541.65	1857.70
542.01	1870.84
542.37	1883.06
542.72	1895.51
543.08	1907.10
543.44	1919.47
543.79	1930.60
544.15	1941.56
544.51	1953.07
544.87	1963.94
545.22	1974.71
545.58	1984.77
545.94	1994.51
546.29	2004.31
546.65	2014.03
547.01	2023.30
547.36	2031.92
547.72	2040.29
548.07	2048.15
548.43	2056.30
548.79	2064.42
549.14	2071.77
549.50	2079.04
549.86	2086.70
550.21	2093.99
550.57	2101.15
550.92	2107.62
551.28	2114.58
551.64	2121.57
551.99	2128.09
552.35	2134.25
552.70	2140.47
553.06	2146.61
553.41	2153.04
553.77	2158.94
554.13	2165.01
554.48	2171.15
554.84	2176.69
555.19	2181.95
555.55	2187.09
555.90	2191.51
556.26	2196.29
556.61	2201.06
556.97	2205.27
557.32	2209.28
557.68	2213.36
558.03	2217.60
558.39	2221.34
558.74	2226.06
559.10	2229.91
559.45	2233.54
559.81	2237.78
560.16	2241.63
560.52	2244.74
560.87	2248.05
561.23	2250.83
561.58	2253.73
561.94	2256.16
562.29	2258.39
562.64	2261.11
563.00	2263.73
563.35	2267.22
563.71	2270.26
564.06	2273.42
564.42	2276.47
564.77	2279.20
565.12	2281.36
565.48	2283.34
565.83	2285.12
566.19	2286.46
566.54	2287.36
566.89	2288.58
567.25	2289.13
567.60	2290.29
567.96	2292.05
568.31	2292.85
568.66	2294.11
569.02	2294.84
569.37	2295.24
569.72	2296.40
570.08	2296.50
570.43	2296.56
570.78	2296.15
571.14	2294.64
571.49	2293.35
571.84	2293.11
572.20	2292.02
572.55	2291.17
572.90	2289.59
573.26	2288.35
573.61	2286.72
573.96	2285.14
574.31	2282.26
574.67	2279.55
575.02	2275.93
575.37	2272.61
575.72	2269.08
576.08	2265.66
576.43	2262.24
576.78	2258.59
577.13	2255.34
577.49	2252.33
577.84	2249.09
578.19	2245.29
578.54	2241.89
578.90	2237.81
579.25	2232.19
579.60	2227.17
579.95	2222.23
580.30	2217.30
580.66	2212.12
581.01	2207.26
581.36	2202.47
581.71	2198.33
582.06	2193.83
582.42	2189.51
582.77	2184.35
583.12	2179.83
583.47	2175.29
583.82	2170.46
584.17	2165.34
584.53	2159.89
584.88	2154.38
585.23	2148.50
585.58	2143.18
585.93	2137.65
586.28	2132.91
586.63	2127.86
586.98	2123.03
587.34	2118.35
587.69	2113.44
588.04	2108.36
588.39	2102.72
588.74	2096.20
589.09	2090.11
589.44	2083.25
589.79	2077.31
590.14	2071.69
590.49	2065.07
590.84	2058.66
591.19	2052.70
591.54	2046.39
591.89	2039.12
592.25	2032.34
592.60	2025.14
592.95	2017.69
593.30	2010.57
593.65	2003.06
594.00	1996.15
594.35	1988.93
594.70	1980.88
595.05	1973.76
595.40	1966.54
595.75	1958.95
596.10	1952.73
596.45	1946.10
596.80	1940.15
597.15	1933.57
597.50	1926.66
597.85	1920.31
598.19	1913.75
598.54	1906.49
598.89	1899.69
599.24	1893.86
599.59	1887.25
599.94	1881.12
600.29	1874.74
600.64	1868.03
600.99	1860.74
601.34	1853.89
601.69	1846.88
602.04	1840.08
602.39	1832.80
602.74	1826.03
603.08	1819.41
603.43	1812.78
603.78	1805.48
604.13	1798.33
604.48	1791.02
604.83	1784.01
605.18	1776.99
605.53	1768.98
605.87	1761.16
606.22	1754.04
606.57	1746.01
606.92	1738.74
607.27	1731.63
607.62	1724.75
607.96	1717.53
608.31	1710.78
608.66	1703.25
609.01	1695.76
609.36	1688.22
609.70	1680.32
610.05	1672.23
610.40	1664.47
610.75	1656.03
611.10	1648.26
611.44	1639.71
611.79	1631.78
612.14	1623.13
612.49	1614.04
612.83	1605.64
613.18	1597.58
613.53	1589.42
613.88	1580.98
614.22	1572.63
614.57	1564.04
614.92	1555.96
615.27	1548.41
615.61	1540.15
615.96	1532.07
616.31	1524.44
616.65	1517.14
617.00	1509.50
617.35	1501.79
617.70	1493.55
618.04	1485.12
618.39	1477.00
618.74	1469.37
619.08	1460.98
619.43	1453.37
619.78	1446.46
620.12	1439.27
620.47	1431.58
620.82	1423.41
621.16	1415.94
621.51	1408.34
621.85	1400.64
622.20	1392.10
622.55	1383.73
622.89	1375.89
623.24	1368.32
623.59	1360.94
623.93	1353.38
624.28	1346.16
624.62	1338.60
624.97	1331.37
625.32	1324.61
625.66	1317.54
626.01	1310.45
626.35	1303.07
626.70	1295.40
627.04	1287.64
627.39	1279.93
627.73	1272.68
628.08	1265.81
628.43	1258.51
628.77	1251.17
629.12	1243.66
629.46	1236.59
629.81	1229.15
630.15	1221.85
630.50	1214.35
630.84	1206.02
631.19	1198.08
631.53	1190.50
631.88	1182.95
632.22	1175.42
632.57	1168.12
632.91	1160.50
633.26	1153.04
633.60	1145.55
633.95	1138.39
634.29	1131.32
634.64	1124.58
634.98	1117.12
635.32	1110.05
635.67	1103.42
636.01	1096.68
636.36	1089.85
636.70	1083.30
637.05	1076.64
637.39	1070.18
637.73	1063.64
638.08	1057.92
638.42	1051.84
638.77	1045.53
639.11	1038.93
639.45	1032.43
639.80	1025.72
640.14	1019.33
640.49	1012.79
640.83	1006.57
641.17	1000.30
641.52	993.98
641.86	987.57
642.20	981.68
642.55	975.16
642.89	968.66
643.23	962.18
643.58	956.44
643.92	950.19
644.26	944.21
644.61	938.15
644.95	932.14
645.29	925.47
645.64	918.73
645.98	912.31
646.32	906.51
646.66	900.47
647.01	894.73
647.35	889.04
647.69	883.26
648.04	877.72
648.38	872.01
648.72	866.09
649.06	859.93
649.41	854.10
649.75	848.19
650.09	842.30
650.43	836.52
650.78	830.31
651.12	824.39
651.46	818.68
651.80	812.93
652.14	807.61
652.49	802.19
652.83	797.04
653.17	791.39
653.51	785.63
653.85	780.30
654.20	774.66
654.54	768.67
654.88	762.86
655.22	757.03
655.56	751.31
655.90	745.83
656.25	740.69
656.59	735.29
656.93	730.34
657.27	725.17
657.61	719.70
657.95	714.62
658.29	709.46
658.64	704.20
658.98	698.92
659.32	693.44
659.66	688.24
660.00	682.90
660.34	677.89
660.68	672.95
661.02	667.93
661.36	663.18
661.70	658.75
662.05	654.44
662.39	650.07
662.73	645.56
663.07	641.23
663.41	636.75
663.75	632.28
664.09	627.64
664.43	623.22
664.77	619.19
665.11	614.95
665.45	610.90
665.79	606.78
666.13	602.60
666.47	598.48
666.81	594.42
667.15	590.32
667.49	586.46
667.83	582.70
668.17	578.75
668.51	574.66
668.85	570.65
669.19	566.81
669.53	563.01
669.87	559.14
670.21	555.40
670.55	551.79
670.89	548.36
671.23	544.93
671.57	541.42
671.91	537.84
672.25	534.32
672.58	530.74
672.92	527.36
673.26	524.19
673.60	521.06
673.94	517.87
674.28	514.96
674.62	512.04
674.96	508.94
675.30	505.97
675.64	503.05
675.97	500.14
676.31	497.28
676.65	494.28
676.99	491.56
677.33	488.67
677.67	485.84
678.01	482.80
678.34	479.84
678.68	476.94
679.02	474.10
679.36	471.35
679.70	468.70
680.04	465.92
680.37	463.03
680.71	460.22
681.05	457.65
681.39	454.87
681.73	452.12
682.06	449.60
682.40	447.08
682.74	444.52
683.08	441.99
683.42	439.36
683.75	436.92
684.09	434.41
684.43	431.89
684.77	429.44
685.10	427.06
685.44	424.75
685.78	422.52
686.12	420.27
686.45	417.94
686.79	415.61
687.13	413.47
687.46	411.37
687.80	409.26
688.14	407.00
688.48	405.01
688.81	402.74
689.15	400.53
689.49	398.36
689.82	396.33
690.16	394.25
690.50	392.29
690.83	390.27
691.17	388.28
691.51	386.41
691.84	384.51
692.18	382.55
692.52	380.57
692.85	378.62
693.19	376.75
693.52	374.93
693.86	373.11
694.20	371.28
694.53	369.47
694.87	367.59
695.21	365.81
695.54	363.94
695.88	362.27
696.21	360.55
696.55	358.87
696.88	357.20
697.22	355.52
697.56	353.92
697.89	352.28
698.23	350.67
698.56	349.05
698.90	347.49
699.23	345.88
699.57	344.31
699.90	342.75
700.24	341.20
700.58	339.65
700.91	338.15
701.25	336.71
701.58	335.33
701.92	333.99
702.25	332.61
702.59	331.24
702.92	329.92
703.26	328.65
703.59	327.41
703.93	326.18
704.26	324.97
704.60	323.61
704.93	322.36
705.26	321.13
705.60	319.91
705.93	318.73
706.27	317.71
706.60	316.66
706.94	315.60
707.27	314.48
707.61	313.43
707.94	312.39
708.27	311.28
708.61	310.19
708.94	309.15
709.28	308.20
709.61	307.25
709.94	306.30
710.28	305.25
710.61	304.24
710.95	303.16
711.28	302.24
711.61	301.34
711.95	300.42
712.28	299.45
712.61	298.49
712.95	297.56
713.28	296.70
713.61	295.78
713.95	294.84
714.28	293.99
714.61	293.12
714.95	292.24
715.28	291.43
715.61	290.54
715.95	289.68
716.28	288.76
716.61	287.88
716.95	287.03
717.28	286.30
717.61	285.51
717.94	284.81
718.28	283.98
718.61	283.23
718.94	282.53
719.27	281.88
719.61	281.23
719.94	280.56
720.27	279.81
720.60	279.15
720.94	278.55
721.27	277.96
721.60	277.39
721.93	276.80
722.27	276.24
722.60	275.69
722.93	275.12
723.26	274.61
723.59	274.07
723.93	273.52
724.26	272.95
724.59	272.41
724.92	271.88
725.25	271.39
725.59	270.86
725.92	270.35
726.25	269.81
726.58	269.32
726.91	268.85
727.24	268.40
727.57	267.97
727.91	267.47
728.24	267.01
728.57	266.54
728.90	266.10
729.23	265.60
729.56	265.18
729.89	264.72
730.22	264.23
730.55	263.78
730.89	263.36
731.22	262.93
731.55	262.52
731.88	262.06
732.21	261.64
732.54	261.24
732.87	260.83
733.20	260.46
733.53	260.08
733.86	259.69
734.19	259.27
734.52	258.86
734.85	258.55
735.18	258.13
735.51	257.78
735.84	257.41
736.17	257.08
736.50	256.66
736.83	256.43
737.16	256.13
737.49	255.80
737.82	255.47
738.15	255.13
738.48	254.77
738.81	254.43
739.14	254.14
739.47	253.83
739.80	253.52
740.13	253.21
740.46	252.87
740.79	252.55
741.12	252.23
741.45	251.92
741.78	251.56
742.11	251.30
742.44	250.96
742.77	250.66
743.10	250.33
743.43	250.07
743.75	249.66
744.08	249.48
744.41	249.19
744.74	248.92
745.07	248.63
745.40	248.41
745.73	248.21
746.06	247.91
746.39	247.61
746.71	247.34
747.04	247.07
747.37	246.80
747.70	246.54
748.03	246.33
748.36	246.12
748.68	245.89
749.01	245.60
749.34	245.37
749.67	245.15
750.00	244.93
750.33	244.77
750.65	244.56
750.98	244.22
751.31	244.00
751.64	243.80
751.97	243.61
752.29	243.41
752.62	243.14
752.95	242.91
753.28	242.73
753.60	242.52
753.93	242.33
754.26	242.15
754.59	241.94
754.91	241.72
755.24	241.49
755.57	241.29
755.90	241.14
756.22	240.93
756.55	240.69
756.88	240.50
757.20	240.27
757.53	240.08
757.86	239.90
758.19	239.76
758.51	239.57
758.84	239.38
759.17	239.18
759.49	238.99
759.82	238.87
760.15	238.70
760.47	238.55
760.80	238.35
761.13	238.19
761.45	237.99
761.78	237.84
762.11	237.69
762.43	237.55
762.76	237.36
763.08	237.22
763.41	237.09
763.74	236.94
764.06	236.79
764.39	236.64
764.71	236.52
765.04	236.36
765.37	236.20
765.69	236.06
766.02	235.93
766.34	235.83
766.67	235.69
767.00	235.60
767.32	235.52
767.65	235.45
767.97	235.33
768.30	235.25
768.62	235.14
768.95	235.03
769.27	234.89
769.60	234.80
769.92	234.68
770.25	234.57
770.57	234.45
770.90	234.35
771.22	234.27
771.55	234.15
771.87	234.05
772.20	233.96
772.52	233.94
772.85	233.96
773.17	233.87
773.50	233.79
773.82	233.67
774.15	233.52
774.47	233.40
774.80	233.32
775.12	233.25
775.45	233.18
775.77	233.14
776.09	233.08
776.42	233.00
776.74	233.00
777.07	232.91
777.39	232.85
777.72	232.79
778.04	232.73
778.36	232.67
778.69	232.59
779.01	232.54
779.33	232.41
779.66	232.24
779.98	232.18
780.31	232.10
780.63	232.07
780.95	232.01
781.28	231.95
781.60	231.88
781.92	231.81
782.25	231.75
782.57	231.68
782.89	231.59
783.22	231.52
783.54	231.40
783.86	231.37
784.19	231.30
784.51	231.26
784.83	231.19
785.16	231.15
785.48	231.12
785.80	231.05
786.12	231.03
786.45	230.98
786.77	230.94
787.09	230.88
