SpectraSuite Data File
++++++++++++++++++++++++++++++++++++
Date: Fri Feb 01 17:38:22 EST 2013
User: group
Dark Spectrum Present: No
Reference Spectrum Present: No
Number of Sampled Component Spectra: 1
Spectrometers: USB2E7196
Integration Time (usec): 35000 (USB2E7196)
Spectra Averaged: 100 (USB2E7196)
Boxcar Smoothing: 10 (USB2E7196)
Correct for Electrical Dark: No (USB2E7196)
Strobe/Lamp Enabled: No (USB2E7196)
Correct for Detector Non-linearity: No (USB2E7196)
Correct for Stray Light: No (USB2E7196)
Number of Pixels in Processed Spectrum: 2048
>>>>>Begin Processed Spectral Data<<<<<
339.09	0.00
339.48	212.95
339.86	214.36
340.24	215.31
340.63	217.28
341.01	219.63
341.39	219.83
341.78	221.48
342.16	222.49
342.54	222.37
342.93	211.23
343.31	221.92
343.69	222.45
344.07	222.91
344.46	223.36
344.84	223.73
345.22	223.98
345.60	224.24
345.99	224.39
346.37	224.48
346.75	224.59
347.13	224.66
347.52	224.73
347.90	224.81
348.28	224.84
348.66	224.92
349.05	224.91
349.43	224.94
349.81	224.97
350.19	225.02
350.57	225.06
350.96	225.14
351.34	225.21
351.72	225.30
352.10	225.37
352.48	225.43
352.87	225.46
353.25	225.53
353.63	225.57
354.01	225.65
354.39	225.76
354.77	225.83
355.15	225.93
355.54	225.96
355.92	225.97
356.30	226.03
356.68	226.14
357.06	226.20
357.44	226.26
357.82	226.29
358.20	226.35
358.58	226.42
358.97	226.46
359.35	226.50
359.73	226.58
360.11	226.65
360.49	226.69
360.87	226.74
361.25	226.76
361.63	226.85
362.01	226.87
362.39	226.91
362.77	226.95
363.15	226.96
363.53	227.03
363.91	227.05
364.29	227.08
364.67	227.03
365.05	227.06
365.43	227.08
365.81	227.12
366.19	227.18
366.57	227.22
366.95	227.24
367.33	227.23
367.71	227.22
368.09	227.21
368.47	227.23
368.85	227.25
369.23	227.26
369.61	227.20
369.99	227.23
370.37	227.22
370.75	227.24
371.13	227.23
371.51	227.18
371.89	227.19
372.27	227.17
372.65	227.11
373.03	227.07
373.41	227.04
373.78	227.01
374.16	226.92
374.54	226.86
374.92	226.79
375.30	226.76
375.68	226.69
376.06	226.64
376.44	226.56
376.82	226.50
377.19	226.46
377.57	226.43
377.95	226.38
378.33	226.28
378.71	226.15
379.09	226.10
379.47	226.06
379.84	225.95
380.22	225.90
380.60	225.87
380.98	225.83
381.36	225.73
381.73	225.63
382.11	225.58
382.49	225.52
382.87	225.48
383.25	225.42
383.62	225.53
384.00	225.45
384.38	225.45
384.76	225.43
385.13	225.41
385.51	225.37
385.89	225.29
386.27	225.26
386.64	225.23
387.02	225.19
387.40	225.12
387.78	225.11
388.15	225.05
388.53	225.00
388.91	224.95
389.29	224.96
389.66	224.98
390.04	224.96
390.42	224.96
390.79	224.91
391.17	224.88
391.55	224.72
391.92	224.72
392.30	224.68
392.68	224.65
393.05	224.62
393.43	224.58
393.81	224.60
394.18	224.61
394.56	224.63
394.94	224.67
395.31	224.69
395.69	224.70
396.06	224.71
396.44	224.77
396.82	224.76
397.19	224.81
397.57	224.80
397.95	224.83
398.32	224.81
398.70	224.87
399.07	224.96
399.45	224.99
399.82	225.06
400.20	225.09
400.58	225.15
400.95	225.17
401.33	225.26
401.70	225.36
402.08	225.41
402.45	225.49
402.83	225.59
403.20	225.67
403.58	225.78
403.95	225.91
404.33	226.03
404.71	226.14
405.08	226.29
405.46	226.44
405.83	226.57
406.21	226.74
406.58	226.88
406.96	227.01
407.33	227.19
407.70	227.33
408.08	227.59
408.45	227.81
408.83	228.06
409.20	228.25
409.58	228.43
409.95	228.72
410.33	228.97
410.70	229.24
411.08	229.52
411.45	229.81
411.82	230.10
412.20	230.47
412.57	230.90
412.95	231.21
413.32	231.62
413.69	232.07
414.07	232.50
414.44	233.01
414.82	233.52
415.19	234.06
415.56	234.65
415.94	235.22
416.31	235.88
416.68	236.52
417.06	237.30
417.43	238.03
417.81	238.85
418.18	239.67
418.55	240.53
418.93	241.45
419.30	242.41
419.67	243.38
420.04	244.36
420.42	245.41
420.79	246.63
421.16	247.84
421.54	249.05
421.91	250.36
422.28	251.69
422.66	253.07
423.03	254.46
423.40	255.88
423.77	257.37
424.15	258.84
424.52	260.39
424.89	262.05
425.26	263.67
425.64	265.15
426.01	266.83
426.38	268.59
426.75	270.35
427.13	272.14
427.50	274.05
427.87	276.04
428.24	277.98
428.61	279.81
428.99	281.82
429.36	284.03
429.73	286.16
430.10	288.24
430.47	290.36
430.85	292.59
431.22	294.95
431.59	297.41
431.96	299.78
432.33	302.38
432.70	304.89
433.08	307.81
433.45	310.60
433.82	313.32
434.19	316.30
434.56	319.21
434.93	322.01
435.30	324.75
435.68	327.71
436.05	330.67
436.42	333.63
436.79	336.23
437.16	339.07
437.53	342.01
437.90	344.92
438.27	347.80
438.64	350.72
439.01	353.38
439.38	355.72
439.75	357.96
440.13	360.55
440.50	362.96
440.87	364.92
441.24	366.90
441.61	369.20
441.98	370.80
442.35	372.68
442.72	374.59
443.09	376.47
443.46	377.60
443.83	378.24
444.20	378.74
444.57	379.67
444.94	379.97
445.31	380.36
445.68	380.83
446.05	380.93
446.42	380.58
446.79	380.19
447.16	379.73
447.53	379.40
447.90	378.22
448.27	377.04
448.64	375.38
449.01	374.23
449.37	372.14
449.74	370.13
450.11	367.85
450.48	365.29
450.85	362.65
451.22	360.35
451.59	358.25
451.96	356.23
452.33	353.52
452.70	351.07
453.07	348.14
453.43	345.05
453.80	342.18
454.17	339.33
454.54	336.68
454.91	333.83
455.28	331.09
455.65	328.51
456.02	325.94
456.38	323.67
456.75	320.92
457.12	318.56
457.49	316.23
457.86	313.94
458.23	312.04
458.59	309.90
458.96	307.74
459.33	305.80
459.70	303.84
460.07	302.26
460.43	300.49
460.80	298.81
461.17	297.31
461.54	295.78
461.91	294.33
462.27	292.80
462.64	291.54
463.01	290.13
463.38	288.78
463.74	287.37
464.11	286.14
464.48	285.08
464.85	283.93
465.21	283.10
465.58	282.11
465.95	280.96
466.32	280.08
466.68	279.13
467.05	278.19
467.42	277.29
467.78	276.33
468.15	275.38
468.52	274.66
468.88	273.78
469.25	272.95
469.62	272.30
469.98	271.62
470.35	270.96
470.72	270.36
471.08	269.64
471.45	269.09
471.82	268.58
472.18	267.91
472.55	267.48
472.92	266.91
473.28	266.46
473.65	265.98
474.02	265.50
474.38	265.10
474.75	264.76
475.11	264.40
475.48	264.12
475.85	263.88
476.21	263.64
476.58	263.45
476.94	263.28
477.31	263.07
477.67	262.93
478.04	262.80
478.41	262.69
478.77	262.76
479.14	262.70
479.50	262.66
479.87	262.77
480.23	262.83
480.60	262.87
480.96	262.94
481.33	263.15
481.69	263.33
482.06	263.56
482.42	263.78
482.79	264.04
483.15	264.36
483.52	264.77
483.88	265.12
484.25	265.49
484.61	265.89
484.98	266.36
485.34	266.89
485.71	267.50
486.07	268.09
486.44	268.60
486.80	269.29
487.17	270.03
487.53	270.79
487.90	271.64
488.26	272.56
488.62	273.55
488.99	274.51
489.35	275.57
489.72	276.64
490.08	277.80
490.44	279.01
490.81	280.32
491.17	281.64
491.54	283.15
491.90	284.71
492.26	286.37
492.63	288.10
492.99	289.85
493.36	291.70
493.72	293.75
494.08	295.82
494.45	298.05
494.81	300.38
495.17	302.82
495.54	305.36
495.90	308.05
496.26	310.80
496.63	313.72
496.99	316.80
497.35	320.05
497.72	323.44
498.08	326.95
498.44	330.62
498.80	334.51
499.17	338.50
499.53	342.60
499.89	346.94
500.26	351.41
500.62	356.03
500.98	360.92
501.34	365.91
501.71	371.18
502.07	376.51
502.43	382.02
502.79	387.73
503.16	393.66
503.52	399.81
503.88	406.08
504.24	412.57
504.60	419.33
504.97	426.34
505.33	433.47
505.69	441.03
506.05	448.69
506.41	456.43
506.78	464.38
507.14	472.68
507.50	481.20
507.86	489.97
508.22	498.96
508.59	508.09
508.95	517.42
509.31	527.00
509.67	536.95
510.03	546.96
510.39	557.27
510.75	567.83
511.12	578.51
511.48	589.51
511.84	600.72
512.20	611.92
512.56	623.51
512.92	635.36
513.28	647.40
513.64	659.45
514.00	671.88
514.37	684.40
514.73	697.08
515.09	709.73
515.45	722.67
515.81	735.80
516.17	749.21
516.53	762.96
516.89	776.78
517.25	790.46
517.61	804.51
517.97	818.47
518.33	832.53
518.69	846.85
519.05	861.40
519.41	876.04
519.77	891.07
520.13	906.02
520.49	921.09
520.85	935.85
521.21	950.98
521.57	966.57
521.93	981.88
522.29	997.58
522.65	1013.32
523.01	1028.89
523.37	1044.42
523.73	1060.15
524.09	1075.70
524.45	1091.33
524.81	1107.34
525.17	1123.44
525.53	1139.68
525.89	1155.91
526.25	1172.20
526.61	1188.04
526.97	1204.28
527.33	1220.25
527.68	1236.28
528.04	1252.12
528.40	1268.17
528.76	1284.65
529.12	1300.72
529.48	1317.04
529.84	1332.57
530.20	1348.69
530.56	1365.23
530.91	1382.09
531.27	1398.26
531.63	1414.13
531.99	1430.22
532.35	1445.93
532.71	1461.52
533.07	1477.47
533.42	1493.03
533.78	1508.66
534.14	1524.37
534.50	1539.26
534.86	1554.60
535.21	1569.38
535.57	1584.77
535.93	1599.89
536.29	1614.41
536.65	1628.96
537.00	1643.32
537.36	1658.39
537.72	1672.53
538.08	1686.66
538.44	1700.19
538.79	1713.97
539.15	1727.30
539.51	1740.77
539.87	1754.73
540.22	1768.17
540.58	1781.47
540.94	1794.48
541.29	1806.90
541.65	1819.52
542.01	1832.51
542.37	1844.92
542.72	1857.16
543.08	1868.96
543.44	1881.32
543.79	1892.49
544.15	1903.51
544.51	1915.06
544.87	1925.92
545.22	1936.78
545.58	1946.90
545.94	1956.68
546.29	1966.55
546.65	1976.49
547.01	1985.93
547.36	1994.76
547.72	2003.40
548.07	2011.60
548.43	2019.69
548.79	2027.76
549.14	2035.49
549.50	2042.86
549.86	2050.38
550.21	2057.88
550.57	2065.18
550.92	2072.04
551.28	2079.35
551.64	2086.59
551.99	2093.38
552.35	2099.89
552.70	2106.21
553.06	2112.53
553.41	2119.10
553.77	2125.09
554.13	2131.47
554.48	2137.87
554.84	2143.82
555.19	2149.38
555.55	2154.98
555.90	2159.94
556.26	2165.59
556.61	2170.60
556.97	2175.54
557.32	2180.01
557.68	2184.52
558.03	2189.08
558.39	2192.94
558.74	2197.80
559.10	2202.10
559.45	2206.20
559.81	2210.68
560.16	2214.86
560.52	2218.45
560.87	2222.27
561.23	2225.46
561.58	2228.51
561.94	2231.41
562.29	2233.85
562.64	2237.06
563.00	2239.79
563.35	2243.62
563.71	2246.91
564.06	2250.31
564.42	2253.60
564.77	2256.79
565.12	2259.68
565.48	2262.16
565.83	2264.64
566.19	2266.48
566.54	2267.61
566.89	2269.15
567.25	2270.23
567.60	2271.98
567.96	2274.29
568.31	2275.65
568.66	2277.36
569.02	2278.53
569.37	2279.38
569.72	2280.79
570.08	2281.42
570.43	2281.89
570.78	2281.97
571.14	2280.97
571.49	2280.19
571.84	2280.12
572.20	2279.45
572.55	2278.79
572.90	2277.62
573.26	2276.55
573.61	2275.21
573.96	2274.36
574.31	2271.83
574.67	2269.44
575.02	2266.13
575.37	2262.99
575.72	2259.65
576.08	2256.50
576.43	2253.53
576.78	2250.41
577.13	2247.45
577.49	2244.43
577.84	2241.54
578.19	2237.94
578.54	2234.88
578.90	2231.36
579.25	2226.14
579.60	2221.57
579.95	2217.02
580.30	2212.32
580.66	2207.48
581.01	2202.84
581.36	2198.03
581.71	2194.43
582.06	2190.42
582.42	2186.49
582.77	2181.72
583.12	2177.56
583.47	2173.44
583.82	2169.07
584.17	2164.05
584.53	2159.08
584.88	2153.87
585.23	2148.45
585.58	2143.39
585.93	2138.08
586.28	2133.16
586.63	2128.63
586.98	2123.67
587.34	2119.02
587.69	2114.29
588.04	2109.53
588.39	2104.22
588.74	2098.10
589.09	2092.01
589.44	2085.40
589.79	2079.40
590.14	2073.77
590.49	2067.33
590.84	2060.94
591.19	2055.03
591.54	2048.75
591.89	2041.82
592.25	2035.46
592.60	2028.44
592.95	2021.26
593.30	2014.19
593.65	2006.89
594.00	1999.98
594.35	1993.19
594.70	1985.24
595.05	1978.50
595.40	1971.36
595.75	1964.07
596.10	1958.12
596.45	1951.60
596.80	1945.61
597.15	1939.38
597.50	1932.88
597.85	1926.57
598.19	1920.31
598.54	1913.62
598.89	1907.24
599.24	1901.34
599.59	1894.96
599.94	1888.70
600.29	1882.43
600.64	1875.96
600.99	1868.74
601.34	1862.07
601.69	1855.00
602.04	1848.57
602.39	1841.25
602.74	1834.50
603.08	1828.01
603.43	1821.22
603.78	1814.12
604.13	1806.98
604.48	1799.86
604.83	1793.01
605.18	1786.34
605.53	1778.47
605.87	1770.40
606.22	1763.12
606.57	1755.07
606.92	1747.41
607.27	1740.54
607.62	1733.69
607.96	1726.52
608.31	1720.12
608.66	1712.75
609.01	1705.48
609.36	1697.96
609.70	1690.01
610.05	1682.03
610.40	1674.47
610.75	1666.28
611.10	1658.48
611.44	1649.96
611.79	1641.84
612.14	1633.07
612.49	1623.79
612.83	1615.18
613.18	1606.88
613.53	1598.74
613.88	1590.30
614.22	1581.98
614.57	1573.04
614.92	1564.94
615.27	1557.46
615.61	1549.17
615.96	1540.92
616.31	1533.00
616.65	1525.63
617.00	1518.03
617.35	1510.27
617.70	1501.72
618.04	1493.15
618.39	1484.84
618.74	1477.32
619.08	1469.00
619.43	1461.29
619.78	1454.29
620.12	1447.24
620.47	1439.67
620.82	1431.37
621.16	1423.82
621.51	1416.14
621.85	1408.48
622.20	1399.87
622.55	1391.21
622.89	1383.22
623.24	1375.37
623.59	1367.73
623.93	1359.95
624.28	1352.57
624.62	1344.99
624.97	1337.65
625.32	1330.62
625.66	1323.45
626.01	1316.23
626.35	1308.78
626.70	1301.05
627.04	1293.32
627.39	1285.31
627.73	1277.85
628.08	1270.88
628.43	1263.57
628.77	1256.29
629.12	1248.79
629.46	1241.60
629.81	1234.05
630.15	1226.55
630.50	1219.11
630.84	1211.06
631.19	1203.04
631.53	1195.37
631.88	1187.65
632.22	1180.04
632.57	1172.77
632.91	1165.12
633.26	1157.62
633.60	1150.13
633.95	1142.75
634.29	1135.44
634.64	1128.70
634.98	1121.36
635.32	1114.22
635.67	1107.55
636.01	1100.80
636.36	1094.00
636.70	1087.40
637.05	1080.77
637.39	1074.36
637.73	1067.87
638.08	1061.92
638.42	1055.88
638.77	1049.56
639.11	1043.09
639.45	1036.64
639.80	1029.94
640.14	1023.68
640.49	1017.06
640.83	1010.75
641.17	1004.56
641.52	998.31
641.86	991.83
642.20	985.98
642.55	979.48
642.89	972.98
643.23	966.25
643.58	960.41
643.92	954.25
644.26	948.33
644.61	942.17
644.95	936.13
645.29	929.55
645.64	922.80
645.98	916.36
646.32	910.23
646.66	904.18
647.01	898.32
647.35	892.58
647.69	886.71
648.04	881.02
648.38	875.24
648.72	869.28
649.06	863.27
649.41	857.22
649.75	851.30
650.09	845.34
650.43	839.65
650.78	833.53
651.12	827.49
651.46	821.59
651.80	816.01
652.14	810.55
652.49	805.27
652.83	800.13
653.17	794.47
653.51	788.90
653.85	783.46
654.20	777.89
654.54	771.80
654.88	766.00
655.22	760.12
655.56	754.37
655.90	748.77
656.25	743.47
656.59	738.14
656.93	732.97
657.27	727.83
657.61	722.35
657.95	717.19
658.29	712.07
658.64	706.84
658.98	701.35
659.32	695.88
659.66	690.58
660.00	685.28
660.34	680.34
660.68	675.38
661.02	670.32
661.36	665.57
661.70	661.09
662.05	656.80
662.39	652.55
662.73	648.09
663.07	643.71
663.41	639.28
663.75	634.83
664.09	630.35
664.43	625.88
664.77	621.84
665.11	617.60
665.45	613.43
665.79	609.35
666.13	605.27
666.47	601.09
666.81	596.93
667.15	592.75
667.49	588.81
667.83	584.90
668.17	580.94
668.51	576.91
668.85	572.83
669.19	568.84
669.53	564.94
669.87	561.10
670.21	557.44
670.55	553.69
670.89	550.25
671.23	546.77
671.57	543.31
671.91	539.79
672.25	536.22
672.58	532.72
672.92	529.31
673.26	526.11
673.60	522.96
673.94	519.87
674.28	516.91
674.62	513.91
674.96	510.87
675.30	507.97
675.64	505.03
675.97	502.24
676.31	499.44
676.65	496.43
676.99	493.69
677.33	490.79
677.67	488.02
678.01	484.96
678.34	482.02
678.68	479.03
679.02	476.19
679.36	473.40
679.70	470.64
680.04	467.81
680.37	464.94
680.71	462.14
681.05	459.47
681.39	456.76
681.73	454.06
682.06	451.51
682.40	448.95
682.74	446.35
683.08	443.76
683.42	441.10
683.75	438.62
684.09	436.00
684.43	433.51
684.77	431.01
685.10	428.63
685.44	426.29
685.78	423.99
686.12	421.68
686.45	419.40
686.79	417.11
687.13	414.91
687.46	412.70
687.80	410.61
688.14	408.31
688.48	406.22
688.81	404.05
689.15	401.88
689.49	399.72
689.82	397.59
690.16	395.46
690.50	393.49
690.83	391.56
691.17	389.58
691.51	387.65
691.84	385.79
692.18	383.86
692.52	381.92
692.85	379.97
693.19	378.04
693.52	376.19
693.86	374.33
694.20	372.55
694.53	370.78
694.87	368.84
695.21	367.03
695.54	365.18
695.88	363.45
696.21	361.67
696.55	359.94
696.88	358.26
697.22	356.59
697.56	354.90
697.89	353.23
698.23	351.60
698.56	349.95
698.90	348.37
699.23	346.72
699.57	345.11
699.90	343.59
700.24	342.01
700.58	340.50
700.91	339.03
701.25	337.57
701.58	336.16
701.92	334.78
702.25	333.41
702.59	332.06
702.92	330.71
703.26	329.38
703.59	328.07
703.93	326.85
704.26	325.63
704.60	324.34
704.93	323.08
705.26	321.83
705.60	320.61
705.93	319.40
706.27	318.34
706.60	317.29
706.94	316.21
707.27	315.08
707.61	313.92
707.94	312.85
708.27	311.71
708.61	310.61
708.94	309.58
709.28	308.57
709.61	307.55
709.94	306.53
710.28	305.53
710.61	304.49
710.95	303.39
711.28	302.43
711.61	301.49
711.95	300.54
712.28	299.59
712.61	298.65
712.95	297.69
713.28	296.75
713.61	295.79
713.95	294.85
714.28	293.98
714.61	293.15
714.95	292.26
715.28	291.40
715.61	290.52
715.95	289.66
716.28	288.78
716.61	287.94
716.95	287.09
717.28	286.27
717.61	285.54
717.94	284.80
718.28	283.98
718.61	283.22
718.94	282.50
719.27	281.82
719.61	281.12
719.94	280.43
720.27	279.71
720.60	279.05
720.94	278.39
721.27	277.78
721.60	277.16
721.93	276.55
722.27	275.99
722.60	275.41
722.93	274.83
723.26	274.29
723.59	273.70
723.93	273.13
724.26	272.58
724.59	271.96
724.92	271.38
725.25	270.90
725.59	270.36
725.92	269.84
726.25	269.33
726.58	268.85
726.91	268.32
727.24	267.87
727.57	267.36
727.91	266.83
728.24	266.35
728.57	265.87
728.90	265.37
729.23	264.85
729.56	264.42
729.89	263.93
730.22	263.43
730.55	262.96
730.89	262.55
731.22	262.13
731.55	261.72
731.88	261.31
732.21	260.82
732.54	260.41
732.87	259.96
733.20	259.55
733.53	259.14
733.86	258.78
734.19	258.37
734.52	258.01
734.85	257.73
735.18	257.32
735.51	256.95
735.84	256.61
736.17	256.28
736.50	255.89
736.83	255.68
737.16	255.35
737.49	255.04
737.82	254.67
738.15	254.34
738.48	254.00
738.81	253.67
739.14	253.40
739.47	253.06
739.80	252.73
740.13	252.43
740.46	252.07
740.79	251.73
741.12	251.41
741.45	251.07
741.78	250.71
742.11	250.45
742.44	250.11
742.77	249.80
743.10	249.50
743.43	249.19
743.75	248.78
744.08	248.65
744.41	248.35
744.74	248.09
745.07	247.80
745.40	247.54
745.73	247.32
746.06	247.01
746.39	246.74
746.71	246.48
747.04	246.20
747.37	245.92
747.70	245.71
748.03	245.47
748.36	245.25
748.68	245.02
749.01	244.74
749.34	244.54
749.67	244.31
750.00	244.08
750.33	243.90
750.65	243.67
750.98	243.30
751.31	243.09
751.64	242.89
751.97	242.72
752.29	242.49
752.62	242.22
752.95	241.99
753.28	241.79
753.60	241.57
753.93	241.38
754.26	241.21
754.59	240.97
754.91	240.76
755.24	240.57
755.57	240.36
755.90	240.17
756.22	239.94
756.55	239.74
756.88	239.53
757.20	239.26
757.53	239.11
757.86	238.92
758.19	238.72
758.51	238.49
758.84	238.27
759.17	238.11
759.49	237.95
759.82	237.83
760.15	237.64
760.47	237.49
760.80	237.31
761.13	237.17
761.45	237.00
761.78	236.84
762.11	236.63
762.43	236.45
762.76	236.29
763.08	236.17
763.41	236.02
763.74	235.87
764.06	235.76
764.39	235.55
764.71	235.41
765.04	235.32
765.37	235.19
765.69	235.06
766.02	234.94
766.34	234.76
766.67	234.62
767.00	234.50
767.32	234.45
767.65	234.37
767.97	234.25
768.30	234.15
768.62	234.02
768.95	233.93
769.27	233.85
769.60	233.74
769.92	233.62
770.25	233.48
770.57	233.37
770.90	233.26
771.22	233.19
771.55	233.09
771.87	232.97
772.20	232.89
772.52	232.83
772.85	232.83
773.17	232.78
773.50	232.66
773.82	232.61
774.15	232.43
774.47	232.32
774.80	232.21
775.12	232.10
775.45	232.00
775.77	231.92
776.09	231.85
776.42	231.79
776.74	231.77
777.07	231.69
777.39	231.64
777.72	231.56
778.04	231.49
778.36	231.41
778.69	231.35
779.01	231.27
779.33	231.12
779.66	230.94
779.98	230.85
780.31	230.82
780.63	230.78
780.95	230.77
781.28	230.69
781.60	230.63
781.92	230.55
782.25	230.54
782.57	230.48
782.89	230.43
783.22	230.36
783.54	230.25
783.86	230.21
784.19	230.12
784.51	230.10
784.83	230.05
785.16	230.02
785.48	229.96
785.80	229.92
786.12	229.89
786.45	229.87
786.77	229.84
787.09	229.79
