SpectraSuite Data File
++++++++++++++++++++++++++++++++++++
Date: Fri Feb 01 15:40:14 EST 2013
User: group
Dark Spectrum Present: No
Reference Spectrum Present: No
Number of Sampled Component Spectra: 1
Spectrometers: USB2E7196
Integration Time (usec): 35000 (USB2E7196)
Spectra Averaged: 100 (USB2E7196)
Boxcar Smoothing: 10 (USB2E7196)
Correct for Electrical Dark: No (USB2E7196)
Strobe/Lamp Enabled: No (USB2E7196)
Correct for Detector Non-linearity: No (USB2E7196)
Correct for Stray Light: No (USB2E7196)
Number of Pixels in Processed Spectrum: 2048
>>>>>Begin Processed Spectral Data<<<<<
339.09	0.00
339.48	214.77
339.86	216.33
340.24	217.48
340.63	219.44
341.01	221.60
341.39	222.06
341.78	223.00
342.16	224.37
342.54	224.59
342.93	213.24
343.31	224.02
343.69	224.58
344.07	225.08
344.46	225.51
344.84	225.87
345.22	226.09
345.60	226.35
345.99	226.52
346.37	226.65
346.75	226.76
347.13	226.86
347.52	226.85
347.90	226.92
348.28	226.96
348.66	227.01
349.05	226.96
349.43	227.02
349.81	227.06
350.19	227.08
350.57	227.13
350.96	227.20
351.34	227.27
351.72	227.33
352.10	227.38
352.48	227.44
352.87	227.47
353.25	227.59
353.63	227.64
354.01	227.73
354.39	227.80
354.77	227.87
355.15	227.97
355.54	228.07
355.92	228.11
356.30	228.19
356.68	228.32
357.06	228.44
357.44	228.50
357.82	228.55
358.20	228.67
358.58	228.73
358.97	228.78
359.35	228.85
359.73	228.91
360.11	228.99
360.49	229.05
360.87	229.13
361.25	229.14
361.63	229.19
362.01	229.22
362.39	229.24
362.77	229.30
363.15	229.28
363.53	229.29
363.91	229.27
364.29	229.25
364.67	229.16
365.05	229.13
365.43	229.15
365.81	229.18
366.19	229.18
366.57	229.24
366.95	229.22
367.33	229.22
367.71	229.23
368.09	229.21
368.47	229.19
368.85	229.13
369.23	229.10
369.61	229.06
369.99	229.05
370.37	229.05
370.75	229.07
371.13	229.03
371.51	228.96
371.89	228.98
372.27	228.97
372.65	228.92
373.03	228.87
373.41	228.83
373.78	228.77
374.16	228.69
374.54	228.58
374.92	228.50
375.30	228.42
375.68	228.31
376.06	228.26
376.44	228.18
376.82	228.14
377.19	228.11
377.57	228.02
377.95	227.93
378.33	227.85
378.71	227.70
379.09	227.66
379.47	227.60
379.84	227.50
380.22	227.42
380.60	227.34
380.98	227.27
381.36	227.16
381.73	227.11
382.11	227.02
382.49	226.96
382.87	226.88
383.25	226.82
383.62	226.87
384.00	226.79
384.38	226.77
384.76	226.74
385.13	226.72
385.51	226.68
385.89	226.65
386.27	226.60
386.64	226.60
387.02	226.53
387.40	226.46
387.78	226.43
388.15	226.42
388.53	226.38
388.91	226.36
389.29	226.33
389.66	226.30
390.04	226.28
390.42	226.29
390.79	226.33
391.17	226.32
391.55	226.23
391.92	226.21
392.30	226.18
392.68	226.19
393.05	226.18
393.43	226.19
393.81	226.21
394.18	226.20
394.56	226.22
394.94	226.28
395.31	226.33
395.69	226.39
396.06	226.43
396.44	226.48
396.82	226.53
397.19	226.66
397.57	226.72
397.95	226.77
398.32	226.80
398.70	226.84
399.07	226.95
399.45	227.00
399.82	227.11
400.20	227.18
400.58	227.27
400.95	227.33
401.33	227.44
401.70	227.60
402.08	227.72
402.45	227.83
402.83	227.94
403.20	228.06
403.58	228.19
403.95	228.35
404.33	228.51
404.71	228.62
405.08	228.77
405.46	228.88
405.83	229.06
406.21	229.22
406.58	229.39
406.96	229.51
407.33	229.71
407.70	229.89
408.08	230.14
408.45	230.30
408.83	230.52
409.20	230.73
409.58	230.90
409.95	231.16
410.33	231.42
410.70	231.66
411.08	231.95
411.45	232.23
411.82	232.53
412.20	232.84
412.57	233.29
412.95	233.58
413.32	233.96
413.69	234.37
414.07	234.78
414.44	235.25
414.82	235.72
415.19	236.23
415.56	236.75
415.94	237.32
416.31	237.97
416.68	238.57
417.06	239.27
417.43	239.94
417.81	240.69
418.18	241.46
418.55	242.26
418.93	243.13
419.30	243.99
419.67	244.88
420.04	245.83
420.42	246.82
420.79	248.00
421.16	249.20
421.54	250.40
421.91	251.64
422.28	252.89
422.66	254.26
423.03	255.60
423.40	256.94
423.77	258.34
424.15	259.79
424.52	261.29
424.89	262.92
425.26	264.49
425.64	265.94
426.01	267.53
426.38	269.19
426.75	270.86
427.13	272.60
427.50	274.42
427.87	276.30
428.24	278.14
428.61	279.89
428.99	281.83
429.36	283.93
429.73	285.96
430.10	287.96
430.47	290.03
430.85	292.15
431.22	294.39
431.59	296.80
431.96	299.07
432.33	301.56
432.70	303.92
433.08	306.72
433.45	309.37
433.82	311.99
434.19	314.93
434.56	317.73
434.93	320.41
435.30	323.07
435.68	325.99
436.05	328.88
436.42	331.68
436.79	334.17
437.16	336.89
437.53	339.73
437.90	342.56
438.27	345.31
438.64	348.19
439.01	350.77
439.38	352.96
439.75	355.11
440.13	357.61
440.50	359.94
440.87	361.75
441.24	363.66
441.61	365.80
441.98	367.25
442.35	369.04
442.72	370.91
443.09	372.66
443.46	373.64
443.83	374.21
444.20	374.72
444.57	375.58
444.94	375.80
445.31	376.18
445.68	376.52
446.05	376.58
446.42	376.17
446.79	375.78
447.16	375.36
447.53	375.07
447.90	373.91
448.27	372.81
448.64	371.25
449.01	370.14
449.37	368.18
449.74	366.28
450.11	364.07
450.48	361.62
450.85	359.08
451.22	356.92
451.59	354.87
451.96	352.92
452.33	350.30
452.70	347.92
453.07	345.06
453.43	342.16
453.80	339.38
454.17	336.65
454.54	334.09
454.91	331.37
455.28	328.69
455.65	326.19
456.02	323.72
456.38	321.56
456.75	318.90
457.12	316.58
457.49	314.38
457.86	312.19
458.23	310.29
458.59	308.27
458.96	306.19
459.33	304.35
459.70	302.46
460.07	300.98
460.43	299.31
460.80	297.68
461.17	296.25
461.54	294.76
461.91	293.33
462.27	291.84
462.64	290.56
463.01	289.18
463.38	287.87
463.74	286.45
464.11	285.28
464.48	284.27
464.85	283.24
465.21	282.35
465.58	281.42
465.95	280.33
466.32	279.42
466.68	278.49
467.05	277.56
467.42	276.68
467.78	275.72
468.15	274.82
468.52	274.14
468.88	273.30
469.25	272.49
469.62	271.88
469.98	271.23
470.35	270.60
470.72	269.97
471.08	269.34
471.45	268.82
471.82	268.26
472.18	267.63
472.55	267.18
472.92	266.69
473.28	266.25
473.65	265.81
474.02	265.37
474.38	265.02
474.75	264.69
475.11	264.34
475.48	264.07
475.85	263.86
476.21	263.66
476.58	263.41
476.94	263.31
477.31	263.16
477.67	263.02
478.04	262.92
478.41	262.89
478.77	262.88
479.14	262.81
479.50	262.85
479.87	262.94
480.23	263.00
480.60	263.05
480.96	263.11
481.33	263.29
481.69	263.49
482.06	263.68
482.42	263.93
482.79	264.16
483.15	264.54
483.52	264.90
483.88	265.25
484.25	265.69
484.61	266.08
484.98	266.52
485.34	267.10
485.71	267.70
486.07	268.27
486.44	268.89
486.80	269.60
487.17	270.35
487.53	271.12
487.90	271.97
488.26	272.91
488.62	273.91
488.99	274.91
489.35	275.93
489.72	277.07
490.08	278.23
490.44	279.53
490.81	280.78
491.17	282.16
491.54	283.66
491.90	285.19
492.26	286.86
492.63	288.58
492.99	290.36
493.36	292.21
493.72	294.28
494.08	296.39
494.45	298.64
494.81	300.97
495.17	303.41
495.54	305.98
495.90	308.68
496.26	311.50
496.63	314.46
496.99	317.59
497.35	320.81
497.72	324.26
498.08	327.78
498.44	331.45
498.80	335.33
499.17	339.35
499.53	343.53
499.89	347.94
500.26	352.46
500.62	357.14
500.98	362.15
501.34	367.26
501.71	372.54
502.07	377.97
502.43	383.61
502.79	389.44
503.16	395.54
503.52	401.80
503.88	408.16
504.24	414.79
504.60	421.72
504.97	428.89
505.33	436.22
505.69	443.90
506.05	451.72
506.41	459.63
506.78	467.78
507.14	476.20
507.50	484.84
507.86	493.87
508.22	503.06
508.59	512.22
508.95	521.85
509.31	531.66
509.67	541.80
510.03	552.18
510.39	562.78
510.75	573.59
511.12	584.58
511.48	595.91
511.84	607.40
512.20	618.87
512.56	630.84
512.92	643.03
513.28	655.30
513.64	667.78
514.00	680.49
514.37	693.44
514.73	706.47
515.09	719.51
515.45	732.81
515.81	746.37
516.17	760.45
516.53	774.43
516.89	788.59
517.25	802.77
517.61	817.13
517.97	831.53
518.33	845.85
518.69	860.57
519.05	875.62
519.41	890.84
519.77	906.40
520.13	921.79
520.49	937.12
520.85	952.66
521.21	968.45
521.57	984.66
521.93	1000.37
522.29	1016.91
522.65	1033.13
523.01	1049.37
523.37	1065.41
523.73	1081.58
524.09	1097.83
524.45	1114.25
524.81	1130.89
525.17	1147.68
525.53	1164.71
525.89	1181.66
526.25	1198.52
526.61	1214.87
526.97	1231.52
527.33	1247.97
527.68	1264.67
528.04	1281.23
528.40	1297.81
528.76	1314.86
529.12	1331.49
529.48	1348.54
529.84	1364.43
530.20	1381.23
530.56	1398.34
530.91	1415.77
531.27	1432.40
531.63	1448.91
531.99	1465.52
532.35	1481.52
532.71	1497.46
533.07	1513.67
533.42	1529.58
533.78	1545.59
534.14	1561.87
534.50	1577.15
534.86	1593.03
535.21	1608.15
535.57	1624.06
535.93	1639.60
536.29	1654.38
536.65	1669.53
537.00	1684.26
537.36	1699.66
537.72	1714.12
538.08	1728.42
538.44	1742.22
538.79	1756.30
539.15	1769.86
539.51	1783.53
539.87	1797.91
540.22	1811.65
540.58	1825.46
540.94	1838.85
541.29	1851.78
541.65	1864.55
542.01	1877.93
542.37	1890.24
542.72	1902.65
543.08	1914.43
543.44	1926.90
543.79	1938.14
544.15	1949.10
544.51	1960.65
544.87	1971.57
545.22	1982.32
545.58	1992.51
545.94	2002.38
546.29	2012.10
546.65	2022.04
547.01	2031.41
547.36	2040.06
547.72	2048.49
548.07	2056.25
548.43	2064.52
548.79	2072.66
549.14	2080.16
549.50	2087.53
549.86	2095.35
550.21	2102.79
550.57	2109.93
550.92	2116.35
551.28	2123.38
551.64	2130.31
551.99	2136.83
552.35	2143.00
552.70	2149.17
553.06	2155.25
553.41	2161.56
553.77	2167.75
554.13	2173.76
554.48	2179.92
554.84	2185.30
555.19	2190.66
555.55	2196.01
555.90	2200.43
556.26	2205.16
556.61	2209.92
556.97	2214.06
557.32	2218.15
557.68	2222.18
558.03	2226.53
558.39	2230.30
558.74	2234.95
559.10	2238.86
559.45	2242.63
559.81	2246.88
560.16	2250.72
560.52	2253.90
560.87	2257.25
561.23	2259.83
561.58	2262.87
561.94	2265.19
562.29	2267.63
562.64	2270.33
563.00	2272.77
563.35	2276.24
563.71	2279.44
564.06	2282.67
564.42	2285.63
564.77	2288.16
565.12	2290.53
565.48	2292.51
565.83	2294.36
566.19	2295.77
566.54	2296.86
566.89	2297.88
567.25	2298.38
567.60	2299.75
567.96	2301.49
568.31	2302.36
568.66	2303.59
569.02	2304.17
569.37	2304.44
569.72	2305.39
570.08	2305.44
570.43	2305.54
570.78	2304.88
571.14	2303.37
571.49	2301.97
571.84	2301.62
572.20	2300.33
572.55	2299.35
572.90	2297.82
573.26	2296.41
573.61	2294.68
573.96	2292.75
574.31	2289.70
574.67	2286.79
575.02	2283.15
575.37	2279.64
575.72	2275.82
576.08	2272.41
576.43	2268.93
576.78	2265.27
577.13	2262.14
577.49	2258.95
577.84	2255.41
578.19	2251.67
578.54	2247.95
578.90	2243.72
579.25	2238.11
579.60	2233.13
579.95	2227.97
580.30	2222.77
580.66	2217.62
581.01	2212.58
581.36	2207.58
581.71	2203.38
582.06	2198.83
582.42	2194.31
582.77	2189.02
583.12	2184.46
583.47	2179.40
583.82	2174.36
584.17	2169.13
584.53	2163.41
584.88	2157.87
585.23	2152.02
585.58	2146.50
585.93	2141.01
586.28	2136.10
586.63	2130.93
586.98	2125.94
587.34	2121.23
587.69	2116.30
588.04	2110.91
588.39	2105.11
588.74	2098.79
589.09	2092.65
589.44	2085.90
589.79	2079.78
590.14	2074.26
590.49	2067.69
590.84	2061.42
591.19	2055.50
591.54	2049.10
591.89	2041.74
592.25	2034.77
592.60	2027.59
592.95	2019.99
593.30	2012.50
593.65	2004.90
594.00	1997.86
594.35	1990.57
594.70	1982.50
595.05	1975.21
595.40	1967.88
595.75	1960.40
596.10	1954.09
596.45	1947.25
596.80	1941.14
597.15	1934.48
597.50	1927.22
597.85	1920.72
598.19	1914.03
598.54	1906.66
598.89	1900.02
599.24	1894.20
599.59	1887.55
599.94	1881.36
600.29	1875.01
600.64	1868.44
600.99	1861.00
601.34	1854.09
601.69	1847.09
602.04	1840.09
602.39	1832.78
602.74	1825.95
603.08	1819.26
603.43	1812.43
603.78	1805.16
604.13	1797.89
604.48	1790.59
604.83	1783.76
605.18	1776.71
605.53	1768.66
605.87	1760.73
606.22	1753.47
606.57	1745.30
606.92	1737.98
607.27	1730.71
607.62	1723.81
607.96	1716.57
608.31	1709.93
608.66	1702.45
609.01	1694.90
609.36	1687.33
609.70	1679.20
610.05	1671.13
610.40	1663.28
610.75	1654.88
611.10	1647.12
611.44	1638.69
611.79	1630.72
612.14	1622.01
612.49	1612.93
612.83	1604.65
613.18	1596.54
613.53	1588.39
613.88	1579.97
614.22	1571.67
614.57	1563.13
614.92	1554.98
615.27	1547.37
615.61	1539.12
615.96	1530.92
616.31	1523.19
616.65	1515.88
617.00	1508.35
617.35	1500.75
617.70	1492.55
618.04	1484.11
618.39	1475.99
618.74	1468.35
619.08	1459.98
619.43	1452.44
619.78	1445.41
620.12	1438.14
620.47	1430.58
620.82	1422.45
621.16	1415.03
621.51	1407.41
621.85	1399.67
622.20	1391.12
622.55	1382.75
622.89	1374.81
623.24	1367.22
623.59	1359.91
623.93	1352.33
624.28	1345.17
624.62	1337.49
624.97	1330.35
625.32	1323.69
625.66	1316.71
626.01	1309.46
626.35	1302.07
626.70	1294.35
627.04	1286.69
627.39	1278.93
627.73	1271.53
628.08	1264.59
628.43	1257.30
628.77	1250.03
629.12	1242.58
629.46	1235.44
629.81	1228.12
630.15	1220.86
630.50	1213.60
630.84	1205.36
631.19	1197.53
631.53	1189.98
631.88	1182.52
632.22	1174.76
632.57	1167.46
632.91	1159.96
633.26	1152.64
633.60	1145.29
633.95	1138.24
634.29	1131.20
634.64	1124.60
634.98	1117.25
635.32	1110.14
635.67	1103.53
636.01	1096.82
636.36	1089.95
636.70	1083.61
637.05	1076.96
637.39	1070.56
637.73	1063.95
638.08	1058.19
638.42	1052.16
638.77	1045.77
639.11	1039.17
639.45	1032.85
639.80	1026.13
640.14	1019.53
640.49	1012.98
640.83	1006.69
641.17	1000.35
641.52	993.94
641.86	987.59
642.20	981.79
642.55	975.40
642.89	968.90
643.23	962.39
643.58	956.62
643.92	950.30
644.26	944.21
644.61	938.22
644.95	932.20
645.29	925.51
645.64	918.75
645.98	912.42
646.32	906.65
646.66	900.63
647.01	894.82
647.35	889.20
647.69	883.38
648.04	877.82
648.38	872.04
648.72	865.98
649.06	859.80
649.41	853.83
649.75	847.86
650.09	841.90
650.43	836.03
650.78	829.89
651.12	823.90
651.46	818.18
651.80	812.38
652.14	807.03
652.49	801.66
652.83	796.53
653.17	790.74
653.51	784.95
653.85	779.58
654.20	773.89
654.54	767.88
654.88	762.15
655.22	756.22
655.56	750.63
655.90	745.20
656.25	739.97
656.59	734.67
656.93	729.59
657.27	724.42
657.61	719.04
657.95	713.93
658.29	708.87
658.64	703.70
658.98	698.42
659.32	692.91
659.66	687.67
660.00	682.31
660.34	677.39
660.68	672.54
661.02	667.42
661.36	662.74
661.70	658.29
662.05	653.94
662.39	649.61
662.73	645.10
663.07	640.80
663.41	636.32
663.75	631.83
664.09	627.35
664.43	623.01
664.77	618.86
665.11	614.60
665.45	610.51
665.79	606.38
666.13	602.25
666.47	598.17
666.81	594.01
667.15	589.86
667.49	586.03
667.83	582.20
668.17	578.32
668.51	574.31
668.85	570.24
669.19	566.44
669.53	562.61
669.87	558.70
670.21	554.97
670.55	551.38
670.89	547.94
671.23	544.44
671.57	540.95
671.91	537.45
672.25	534.00
672.58	530.48
672.92	527.11
673.26	523.93
673.60	520.76
673.94	517.67
674.28	514.79
674.62	511.80
674.96	508.68
675.30	505.78
675.64	502.79
675.97	500.03
676.31	497.11
676.65	494.22
676.99	491.52
677.33	488.72
677.67	485.92
678.01	482.88
678.34	479.87
678.68	476.99
679.02	474.16
679.36	471.39
679.70	468.68
680.04	465.91
680.37	463.05
680.71	460.27
681.05	457.66
681.39	454.93
681.73	452.25
682.06	449.69
682.40	447.13
682.74	444.63
683.08	442.08
683.42	439.47
683.75	436.98
684.09	434.45
684.43	431.91
684.77	429.40
685.10	427.10
685.44	424.84
685.78	422.53
686.12	420.26
686.45	417.97
686.79	415.62
687.13	413.41
687.46	411.23
687.80	409.09
688.14	406.87
688.48	404.87
688.81	402.67
689.15	400.55
689.49	398.47
689.82	396.41
690.16	394.32
690.50	392.40
690.83	390.43
691.17	388.47
691.51	386.62
691.84	384.82
692.18	382.86
692.52	380.86
692.85	378.96
693.19	377.08
693.52	375.27
693.86	373.52
694.20	371.75
694.53	369.97
694.87	368.14
695.21	366.37
695.54	364.56
695.88	362.84
696.21	361.15
696.55	359.43
696.88	357.75
697.22	356.14
697.56	354.53
697.89	352.88
698.23	351.27
698.56	349.66
698.90	348.05
699.23	346.40
699.57	344.86
699.90	343.30
700.24	341.80
700.58	340.26
700.91	338.72
701.25	337.26
701.58	335.91
701.92	334.56
702.25	333.17
702.59	331.76
702.92	330.43
703.26	329.09
703.59	327.80
703.93	326.61
704.26	325.34
704.60	324.05
704.93	322.79
705.26	321.54
705.60	320.39
705.93	319.22
706.27	318.17
706.60	317.14
706.94	316.07
707.27	314.89
707.61	313.85
707.94	312.87
708.27	311.78
708.61	310.69
708.94	309.70
709.28	308.70
709.61	307.79
709.94	306.82
710.28	305.85
710.61	304.85
710.95	303.78
711.28	302.85
711.61	301.91
711.95	300.98
712.28	300.03
712.61	299.03
712.95	298.11
713.28	297.27
713.61	296.37
713.95	295.51
714.28	294.71
714.61	293.82
714.95	292.98
715.28	292.12
715.61	291.23
715.95	290.35
716.28	289.49
716.61	288.64
716.95	287.87
717.28	287.15
717.61	286.38
717.94	285.64
718.28	284.83
718.61	284.10
718.94	283.42
719.27	282.79
719.61	282.11
719.94	281.44
720.27	280.73
720.60	280.07
720.94	279.40
721.27	278.77
721.60	278.21
721.93	277.60
722.27	277.07
722.60	276.54
722.93	275.98
723.26	275.47
723.59	274.89
723.93	274.30
724.26	273.71
724.59	273.16
724.92	272.66
725.25	272.18
725.59	271.64
725.92	271.16
726.25	270.62
726.58	270.15
726.91	269.63
727.24	269.12
727.57	268.65
727.91	268.12
728.24	267.65
728.57	267.14
728.90	266.72
729.23	266.20
729.56	265.76
729.89	265.33
730.22	264.82
730.55	264.38
730.89	263.95
731.22	263.50
731.55	263.10
731.88	262.66
732.21	262.23
732.54	261.80
732.87	261.35
733.20	260.98
733.53	260.58
733.86	260.26
734.19	259.85
734.52	259.48
734.85	259.24
735.18	258.86
735.51	258.49
735.84	258.08
736.17	257.78
736.50	257.36
736.83	257.12
737.16	256.82
737.49	256.48
737.82	256.12
738.15	255.79
738.48	255.48
738.81	255.17
739.14	254.84
739.47	254.55
739.80	254.24
740.13	253.93
740.46	253.62
740.79	253.30
741.12	253.01
741.45	252.69
741.78	252.29
742.11	252.02
742.44	251.72
742.77	251.46
743.10	251.16
743.43	250.91
743.75	250.53
744.08	250.39
744.41	250.13
744.74	249.88
745.07	249.63
745.40	249.36
745.73	249.10
746.06	248.85
746.39	248.59
746.71	248.33
747.04	248.06
747.37	247.78
747.70	247.52
748.03	247.29
748.36	247.11
748.68	246.89
749.01	246.60
749.34	246.40
749.67	246.15
750.00	245.89
750.33	245.71
750.65	245.46
750.98	245.10
751.31	244.91
751.64	244.71
751.97	244.52
752.29	244.30
752.62	244.03
752.95	243.83
753.28	243.61
753.60	243.41
753.93	243.24
754.26	243.03
754.59	242.79
754.91	242.53
755.24	242.26
755.57	242.07
755.90	241.86
756.22	241.65
756.55	241.45
756.88	241.25
757.20	241.00
757.53	240.83
757.86	240.64
758.19	240.46
758.51	240.28
758.84	240.07
759.17	239.88
759.49	239.73
759.82	239.59
760.15	239.40
760.47	239.25
760.80	239.06
761.13	238.93
761.45	238.78
761.78	238.67
762.11	238.54
762.43	238.40
762.76	238.27
763.08	238.15
763.41	237.99
763.74	237.84
764.06	237.68
764.39	237.49
764.71	237.33
765.04	237.11
765.37	236.95
765.69	236.79
766.02	236.66
766.34	236.55
766.67	236.36
767.00	236.27
767.32	236.18
767.65	236.12
767.97	235.98
768.30	235.86
768.62	235.78
768.95	235.65
769.27	235.50
769.60	235.42
769.92	235.28
770.25	235.19
770.57	235.09
770.90	235.02
771.22	234.97
771.55	234.92
771.87	234.86
772.20	234.75
772.52	234.70
772.85	234.76
773.17	234.66
773.50	234.60
773.82	234.51
774.15	234.38
774.47	234.23
774.80	234.15
775.12	234.06
775.45	233.96
775.77	233.90
776.09	233.85
776.42	233.78
776.74	233.71
777.07	233.62
777.39	233.58
777.72	233.51
778.04	233.44
778.36	233.37
778.69	233.33
779.01	233.28
779.33	233.19
779.66	233.01
779.98	232.96
780.31	232.91
780.63	232.91
780.95	232.89
781.28	232.82
781.60	232.75
781.92	232.71
782.25	232.64
782.57	232.59
782.89	232.55
783.22	232.51
783.54	232.43
783.86	232.41
784.19	232.37
784.51	232.37
784.83	232.32
785.16	232.24
785.48	232.17
785.80	232.15
786.12	232.15
786.45	232.07
786.77	232.04
787.09	231.97
