SpectraSuite Data File
++++++++++++++++++++++++++++++++++++
Date: Fri Feb 01 18:10:23 EST 2013
User: group
Dark Spectrum Present: No
Reference Spectrum Present: No
Number of Sampled Component Spectra: 1
Spectrometers: USB2E7196
Integration Time (usec): 35000 (USB2E7196)
Spectra Averaged: 100 (USB2E7196)
Boxcar Smoothing: 10 (USB2E7196)
Correct for Electrical Dark: No (USB2E7196)
Strobe/Lamp Enabled: No (USB2E7196)
Correct for Detector Non-linearity: No (USB2E7196)
Correct for Stray Light: No (USB2E7196)
Number of Pixels in Processed Spectrum: 2048
>>>>>Begin Processed Spectral Data<<<<<
339.09	0.00
339.48	212.67
339.86	214.45
340.24	216.02
340.63	217.78
341.01	220.60
341.39	220.60
341.78	221.46
342.16	222.32
342.54	223.33
342.93	211.48
343.31	222.18
343.69	222.73
344.07	223.21
344.46	223.64
344.84	223.99
345.22	224.23
345.60	224.45
345.99	224.63
346.37	224.76
346.75	224.85
347.13	224.93
347.52	224.99
347.90	225.10
348.28	225.19
348.66	225.26
349.05	225.22
349.43	225.26
349.81	225.29
350.19	225.35
350.57	225.43
350.96	225.52
351.34	225.59
351.72	225.68
352.10	225.72
352.48	225.78
352.87	225.85
353.25	225.87
353.63	225.95
354.01	226.03
354.39	226.12
354.77	226.20
355.15	226.28
355.54	226.36
355.92	226.36
356.30	226.42
356.68	226.55
357.06	226.62
357.44	226.65
357.82	226.72
358.20	226.78
358.58	226.82
358.97	226.89
359.35	226.97
359.73	227.05
360.11	227.15
360.49	227.21
360.87	227.27
361.25	227.35
361.63	227.43
362.01	227.47
362.39	227.52
362.77	227.54
363.15	227.60
363.53	227.60
363.91	227.64
364.29	227.66
364.67	227.59
365.05	227.64
365.43	227.68
365.81	227.71
366.19	227.77
366.57	227.87
366.95	227.86
367.33	227.83
367.71	227.84
368.09	227.84
368.47	227.85
368.85	227.84
369.23	227.86
369.61	227.78
369.99	227.79
370.37	227.75
370.75	227.78
371.13	227.74
371.51	227.73
371.89	227.74
372.27	227.70
372.65	227.66
373.03	227.63
373.41	227.56
373.78	227.51
374.16	227.42
374.54	227.28
374.92	227.21
375.30	227.17
375.68	227.06
376.06	227.00
376.44	226.89
376.82	226.83
377.19	226.79
377.57	226.74
377.95	226.68
378.33	226.62
378.71	226.51
379.09	226.45
379.47	226.39
379.84	226.28
380.22	226.22
380.60	226.16
380.98	226.08
381.36	226.05
381.73	226.02
382.11	225.98
382.49	225.96
382.87	225.92
383.25	225.85
383.62	225.91
384.00	225.84
384.38	225.84
384.76	225.83
385.13	225.82
385.51	225.78
385.89	225.67
386.27	225.64
386.64	225.62
387.02	225.59
387.40	225.56
387.78	225.56
388.15	225.56
388.53	225.53
388.91	225.50
389.29	225.47
389.66	225.47
390.04	225.43
390.42	225.44
390.79	225.44
391.17	225.44
391.55	225.37
391.92	225.38
392.30	225.38
392.68	225.34
393.05	225.30
393.43	225.31
393.81	225.36
394.18	225.32
394.56	225.34
394.94	225.38
395.31	225.35
395.69	225.39
396.06	225.42
396.44	225.44
396.82	225.47
397.19	225.53
397.57	225.53
397.95	225.58
398.32	225.59
398.70	225.64
399.07	225.72
399.45	225.77
399.82	225.80
400.20	225.86
400.58	225.93
400.95	225.98
401.33	226.08
401.70	226.24
402.08	226.36
402.45	226.42
402.83	226.53
403.20	226.71
403.58	226.79
403.95	226.90
404.33	227.00
404.71	227.11
405.08	227.31
405.46	227.47
405.83	227.65
406.21	227.81
406.58	228.00
406.96	228.17
407.33	228.35
407.70	228.59
408.08	228.92
408.45	229.18
408.83	229.48
409.20	229.74
409.58	229.93
409.95	230.26
410.33	230.65
410.70	230.93
411.08	231.29
411.45	231.68
411.82	232.08
412.20	232.54
412.57	233.13
412.95	233.56
413.32	234.11
413.69	234.64
414.07	235.22
414.44	235.86
414.82	236.48
415.19	237.22
415.56	237.99
415.94	238.72
416.31	239.59
416.68	240.43
417.06	241.43
417.43	242.40
417.81	243.46
418.18	244.50
418.55	245.69
418.93	246.89
419.30	248.15
419.67	249.44
420.04	250.76
420.42	252.13
420.79	253.76
421.16	255.35
421.54	257.05
421.91	258.74
422.28	260.49
422.66	262.39
423.03	264.20
423.40	266.04
423.77	268.04
424.15	270.04
424.52	272.13
424.89	274.37
425.26	276.54
425.64	278.60
426.01	280.84
426.38	283.18
426.75	285.53
427.13	287.93
427.50	290.49
427.87	293.20
428.24	295.80
428.61	298.25
428.99	300.95
429.36	303.84
429.73	306.80
430.10	309.61
430.47	312.48
430.85	315.49
431.22	318.69
431.59	321.98
431.96	325.16
432.33	328.66
432.70	332.02
433.08	335.97
433.45	339.65
433.82	343.36
434.19	347.41
434.56	351.34
434.93	355.10
435.30	358.80
435.68	362.85
436.05	366.85
436.42	370.78
436.79	374.35
437.16	378.16
437.53	382.12
437.90	386.06
438.27	389.94
438.64	393.90
439.01	397.49
439.38	400.73
439.75	403.80
440.13	407.35
440.50	410.59
440.87	413.26
441.24	416.00
441.61	419.02
441.98	421.14
442.35	423.71
442.72	426.37
443.09	428.90
443.46	430.34
443.83	431.20
444.20	431.96
444.57	433.16
444.94	433.62
445.31	434.09
445.68	434.65
446.05	434.75
446.42	434.24
446.79	433.69
447.16	433.07
447.53	432.60
447.90	430.90
448.27	429.32
448.64	426.96
449.01	425.38
449.37	422.61
449.74	419.95
450.11	416.76
450.48	413.25
450.85	409.68
451.22	406.57
451.59	403.68
451.96	400.94
452.33	397.28
452.70	393.97
453.07	390.01
453.43	385.94
453.80	382.05
454.17	378.35
454.54	374.74
454.91	370.85
455.28	367.08
455.65	363.61
456.02	360.08
456.38	357.09
456.75	353.32
457.12	350.18
457.49	347.04
457.86	343.98
458.23	341.35
458.59	338.45
458.96	335.56
459.33	332.96
459.70	330.32
460.07	328.14
460.43	325.67
460.80	323.38
461.17	321.31
461.54	319.18
461.91	317.12
462.27	315.04
462.64	313.30
463.01	311.37
463.38	309.47
463.74	307.58
464.11	305.94
464.48	304.43
464.85	302.81
465.21	301.50
465.58	300.16
465.95	298.60
466.32	297.30
466.68	296.00
467.05	294.72
467.42	293.41
467.78	292.11
468.15	290.80
468.52	289.81
468.88	288.59
469.25	287.48
469.62	286.56
469.98	285.61
470.35	284.68
470.72	283.83
471.08	282.93
471.45	282.12
471.82	281.27
472.18	280.45
472.55	279.83
472.92	279.14
473.28	278.51
473.65	277.86
474.02	277.22
474.38	276.61
474.75	276.09
475.11	275.60
475.48	275.18
475.85	274.89
476.21	274.51
476.58	274.24
476.94	273.98
477.31	273.68
477.67	273.40
478.04	273.14
478.41	272.96
478.77	272.92
479.14	272.77
479.50	272.78
479.87	272.76
480.23	272.76
480.60	272.71
480.96	272.70
481.33	272.87
481.69	273.03
482.06	273.24
482.42	273.36
482.79	273.58
483.15	273.85
483.52	274.16
483.88	274.47
484.25	274.78
484.61	275.18
484.98	275.59
485.34	276.16
485.71	276.77
486.07	277.39
486.44	277.94
486.80	278.66
487.17	279.37
487.53	280.24
487.90	281.12
488.26	282.10
488.62	283.12
488.99	284.14
489.35	285.21
489.72	286.41
490.08	287.76
490.44	289.07
490.81	290.50
491.17	291.92
491.54	293.53
491.90	295.17
492.26	296.91
492.63	298.78
492.99	300.67
493.36	302.70
493.72	304.90
494.08	307.17
494.45	309.61
494.81	312.17
495.17	314.79
495.54	317.53
495.90	320.43
496.26	323.47
496.63	326.63
496.99	329.96
497.35	333.44
497.72	337.09
498.08	340.87
498.44	344.81
498.80	349.05
499.17	353.44
499.53	357.94
499.89	362.67
500.26	367.52
500.62	372.51
500.98	377.83
501.34	383.31
501.71	389.05
502.07	394.86
502.43	400.88
502.79	407.18
503.16	413.73
503.52	420.50
503.88	427.36
504.24	434.47
504.60	441.91
504.97	449.63
505.33	457.48
505.69	465.78
506.05	474.15
506.41	482.58
506.78	491.32
507.14	500.44
507.50	509.82
507.86	519.57
508.22	529.52
508.59	539.51
508.95	549.83
509.31	560.43
509.67	571.40
510.03	582.45
510.39	593.90
510.75	605.49
511.12	617.25
511.48	629.49
511.84	641.99
512.20	654.48
512.56	667.46
512.92	680.71
513.28	694.23
513.64	707.81
514.00	721.80
514.37	735.93
514.73	750.20
515.09	764.42
515.45	778.96
515.81	793.80
516.17	809.06
516.53	824.54
516.89	840.13
517.25	855.72
517.61	871.65
517.97	887.51
518.33	903.47
518.69	919.70
519.05	936.19
519.41	952.84
519.77	970.05
520.13	987.12
520.49	1004.15
520.85	1021.16
521.21	1038.56
521.57	1056.56
521.93	1074.06
522.29	1092.21
522.65	1110.33
523.01	1128.38
523.37	1146.42
523.73	1164.42
524.09	1182.35
524.45	1200.49
524.81	1219.00
525.17	1237.78
525.53	1256.63
525.89	1275.54
526.25	1294.67
526.61	1313.18
526.97	1332.17
527.33	1350.67
527.68	1369.37
528.04	1388.00
528.40	1406.69
528.76	1425.98
529.12	1444.65
529.48	1463.77
529.84	1482.03
530.20	1500.98
530.56	1520.28
530.91	1540.02
531.27	1559.17
531.63	1578.12
531.99	1597.16
532.35	1615.53
532.71	1633.84
533.07	1652.55
533.42	1670.96
533.78	1689.38
534.14	1708.08
534.50	1725.72
534.86	1744.06
535.21	1761.72
535.57	1780.21
535.93	1798.12
536.29	1815.32
536.65	1832.83
537.00	1850.11
537.36	1868.08
537.72	1885.07
538.08	1902.01
538.44	1918.26
538.79	1934.71
539.15	1950.69
539.51	1966.88
539.87	1983.93
540.22	2000.12
540.58	2016.50
540.94	2032.34
541.29	2047.64
541.65	2063.02
542.01	2078.91
542.37	2093.91
542.72	2109.03
543.08	2123.36
543.44	2138.38
543.79	2152.34
544.15	2165.90
544.51	2180.08
544.87	2193.54
545.22	2206.93
545.58	2219.69
545.94	2231.93
546.29	2244.31
546.65	2256.76
547.01	2268.64
547.36	2279.68
547.72	2290.70
548.07	2301.06
548.43	2311.60
548.79	2321.91
549.14	2331.83
549.50	2341.37
549.86	2351.23
550.21	2360.67
550.57	2370.16
550.92	2378.99
551.28	2388.25
551.64	2397.56
551.99	2406.25
552.35	2414.68
552.70	2422.89
553.06	2430.94
553.41	2439.46
553.77	2447.39
554.13	2455.52
554.48	2463.69
554.84	2471.29
555.19	2478.36
555.55	2485.34
555.90	2491.84
556.26	2499.14
556.61	2505.61
556.97	2511.92
557.32	2517.95
557.68	2523.79
558.03	2529.80
558.39	2535.27
558.74	2541.78
559.10	2547.50
559.45	2552.95
559.81	2558.72
560.16	2564.30
560.52	2569.29
560.87	2574.31
561.23	2578.50
561.58	2582.91
561.94	2586.93
562.29	2590.51
562.64	2595.01
563.00	2598.99
563.35	2603.87
563.71	2608.23
564.06	2612.83
564.42	2617.14
564.77	2621.11
565.12	2625.03
565.48	2628.17
565.83	2631.40
566.19	2634.01
566.54	2635.77
566.89	2638.16
567.25	2640.10
567.60	2642.51
567.96	2645.41
568.31	2647.34
568.66	2649.74
569.02	2651.26
569.37	2652.38
569.72	2654.43
570.08	2655.40
570.43	2656.20
570.78	2656.53
571.14	2655.62
571.49	2654.92
571.84	2655.15
572.20	2654.77
572.55	2654.16
572.90	2653.17
573.26	2652.26
573.61	2650.77
573.96	2649.86
574.31	2647.04
574.67	2644.14
575.02	2640.61
575.37	2637.19
575.72	2633.39
576.08	2629.93
576.43	2626.68
576.78	2623.45
577.13	2620.25
577.49	2616.96
577.84	2613.66
578.19	2609.61
578.54	2605.94
578.90	2601.74
579.25	2595.88
579.60	2590.59
579.95	2585.21
580.30	2579.77
580.66	2574.22
581.01	2568.81
581.36	2563.20
581.71	2558.80
582.06	2554.05
582.42	2549.30
582.77	2543.71
583.12	2538.81
583.47	2533.87
583.82	2528.64
584.17	2522.54
584.53	2516.49
584.88	2510.37
585.23	2503.92
585.58	2497.92
585.93	2491.87
586.28	2486.39
586.63	2480.87
586.98	2475.16
587.34	2469.88
587.69	2464.44
588.04	2458.54
588.39	2452.24
588.74	2445.06
589.09	2437.91
589.44	2430.21
589.79	2423.14
590.14	2416.62
590.49	2409.16
590.84	2401.72
591.19	2394.86
591.54	2387.45
591.89	2379.13
592.25	2371.39
592.60	2363.14
592.95	2354.35
593.30	2345.86
593.65	2336.98
594.00	2328.60
594.35	2320.11
594.70	2310.63
595.05	2302.36
595.40	2293.82
595.75	2285.00
596.10	2277.82
596.45	2270.00
596.80	2262.90
597.15	2255.30
597.50	2247.26
597.85	2239.58
598.19	2231.90
598.54	2223.57
598.89	2215.93
599.24	2208.86
599.59	2201.16
599.94	2193.77
600.29	2186.45
600.64	2178.48
600.99	2169.79
601.34	2161.90
601.69	2153.57
602.04	2145.73
602.39	2137.09
602.74	2129.07
603.08	2121.10
603.43	2113.00
603.78	2104.42
604.13	2095.80
604.48	2087.37
604.83	2079.04
605.18	2071.05
605.53	2061.46
605.87	2051.94
606.22	2043.19
606.57	2033.61
606.92	2024.55
607.27	2016.16
607.62	2007.92
607.96	1999.48
608.31	1991.73
608.66	1982.66
609.01	1973.89
609.36	1964.87
609.70	1955.24
610.05	1945.69
610.40	1936.64
610.75	1926.85
611.10	1917.55
611.44	1907.33
611.79	1897.42
612.14	1887.02
612.49	1875.82
612.83	1865.75
613.18	1855.91
613.53	1846.19
613.88	1836.14
614.22	1826.30
614.57	1815.78
614.92	1806.16
615.27	1797.05
615.61	1787.03
615.96	1777.28
616.31	1767.90
616.65	1758.87
617.00	1749.81
617.35	1740.56
617.70	1730.67
618.04	1720.37
618.39	1710.54
618.74	1701.49
619.08	1691.70
619.43	1682.52
619.78	1674.31
620.12	1665.86
620.47	1656.83
620.82	1646.95
621.16	1637.85
621.51	1628.65
621.85	1619.47
622.20	1609.17
622.55	1599.03
622.89	1589.58
623.24	1580.32
623.59	1571.27
623.93	1562.23
624.28	1553.45
624.62	1544.41
624.97	1535.70
625.32	1527.34
625.66	1518.84
626.01	1510.18
626.35	1501.27
626.70	1492.08
627.04	1482.79
627.39	1473.32
627.73	1464.43
628.08	1456.17
628.43	1447.61
628.77	1438.86
629.12	1429.79
629.46	1421.29
629.81	1412.32
630.15	1403.59
630.50	1394.74
630.84	1385.08
631.19	1375.54
631.53	1366.49
631.88	1357.33
632.22	1348.19
632.57	1339.57
632.91	1330.61
633.26	1321.73
633.60	1312.79
633.95	1304.06
634.29	1295.46
634.64	1287.44
634.98	1278.62
635.32	1270.17
635.67	1261.99
636.01	1254.11
636.36	1246.07
636.70	1238.08
637.05	1230.21
637.39	1222.45
637.73	1214.74
638.08	1207.60
638.42	1200.33
638.77	1192.69
639.11	1184.92
639.45	1177.20
639.80	1169.24
640.14	1161.60
640.49	1153.92
640.83	1146.39
641.17	1139.18
641.52	1131.79
641.86	1124.01
642.20	1116.98
642.55	1109.32
642.89	1101.79
643.23	1093.80
643.58	1086.88
643.92	1079.64
644.26	1072.58
644.61	1065.42
644.95	1058.38
645.29	1050.79
645.64	1042.95
645.98	1035.38
646.32	1028.29
646.66	1021.15
647.01	1014.29
647.35	1007.53
647.69	1000.47
648.04	993.96
648.38	987.09
648.72	979.94
649.06	972.95
649.41	966.02
649.75	959.05
650.09	952.05
650.43	945.27
650.78	938.00
651.12	930.92
651.46	923.99
651.80	917.28
652.14	910.78
652.49	904.36
652.83	898.25
653.17	891.61
653.51	885.03
653.85	878.65
654.20	871.98
654.54	864.83
654.88	858.02
655.22	850.98
655.56	844.13
655.90	837.56
656.25	831.35
656.59	825.03
656.93	819.00
657.27	812.85
657.61	806.46
657.95	800.45
658.29	794.44
658.64	788.23
658.98	781.93
659.32	775.48
659.66	769.28
660.00	763.00
660.34	757.12
660.68	751.26
661.02	745.31
661.36	739.77
661.70	734.50
662.05	729.48
662.39	724.52
662.73	719.30
663.07	714.27
663.41	708.96
663.75	703.66
664.09	698.32
664.43	693.10
664.77	688.25
665.11	683.24
665.45	678.38
665.79	673.71
666.13	668.84
666.47	664.05
666.81	659.20
667.15	654.40
667.49	649.82
667.83	645.25
668.17	640.62
668.51	635.88
668.85	631.18
669.19	626.56
669.53	622.03
669.87	617.56
670.21	613.13
670.55	608.85
670.89	604.78
671.23	600.72
671.57	596.62
671.91	592.47
672.25	588.32
672.58	584.22
672.92	580.13
673.26	576.40
673.60	572.65
673.94	569.02
674.28	565.51
674.62	562.05
674.96	558.46
675.30	555.09
675.64	551.65
675.97	548.34
676.31	544.96
676.65	541.49
676.99	538.23
677.33	534.83
677.67	531.55
678.01	528.05
678.34	524.53
678.68	521.18
679.02	517.89
679.36	514.67
679.70	511.45
680.04	508.20
680.37	504.83
680.71	501.53
681.05	498.40
681.39	495.27
681.73	492.19
682.06	489.22
682.40	486.24
682.74	483.22
683.08	480.23
683.42	477.18
683.75	474.24
684.09	471.27
684.43	468.40
684.77	465.54
685.10	462.74
685.44	460.04
685.78	457.34
686.12	454.65
686.45	451.91
686.79	449.18
687.13	446.60
687.46	444.03
687.80	441.53
688.14	438.88
688.48	436.45
688.81	433.80
689.15	431.24
689.49	428.65
689.82	426.17
690.16	423.67
690.50	421.35
690.83	419.08
691.17	416.67
691.51	414.44
691.84	412.18
692.18	409.94
692.52	407.59
692.85	405.24
693.19	403.01
693.52	400.86
693.86	398.71
694.20	396.61
694.53	394.47
694.87	392.29
695.21	390.22
695.54	388.06
695.88	385.98
696.21	383.93
696.55	381.96
696.88	379.95
697.22	377.97
697.56	376.04
697.89	374.07
698.23	372.24
698.56	370.30
698.90	368.48
699.23	366.54
699.57	364.74
699.90	362.98
700.24	361.15
700.58	359.36
700.91	357.63
701.25	355.94
701.58	354.35
701.92	352.74
702.25	351.12
702.59	349.50
702.92	347.94
703.26	346.40
703.59	344.91
703.93	343.54
704.26	342.14
704.60	340.61
704.93	339.10
705.26	337.61
705.60	336.24
705.93	334.85
706.27	333.62
706.60	332.35
706.94	331.06
707.27	329.75
707.61	328.46
707.94	327.18
708.27	325.86
708.61	324.57
708.94	323.34
709.28	322.15
709.61	321.01
709.94	319.87
710.28	318.66
710.61	317.46
710.95	316.16
711.28	315.01
711.61	313.91
711.95	312.85
712.28	311.73
712.61	310.60
712.95	309.44
713.28	308.38
713.61	307.33
713.95	306.27
714.28	305.23
714.61	304.22
714.95	303.25
715.28	302.25
715.61	301.24
715.95	300.25
716.28	299.22
716.61	298.22
716.95	297.23
717.28	296.36
717.61	295.46
717.94	294.59
718.28	293.68
718.61	292.78
718.94	291.91
719.27	291.14
719.61	290.37
719.94	289.62
720.27	288.75
720.60	287.94
720.94	287.17
721.27	286.49
721.60	285.78
721.93	285.07
722.27	284.41
722.60	283.73
722.93	283.04
723.26	282.39
723.59	281.73
723.93	281.10
724.26	280.43
724.59	279.71
724.92	279.08
725.25	278.50
725.59	277.94
725.92	277.34
726.25	276.70
726.58	276.05
726.91	275.41
727.24	274.87
727.57	274.32
727.91	273.74
728.24	273.18
728.57	272.59
728.90	272.05
729.23	271.47
729.56	270.97
729.89	270.41
730.22	269.85
730.55	269.30
730.89	268.73
731.22	268.23
731.55	267.78
731.88	267.31
732.21	266.78
732.54	266.26
732.87	265.80
733.20	265.34
733.53	264.89
733.86	264.46
734.19	263.99
734.52	263.54
734.85	263.17
735.18	262.69
735.51	262.28
735.84	261.83
736.17	261.40
736.50	260.92
736.83	260.63
737.16	260.22
737.49	259.83
737.82	259.46
738.15	259.08
738.48	258.68
738.81	258.27
739.14	257.89
739.47	257.50
739.80	257.11
740.13	256.73
740.46	256.37
740.79	256.02
741.12	255.68
741.45	255.28
741.78	254.89
742.11	254.54
742.44	254.18
742.77	253.82
743.10	253.44
743.43	253.07
743.75	252.63
744.08	252.44
744.41	252.11
744.74	251.78
745.07	251.42
745.40	251.11
745.73	250.81
746.06	250.50
746.39	250.21
746.71	249.88
747.04	249.56
747.37	249.27
747.70	248.92
748.03	248.61
748.36	248.37
748.68	248.04
749.01	247.77
749.34	247.53
749.67	247.29
750.00	247.06
750.33	246.87
750.65	246.63
750.98	246.27
751.31	246.03
751.64	245.80
751.97	245.61
752.29	245.32
752.62	245.07
752.95	244.81
753.28	244.57
753.60	244.32
753.93	244.12
754.26	243.85
754.59	243.62
754.91	243.38
755.24	243.15
755.57	242.91
755.90	242.68
756.22	242.41
756.55	242.16
756.88	241.92
757.20	241.64
757.53	241.41
757.86	241.22
758.19	241.03
758.51	240.85
758.84	240.61
759.17	240.42
759.49	240.23
759.82	240.08
760.15	239.87
760.47	239.70
760.80	239.47
761.13	239.31
761.45	239.12
761.78	238.97
762.11	238.79
762.43	238.65
762.76	238.49
763.08	238.33
763.41	238.18
763.74	238.00
764.06	237.86
764.39	237.68
764.71	237.48
765.04	237.29
765.37	237.09
765.69	236.95
766.02	236.77
766.34	236.63
766.67	236.43
767.00	236.35
767.32	236.28
767.65	236.22
767.97	236.09
768.30	235.93
768.62	235.79
768.95	235.63
769.27	235.48
769.60	235.37
769.92	235.22
770.25	235.07
770.57	234.92
770.90	234.80
771.22	234.69
771.55	234.59
771.87	234.49
772.20	234.40
772.52	234.34
772.85	234.39
773.17	234.27
773.50	234.18
773.82	234.03
774.15	233.88
774.47	233.70
774.80	233.62
775.12	233.55
775.45	233.45
775.77	233.35
776.09	233.27
776.42	233.13
776.74	233.09
777.07	232.97
777.39	232.89
777.72	232.80
778.04	232.72
778.36	232.64
778.69	232.55
779.01	232.49
779.33	232.33
779.66	232.09
779.98	231.98
780.31	231.88
780.63	231.84
780.95	231.74
781.28	231.68
781.60	231.58
781.92	231.49
782.25	231.42
782.57	231.36
782.89	231.26
783.22	231.21
783.54	231.11
783.86	231.09
784.19	231.06
784.51	231.02
784.83	230.93
785.16	230.85
785.48	230.78
785.80	230.71
786.12	230.67
786.45	230.62
