SpectraSuite Data File
++++++++++++++++++++++++++++++++++++
Date: Fri Feb 01 16:22:01 EST 2013
User: group
Dark Spectrum Present: No
Reference Spectrum Present: No
Number of Sampled Component Spectra: 1
Spectrometers: USB2E7196
Integration Time (usec): 35000 (USB2E7196)
Spectra Averaged: 100 (USB2E7196)
Boxcar Smoothing: 10 (USB2E7196)
Correct for Electrical Dark: No (USB2E7196)
Strobe/Lamp Enabled: No (USB2E7196)
Correct for Detector Non-linearity: No (USB2E7196)
Correct for Stray Light: No (USB2E7196)
Number of Pixels in Processed Spectrum: 2048
>>>>>Begin Processed Spectral Data<<<<<
339.09	0.00
339.48	213.75
339.86	215.57
340.24	216.37
340.63	218.10
341.01	221.33
341.39	221.18
341.78	222.24
342.16	223.21
342.54	224.37
342.93	212.35
343.31	223.09
343.69	223.64
344.07	224.11
344.46	224.58
344.84	224.96
345.22	225.16
345.60	225.40
345.99	225.58
346.37	225.73
346.75	225.81
347.13	225.92
347.52	225.98
347.90	226.06
348.28	226.10
348.66	226.11
349.05	226.08
349.43	226.13
349.81	226.19
350.19	226.27
350.57	226.32
350.96	226.40
351.34	226.49
351.72	226.58
352.10	226.66
352.48	226.71
352.87	226.79
353.25	226.89
353.63	226.96
354.01	227.03
354.39	227.10
354.77	227.19
355.15	227.26
355.54	227.33
355.92	227.38
356.30	227.45
356.68	227.58
357.06	227.70
357.44	227.77
357.82	227.86
358.20	227.91
358.58	227.98
358.97	228.00
359.35	228.07
359.73	228.11
360.11	228.16
360.49	228.24
360.87	228.28
361.25	228.31
361.63	228.42
362.01	228.47
362.39	228.50
362.77	228.53
363.15	228.55
363.53	228.55
363.91	228.57
364.29	228.59
364.67	228.52
365.05	228.51
365.43	228.51
365.81	228.53
366.19	228.58
366.57	228.58
366.95	228.54
367.33	228.50
367.71	228.51
368.09	228.54
368.47	228.50
368.85	228.49
369.23	228.48
369.61	228.38
369.99	228.34
370.37	228.30
370.75	228.28
371.13	228.23
371.51	228.17
371.89	228.12
372.27	228.07
372.65	228.02
373.03	227.98
373.41	227.91
373.78	227.82
374.16	227.71
374.54	227.66
374.92	227.62
375.30	227.57
375.68	227.47
376.06	227.36
376.44	227.27
376.82	227.21
377.19	227.11
377.57	227.04
377.95	226.95
378.33	226.90
378.71	226.79
379.09	226.72
379.47	226.69
379.84	226.61
380.22	226.52
380.60	226.44
380.98	226.37
381.36	226.33
381.73	226.26
382.11	226.23
382.49	226.14
382.87	226.07
383.25	226.00
383.62	226.11
384.00	226.03
384.38	225.98
384.76	225.96
385.13	225.93
385.51	225.88
385.89	225.81
386.27	225.77
386.64	225.74
387.02	225.70
387.40	225.62
387.78	225.62
388.15	225.60
388.53	225.55
388.91	225.50
389.29	225.46
389.66	225.46
390.04	225.41
390.42	225.39
390.79	225.40
391.17	225.38
391.55	225.24
391.92	225.27
392.30	225.28
392.68	225.24
393.05	225.24
393.43	225.25
393.81	225.30
394.18	225.31
394.56	225.32
394.94	225.34
395.31	225.39
395.69	225.44
396.06	225.49
396.44	225.54
396.82	225.58
397.19	225.67
397.57	225.69
397.95	225.75
398.32	225.79
398.70	225.84
399.07	225.92
399.45	225.99
399.82	226.05
400.20	226.13
400.58	226.18
400.95	226.24
401.33	226.33
401.70	226.45
402.08	226.55
402.45	226.66
402.83	226.79
403.20	226.87
403.58	226.98
403.95	227.09
404.33	227.23
404.71	227.38
405.08	227.58
405.46	227.73
405.83	227.90
406.21	228.05
406.58	228.27
406.96	228.43
407.33	228.63
407.70	228.85
408.08	229.13
408.45	229.37
408.83	229.62
409.20	229.85
409.58	230.04
409.95	230.29
410.33	230.55
410.70	230.80
411.08	231.14
411.45	231.45
411.82	231.78
412.20	232.16
412.57	232.54
412.95	232.78
413.32	233.17
413.69	233.55
414.07	233.99
414.44	234.42
414.82	234.90
415.19	235.43
415.56	235.94
415.94	236.50
416.31	237.13
416.68	237.74
417.06	238.44
417.43	239.14
417.81	239.92
418.18	240.71
418.55	241.56
418.93	242.40
419.30	243.26
419.67	244.18
420.04	245.11
420.42	246.11
420.79	247.32
421.16	248.48
421.54	249.65
421.91	250.84
422.28	252.09
422.66	253.44
423.03	254.75
423.40	256.10
423.77	257.50
424.15	258.93
424.52	260.42
424.89	262.05
425.26	263.58
425.64	265.02
426.01	266.60
426.38	268.22
426.75	269.89
427.13	271.62
427.50	273.38
427.87	275.26
428.24	277.13
428.61	278.83
428.99	280.77
429.36	282.88
429.73	284.94
430.10	286.94
430.47	288.99
430.85	291.07
431.22	293.25
431.59	295.61
431.96	297.82
432.33	300.28
432.70	302.63
433.08	305.43
433.45	308.02
433.82	310.64
434.19	313.53
434.56	316.34
434.93	318.99
435.30	321.63
435.68	324.50
436.05	327.30
436.42	330.08
436.79	332.56
437.16	335.29
437.53	338.15
437.90	340.99
438.27	343.69
438.64	346.50
439.01	349.08
439.38	351.30
439.75	353.46
440.13	355.95
440.50	358.24
440.87	360.09
441.24	362.05
441.61	364.20
441.98	365.71
442.35	367.49
442.72	369.31
443.09	371.13
443.46	372.10
443.83	372.66
444.20	373.21
444.57	374.06
444.94	374.31
445.31	374.61
445.68	374.93
446.05	375.01
446.42	374.62
446.79	374.23
447.16	373.74
447.53	373.40
447.90	372.23
448.27	371.06
448.64	369.50
449.01	368.41
449.37	366.41
449.74	364.49
450.11	362.24
450.48	359.79
450.85	357.22
451.22	355.10
451.59	353.12
451.96	351.14
452.33	348.52
452.70	346.18
453.07	343.38
453.43	340.49
453.80	337.75
454.17	335.10
454.54	332.57
454.91	329.87
455.28	327.19
455.65	324.74
456.02	322.34
456.38	320.17
456.75	317.49
457.12	315.28
457.49	313.09
457.86	310.95
458.23	309.10
458.59	307.05
458.96	305.01
459.33	303.19
459.70	301.34
460.07	299.86
460.43	298.14
460.80	296.51
461.17	295.07
461.54	293.56
461.91	292.11
462.27	290.67
462.64	289.43
463.01	288.17
463.38	286.88
463.74	285.51
464.11	284.38
464.48	283.38
464.85	282.27
465.21	281.44
465.58	280.53
465.95	279.44
466.32	278.54
466.68	277.64
467.05	276.73
467.42	275.88
467.78	274.97
468.15	274.14
468.52	273.49
468.88	272.65
469.25	271.91
469.62	271.36
469.98	270.67
470.35	270.08
470.72	269.42
471.08	268.76
471.45	268.23
471.82	267.66
472.18	267.02
472.55	266.55
472.92	265.99
473.28	265.51
473.65	265.07
474.02	264.67
474.38	264.31
474.75	263.98
475.11	263.64
475.48	263.39
475.85	263.13
476.21	262.89
476.58	262.71
476.94	262.53
477.31	262.34
477.67	262.23
478.04	262.16
478.41	262.12
478.77	262.20
479.14	262.15
479.50	262.18
479.87	262.29
480.23	262.42
480.60	262.48
480.96	262.59
481.33	262.81
481.69	262.98
482.06	263.14
482.42	263.36
482.79	263.62
483.15	263.92
483.52	264.34
483.88	264.71
484.25	265.12
484.61	265.57
484.98	266.03
485.34	266.59
485.71	267.17
486.07	267.80
486.44	268.37
486.80	269.13
487.17	269.86
487.53	270.65
487.90	271.49
488.26	272.45
488.62	273.41
488.99	274.38
489.35	275.46
489.72	276.62
490.08	277.82
490.44	279.06
490.81	280.39
491.17	281.68
491.54	283.15
491.90	284.67
492.26	286.29
492.63	288.04
492.99	289.84
493.36	291.75
493.72	293.75
494.08	295.88
494.45	298.06
494.81	300.46
495.17	302.91
495.54	305.46
495.90	308.14
496.26	310.99
496.63	313.98
496.99	317.09
497.35	320.31
497.72	323.75
498.08	327.31
498.44	331.04
498.80	335.01
499.17	339.10
499.53	343.27
499.89	347.73
500.26	352.24
500.62	356.93
500.98	361.87
501.34	366.98
501.71	372.31
502.07	377.74
502.43	383.36
502.79	389.18
503.16	395.30
503.52	401.58
503.88	407.99
504.24	414.68
504.60	421.60
504.97	428.76
505.33	436.07
505.69	443.78
506.05	451.52
506.41	459.38
506.78	467.53
507.14	475.92
507.50	484.59
507.86	493.62
508.22	502.81
508.59	512.03
508.95	521.61
509.31	531.37
509.67	541.50
510.03	551.76
510.39	562.35
510.75	573.18
511.12	584.13
511.48	595.43
511.84	606.84
512.20	618.40
512.56	630.36
512.92	642.48
513.28	654.85
513.64	667.26
514.00	680.06
514.37	693.04
514.73	706.17
515.09	719.26
515.45	732.57
515.81	746.13
516.17	760.21
516.53	774.35
516.89	788.49
517.25	802.69
517.61	817.04
517.97	831.48
518.33	845.81
518.69	860.62
519.05	875.55
519.41	890.67
519.77	906.16
520.13	921.59
520.49	936.99
520.85	952.30
521.21	968.03
521.57	984.10
521.93	999.83
522.29	1016.20
522.65	1032.36
523.01	1048.56
523.37	1064.57
523.73	1080.49
524.09	1096.53
524.45	1112.80
524.81	1129.33
525.17	1146.06
525.53	1162.91
525.89	1179.77
526.25	1196.48
526.61	1212.78
526.97	1229.53
527.33	1246.00
527.68	1262.52
528.04	1278.96
528.40	1295.44
528.76	1312.52
529.12	1329.07
529.48	1345.85
529.84	1361.80
530.20	1378.35
530.56	1395.22
530.91	1412.50
531.27	1429.32
531.63	1445.67
531.99	1462.30
532.35	1478.27
532.71	1494.15
533.07	1510.32
533.42	1526.14
533.78	1542.09
534.14	1558.44
534.50	1573.72
534.86	1589.41
535.21	1604.58
535.57	1620.33
535.93	1635.84
536.29	1650.47
536.65	1665.58
537.00	1680.20
537.36	1695.37
537.72	1709.83
538.08	1724.26
538.44	1738.05
538.79	1751.96
539.15	1765.51
539.51	1779.13
539.87	1793.44
540.22	1807.10
540.58	1820.75
540.94	1833.98
541.29	1846.88
541.65	1859.40
542.01	1872.61
542.37	1884.84
542.72	1897.18
543.08	1908.95
543.44	1921.27
543.79	1932.49
544.15	1943.27
544.51	1954.82
544.87	1965.75
545.22	1976.55
545.58	1986.70
545.94	1996.33
546.29	2005.97
546.65	2015.89
547.01	2025.13
547.36	2033.75
547.72	2042.26
548.07	2050.06
548.43	2058.17
548.79	2066.22
549.14	2073.75
549.50	2080.86
549.86	2088.42
550.21	2095.66
550.57	2102.79
550.92	2109.30
551.28	2116.29
551.64	2123.37
551.99	2129.91
552.35	2136.09
552.70	2142.03
553.06	2148.01
553.41	2154.41
553.77	2160.43
554.13	2166.42
554.48	2172.31
554.84	2177.76
555.19	2182.99
555.55	2188.14
555.90	2192.65
556.26	2197.34
556.61	2202.07
556.97	2206.53
557.32	2210.77
557.68	2214.92
558.03	2219.17
558.39	2222.89
558.74	2227.56
559.10	2231.40
559.45	2235.05
559.81	2239.26
560.16	2243.17
560.52	2246.35
560.87	2249.72
561.23	2252.35
561.58	2255.25
561.94	2257.94
562.29	2260.29
562.64	2263.03
563.00	2265.66
563.35	2269.15
563.71	2272.25
564.06	2275.51
564.42	2278.29
564.77	2280.86
565.12	2283.12
565.48	2285.05
565.83	2286.96
566.19	2288.29
566.54	2289.30
566.89	2290.35
567.25	2291.02
567.60	2292.33
567.96	2294.03
568.31	2294.90
568.66	2296.10
569.02	2296.73
569.37	2297.16
569.72	2298.13
570.08	2298.33
570.43	2298.48
570.78	2297.90
571.14	2296.42
571.49	2294.97
571.84	2294.60
572.20	2293.49
572.55	2292.40
572.90	2290.91
573.26	2289.64
573.61	2287.89
573.96	2286.14
574.31	2283.37
574.67	2280.44
575.02	2276.89
575.37	2273.52
575.72	2269.77
576.08	2266.41
576.43	2263.19
576.78	2259.54
577.13	2256.33
577.49	2253.24
577.84	2249.74
578.19	2246.11
578.54	2242.70
578.90	2238.46
579.25	2233.04
579.60	2228.16
579.95	2223.26
580.30	2218.29
580.66	2213.15
581.01	2208.29
581.36	2203.36
581.71	2199.25
582.06	2194.81
582.42	2190.55
582.77	2185.44
583.12	2180.84
583.47	2176.29
583.82	2171.30
584.17	2166.08
584.53	2160.60
584.88	2154.89
585.23	2149.13
585.58	2143.80
585.93	2138.35
586.28	2133.73
586.63	2128.76
586.98	2123.83
587.34	2119.33
587.69	2114.46
588.04	2109.20
588.39	2103.65
588.74	2097.32
589.09	2091.05
589.44	2084.38
589.79	2078.32
590.14	2072.69
590.49	2066.30
590.84	2059.81
591.19	2053.84
591.54	2047.40
591.89	2040.12
592.25	2033.37
592.60	2026.22
592.95	2018.46
593.30	2011.05
593.65	2003.52
594.00	1996.43
594.35	1989.02
594.70	1980.91
595.05	1973.76
595.40	1966.57
595.75	1959.06
596.10	1952.96
596.45	1946.38
596.80	1940.23
597.15	1933.66
597.50	1926.66
597.85	1920.14
598.19	1913.56
598.54	1906.41
598.89	1899.86
599.24	1893.97
599.59	1887.35
599.94	1881.20
600.29	1875.05
600.64	1868.57
600.99	1861.26
601.34	1854.47
601.69	1847.65
602.04	1840.84
602.39	1833.52
602.74	1826.65
603.08	1819.96
603.43	1813.12
603.78	1805.86
604.13	1798.57
604.48	1791.32
604.83	1784.39
605.18	1777.59
605.53	1769.76
605.87	1761.89
606.22	1754.67
606.57	1746.81
606.92	1739.47
607.27	1732.23
607.62	1725.30
607.96	1717.98
608.31	1711.33
608.66	1703.71
609.01	1696.22
609.36	1688.59
609.70	1680.56
610.05	1672.57
610.40	1664.85
610.75	1656.55
611.10	1648.82
611.44	1640.50
611.79	1632.44
612.14	1623.78
612.49	1614.54
612.83	1606.07
613.18	1598.02
613.53	1589.90
613.88	1581.28
614.22	1573.00
614.57	1564.49
614.92	1556.41
615.27	1548.91
615.61	1540.50
615.96	1532.48
616.31	1524.79
616.65	1517.37
617.00	1509.83
617.35	1502.17
617.70	1493.82
618.04	1485.37
618.39	1477.21
618.74	1469.53
619.08	1461.23
619.43	1453.60
619.78	1446.71
620.12	1439.59
620.47	1431.95
620.82	1423.73
621.16	1416.44
621.51	1408.83
621.85	1401.19
622.20	1392.67
622.55	1384.28
622.89	1376.54
623.24	1368.91
623.59	1361.52
623.93	1354.04
624.28	1346.91
624.62	1339.34
624.97	1332.24
625.32	1325.35
625.66	1318.26
626.01	1311.21
626.35	1303.78
626.70	1296.05
627.04	1288.28
627.39	1280.45
627.73	1273.08
628.08	1266.12
628.43	1258.73
628.77	1251.44
629.12	1243.81
629.46	1236.62
629.81	1229.24
630.15	1221.95
630.50	1214.53
630.84	1206.39
631.19	1198.46
631.53	1190.87
631.88	1183.20
632.22	1175.51
632.57	1168.34
632.91	1160.85
633.26	1153.41
633.60	1145.98
633.95	1138.90
634.29	1131.81
634.64	1125.13
634.98	1117.71
635.32	1110.61
635.67	1103.98
636.01	1097.32
636.36	1090.43
636.70	1083.99
637.05	1077.39
637.39	1070.88
637.73	1064.38
638.08	1058.36
638.42	1052.38
638.77	1045.96
639.11	1039.52
639.45	1033.13
639.80	1026.36
640.14	1019.98
640.49	1013.35
640.83	1007.08
641.17	1000.82
641.52	994.49
641.86	988.01
642.20	982.12
642.55	975.77
642.89	969.36
643.23	962.82
643.58	957.23
643.92	951.03
644.26	944.97
644.61	938.92
644.95	932.86
645.29	926.34
645.64	919.61
645.98	913.26
646.32	907.29
646.66	901.30
647.01	895.50
647.35	889.67
647.69	883.86
648.04	878.30
648.38	872.50
648.72	866.58
649.06	860.54
649.41	854.73
649.75	848.76
650.09	842.78
650.43	836.99
650.78	830.76
651.12	824.74
651.46	818.99
651.80	813.26
652.14	807.84
652.49	802.41
652.83	797.24
653.17	791.56
653.51	785.90
653.85	780.49
654.20	774.91
654.54	768.90
654.88	763.13
655.22	757.25
655.56	751.56
655.90	746.08
656.25	740.81
656.59	735.39
656.93	730.33
657.27	725.21
657.61	719.73
657.95	714.66
658.29	709.65
658.64	704.35
658.98	699.04
659.32	693.54
659.66	688.37
660.00	683.09
660.34	678.11
660.68	673.17
661.02	668.09
661.36	663.33
661.70	658.84
662.05	654.51
662.39	650.18
662.73	645.64
663.07	641.25
663.41	636.80
663.75	632.33
664.09	627.77
664.43	623.34
664.77	619.22
665.11	614.92
665.45	610.71
665.79	606.70
666.13	602.59
666.47	598.55
666.81	594.38
667.15	590.19
667.49	586.21
667.83	582.35
668.17	578.43
668.51	574.35
668.85	570.30
669.19	566.44
669.53	562.62
669.87	558.83
670.21	555.15
670.55	551.53
670.89	548.09
671.23	544.64
671.57	541.09
671.91	537.55
672.25	534.08
672.58	530.51
672.92	527.03
673.26	523.86
673.60	520.72
673.94	517.59
674.28	514.69
674.62	511.77
674.96	508.68
675.30	505.72
675.64	502.84
675.97	500.06
676.31	497.19
676.65	494.21
676.99	491.42
677.33	488.52
677.67	485.65
678.01	482.60
678.34	479.61
678.68	476.74
679.02	473.91
679.36	471.14
679.70	468.53
680.04	465.83
680.37	462.94
680.71	460.08
681.05	457.48
681.39	454.79
681.73	452.15
682.06	449.66
682.40	447.12
682.74	444.57
683.08	442.04
683.42	439.42
683.75	436.91
684.09	434.38
684.43	431.90
684.77	429.48
685.10	427.10
685.44	424.78
685.78	422.48
686.12	420.24
686.45	417.93
686.79	415.56
687.13	413.35
687.46	411.15
687.80	409.05
688.14	406.79
688.48	404.67
688.81	402.42
689.15	400.23
689.49	398.11
689.82	396.04
690.16	393.92
690.50	391.98
690.83	390.00
691.17	388.06
691.51	386.14
691.84	384.27
692.18	382.37
692.52	380.40
692.85	378.42
693.19	376.49
693.52	374.65
693.86	372.82
694.20	371.02
694.53	369.24
694.87	367.35
695.21	365.55
695.54	363.73
695.88	361.97
696.21	360.26
696.55	358.55
696.88	356.84
697.22	355.21
697.56	353.53
697.89	351.91
698.23	350.26
698.56	348.67
698.90	347.04
699.23	345.38
699.57	343.82
699.90	342.30
700.24	340.78
700.58	339.25
700.91	337.79
701.25	336.32
701.58	334.97
701.92	333.61
702.25	332.23
702.59	330.85
702.92	329.55
703.26	328.22
703.59	326.93
703.93	325.76
704.26	324.50
704.60	323.24
704.93	322.00
705.26	320.73
705.60	319.53
705.93	318.36
706.27	317.32
706.60	316.25
706.94	315.20
707.27	314.07
707.61	312.98
707.94	311.93
708.27	310.85
708.61	309.77
708.94	308.81
709.28	307.84
709.61	306.91
709.94	305.93
710.28	304.91
710.61	303.96
710.95	302.89
711.28	301.97
711.61	301.02
711.95	300.07
712.28	299.15
712.61	298.20
712.95	297.30
713.28	296.43
713.61	295.54
713.95	294.63
714.28	293.82
714.61	292.97
714.95	292.13
715.28	291.23
715.61	290.31
715.95	289.42
716.28	288.59
716.61	287.76
716.95	286.94
717.28	286.22
717.61	285.41
717.94	284.68
718.28	283.89
718.61	283.17
718.94	282.50
719.27	281.84
719.61	281.17
719.94	280.48
720.27	279.73
720.60	279.08
720.94	278.45
721.27	277.85
721.60	277.28
721.93	276.70
722.27	276.22
722.60	275.70
722.93	275.12
723.26	274.58
723.59	274.03
723.93	273.50
724.26	272.91
724.59	272.38
724.92	271.85
725.25	271.34
725.59	270.79
725.92	270.25
726.25	269.73
726.58	269.29
726.91	268.82
727.24	268.38
727.57	267.87
727.91	267.34
728.24	266.85
728.57	266.36
728.90	265.90
729.23	265.40
729.56	264.97
729.89	264.48
730.22	263.98
730.55	263.47
730.89	262.99
731.22	262.58
731.55	262.16
731.88	261.74
732.21	261.33
732.54	260.94
732.87	260.54
733.20	260.17
733.53	259.77
733.86	259.39
734.19	259.00
734.52	258.62
734.85	258.35
735.18	257.97
735.51	257.57
735.84	257.17
736.17	256.77
736.50	256.37
736.83	256.15
737.16	255.85
737.49	255.56
737.82	255.24
738.15	254.89
738.48	254.53
738.81	254.18
739.14	253.81
739.47	253.50
739.80	253.16
740.13	252.84
740.46	252.50
740.79	252.14
741.12	251.82
741.45	251.56
741.78	251.20
742.11	250.88
742.44	250.59
742.77	250.35
743.10	250.07
743.43	249.80
743.75	249.40
744.08	249.24
744.41	248.95
744.74	248.67
745.07	248.41
745.40	248.18
745.73	247.95
746.06	247.71
746.39	247.47
746.71	247.19
747.04	246.93
747.37	246.67
747.70	246.43
748.03	246.22
748.36	245.99
748.68	245.77
749.01	245.53
749.34	245.29
749.67	245.04
750.00	244.81
750.33	244.63
750.65	244.42
750.98	244.06
751.31	243.85
751.64	243.65
751.97	243.46
752.29	243.25
752.62	243.01
752.95	242.81
753.28	242.59
753.60	242.39
753.93	242.20
754.26	242.01
754.59	241.79
754.91	241.55
755.24	241.32
755.57	241.13
755.90	240.93
756.22	240.73
756.55	240.54
756.88	240.38
757.20	240.15
757.53	239.96
757.86	239.80
758.19	239.64
758.51	239.47
758.84	239.26
759.17	239.07
759.49	238.90
759.82	238.79
760.15	238.62
760.47	238.49
760.80	238.32
761.13	238.19
761.45	238.02
761.78	237.90
762.11	237.76
762.43	237.63
762.76	237.52
763.08	237.42
763.41	237.27
763.74	237.14
764.06	236.98
764.39	236.85
764.71	236.70
765.04	236.55
765.37	236.41
765.69	236.28
766.02	236.16
766.34	236.04
766.67	235.86
767.00	235.75
767.32	235.66
767.65	235.61
767.97	235.50
768.30	235.39
768.62	235.28
768.95	235.17
769.27	235.01
769.60	234.87
769.92	234.74
770.25	234.62
770.57	234.48
770.90	234.39
771.22	234.27
771.55	234.16
771.87	234.06
772.20	233.97
772.52	233.97
772.85	233.99
773.17	233.87
773.50	233.74
773.82	233.61
774.15	233.50
774.47	233.31
774.80	233.20
775.12	233.12
775.45	233.03
775.77	232.96
776.09	232.92
776.42	232.84
776.74	232.79
777.07	232.71
777.39	232.63
777.72	232.54
778.04	232.50
778.36	232.42
778.69	232.38
779.01	232.28
779.33	232.10
779.66	231.93
779.98	231.87
780.31	231.84
780.63	231.83
780.95	231.80
781.28	231.77
781.60	231.69
781.92	231.63
782.25	231.56
782.57	231.46
782.89	231.42
783.22	231.36
783.54	231.29
783.86	231.25
784.19	231.20
784.51	231.17
784.83	231.11
785.16	231.07
785.48	231.01
785.80	230.98
786.12	230.96
786.45	230.89
786.77	230.88
787.09	230.83
