SpectraSuite Data File
++++++++++++++++++++++++++++++++++++
Date: Fri Feb 01 17:00:48 EST 2013
User: group
Dark Spectrum Present: No
Reference Spectrum Present: No
Number of Sampled Component Spectra: 1
Spectrometers: USB2E7196
Integration Time (usec): 35000 (USB2E7196)
Spectra Averaged: 100 (USB2E7196)
Boxcar Smoothing: 10 (USB2E7196)
Correct for Electrical Dark: No (USB2E7196)
Strobe/Lamp Enabled: No (USB2E7196)
Correct for Detector Non-linearity: No (USB2E7196)
Correct for Stray Light: No (USB2E7196)
Number of Pixels in Processed Spectrum: 2048
>>>>>Begin Processed Spectral Data<<<<<
339.09	0.00
339.48	213.22
339.86	215.07
340.24	216.50
340.63	217.84
341.01	220.43
341.39	220.40
341.78	221.66
342.16	222.80
342.54	223.82
342.93	211.87
343.31	222.54
343.69	223.10
344.07	223.53
344.46	223.96
344.84	224.32
345.22	224.55
345.60	224.81
345.99	224.99
346.37	225.10
346.75	225.17
347.13	225.23
347.52	225.27
347.90	225.36
348.28	225.36
348.66	225.37
349.05	225.34
349.43	225.37
349.81	225.41
350.19	225.45
350.57	225.52
350.96	225.60
351.34	225.71
351.72	225.77
352.10	225.89
352.48	225.91
352.87	225.99
353.25	226.03
353.63	226.06
354.01	226.12
354.39	226.20
354.77	226.27
355.15	226.39
355.54	226.43
355.92	226.45
356.30	226.54
356.68	226.69
357.06	226.79
357.44	226.84
357.82	226.90
358.20	226.96
358.58	226.98
358.97	227.02
359.35	227.08
359.73	227.12
360.11	227.13
360.49	227.19
360.87	227.21
361.25	227.28
361.63	227.36
362.01	227.40
362.39	227.43
362.77	227.47
363.15	227.47
363.53	227.48
363.91	227.51
364.29	227.50
364.67	227.42
365.05	227.42
365.43	227.46
365.81	227.47
366.19	227.53
366.57	227.55
366.95	227.56
367.33	227.54
367.71	227.58
368.09	227.61
368.47	227.60
368.85	227.59
369.23	227.60
369.61	227.53
369.99	227.54
370.37	227.55
370.75	227.58
371.13	227.55
371.51	227.52
371.89	227.48
372.27	227.46
372.65	227.43
373.03	227.40
373.41	227.35
373.78	227.31
374.16	227.21
374.54	227.15
374.92	227.07
375.30	227.02
375.68	226.93
376.06	226.89
376.44	226.83
376.82	226.76
377.19	226.66
377.57	226.60
377.95	226.52
378.33	226.43
378.71	226.30
379.09	226.25
379.47	226.21
379.84	226.13
380.22	226.08
380.60	225.97
380.98	225.89
381.36	225.84
381.73	225.74
382.11	225.69
382.49	225.64
382.87	225.60
383.25	225.52
383.62	225.58
384.00	225.49
384.38	225.44
384.76	225.43
385.13	225.43
385.51	225.39
385.89	225.34
386.27	225.29
386.64	225.26
387.02	225.22
387.40	225.15
387.78	225.14
388.15	225.10
388.53	225.12
388.91	225.09
389.29	225.01
389.66	225.04
390.04	225.04
390.42	225.02
390.79	225.01
391.17	224.99
391.55	224.87
391.92	224.87
392.30	224.86
392.68	224.83
393.05	224.85
393.43	224.87
393.81	224.87
394.18	224.89
394.56	224.93
394.94	224.92
395.31	224.91
395.69	224.98
396.06	225.01
396.44	225.02
396.82	225.04
397.19	225.16
397.57	225.15
397.95	225.17
398.32	225.17
398.70	225.21
399.07	225.34
399.45	225.40
399.82	225.47
400.20	225.55
400.58	225.61
400.95	225.62
401.33	225.67
401.70	225.79
402.08	225.86
402.45	225.91
402.83	226.06
403.20	226.17
403.58	226.23
403.95	226.34
404.33	226.47
404.71	226.62
405.08	226.76
405.46	226.89
405.83	227.02
406.21	227.15
406.58	227.31
406.96	227.40
407.33	227.50
407.70	227.62
408.08	227.88
408.45	228.09
408.83	228.32
409.20	228.56
409.58	228.74
409.95	228.98
410.33	229.26
410.70	229.48
411.08	229.77
411.45	230.02
411.82	230.32
412.20	230.67
412.57	231.03
412.95	231.28
413.32	231.67
413.69	232.05
414.07	232.50
414.44	232.96
414.82	233.45
415.19	234.04
415.56	234.62
415.94	235.12
416.31	235.72
416.68	236.34
417.06	237.07
417.43	237.74
417.81	238.53
418.18	239.26
418.55	240.11
418.93	241.00
419.30	241.93
419.67	242.84
420.04	243.77
420.42	244.80
420.79	246.01
421.16	247.20
421.54	248.42
421.91	249.64
422.28	250.87
422.66	252.20
423.03	253.49
423.40	254.86
423.77	256.28
424.15	257.74
424.52	259.21
424.89	260.80
425.26	262.36
425.64	263.77
426.01	265.36
426.38	266.99
426.75	268.63
427.13	270.35
427.50	272.13
427.87	273.99
428.24	275.85
428.61	277.57
428.99	279.49
429.36	281.53
429.73	283.60
430.10	285.64
430.47	287.69
430.85	289.80
431.22	292.03
431.59	294.43
431.96	296.64
432.33	299.09
432.70	301.42
433.08	304.18
433.45	306.83
433.82	309.43
434.19	312.34
434.56	315.14
434.93	317.75
435.30	320.36
435.68	323.26
436.05	326.05
436.42	328.84
436.79	331.33
437.16	334.07
437.53	336.87
437.90	339.62
438.27	342.32
438.64	345.12
439.01	347.67
439.38	349.82
439.75	352.00
440.13	354.49
440.50	356.85
440.87	358.71
441.24	360.65
441.61	362.81
441.98	364.26
442.35	366.04
442.72	367.81
443.09	369.65
443.46	370.63
443.83	371.20
444.20	371.71
444.57	372.53
444.94	372.75
445.31	373.07
445.68	373.47
446.05	373.56
446.42	373.23
446.79	372.82
447.16	372.41
447.53	372.14
447.90	370.96
448.27	369.80
448.64	368.20
449.01	367.06
449.37	365.09
449.74	363.24
450.11	361.02
450.48	358.67
450.85	356.15
451.22	354.06
451.59	352.07
451.96	350.12
452.33	347.57
452.70	345.27
453.07	342.52
453.43	339.63
453.80	336.90
454.17	334.25
454.54	331.69
454.91	328.97
455.28	326.30
455.65	323.86
456.02	321.43
456.38	319.30
456.75	316.65
457.12	314.42
457.49	312.21
457.86	310.09
458.23	308.21
458.59	306.17
458.96	304.13
459.33	302.28
459.70	300.44
460.07	298.93
460.43	297.21
460.80	295.55
461.17	294.18
461.54	292.70
461.91	291.27
462.27	289.89
462.64	288.67
463.01	287.31
463.38	286.03
463.74	284.66
464.11	283.54
464.48	282.55
464.85	281.45
465.21	280.59
465.58	279.61
465.95	278.55
466.32	277.65
466.68	276.72
467.05	275.82
467.42	274.98
467.78	274.06
468.15	273.19
468.52	272.53
468.88	271.67
469.25	270.89
469.62	270.25
469.98	269.57
470.35	268.96
470.72	268.41
471.08	267.77
471.45	267.27
471.82	266.71
472.18	266.13
472.55	265.69
472.92	265.15
473.28	264.73
473.65	264.31
474.02	263.87
474.38	263.52
474.75	263.25
475.11	262.86
475.48	262.61
475.85	262.40
476.21	262.18
476.58	261.96
476.94	261.84
477.31	261.71
477.67	261.59
478.04	261.44
478.41	261.36
478.77	261.40
479.14	261.33
479.50	261.35
479.87	261.41
480.23	261.52
480.60	261.61
480.96	261.73
481.33	261.92
481.69	262.12
482.06	262.35
482.42	262.53
482.79	262.86
483.15	263.19
483.52	263.60
483.88	263.96
484.25	264.38
484.61	264.79
484.98	265.23
485.34	265.80
485.71	266.40
486.07	267.02
486.44	267.56
486.80	268.30
487.17	269.06
487.53	269.91
487.90	270.75
488.26	271.70
488.62	272.67
488.99	273.69
489.35	274.75
489.72	275.84
490.08	277.08
490.44	278.28
490.81	279.60
491.17	280.96
491.54	282.44
491.90	283.96
492.26	285.63
492.63	287.37
492.99	289.17
493.36	291.06
493.72	293.11
494.08	295.25
494.45	297.48
494.81	299.84
495.17	302.24
495.54	304.79
495.90	307.48
496.26	310.31
496.63	313.27
496.99	316.35
497.35	319.61
497.72	322.97
498.08	326.47
498.44	330.15
498.80	334.08
499.17	338.09
499.53	342.25
499.89	346.59
500.26	351.08
500.62	355.65
500.98	360.61
501.34	365.64
501.71	370.96
502.07	376.38
502.43	381.97
502.79	387.74
503.16	393.78
503.52	400.06
503.88	406.40
504.24	412.91
504.60	419.74
504.97	426.79
505.33	434.04
505.69	441.72
506.05	449.40
506.41	457.17
506.78	465.21
507.14	473.54
507.50	482.17
507.86	491.06
508.22	500.21
508.59	509.31
508.95	518.76
509.31	528.40
509.67	538.36
510.03	548.48
510.39	558.91
510.75	569.58
511.12	580.34
511.48	591.45
511.84	602.88
512.20	614.18
512.56	625.99
512.92	637.97
513.28	650.16
513.64	662.50
514.00	675.02
514.37	687.79
514.73	700.70
515.09	713.58
515.45	726.62
515.81	739.99
516.17	753.76
516.53	767.72
516.89	781.70
517.25	795.74
517.61	809.95
517.97	824.20
518.33	838.30
518.69	852.79
519.05	867.60
519.41	882.44
519.77	897.77
520.13	912.93
520.49	928.04
520.85	943.09
521.21	958.42
521.57	974.39
521.93	989.92
522.29	1006.02
522.65	1021.94
523.01	1037.96
523.37	1053.72
523.73	1069.51
524.09	1085.21
524.45	1101.20
524.81	1117.45
525.17	1133.91
525.53	1150.44
525.89	1167.08
526.25	1183.54
526.61	1199.53
526.97	1215.85
527.33	1231.97
527.68	1248.21
528.04	1264.37
528.40	1280.52
528.76	1297.20
529.12	1313.35
529.48	1329.83
529.84	1345.43
530.20	1361.70
530.56	1378.21
530.91	1395.27
531.27	1411.65
531.63	1427.74
531.99	1443.92
532.35	1459.62
532.71	1475.26
533.07	1491.09
533.42	1506.66
533.78	1522.38
534.14	1538.34
534.50	1553.47
534.86	1569.06
535.21	1584.00
535.57	1599.53
535.93	1614.79
536.29	1629.30
536.65	1644.08
537.00	1658.55
537.36	1673.58
537.72	1687.84
538.08	1702.14
538.44	1715.58
538.79	1729.23
539.15	1742.61
539.51	1756.17
539.87	1770.13
540.22	1783.40
540.58	1796.90
540.94	1809.83
541.29	1822.54
541.65	1834.92
542.01	1847.71
542.37	1859.84
542.72	1872.00
543.08	1883.59
543.44	1895.80
543.79	1906.84
544.15	1917.52
544.51	1928.79
544.87	1939.45
545.22	1950.07
545.58	1960.04
545.94	1969.67
546.29	1979.39
546.65	1989.18
547.01	1998.12
547.36	2006.60
547.72	2015.03
548.07	2022.77
548.43	2030.81
548.79	2038.66
549.14	2046.02
549.50	2053.26
549.86	2060.64
550.21	2067.77
550.57	2074.80
550.92	2081.39
551.28	2088.43
551.64	2095.46
551.99	2102.00
552.35	2108.21
552.70	2114.30
553.06	2120.26
553.41	2126.52
553.77	2132.44
554.13	2138.42
554.48	2144.62
554.84	2150.16
555.19	2155.37
555.55	2160.59
555.90	2165.26
556.26	2170.24
556.61	2175.04
556.97	2179.62
557.32	2183.82
557.68	2188.07
558.03	2192.43
558.39	2195.94
558.74	2200.53
559.10	2204.60
559.45	2208.35
559.81	2212.65
560.16	2216.63
560.52	2219.97
560.87	2223.38
561.23	2226.00
561.58	2229.02
561.94	2231.60
562.29	2233.97
562.64	2236.74
563.00	2239.32
563.35	2242.78
563.71	2245.86
564.06	2249.18
564.42	2252.10
564.77	2254.79
565.12	2257.21
565.48	2259.17
565.83	2261.26
566.19	2262.82
566.54	2263.60
566.89	2264.83
567.25	2265.51
567.60	2266.88
567.96	2268.60
568.31	2269.65
568.66	2271.10
569.02	2271.70
569.37	2272.21
569.72	2273.32
570.08	2273.69
570.43	2274.02
570.78	2273.58
571.14	2272.28
571.49	2271.14
571.84	2270.86
572.20	2270.04
572.55	2269.08
572.90	2267.83
573.26	2266.66
573.61	2264.98
573.96	2263.72
574.31	2260.97
574.67	2258.30
575.02	2254.84
575.37	2251.52
575.72	2247.96
576.08	2244.75
576.43	2241.75
576.78	2238.26
577.13	2235.16
577.49	2232.24
577.84	2229.09
578.19	2225.68
578.54	2222.34
578.90	2218.35
579.25	2213.00
579.60	2208.13
579.95	2203.35
580.30	2198.51
580.66	2193.54
581.01	2188.90
581.36	2184.04
581.71	2180.10
582.06	2175.92
582.42	2171.82
582.77	2167.10
583.12	2162.83
583.47	2158.43
583.82	2153.68
584.17	2148.76
584.53	2143.55
584.88	2138.13
585.23	2132.49
585.58	2126.97
585.93	2121.61
586.28	2116.87
586.63	2112.15
586.98	2107.39
587.34	2102.84
587.69	2098.06
588.04	2093.09
588.39	2087.59
588.74	2081.35
589.09	2075.40
589.44	2068.69
589.79	2062.64
590.14	2056.98
590.49	2050.52
590.84	2044.26
591.19	2038.37
591.54	2032.09
591.89	2025.06
592.25	2018.45
592.60	2011.41
592.95	2004.22
593.30	1997.06
593.65	1989.73
594.00	1982.77
594.35	1975.72
594.70	1967.92
595.05	1961.01
595.40	1953.90
595.75	1946.54
596.10	1940.53
596.45	1933.97
596.80	1928.10
597.15	1921.67
597.50	1914.89
597.85	1908.53
598.19	1902.10
598.54	1895.27
598.89	1888.72
599.24	1882.80
599.59	1876.41
599.94	1870.21
600.29	1864.03
600.64	1857.58
600.99	1850.33
601.34	1843.71
601.69	1836.82
602.04	1830.15
602.39	1822.92
602.74	1816.27
603.08	1809.68
603.43	1803.07
603.78	1795.89
604.13	1788.76
604.48	1781.69
604.83	1775.05
605.18	1768.35
605.53	1760.47
605.87	1752.61
606.22	1745.50
606.57	1737.63
606.92	1730.28
607.27	1723.34
607.62	1716.60
607.96	1709.39
608.31	1702.91
608.66	1695.29
609.01	1687.79
609.36	1680.27
609.70	1672.41
610.05	1664.46
610.40	1656.94
610.75	1648.67
611.10	1641.11
611.44	1632.69
611.79	1624.76
612.14	1616.04
612.49	1606.84
612.83	1598.58
613.18	1590.33
613.53	1582.25
613.88	1573.90
614.22	1565.67
614.57	1557.02
614.92	1548.99
615.27	1541.60
615.61	1533.32
615.96	1525.41
616.31	1517.87
616.65	1510.53
617.00	1502.94
617.35	1495.23
617.70	1487.12
618.04	1478.76
618.39	1470.54
618.74	1463.03
619.08	1454.76
619.43	1447.26
619.78	1440.43
620.12	1433.24
620.47	1425.77
620.82	1417.64
621.16	1410.24
621.51	1402.69
621.85	1395.18
622.20	1386.68
622.55	1378.32
622.89	1370.50
623.24	1362.82
623.59	1355.43
623.93	1347.94
624.28	1340.76
624.62	1333.35
624.97	1326.09
625.32	1319.26
625.66	1312.25
626.01	1305.11
626.35	1297.77
626.70	1289.98
627.04	1282.26
627.39	1274.44
627.73	1267.20
628.08	1260.37
628.43	1253.11
628.77	1245.85
629.12	1238.34
629.46	1231.27
629.81	1223.86
630.15	1216.64
630.50	1209.41
630.84	1201.32
631.19	1193.38
631.53	1185.85
631.88	1178.18
632.22	1170.49
632.57	1163.20
632.91	1155.57
633.26	1148.13
633.60	1140.59
633.95	1133.45
634.29	1126.39
634.64	1119.82
634.98	1112.47
635.32	1105.37
635.67	1098.72
636.01	1092.07
636.36	1085.26
636.70	1078.64
637.05	1072.07
637.39	1065.62
637.73	1058.99
638.08	1052.99
638.42	1047.13
638.77	1040.74
639.11	1034.29
639.45	1027.95
639.80	1021.29
640.14	1015.06
640.49	1008.76
640.83	1002.57
641.17	996.41
641.52	990.15
641.86	983.57
642.20	977.72
642.55	971.37
642.89	965.04
643.23	958.42
643.58	952.77
643.92	946.63
644.26	940.71
644.61	934.73
644.95	928.86
645.29	922.39
645.64	915.60
645.98	909.24
646.32	903.35
646.66	897.35
647.01	891.56
647.35	885.82
647.69	879.86
648.04	874.36
648.38	868.61
648.72	862.68
649.06	856.74
649.41	850.88
649.75	844.97
650.09	838.98
650.43	833.28
650.78	827.17
651.12	821.20
651.46	815.49
651.80	809.80
652.14	804.30
652.49	798.97
652.83	793.82
653.17	788.23
653.51	782.61
653.85	777.21
654.20	771.75
654.54	765.80
654.88	760.10
655.22	754.20
655.56	748.55
655.90	743.09
656.25	737.87
656.59	732.51
656.93	727.46
657.27	722.40
657.61	717.03
657.95	711.91
658.29	706.90
658.64	701.64
658.98	696.32
659.32	690.90
659.66	685.71
660.00	680.46
660.34	675.60
660.68	670.66
661.02	665.63
661.36	660.91
661.70	656.42
662.05	652.09
662.39	647.83
662.73	643.34
663.07	639.02
663.41	634.64
663.75	630.21
664.09	625.64
664.43	621.21
664.77	617.07
665.11	612.78
665.45	608.63
665.79	604.61
666.13	600.49
666.47	596.45
666.81	592.35
667.15	588.21
667.49	584.25
667.83	580.42
668.17	576.57
668.51	572.50
668.85	568.49
669.19	564.57
669.53	560.75
669.87	556.92
670.21	553.15
670.55	549.46
670.89	546.08
671.23	542.63
671.57	539.14
671.91	535.61
672.25	532.14
672.58	528.62
672.92	525.18
673.26	522.01
673.60	518.84
673.94	515.73
674.28	512.79
674.62	509.90
674.96	506.84
675.30	503.95
675.64	501.03
675.97	498.21
676.31	495.39
676.65	492.48
676.99	489.80
677.33	486.94
677.67	484.15
678.01	481.11
678.34	478.15
678.68	475.27
679.02	472.49
679.36	469.71
679.70	467.08
680.04	464.35
680.37	461.55
680.71	458.79
681.05	456.17
681.39	453.54
681.73	450.85
682.06	448.29
682.40	445.74
682.74	443.19
683.08	440.66
683.42	438.10
683.75	435.60
684.09	433.06
684.43	430.69
684.77	428.23
685.10	425.88
685.44	423.58
685.78	421.33
686.12	419.09
686.45	416.79
686.79	414.48
687.13	412.32
687.46	410.12
687.80	407.95
688.14	405.73
688.48	403.65
688.81	401.47
689.15	399.34
689.49	397.20
689.82	395.15
690.16	393.11
690.50	391.12
690.83	389.19
691.17	387.17
691.51	385.23
691.84	383.40
692.18	381.48
692.52	379.58
692.85	377.60
693.19	375.70
693.52	373.83
693.86	372.01
694.20	370.21
694.53	368.44
694.87	366.62
695.21	364.84
695.54	363.03
695.88	361.27
696.21	359.51
696.55	357.84
696.88	356.14
697.22	354.48
697.56	352.87
697.89	351.24
698.23	349.69
698.56	348.12
698.90	346.50
699.23	344.84
699.57	343.26
699.90	341.70
700.24	340.18
700.58	338.71
700.91	337.23
701.25	335.77
701.58	334.40
701.92	333.00
702.25	331.62
702.59	330.26
702.92	328.90
703.26	327.63
703.59	326.32
703.93	325.14
704.26	323.89
704.60	322.61
704.93	321.31
705.26	320.03
705.60	318.79
705.93	317.68
706.27	316.65
706.60	315.58
706.94	314.52
707.27	313.38
707.61	312.29
707.94	311.26
708.27	310.14
708.61	309.05
708.94	308.06
709.28	307.06
709.61	306.10
709.94	305.15
710.28	304.09
710.61	303.09
710.95	301.98
711.28	301.06
711.61	300.10
711.95	299.15
712.28	298.18
712.61	297.21
712.95	296.26
713.28	295.35
713.61	294.44
713.95	293.57
714.28	292.73
714.61	291.87
714.95	291.03
715.28	290.22
715.61	289.36
715.95	288.49
716.28	287.66
716.61	286.80
716.95	285.99
717.28	285.32
717.61	284.59
717.94	283.89
718.28	283.09
718.61	282.35
718.94	281.68
719.27	281.04
719.61	280.41
719.94	279.71
720.27	279.02
720.60	278.40
720.94	277.76
721.27	277.20
721.60	276.59
721.93	275.98
722.27	275.45
722.60	274.88
722.93	274.31
723.26	273.77
723.59	273.21
723.93	272.65
724.26	272.05
724.59	271.49
724.92	270.94
725.25	270.45
725.59	269.93
725.92	269.44
726.25	268.92
726.58	268.43
726.91	268.00
727.24	267.53
727.57	267.02
727.91	266.54
728.24	266.03
728.57	265.59
728.90	265.13
729.23	264.60
729.56	264.17
729.89	263.72
730.22	263.23
730.55	262.79
730.89	262.37
731.22	261.95
731.55	261.51
731.88	261.11
732.21	260.69
732.54	260.29
732.87	259.87
733.20	259.48
733.53	259.10
733.86	258.74
734.19	258.34
734.52	258.02
734.85	257.70
735.18	257.32
735.51	256.94
735.84	256.57
736.17	256.23
736.50	255.81
736.83	255.61
737.16	255.28
737.49	254.97
737.82	254.60
738.15	254.27
738.48	253.92
738.81	253.59
739.14	253.25
739.47	252.92
739.80	252.59
740.13	252.29
740.46	251.98
740.79	251.62
741.12	251.30
741.45	250.97
741.78	250.64
742.11	250.34
742.44	250.04
742.77	249.78
743.10	249.50
743.43	249.22
743.75	248.83
744.08	248.67
744.41	248.37
744.74	248.11
745.07	247.84
745.40	247.58
745.73	247.32
746.06	247.07
746.39	246.79
746.71	246.53
747.04	246.24
747.37	245.97
747.70	245.72
748.03	245.48
748.36	245.24
748.68	244.93
749.01	244.67
749.34	244.44
749.67	244.22
750.00	243.98
750.33	243.84
750.65	243.62
750.98	243.29
751.31	243.08
751.64	242.90
751.97	242.71
752.29	242.48
752.62	242.23
752.95	241.99
753.28	241.81
753.60	241.61
753.93	241.43
754.26	241.23
754.59	241.00
754.91	240.78
755.24	240.56
755.57	240.37
755.90	240.22
756.22	240.02
756.55	239.77
756.88	239.54
757.20	239.28
757.53	239.06
757.86	238.87
758.19	238.70
758.51	238.50
758.84	238.29
759.17	238.12
759.49	237.97
759.82	237.85
760.15	237.68
760.47	237.50
760.80	237.32
761.13	237.17
761.45	237.02
761.78	236.86
762.11	236.70
762.43	236.55
762.76	236.37
763.08	236.21
763.41	236.08
763.74	235.97
764.06	235.84
764.39	235.69
764.71	235.55
765.04	235.39
765.37	235.26
765.69	235.13
766.02	235.03
766.34	234.91
766.67	234.75
767.00	234.67
767.32	234.62
767.65	234.55
767.97	234.43
768.30	234.30
768.62	234.19
768.95	234.06
769.27	233.97
769.60	233.87
769.92	233.75
770.25	233.60
770.57	233.46
770.90	233.35
771.22	233.24
771.55	233.16
771.87	233.07
772.20	232.96
772.52	232.97
772.85	232.97
773.17	232.88
773.50	232.77
773.82	232.67
774.15	232.54
774.47	232.41
774.80	232.31
775.12	232.28
775.45	232.22
775.77	232.15
776.09	232.07
776.42	232.00
776.74	231.97
777.07	231.93
777.39	231.87
777.72	231.79
778.04	231.74
778.36	231.66
778.69	231.60
779.01	231.57
779.33	231.39
779.66	231.24
779.98	231.18
780.31	231.14
780.63	231.10
780.95	231.06
781.28	230.99
781.60	230.94
781.92	230.86
782.25	230.77
782.57	230.77
782.89	230.74
783.22	230.67
783.54	230.60
783.86	230.58
784.19	230.55
784.51	230.51
784.83	230.48
785.16	230.44
785.48	230.39
785.80	230.33
786.12	230.29
786.45	230.26
786.77	230.22
787.09	230.17
