SpectraSuite Data File
++++++++++++++++++++++++++++++++++++
Date: Fri Feb 01 17:32:30 EST 2013
User: group
Dark Spectrum Present: No
Reference Spectrum Present: No
Number of Sampled Component Spectra: 1
Spectrometers: USB2E7196
Integration Time (usec): 35000 (USB2E7196)
Spectra Averaged: 100 (USB2E7196)
Boxcar Smoothing: 10 (USB2E7196)
Correct for Electrical Dark: No (USB2E7196)
Strobe/Lamp Enabled: No (USB2E7196)
Correct for Detector Non-linearity: No (USB2E7196)
Correct for Stray Light: No (USB2E7196)
Number of Pixels in Processed Spectrum: 2048
>>>>>Begin Processed Spectral Data<<<<<
339.09	0.00
339.48	213.00
339.86	214.17
340.24	215.38
340.63	216.70
341.01	219.43
341.39	218.97
341.78	221.04
342.16	222.33
342.54	221.95
342.93	211.13
343.31	221.81
343.69	222.34
344.07	222.79
344.46	223.23
344.84	223.65
345.22	223.90
345.60	224.20
345.99	224.38
346.37	224.51
346.75	224.65
347.13	224.72
347.52	224.76
347.90	224.80
348.28	224.82
348.66	224.88
349.05	224.89
349.43	224.94
349.81	224.98
350.19	225.02
350.57	225.06
350.96	225.13
351.34	225.20
351.72	225.27
352.10	225.35
352.48	225.45
352.87	225.47
353.25	225.54
353.63	225.59
354.01	225.68
354.39	225.72
354.77	225.80
355.15	225.90
355.54	225.98
355.92	226.04
356.30	226.10
356.68	226.24
357.06	226.30
357.44	226.37
357.82	226.44
358.20	226.52
358.58	226.61
358.97	226.69
359.35	226.76
359.73	226.84
360.11	226.91
360.49	226.96
360.87	227.03
361.25	227.09
361.63	227.18
362.01	227.21
362.39	227.28
362.77	227.32
363.15	227.33
363.53	227.35
363.91	227.39
364.29	227.42
364.67	227.34
365.05	227.33
365.43	227.36
365.81	227.39
366.19	227.43
366.57	227.45
366.95	227.43
367.33	227.42
367.71	227.43
368.09	227.46
368.47	227.43
368.85	227.42
369.23	227.44
369.61	227.37
369.99	227.40
370.37	227.41
370.75	227.42
371.13	227.39
371.51	227.36
371.89	227.33
372.27	227.32
372.65	227.28
373.03	227.23
373.41	227.15
373.78	227.09
374.16	227.01
374.54	226.96
374.92	226.91
375.30	226.87
375.68	226.78
376.06	226.75
376.44	226.72
376.82	226.66
377.19	226.58
377.57	226.52
377.95	226.41
378.33	226.33
378.71	226.21
379.09	226.18
379.47	226.15
379.84	226.07
380.22	225.98
380.60	225.92
380.98	225.87
381.36	225.79
381.73	225.74
382.11	225.67
382.49	225.60
382.87	225.52
383.25	225.45
383.62	225.52
384.00	225.45
384.38	225.39
384.76	225.38
385.13	225.37
385.51	225.33
385.89	225.31
386.27	225.26
386.64	225.25
387.02	225.16
387.40	225.12
387.78	225.07
388.15	225.05
388.53	225.00
388.91	224.99
389.29	225.01
389.66	225.02
390.04	224.98
390.42	224.99
390.79	224.97
391.17	224.95
391.55	224.81
391.92	224.78
392.30	224.77
392.68	224.73
393.05	224.72
393.43	224.73
393.81	224.70
394.18	224.70
394.56	224.70
394.94	224.74
395.31	224.75
395.69	224.80
396.06	224.83
396.44	224.84
396.82	224.83
397.19	224.90
397.57	224.91
397.95	224.98
398.32	224.99
398.70	225.03
399.07	225.09
399.45	225.15
399.82	225.17
400.20	225.20
400.58	225.24
400.95	225.26
401.33	225.31
401.70	225.47
402.08	225.53
402.45	225.60
402.83	225.69
403.20	225.77
403.58	225.83
403.95	225.97
404.33	226.11
404.71	226.22
405.08	226.38
405.46	226.49
405.83	226.62
406.21	226.75
406.58	226.91
406.96	227.05
407.33	227.23
407.70	227.47
408.08	227.77
408.45	227.99
408.83	228.23
409.20	228.44
409.58	228.58
409.95	228.86
410.33	229.14
410.70	229.38
411.08	229.68
411.45	229.98
411.82	230.25
412.20	230.61
412.57	231.04
412.95	231.32
413.32	231.76
413.69	232.17
414.07	232.62
414.44	233.12
414.82	233.62
415.19	234.18
415.56	234.70
415.94	235.24
416.31	235.92
416.68	236.56
417.06	237.34
417.43	238.11
417.81	238.89
418.18	239.72
418.55	240.58
418.93	241.49
419.30	242.44
419.67	243.45
420.04	244.39
420.42	245.45
420.79	246.67
421.16	247.83
421.54	249.10
421.91	250.35
422.28	251.66
422.66	253.05
423.03	254.42
423.40	255.86
423.77	257.36
424.15	258.85
424.52	260.43
424.89	262.09
425.26	263.65
425.64	265.19
426.01	266.86
426.38	268.62
426.75	270.37
427.13	272.17
427.50	274.05
427.87	276.04
428.24	277.95
428.61	279.81
428.99	281.85
429.36	284.02
429.73	286.20
430.10	288.33
430.47	290.48
430.85	292.65
431.22	294.98
431.59	297.45
431.96	299.82
432.33	302.41
432.70	304.87
433.08	307.81
433.45	310.55
433.82	313.24
434.19	316.21
434.56	319.16
434.93	321.95
435.30	324.75
435.68	327.78
436.05	330.77
436.42	333.65
436.79	336.29
437.16	339.11
437.53	342.07
437.90	344.98
438.27	347.86
438.64	350.84
439.01	353.56
439.38	355.86
439.75	358.09
440.13	360.69
440.50	363.09
440.87	365.03
441.24	367.06
441.61	369.32
441.98	370.92
442.35	372.77
442.72	374.70
443.09	376.54
443.46	377.57
443.83	378.20
444.20	378.80
444.57	379.70
444.94	380.01
445.31	380.35
445.68	380.69
446.05	380.78
446.42	380.40
446.79	379.91
447.16	379.48
447.53	379.14
447.90	377.89
448.27	376.71
448.64	375.06
449.01	373.86
449.37	371.82
449.74	369.86
450.11	367.55
450.48	364.98
450.85	362.34
451.22	360.14
451.59	358.04
451.96	356.00
452.33	353.29
452.70	350.82
453.07	347.90
453.43	344.89
453.80	341.98
454.17	339.17
454.54	336.53
454.91	333.66
455.28	330.89
455.65	328.31
456.02	325.77
456.38	323.50
456.75	320.71
457.12	318.39
457.49	316.02
457.86	313.75
458.23	311.82
458.59	309.66
458.96	307.45
459.33	305.48
459.70	303.50
460.07	301.92
460.43	300.11
460.80	298.39
461.17	296.89
461.54	295.33
461.91	293.86
462.27	292.35
462.64	291.07
463.01	289.65
463.38	288.30
463.74	286.84
464.11	285.66
464.48	284.62
464.85	283.45
465.21	282.58
465.58	281.60
465.95	280.48
466.32	279.53
466.68	278.61
467.05	277.69
467.42	276.78
467.78	275.80
468.15	274.90
468.52	274.24
468.88	273.34
469.25	272.55
469.62	271.91
469.98	271.26
470.35	270.62
470.72	270.02
471.08	269.34
471.45	268.84
471.82	268.31
472.18	267.69
472.55	267.25
472.92	266.70
473.28	266.23
473.65	265.73
474.02	265.31
474.38	264.95
474.75	264.64
475.11	264.26
475.48	264.03
475.85	263.83
476.21	263.57
476.58	263.41
476.94	263.26
477.31	263.06
477.67	262.90
478.04	262.79
478.41	262.72
478.77	262.81
479.14	262.75
479.50	262.75
479.87	262.85
480.23	262.96
480.60	263.04
480.96	263.16
481.33	263.39
481.69	263.59
482.06	263.77
482.42	263.94
482.79	264.20
483.15	264.50
483.52	264.85
483.88	265.21
484.25	265.61
484.61	266.04
484.98	266.50
485.34	267.06
485.71	267.65
486.07	268.24
486.44	268.78
486.80	269.49
487.17	270.22
487.53	271.02
487.90	271.90
488.26	272.86
488.62	273.84
488.99	274.80
489.35	275.84
489.72	276.95
490.08	278.17
490.44	279.43
490.81	280.76
491.17	282.07
491.54	283.56
491.90	285.08
492.26	286.72
492.63	288.45
492.99	290.18
493.36	292.07
493.72	294.10
494.08	296.18
494.45	298.34
494.81	300.66
495.17	303.04
495.54	305.51
495.90	308.15
496.26	310.95
496.63	313.89
496.99	316.96
497.35	320.19
497.72	323.56
498.08	327.03
498.44	330.69
498.80	334.57
499.17	338.56
499.53	342.65
499.89	347.00
500.26	351.41
500.62	356.06
500.98	360.92
501.34	365.97
501.71	371.20
502.07	376.63
502.43	382.16
502.79	387.93
503.16	393.90
503.52	400.03
503.88	406.29
504.24	412.84
504.60	419.57
504.97	426.54
505.33	433.69
505.69	441.28
506.05	448.92
506.41	456.71
506.78	464.70
507.14	473.03
507.50	481.54
507.86	490.41
508.22	499.40
508.59	508.46
508.95	517.79
509.31	527.42
509.67	537.27
510.03	547.33
510.39	557.65
510.75	568.26
511.12	578.99
511.48	590.10
511.84	601.30
512.20	612.58
512.56	624.27
512.92	636.12
513.28	648.15
513.64	660.30
514.00	672.70
514.37	685.30
514.73	698.04
515.09	710.73
515.45	723.66
515.81	736.94
516.17	750.58
516.53	764.34
516.89	778.17
517.25	791.96
517.61	806.03
517.97	820.16
518.33	834.13
518.69	848.38
519.05	862.85
519.41	877.56
519.77	892.57
520.13	907.62
520.49	922.67
520.85	937.63
521.21	952.86
521.57	968.60
521.93	984.00
522.29	999.92
522.65	1015.79
523.01	1031.49
523.37	1046.96
523.73	1062.52
524.09	1078.04
524.45	1093.81
524.81	1109.98
525.17	1126.20
525.53	1142.44
525.89	1159.01
526.25	1175.48
526.61	1191.32
526.97	1207.62
527.33	1223.77
527.68	1239.79
528.04	1255.82
528.40	1271.83
528.76	1288.40
529.12	1304.49
529.48	1320.88
529.84	1336.38
530.20	1352.42
530.56	1368.85
530.91	1385.84
531.27	1402.28
531.63	1418.35
531.99	1434.52
532.35	1450.15
532.71	1465.67
533.07	1481.50
533.42	1496.91
533.78	1512.60
534.14	1528.52
534.50	1543.47
534.86	1558.89
535.21	1573.86
535.57	1589.28
535.93	1604.46
536.29	1618.85
536.65	1633.52
537.00	1647.78
537.36	1662.87
537.72	1677.13
538.08	1691.43
538.44	1704.97
538.79	1718.62
539.15	1731.95
539.51	1745.51
539.87	1759.52
540.22	1773.13
540.58	1786.71
540.94	1799.69
541.29	1812.05
541.65	1824.57
542.01	1837.59
542.37	1849.78
542.72	1861.98
543.08	1873.72
543.44	1886.03
543.79	1897.44
544.15	1908.38
544.51	1920.07
544.87	1930.85
545.22	1941.76
545.58	1952.05
545.94	1961.86
546.29	1971.70
546.65	1981.74
547.01	1991.03
547.36	1999.90
547.72	2008.35
548.07	2016.44
548.43	2024.78
548.79	2033.09
549.14	2041.05
549.50	2048.41
549.86	2056.24
550.21	2063.75
550.57	2071.26
550.92	2078.09
551.28	2085.22
551.64	2092.65
551.99	2099.31
552.35	2105.80
552.70	2112.22
553.06	2118.49
553.41	2125.08
553.77	2131.29
554.13	2137.58
554.48	2143.95
554.84	2149.76
555.19	2155.27
555.55	2160.64
555.90	2165.46
556.26	2170.86
556.61	2175.70
556.97	2180.63
557.32	2185.11
557.68	2189.47
558.03	2193.86
558.39	2197.86
558.74	2202.68
559.10	2206.84
559.45	2210.91
559.81	2215.46
560.16	2219.65
560.52	2223.21
560.87	2226.89
561.23	2230.00
561.58	2233.28
561.94	2236.10
562.29	2238.69
562.64	2241.92
563.00	2244.95
563.35	2248.80
563.71	2252.08
564.06	2255.62
564.42	2258.79
564.77	2261.81
565.12	2264.75
565.48	2267.26
565.83	2269.56
566.19	2271.51
566.54	2272.72
566.89	2274.43
567.25	2275.60
567.60	2277.23
567.96	2279.46
568.31	2280.82
568.66	2282.52
569.02	2283.61
569.37	2284.47
569.72	2285.86
570.08	2286.54
570.43	2286.97
570.78	2287.08
571.14	2286.14
571.49	2285.12
571.84	2285.04
572.20	2284.49
572.55	2283.74
572.90	2282.42
573.26	2281.54
573.61	2280.19
573.96	2279.08
574.31	2276.45
574.67	2273.85
575.02	2270.51
575.37	2267.41
575.72	2264.23
576.08	2261.01
576.43	2258.07
576.78	2254.96
577.13	2252.14
577.49	2249.31
577.84	2246.30
578.19	2242.69
578.54	2239.44
578.90	2235.89
579.25	2230.81
579.60	2226.10
579.95	2221.57
580.30	2217.09
580.66	2212.25
581.01	2207.61
581.36	2202.91
581.71	2199.22
582.06	2195.22
582.42	2191.28
582.77	2186.39
583.12	2181.90
583.47	2177.75
583.82	2173.23
584.17	2168.23
584.53	2163.00
584.88	2157.51
585.23	2152.15
585.58	2146.91
585.93	2141.73
586.28	2137.14
586.63	2132.56
586.98	2127.74
587.34	2123.30
587.69	2118.58
588.04	2113.70
588.39	2108.33
588.74	2102.21
589.09	2096.18
589.44	2089.63
589.79	2083.62
590.14	2078.20
590.49	2071.81
590.84	2065.42
591.19	2059.59
591.54	2053.33
591.89	2046.34
592.25	2040.02
592.60	2032.93
592.95	2025.79
593.30	2018.64
593.65	2011.15
594.00	2004.10
594.35	1997.05
594.70	1989.05
595.05	1982.10
595.40	1974.90
595.75	1967.59
596.10	1961.55
596.45	1955.05
596.80	1949.11
597.15	1942.87
597.50	1936.11
597.85	1929.87
598.19	1923.55
598.54	1916.55
598.89	1910.02
599.24	1904.21
599.59	1897.72
599.94	1891.59
600.29	1885.33
600.64	1878.77
600.99	1871.61
601.34	1864.87
601.69	1857.95
602.04	1851.30
602.39	1844.00
602.74	1837.42
603.08	1830.84
603.43	1824.12
603.78	1816.84
604.13	1809.66
604.48	1802.43
604.83	1795.54
605.18	1788.84
605.53	1780.90
605.87	1772.93
606.22	1765.73
606.57	1757.78
606.92	1750.30
607.27	1743.22
607.62	1736.36
607.96	1729.42
608.31	1722.75
608.66	1715.37
609.01	1707.84
609.36	1700.34
609.70	1692.27
610.05	1684.03
610.40	1676.40
610.75	1668.11
611.10	1660.43
611.44	1651.79
611.79	1643.74
612.14	1635.14
612.49	1625.73
612.83	1617.25
613.18	1609.03
613.53	1600.95
613.88	1592.42
614.22	1584.02
614.57	1575.30
614.92	1567.22
615.27	1559.54
615.61	1551.25
615.96	1542.99
616.31	1535.17
616.65	1527.68
617.00	1520.13
617.35	1512.40
617.70	1504.01
618.04	1495.42
618.39	1486.99
618.74	1479.47
619.08	1471.12
619.43	1463.37
619.78	1456.38
620.12	1449.22
620.47	1441.65
620.82	1433.27
621.16	1425.64
621.51	1417.98
621.85	1410.26
622.20	1401.66
622.55	1393.15
622.89	1385.22
623.24	1377.58
623.59	1370.06
623.93	1362.46
624.28	1355.08
624.62	1347.51
624.97	1340.09
625.32	1333.25
625.66	1326.22
626.01	1319.00
626.35	1311.58
626.70	1303.69
627.04	1295.96
627.39	1288.04
627.73	1280.66
628.08	1273.77
628.43	1266.53
628.77	1259.19
629.12	1251.57
629.46	1244.40
629.81	1236.67
630.15	1229.26
630.50	1221.75
630.84	1213.55
631.19	1205.43
631.53	1197.92
631.88	1190.31
632.22	1182.59
632.57	1175.08
632.91	1167.52
633.26	1159.98
633.60	1152.29
633.95	1145.09
634.29	1137.93
634.64	1131.14
634.98	1123.60
635.32	1116.25
635.67	1109.44
636.01	1102.70
636.36	1095.94
636.70	1089.21
637.05	1082.72
637.39	1076.18
637.73	1069.56
638.08	1063.67
638.42	1057.66
638.77	1051.04
639.11	1044.39
639.45	1038.04
639.80	1031.44
640.14	1024.98
640.49	1018.37
640.83	1012.10
641.17	1005.86
641.52	999.45
641.86	992.91
642.20	986.98
642.55	980.50
642.89	974.04
643.23	967.36
643.58	961.54
643.92	955.26
644.26	949.27
644.61	943.12
644.95	937.07
645.29	930.48
645.64	923.70
645.98	917.46
646.32	911.43
646.66	905.31
647.01	899.46
647.35	893.70
647.69	887.83
648.04	882.22
648.38	876.30
648.72	870.40
649.06	864.38
649.41	858.38
649.75	852.63
650.09	846.62
650.43	840.79
650.78	834.51
651.12	828.54
651.46	822.72
651.80	817.00
652.14	811.58
652.49	806.15
652.83	800.84
653.17	795.19
653.51	789.62
653.85	784.18
654.20	778.52
654.54	772.51
654.88	766.69
655.22	760.83
655.56	755.10
655.90	749.51
656.25	744.20
656.59	738.90
656.93	733.64
657.27	728.50
657.61	723.03
657.95	717.94
658.29	712.82
658.64	707.53
658.98	702.16
659.32	696.63
659.66	691.42
660.00	686.22
660.34	681.15
660.68	676.12
661.02	671.10
661.36	666.31
661.70	661.75
662.05	657.39
662.39	653.02
662.73	648.54
663.07	644.14
663.41	639.72
663.75	635.27
664.09	630.68
664.43	626.26
664.77	622.20
665.11	617.94
665.45	613.81
665.79	609.68
666.13	605.60
666.47	601.50
666.81	597.27
667.15	593.09
667.49	589.14
667.83	585.24
668.17	581.25
668.51	577.19
668.85	573.16
669.19	569.28
669.53	565.46
669.87	561.59
670.21	557.82
670.55	554.15
670.89	550.62
671.23	547.25
671.57	543.64
671.91	540.10
672.25	536.58
672.58	533.04
672.92	529.56
673.26	526.36
673.60	523.17
673.94	520.06
674.28	517.12
674.62	514.18
674.96	511.13
675.30	508.23
675.64	505.30
675.97	502.48
676.31	499.53
676.65	496.62
676.99	493.86
677.33	490.99
677.67	488.13
678.01	485.11
678.34	482.13
678.68	479.27
679.02	476.44
679.36	473.61
679.70	470.89
680.04	468.18
680.37	465.30
680.71	462.52
681.05	459.91
681.39	457.18
681.73	454.49
682.06	451.88
682.40	449.35
682.74	446.75
683.08	444.13
683.42	441.54
683.75	438.98
684.09	436.42
684.43	433.92
684.77	431.42
685.10	429.02
685.44	426.69
685.78	424.43
686.12	422.16
686.45	419.85
686.79	417.53
687.13	415.33
687.46	413.14
687.80	410.97
688.14	408.68
688.48	406.60
688.81	404.39
689.15	402.26
689.49	400.08
689.82	397.98
690.16	395.85
690.50	393.88
690.83	391.91
691.17	389.89
691.51	387.98
691.84	386.15
692.18	384.24
692.52	382.24
692.85	380.22
693.19	378.28
693.52	376.39
693.86	374.54
694.20	372.68
694.53	370.86
694.87	368.97
695.21	367.19
695.54	365.36
695.88	363.59
696.21	361.86
696.55	360.14
696.88	358.45
697.22	356.79
697.56	355.13
697.89	353.49
698.23	351.87
698.56	350.27
698.90	348.65
699.23	346.97
699.57	345.43
699.90	343.89
700.24	342.32
700.58	340.83
700.91	339.36
701.25	337.89
701.58	336.47
701.92	335.12
702.25	333.71
702.59	332.31
702.92	330.97
703.26	329.63
703.59	328.30
703.93	327.10
704.26	325.86
704.60	324.53
704.93	323.23
705.26	321.99
705.60	320.78
705.93	319.60
706.27	318.55
706.60	317.45
706.94	316.34
707.27	315.23
707.61	314.09
707.94	313.03
708.27	311.91
708.61	310.85
708.94	309.80
709.28	308.78
709.61	307.80
709.94	306.80
710.28	305.76
710.61	304.78
710.95	303.65
711.28	302.74
711.61	301.78
711.95	300.85
712.28	299.88
712.61	298.91
712.95	297.97
713.28	297.07
713.61	296.13
713.95	295.23
714.28	294.34
714.61	293.47
714.95	292.57
715.28	291.73
715.61	290.81
715.95	289.94
716.28	289.05
716.61	288.16
716.95	287.29
717.28	286.50
717.61	285.71
717.94	284.99
718.28	284.13
718.61	283.38
718.94	282.67
719.27	282.02
719.61	281.32
719.94	280.63
720.27	279.89
720.60	279.21
720.94	278.58
721.27	277.98
721.60	277.39
721.93	276.77
722.27	276.19
722.60	275.64
722.93	275.04
723.26	274.50
723.59	273.95
723.93	273.42
724.26	272.84
724.59	272.25
724.92	271.67
725.25	271.17
725.59	270.65
725.92	270.11
726.25	269.57
726.58	269.04
726.91	268.54
727.24	268.04
727.57	267.54
727.91	267.00
728.24	266.51
728.57	266.01
728.90	265.56
729.23	265.04
729.56	264.58
729.89	264.11
730.22	263.62
730.55	263.16
730.89	262.71
731.22	262.28
731.55	261.84
731.88	261.40
732.21	260.96
732.54	260.50
732.87	260.04
733.20	259.62
733.53	259.24
733.86	258.88
734.19	258.50
734.52	258.14
734.85	257.86
735.18	257.43
735.51	257.08
735.84	256.69
736.17	256.37
736.50	255.97
736.83	255.75
737.16	255.37
737.49	255.07
737.82	254.73
738.15	254.41
738.48	254.07
738.81	253.77
739.14	253.41
739.47	253.11
739.80	252.81
740.13	252.51
740.46	252.17
740.79	251.82
741.12	251.47
741.45	251.17
741.78	250.80
742.11	250.56
742.44	250.22
742.77	249.94
743.10	249.63
743.43	249.35
743.75	248.92
744.08	248.80
744.41	248.53
744.74	248.26
745.07	247.97
745.40	247.73
745.73	247.51
746.06	247.24
746.39	246.96
746.71	246.71
747.04	246.43
747.37	246.17
747.70	245.91
748.03	245.67
748.36	245.39
748.68	245.12
749.01	244.81
749.34	244.60
749.67	244.36
750.00	244.12
750.33	243.95
750.65	243.74
750.98	243.41
751.31	243.15
751.64	242.89
751.97	242.72
752.29	242.50
752.62	242.25
752.95	242.05
753.28	241.82
753.60	241.57
753.93	241.38
754.26	241.20
754.59	240.97
754.91	240.74
755.24	240.55
755.57	240.37
755.90	240.23
756.22	240.01
756.55	239.77
756.88	239.55
757.20	239.30
757.53	239.10
757.86	238.88
758.19	238.69
758.51	238.54
758.84	238.34
759.17	238.12
759.49	237.92
759.82	237.80
760.15	237.67
760.47	237.52
760.80	237.35
761.13	237.18
761.45	237.02
761.78	236.90
762.11	236.74
762.43	236.59
762.76	236.38
763.08	236.26
763.41	236.15
763.74	236.04
764.06	235.90
764.39	235.78
764.71	235.63
765.04	235.47
765.37	235.32
765.69	235.14
766.02	235.02
766.34	234.90
766.67	234.74
767.00	234.61
767.32	234.54
767.65	234.45
767.97	234.35
768.30	234.25
768.62	234.11
768.95	234.02
769.27	233.89
769.60	233.84
769.92	233.73
770.25	233.57
770.57	233.44
770.90	233.31
771.22	233.19
771.55	233.11
771.87	233.04
772.20	232.96
772.52	232.99
772.85	233.05
773.17	232.94
773.50	232.84
773.82	232.75
774.15	232.66
774.47	232.54
774.80	232.44
775.12	232.38
775.45	232.33
775.77	232.24
776.09	232.18
776.42	232.06
776.74	232.02
777.07	231.96
777.39	231.90
777.72	231.81
778.04	231.74
778.36	231.69
778.69	231.65
779.01	231.57
779.33	231.41
779.66	231.21
779.98	231.11
780.31	231.04
780.63	231.01
780.95	230.95
781.28	230.88
781.60	230.80
781.92	230.70
782.25	230.66
782.57	230.58
782.89	230.50
783.22	230.46
783.54	230.40
783.86	230.38
784.19	230.29
784.51	230.29
784.83	230.24
785.16	230.16
785.48	230.10
785.80	230.06
786.12	230.04
786.45	230.00
786.77	229.99
787.09	229.95
