SpectraSuite Data File
++++++++++++++++++++++++++++++++++++
Date: Fri Feb 01 15:22:23 EST 2013
User: group
Dark Spectrum Present: No
Reference Spectrum Present: No
Number of Sampled Component Spectra: 1
Spectrometers: USB2E7196
Integration Time (usec): 35000 (USB2E7196)
Spectra Averaged: 100 (USB2E7196)
Boxcar Smoothing: 10 (USB2E7196)
Correct for Electrical Dark: No (USB2E7196)
Strobe/Lamp Enabled: No (USB2E7196)
Correct for Detector Non-linearity: No (USB2E7196)
Correct for Stray Light: No (USB2E7196)
Number of Pixels in Processed Spectrum: 2048
>>>>>Begin Processed Spectral Data<<<<<
339.09	0.00
339.48	215.56
339.86	217.00
340.24	217.73
340.63	219.10
341.01	222.43
341.39	222.05
341.78	223.15
342.16	224.25
342.54	225.22
342.93	213.48
343.31	224.28
343.69	224.83
344.07	225.27
344.46	225.73
344.84	226.12
345.22	226.36
345.60	226.60
345.99	226.80
346.37	226.93
346.75	227.01
347.13	227.11
347.52	227.18
347.90	227.25
348.28	227.29
348.66	227.33
349.05	227.31
349.43	227.34
349.81	227.39
350.19	227.44
350.57	227.53
350.96	227.61
351.34	227.69
351.72	227.74
352.10	227.88
352.48	227.93
352.87	227.97
353.25	228.06
353.63	228.12
354.01	228.22
354.39	228.33
354.77	228.41
355.15	228.48
355.54	228.54
355.92	228.55
356.30	228.62
356.68	228.79
357.06	228.87
357.44	228.94
357.82	229.00
358.20	229.06
358.58	229.12
358.97	229.16
359.35	229.23
359.73	229.33
360.11	229.35
360.49	229.40
360.87	229.47
361.25	229.49
361.63	229.56
362.01	229.55
362.39	229.55
362.77	229.61
363.15	229.63
363.53	229.62
363.91	229.67
364.29	229.68
364.67	229.54
365.05	229.56
365.43	229.57
365.81	229.58
366.19	229.64
366.57	229.64
366.95	229.62
367.33	229.57
367.71	229.52
368.09	229.51
368.47	229.49
368.85	229.44
369.23	229.42
369.61	229.35
369.99	229.39
370.37	229.38
370.75	229.37
371.13	229.33
371.51	229.29
371.89	229.23
372.27	229.18
372.65	229.15
373.03	229.11
373.41	229.03
373.78	228.95
374.16	228.83
374.54	228.72
374.92	228.65
375.30	228.61
375.68	228.55
376.06	228.46
376.44	228.37
376.82	228.28
377.19	228.22
377.57	228.13
377.95	227.98
378.33	227.89
378.71	227.75
379.09	227.64
379.47	227.57
379.84	227.48
380.22	227.40
380.60	227.30
380.98	227.20
381.36	227.14
381.73	227.06
382.11	227.01
382.49	226.97
382.87	226.93
383.25	226.84
383.62	226.89
384.00	226.83
384.38	226.81
384.76	226.78
385.13	226.77
385.51	226.75
385.89	226.72
386.27	226.69
386.64	226.64
387.02	226.60
387.40	226.54
387.78	226.50
388.15	226.46
388.53	226.46
388.91	226.42
389.29	226.38
389.66	226.36
390.04	226.32
390.42	226.34
390.79	226.31
391.17	226.32
391.55	226.20
391.92	226.19
392.30	226.19
392.68	226.19
393.05	226.18
393.43	226.19
393.81	226.21
394.18	226.21
394.56	226.27
394.94	226.34
395.31	226.38
395.69	226.48
396.06	226.53
396.44	226.58
396.82	226.63
397.19	226.72
397.57	226.78
397.95	226.85
398.32	226.87
398.70	226.95
399.07	227.03
399.45	227.11
399.82	227.18
400.20	227.27
400.58	227.35
400.95	227.43
401.33	227.51
401.70	227.67
402.08	227.77
402.45	227.87
402.83	228.01
403.20	228.13
403.58	228.23
403.95	228.35
404.33	228.50
404.71	228.65
405.08	228.86
405.46	229.02
405.83	229.21
406.21	229.36
406.58	229.53
406.96	229.68
407.33	229.85
407.70	230.06
408.08	230.32
408.45	230.54
408.83	230.76
409.20	230.99
409.58	231.17
409.95	231.43
410.33	231.71
410.70	231.92
411.08	232.21
411.45	232.52
411.82	232.86
412.20	233.19
412.57	233.59
412.95	233.87
413.32	234.26
413.69	234.64
414.07	235.08
414.44	235.53
414.82	236.04
415.19	236.57
415.56	237.12
415.94	237.63
416.31	238.26
416.68	238.88
417.06	239.59
417.43	240.26
417.81	241.03
418.18	241.80
418.55	242.66
418.93	243.55
419.30	244.41
419.67	245.31
420.04	246.24
420.42	247.24
420.79	248.43
421.16	249.57
421.54	250.76
421.91	251.93
422.28	253.19
422.66	254.47
423.03	255.76
423.40	257.09
423.77	258.52
424.15	259.94
424.52	261.42
424.89	263.02
425.26	264.58
425.64	266.01
426.01	267.56
426.38	269.19
426.75	270.89
427.13	272.64
427.50	274.48
427.87	276.36
428.24	278.16
428.61	279.90
428.99	281.83
429.36	283.95
429.73	286.03
430.10	288.08
430.47	290.15
430.85	292.31
431.22	294.58
431.59	296.97
431.96	299.22
432.33	301.73
432.70	304.12
433.08	306.93
433.45	309.60
433.82	312.25
434.19	315.18
434.56	318.01
434.93	320.68
435.30	323.29
435.68	326.24
436.05	329.09
436.42	331.88
436.79	334.41
437.16	337.12
437.53	339.97
437.90	342.76
438.27	345.53
438.64	348.36
439.01	350.97
439.38	353.18
439.75	355.38
440.13	357.87
440.50	360.23
440.87	362.15
441.24	364.09
441.61	366.30
441.98	367.75
442.35	369.53
442.72	371.39
443.09	373.23
443.46	374.23
443.83	374.86
444.20	375.40
444.57	376.29
444.94	376.60
445.31	376.97
445.68	377.33
446.05	377.42
446.42	377.02
446.79	376.60
447.16	376.15
447.53	375.82
447.90	374.64
448.27	373.47
448.64	371.82
449.01	370.71
449.37	368.72
449.74	366.86
450.11	364.60
450.48	362.13
450.85	359.55
451.22	357.40
451.59	355.38
451.96	353.42
452.33	350.77
452.70	348.38
453.07	345.50
453.43	342.61
453.80	339.82
454.17	337.17
454.54	334.58
454.91	331.85
455.28	329.17
455.65	326.67
456.02	324.24
456.38	322.11
456.75	319.44
457.12	317.16
457.49	314.91
457.86	312.73
458.23	310.92
458.59	308.87
458.96	306.76
459.33	304.89
459.70	303.02
460.07	301.52
460.43	299.79
460.80	298.18
461.17	296.73
461.54	295.22
461.91	293.79
462.27	292.36
462.64	291.10
463.01	289.75
463.38	288.46
463.74	287.08
464.11	285.90
464.48	284.84
464.85	283.72
465.21	282.82
465.58	281.86
465.95	280.67
466.32	279.76
466.68	278.85
467.05	277.93
467.42	277.06
467.78	276.15
468.15	275.26
468.52	274.63
468.88	273.75
469.25	272.99
469.62	272.35
469.98	271.66
470.35	271.04
470.72	270.43
471.08	269.75
471.45	269.17
471.82	268.59
472.18	268.03
472.55	267.61
472.92	267.09
473.28	266.68
473.65	266.27
474.02	265.81
474.38	265.45
474.75	265.12
475.11	264.77
475.48	264.48
475.85	264.25
476.21	263.97
476.58	263.79
476.94	263.64
477.31	263.45
477.67	263.27
478.04	263.16
478.41	263.08
478.77	263.14
479.14	263.06
479.50	263.07
479.87	263.10
480.23	263.16
480.60	263.24
480.96	263.25
481.33	263.42
481.69	263.62
482.06	263.79
482.42	263.98
482.79	264.18
483.15	264.49
483.52	264.86
483.88	265.25
484.25	265.63
484.61	266.08
484.98	266.52
485.34	267.11
485.71	267.68
486.07	268.30
486.44	268.86
486.80	269.54
487.17	270.30
487.53	271.10
487.90	271.95
488.26	272.89
488.62	273.90
488.99	274.87
489.35	275.91
489.72	277.01
490.08	278.19
490.44	279.45
490.81	280.79
491.17	282.12
491.54	283.57
491.90	285.10
492.26	286.73
492.63	288.48
492.99	290.25
493.36	292.16
493.72	294.25
494.08	296.38
494.45	298.66
494.81	301.03
495.17	303.46
495.54	306.02
495.90	308.68
496.26	311.53
496.63	314.50
496.99	317.60
497.35	320.85
497.72	324.23
498.08	327.77
498.44	331.45
498.80	335.43
499.17	339.43
499.53	343.62
499.89	347.95
500.26	352.45
500.62	357.17
500.98	362.13
501.34	367.15
501.71	372.45
502.07	377.91
502.43	383.50
502.79	389.31
503.16	395.34
503.52	401.61
503.88	407.97
504.24	414.63
504.60	421.49
504.97	428.67
505.33	436.03
505.69	443.68
506.05	451.46
506.41	459.31
506.78	467.47
507.14	475.87
507.50	484.60
507.86	493.58
508.22	502.64
508.59	511.81
508.95	521.41
509.31	531.21
509.67	541.25
510.03	551.51
510.39	562.09
510.75	572.89
511.12	583.86
511.48	595.22
511.84	606.65
512.20	618.24
512.56	630.19
512.92	642.40
513.28	654.77
513.64	667.29
514.00	680.04
514.37	693.03
514.73	706.13
515.09	719.15
515.45	732.50
515.81	746.21
516.17	760.27
516.53	774.35
516.89	788.48
517.25	802.78
517.61	817.28
517.97	831.83
518.33	846.32
518.69	861.16
519.05	876.15
519.41	891.37
519.77	906.89
520.13	922.39
520.49	937.83
520.85	953.30
521.21	968.95
521.57	985.22
521.93	1000.99
522.29	1017.48
522.65	1033.81
523.01	1050.06
523.37	1066.15
523.73	1082.29
524.09	1098.48
524.45	1114.99
524.81	1131.68
525.17	1148.51
525.53	1165.36
525.89	1182.31
526.25	1199.22
526.61	1215.63
526.97	1232.44
527.33	1248.91
527.68	1265.57
528.04	1282.22
528.40	1298.82
528.76	1315.99
529.12	1332.61
529.48	1349.61
529.84	1365.65
530.20	1382.38
530.56	1399.41
530.91	1416.86
531.27	1433.74
531.63	1450.22
531.99	1466.77
532.35	1482.74
532.71	1498.74
533.07	1515.13
533.42	1531.07
533.78	1547.15
534.14	1563.46
534.50	1578.82
534.86	1594.79
535.21	1609.87
535.57	1625.80
535.93	1641.47
536.29	1656.27
536.65	1671.45
537.00	1686.35
537.36	1701.76
537.72	1716.36
538.08	1730.97
538.44	1744.80
538.79	1758.75
539.15	1772.61
539.51	1786.46
539.87	1800.82
540.22	1814.61
540.58	1828.41
540.94	1842.00
541.29	1854.98
541.65	1867.73
542.01	1881.10
542.37	1893.53
542.72	1906.09
543.08	1917.76
543.44	1930.21
543.79	1941.56
544.15	1952.44
544.51	1963.98
544.87	1974.99
545.22	1985.74
545.58	1995.98
545.94	2005.87
546.29	2015.73
546.65	2025.61
547.01	2034.83
547.36	2043.79
547.72	2052.26
548.07	2060.09
548.43	2068.23
548.79	2076.41
549.14	2084.07
549.50	2091.43
549.86	2099.16
550.21	2106.51
550.57	2113.84
550.92	2120.35
551.28	2127.47
551.64	2134.68
551.99	2141.19
552.35	2147.35
552.70	2153.54
553.06	2159.48
553.41	2165.78
553.77	2171.99
554.13	2178.02
554.48	2184.20
554.84	2189.54
555.19	2194.93
555.55	2199.97
555.90	2204.33
556.26	2209.01
556.61	2213.58
556.97	2217.76
557.32	2221.84
557.68	2226.02
558.03	2230.34
558.39	2234.17
558.74	2238.76
559.10	2242.48
559.45	2246.14
559.81	2250.40
560.16	2254.26
560.52	2257.56
560.87	2260.96
561.23	2263.44
561.58	2266.32
561.94	2268.77
562.29	2271.01
562.64	2273.62
563.00	2276.32
563.35	2279.89
563.71	2283.13
564.06	2286.41
564.42	2289.26
564.77	2291.69
565.12	2293.84
565.48	2295.47
565.83	2297.08
566.19	2298.34
566.54	2299.39
566.89	2300.31
567.25	2300.85
567.60	2302.11
567.96	2303.66
568.31	2304.57
568.66	2305.48
569.02	2306.04
569.37	2306.44
569.72	2307.40
570.08	2307.40
570.43	2307.35
570.78	2306.46
571.14	2304.93
571.49	2303.51
571.84	2303.06
572.20	2301.87
572.55	2300.84
572.90	2299.38
573.26	2297.98
573.61	2296.26
573.96	2294.39
574.31	2291.52
574.67	2288.37
575.02	2284.63
575.37	2281.18
575.72	2277.14
576.08	2273.94
576.43	2270.56
576.78	2266.68
577.13	2263.33
577.49	2260.24
577.84	2256.70
578.19	2253.02
578.54	2249.12
578.90	2244.85
579.25	2239.35
579.60	2234.43
579.95	2229.38
580.30	2224.35
580.66	2219.06
581.01	2214.02
581.36	2208.98
581.71	2204.73
582.06	2200.33
582.42	2195.82
582.77	2190.42
583.12	2185.70
583.47	2180.82
583.82	2175.66
584.17	2170.26
584.53	2164.58
584.88	2158.77
585.23	2152.97
585.58	2147.41
585.93	2141.78
586.28	2136.88
586.63	2131.57
586.98	2126.35
587.34	2121.48
587.69	2116.44
588.04	2111.24
588.39	2105.44
588.74	2098.93
589.09	2092.58
589.44	2085.67
589.79	2079.69
590.14	2074.19
590.49	2067.65
590.84	2061.19
591.19	2055.11
591.54	2048.73
591.89	2041.36
592.25	2034.45
592.60	2027.17
592.95	2019.43
593.30	2012.11
593.65	2004.57
594.00	1997.54
594.35	1990.21
594.70	1982.15
595.05	1974.87
595.40	1967.46
595.75	1959.85
596.10	1953.51
596.45	1946.85
596.80	1940.54
597.15	1933.71
597.50	1926.34
597.85	1919.94
598.19	1913.34
598.54	1906.18
598.89	1899.54
599.24	1893.65
599.59	1886.91
599.94	1880.59
600.29	1874.42
600.64	1867.90
600.99	1860.23
601.34	1853.35
601.69	1846.32
602.04	1839.26
602.39	1831.90
602.74	1825.09
603.08	1818.52
603.43	1811.90
603.78	1804.53
604.13	1797.31
604.48	1790.02
604.83	1783.10
605.18	1775.90
605.53	1767.81
605.87	1759.76
606.22	1752.48
606.57	1744.52
606.92	1737.42
607.27	1730.23
607.62	1723.15
607.96	1715.67
608.31	1709.02
608.66	1701.41
609.01	1693.78
609.36	1686.30
609.70	1678.26
610.05	1670.12
610.40	1662.29
610.75	1653.93
611.10	1646.26
611.44	1637.94
611.79	1629.99
612.14	1621.35
612.49	1612.32
612.83	1603.97
613.18	1595.94
613.53	1587.85
613.88	1579.27
614.22	1570.96
614.57	1562.33
614.92	1554.32
615.27	1546.78
615.61	1538.53
615.96	1530.55
616.31	1522.91
616.65	1515.47
617.00	1507.94
617.35	1500.20
617.70	1491.74
618.04	1483.15
618.39	1474.87
618.74	1467.18
619.08	1458.85
619.43	1451.33
619.78	1444.38
620.12	1437.19
620.47	1429.62
620.82	1421.41
621.16	1413.95
621.51	1406.27
621.85	1398.62
622.20	1390.03
622.55	1381.69
622.89	1373.85
623.24	1366.27
623.59	1359.10
623.93	1351.62
624.28	1344.41
624.62	1336.98
624.97	1329.92
625.32	1323.16
625.66	1316.25
626.01	1309.05
626.35	1301.52
626.70	1293.84
627.04	1286.11
627.39	1278.27
627.73	1270.88
628.08	1263.86
628.43	1256.63
628.77	1249.18
629.12	1241.61
629.46	1234.48
629.81	1227.12
630.15	1219.84
630.50	1212.34
630.84	1204.10
631.19	1196.25
631.53	1188.67
631.88	1181.08
632.22	1173.41
632.57	1166.18
632.91	1158.57
633.26	1151.24
633.60	1143.97
633.95	1136.85
634.29	1129.85
634.64	1123.15
634.98	1115.79
635.32	1108.75
635.67	1102.22
636.01	1095.52
636.36	1088.71
636.70	1082.25
637.05	1075.71
637.39	1069.35
637.73	1062.85
638.08	1056.91
638.42	1050.89
638.77	1044.44
639.11	1037.86
639.45	1031.44
639.80	1024.76
640.14	1018.26
640.49	1011.72
640.83	1005.39
641.17	999.16
641.52	992.82
641.86	986.44
642.20	980.59
642.55	974.33
642.89	967.79
643.23	961.38
643.58	955.67
643.92	949.47
644.26	943.41
644.61	937.40
644.95	931.45
645.29	924.85
645.64	918.11
645.98	911.81
646.32	906.02
646.66	900.07
647.01	894.26
647.35	888.65
647.69	882.87
648.04	877.35
648.38	871.58
648.72	865.43
649.06	859.37
649.41	853.47
649.75	847.48
650.09	841.51
650.43	835.65
650.78	829.48
651.12	823.49
651.46	817.71
651.80	811.91
652.14	806.43
652.49	801.09
652.83	795.96
653.17	790.32
653.51	784.61
653.85	779.20
654.20	773.57
654.54	767.59
654.88	761.80
655.22	756.00
655.56	750.30
655.90	745.00
656.25	739.76
656.59	734.48
656.93	729.39
657.27	724.24
657.61	718.86
657.95	713.81
658.29	708.74
658.64	703.47
658.98	698.23
659.32	692.74
659.66	687.56
660.00	682.16
660.34	677.23
660.68	672.29
661.02	667.29
661.36	662.56
661.70	658.06
662.05	653.67
662.39	649.26
662.73	644.80
663.07	640.39
663.41	635.92
663.75	631.37
664.09	626.79
664.43	622.43
664.77	618.32
665.11	614.04
665.45	609.89
665.79	605.89
666.13	601.76
666.47	597.74
666.81	593.56
667.15	589.56
667.49	585.58
667.83	581.83
668.17	577.89
668.51	573.83
668.85	569.86
669.19	566.04
669.53	562.20
669.87	558.30
670.21	554.61
670.55	551.01
670.89	547.56
671.23	544.16
671.57	540.66
671.91	537.11
672.25	533.69
672.58	530.25
672.92	526.88
673.26	523.71
673.60	520.58
673.94	517.52
674.28	514.57
674.62	511.70
674.96	508.56
675.30	505.61
675.64	502.67
675.97	499.91
676.31	497.01
676.65	494.08
676.99	491.36
677.33	488.58
677.67	485.78
678.01	482.82
678.34	479.81
678.68	476.94
679.02	474.15
679.36	471.38
679.70	468.64
680.04	465.82
680.37	462.92
680.71	460.11
681.05	457.43
681.39	454.75
681.73	452.07
682.06	449.56
682.40	447.06
682.74	444.59
683.08	442.05
683.42	439.49
683.75	437.01
684.09	434.48
684.43	431.96
684.77	429.51
685.10	427.10
685.44	424.81
685.78	422.55
686.12	420.28
686.45	418.02
686.79	415.73
687.13	413.58
687.46	411.45
687.80	409.32
688.14	407.18
688.48	405.09
688.81	402.83
689.15	400.70
689.49	398.56
689.82	396.44
690.16	394.35
690.50	392.43
690.83	390.47
691.17	388.50
691.51	386.63
691.84	384.76
692.18	382.85
692.52	380.90
692.85	379.01
693.19	377.15
693.52	375.33
693.86	373.53
694.20	371.71
694.53	369.93
694.87	368.07
695.21	366.27
695.54	364.45
695.88	362.78
696.21	361.03
696.55	359.36
696.88	357.68
697.22	355.98
697.56	354.36
697.89	352.76
698.23	351.15
698.56	349.54
698.90	347.95
699.23	346.31
699.57	344.77
699.90	343.17
700.24	341.62
700.58	340.07
700.91	338.53
701.25	337.15
701.58	335.72
701.92	334.40
702.25	333.05
702.59	331.70
702.92	330.38
703.26	329.09
703.59	327.81
703.93	326.65
704.26	325.44
704.60	324.15
704.93	322.87
705.26	321.67
705.60	320.49
705.93	319.33
706.27	318.32
706.60	317.24
706.94	316.19
707.27	315.07
707.61	314.02
707.94	313.01
708.27	311.90
708.61	310.89
708.94	309.85
709.28	308.85
709.61	307.92
709.94	306.94
710.28	305.94
710.61	304.96
710.95	303.89
711.28	302.97
711.61	301.99
711.95	301.04
712.28	300.07
712.61	299.07
712.95	298.12
713.28	297.26
713.61	296.35
713.95	295.42
714.28	294.62
714.61	293.74
714.95	292.89
715.28	292.02
715.61	291.12
715.95	290.30
716.28	289.47
716.61	288.60
716.95	287.85
717.28	287.06
717.61	286.29
717.94	285.56
718.28	284.76
718.61	284.07
718.94	283.41
719.27	282.76
719.61	282.12
719.94	281.47
720.27	280.74
720.60	280.12
720.94	279.52
721.27	278.89
721.60	278.31
721.93	277.73
722.27	277.19
722.60	276.65
722.93	276.06
723.26	275.52
723.59	274.94
723.93	274.37
724.26	273.86
724.59	273.32
724.92	272.79
725.25	272.30
725.59	271.74
725.92	271.26
726.25	270.76
726.58	270.27
726.91	269.77
727.24	269.31
727.57	268.83
727.91	268.32
728.24	267.86
728.57	267.38
728.90	266.97
729.23	266.47
729.56	266.03
729.89	265.56
730.22	265.06
730.55	264.61
730.89	264.14
731.22	263.70
731.55	263.28
731.88	262.85
732.21	262.44
732.54	262.03
732.87	261.60
733.20	261.20
733.53	260.81
733.86	260.45
734.19	260.04
734.52	259.66
734.85	259.35
735.18	258.96
735.51	258.60
735.84	258.16
736.17	257.81
736.50	257.40
736.83	257.16
737.16	256.84
737.49	256.52
737.82	256.17
738.15	255.80
738.48	255.49
738.81	255.15
739.14	254.83
739.47	254.49
739.80	254.14
740.13	253.84
740.46	253.55
740.79	253.23
741.12	252.90
741.45	252.59
741.78	252.25
742.11	251.99
742.44	251.64
742.77	251.40
743.10	251.11
743.43	250.81
743.75	250.43
744.08	250.29
744.41	250.02
744.74	249.77
745.07	249.51
745.40	249.24
745.73	249.01
746.06	248.72
746.39	248.47
746.71	248.26
747.04	247.96
747.37	247.67
747.70	247.43
748.03	247.21
748.36	246.98
748.68	246.72
749.01	246.47
749.34	246.27
749.67	246.04
750.00	245.82
750.33	245.67
750.65	245.47
750.98	245.14
751.31	244.90
751.64	244.68
751.97	244.53
752.29	244.29
752.62	244.02
752.95	243.81
753.28	243.59
753.60	243.36
753.93	243.15
754.26	242.97
754.59	242.73
754.91	242.50
755.24	242.30
755.57	242.13
755.90	241.95
756.22	241.76
756.55	241.55
756.88	241.38
757.20	241.14
757.53	240.96
757.86	240.73
758.19	240.59
758.51	240.42
758.84	240.20
759.17	240.05
759.49	239.94
759.82	239.81
760.15	239.67
760.47	239.51
760.80	239.38
761.13	239.26
761.45	239.11
761.78	238.95
762.11	238.80
762.43	238.65
762.76	238.48
763.08	238.35
763.41	238.23
763.74	238.07
764.06	237.93
764.39	237.80
764.71	237.70
765.04	237.58
765.37	237.45
765.69	237.32
766.02	237.18
766.34	237.02
766.67	236.89
767.00	236.79
767.32	236.71
767.65	236.66
767.97	236.53
768.30	236.43
768.62	236.34
768.95	236.24
769.27	236.11
769.60	236.01
769.92	235.89
770.25	235.77
770.57	235.68
770.90	235.60
771.22	235.46
771.55	235.36
771.87	235.25
772.20	235.16
772.52	235.15
772.85	235.19
773.17	235.10
773.50	235.03
773.82	234.91
774.15	234.80
774.47	234.64
774.80	234.54
775.12	234.45
775.45	234.38
775.77	234.30
776.09	234.24
776.42	234.15
776.74	234.10
777.07	234.00
777.39	233.96
777.72	233.88
778.04	233.85
778.36	233.77
778.69	233.71
779.01	233.65
779.33	233.52
779.66	233.33
779.98	233.26
780.31	233.18
780.63	233.17
780.95	233.11
781.28	233.10
781.60	233.03
781.92	232.99
782.25	232.94
782.57	232.87
782.89	232.79
783.22	232.74
783.54	232.66
783.86	232.62
784.19	232.55
784.51	232.54
784.83	232.48
785.16	232.43
785.48	232.36
785.80	232.30
786.12	232.25
786.45	232.17
786.77	232.12
787.09	232.08
