SpectraSuite Data File
++++++++++++++++++++++++++++++++++++
Date: Fri Feb 01 16:55:44 EST 2013
User: group
Dark Spectrum Present: No
Reference Spectrum Present: No
Number of Sampled Component Spectra: 1
Spectrometers: USB2E7196
Integration Time (usec): 35000 (USB2E7196)
Spectra Averaged: 100 (USB2E7196)
Boxcar Smoothing: 10 (USB2E7196)
Correct for Electrical Dark: No (USB2E7196)
Strobe/Lamp Enabled: No (USB2E7196)
Correct for Detector Non-linearity: No (USB2E7196)
Correct for Stray Light: No (USB2E7196)
Number of Pixels in Processed Spectrum: 2048
>>>>>Begin Processed Spectral Data<<<<<
339.09	0.00
339.48	213.21
339.86	214.94
340.24	215.96
340.63	217.71
341.01	220.46
341.39	220.51
341.78	222.08
342.16	223.29
342.54	224.03
342.93	211.96
343.31	222.66
343.69	223.23
344.07	223.69
344.46	224.13
344.84	224.50
345.22	224.76
345.60	225.00
345.99	225.16
346.37	225.29
346.75	225.34
347.13	225.36
347.52	225.41
347.90	225.47
348.28	225.48
348.66	225.53
349.05	225.54
349.43	225.56
349.81	225.59
350.19	225.64
350.57	225.68
350.96	225.75
351.34	225.82
351.72	225.88
352.10	225.98
352.48	226.05
352.87	226.10
353.25	226.14
353.63	226.19
354.01	226.26
354.39	226.31
354.77	226.41
355.15	226.51
355.54	226.59
355.92	226.62
356.30	226.68
356.68	226.81
357.06	226.89
357.44	226.94
357.82	227.01
358.20	227.06
358.58	227.10
358.97	227.21
359.35	227.30
359.73	227.37
360.11	227.39
360.49	227.46
360.87	227.52
361.25	227.59
361.63	227.69
362.01	227.72
362.39	227.73
362.77	227.78
363.15	227.75
363.53	227.79
363.91	227.81
364.29	227.84
364.67	227.72
365.05	227.72
365.43	227.75
365.81	227.80
366.19	227.84
366.57	227.89
366.95	227.87
367.33	227.84
367.71	227.84
368.09	227.85
368.47	227.81
368.85	227.76
369.23	227.74
369.61	227.66
369.99	227.65
370.37	227.66
370.75	227.70
371.13	227.71
371.51	227.67
371.89	227.62
372.27	227.58
372.65	227.56
373.03	227.51
373.41	227.47
373.78	227.40
374.16	227.30
374.54	227.20
374.92	227.13
375.30	227.08
375.68	227.02
376.06	226.97
376.44	226.92
376.82	226.89
377.19	226.82
377.57	226.74
377.95	226.69
378.33	226.63
378.71	226.47
379.09	226.42
379.47	226.38
379.84	226.34
380.22	226.27
380.60	226.20
380.98	226.15
381.36	226.10
381.73	226.03
382.11	225.97
382.49	225.94
382.87	225.86
383.25	225.80
383.62	225.83
384.00	225.76
384.38	225.72
384.76	225.66
385.13	225.67
385.51	225.65
385.89	225.55
386.27	225.49
386.64	225.46
387.02	225.40
387.40	225.38
387.78	225.34
388.15	225.31
388.53	225.26
388.91	225.18
389.29	225.09
389.66	225.04
390.04	225.01
390.42	225.00
390.79	225.00
391.17	224.94
391.55	224.83
391.92	224.81
392.30	224.80
392.68	224.83
393.05	224.79
393.43	224.76
393.81	224.77
394.18	224.76
394.56	224.75
394.94	224.77
395.31	224.73
395.69	224.75
396.06	224.77
396.44	224.81
396.82	224.86
397.19	224.97
397.57	224.98
397.95	225.02
398.32	225.02
398.70	225.04
399.07	225.16
399.45	225.19
399.82	225.26
400.20	225.32
400.58	225.34
400.95	225.35
401.33	225.48
401.70	225.62
402.08	225.71
402.45	225.81
402.83	225.92
403.20	226.01
403.58	226.12
403.95	226.23
404.33	226.33
404.71	226.46
405.08	226.61
405.46	226.75
405.83	226.90
406.21	227.06
406.58	227.23
406.96	227.37
407.33	227.55
407.70	227.72
408.08	227.97
408.45	228.16
408.83	228.43
409.20	228.60
409.58	228.78
409.95	229.05
410.33	229.33
410.70	229.58
411.08	229.91
411.45	230.19
411.82	230.50
412.20	230.87
412.57	231.28
412.95	231.57
413.32	232.00
413.69	232.40
414.07	232.83
414.44	233.27
414.82	233.77
415.19	234.31
415.56	234.87
415.94	235.39
416.31	236.04
416.68	236.66
417.06	237.38
417.43	238.08
417.81	238.83
418.18	239.57
418.55	240.39
418.93	241.25
419.30	242.16
419.67	243.12
420.04	244.07
420.42	245.06
420.79	246.24
421.16	247.38
421.54	248.58
421.91	249.83
422.28	251.11
422.66	252.42
423.03	253.72
423.40	255.06
423.77	256.48
424.15	257.91
424.52	259.35
424.89	260.96
425.26	262.51
425.64	263.95
426.01	265.58
426.38	267.18
426.75	268.81
427.13	270.52
427.50	272.30
427.87	274.16
428.24	276.00
428.61	277.71
428.99	279.65
429.36	281.74
429.73	283.73
430.10	285.72
430.47	287.74
430.85	289.84
431.22	292.05
431.59	294.44
431.96	296.66
432.33	299.12
432.70	301.50
433.08	304.26
433.45	306.89
433.82	309.45
434.19	312.35
434.56	315.15
434.93	317.79
435.30	320.40
435.68	323.21
436.05	326.00
436.42	328.79
436.79	331.29
437.16	333.96
437.53	336.78
437.90	339.58
438.27	342.29
438.64	345.11
439.01	347.64
439.38	349.83
439.75	352.02
440.13	354.47
440.50	356.76
440.87	358.64
441.24	360.60
441.61	362.77
441.98	364.28
442.35	366.09
442.72	367.91
443.09	369.66
443.46	370.68
443.83	371.33
444.20	371.84
444.57	372.66
444.94	372.98
445.31	373.27
445.68	373.64
446.05	373.78
446.42	373.41
446.79	373.00
447.16	372.59
447.53	372.24
447.90	371.11
448.27	369.99
448.64	368.37
449.01	367.22
449.37	365.27
449.74	363.39
450.11	361.16
450.48	358.71
450.85	356.26
451.22	354.19
451.59	352.20
451.96	350.29
452.33	347.73
452.70	345.38
453.07	342.63
453.43	339.73
453.80	336.97
454.17	334.32
454.54	331.84
454.91	329.11
455.28	326.44
455.65	324.04
456.02	321.62
456.38	319.52
456.75	316.89
457.12	314.65
457.49	312.45
457.86	310.31
458.23	308.48
458.59	306.48
458.96	304.43
459.33	302.58
459.70	300.73
460.07	299.21
460.43	297.51
460.80	295.92
461.17	294.53
461.54	293.08
461.91	291.65
462.27	290.21
462.64	288.98
463.01	287.69
463.38	286.36
463.74	284.99
464.11	283.82
464.48	282.84
464.85	281.74
465.21	280.86
465.58	279.97
465.95	278.92
466.32	278.00
466.68	277.05
467.05	276.17
467.42	275.30
467.78	274.38
468.15	273.53
468.52	272.86
468.88	272.00
469.25	271.25
469.62	270.66
469.98	270.01
470.35	269.39
470.72	268.77
471.08	268.13
471.45	267.60
471.82	267.11
472.18	266.49
472.55	266.06
472.92	265.54
473.28	265.06
473.65	264.63
474.02	264.21
474.38	263.88
474.75	263.57
475.11	263.23
475.48	263.00
475.85	262.77
476.21	262.52
476.58	262.38
476.94	262.21
477.31	262.03
477.67	261.89
478.04	261.79
478.41	261.77
478.77	261.82
479.14	261.77
479.50	261.76
479.87	261.81
480.23	261.92
480.60	262.01
480.96	262.10
481.33	262.26
481.69	262.47
482.06	262.67
482.42	262.87
482.79	263.10
483.15	263.42
483.52	263.80
483.88	264.17
484.25	264.58
484.61	265.00
484.98	265.45
485.34	266.01
485.71	266.60
486.07	267.19
486.44	267.75
486.80	268.47
487.17	269.20
487.53	270.03
487.90	270.89
488.26	271.85
488.62	272.85
488.99	273.84
489.35	274.86
489.72	275.98
490.08	277.17
490.44	278.40
490.81	279.69
491.17	281.04
491.54	282.53
491.90	284.01
492.26	285.66
492.63	287.43
492.99	289.20
493.36	291.06
493.72	293.09
494.08	295.19
494.45	297.39
494.81	299.71
495.17	302.11
495.54	304.62
495.90	307.24
496.26	310.03
496.63	312.97
496.99	316.07
497.35	319.32
497.72	322.69
498.08	326.23
498.44	329.95
498.80	333.83
499.17	337.85
499.53	342.00
499.89	346.33
500.26	350.81
500.62	355.46
500.98	360.40
501.34	365.45
501.71	370.75
502.07	376.21
502.43	381.83
502.79	387.64
503.16	393.71
503.52	399.90
503.88	406.29
504.24	412.90
504.60	419.72
504.97	426.79
505.33	434.12
505.69	441.73
506.05	449.39
506.41	457.25
506.78	465.30
507.14	473.67
507.50	482.34
507.86	491.29
508.22	500.42
508.59	509.54
508.95	519.01
509.31	528.77
509.67	538.73
510.03	548.99
510.39	559.40
510.75	570.07
511.12	580.95
511.48	592.13
511.84	603.43
512.20	614.78
512.56	626.57
512.92	638.54
513.28	650.80
513.64	663.20
514.00	675.70
514.37	688.60
514.73	701.54
515.09	714.33
515.45	727.46
515.81	740.88
516.17	754.79
516.53	768.82
516.89	782.79
517.25	796.81
517.61	810.99
517.97	825.32
518.33	839.51
518.69	854.12
519.05	868.90
519.41	883.89
519.77	899.21
520.13	914.45
520.49	929.63
520.85	944.71
521.21	960.16
521.57	976.19
521.93	991.65
522.29	1007.69
522.65	1023.79
523.01	1039.65
523.37	1055.43
523.73	1071.28
524.09	1087.10
524.45	1103.08
524.81	1119.38
525.17	1135.83
525.53	1152.39
525.89	1169.10
526.25	1185.68
526.61	1201.78
526.97	1218.27
527.33	1234.53
527.68	1250.84
528.04	1267.16
528.40	1283.43
528.76	1300.18
529.12	1316.47
529.48	1333.12
529.84	1348.98
530.20	1365.25
530.56	1382.04
530.91	1399.19
531.27	1415.66
531.63	1431.78
531.99	1448.18
532.35	1464.02
532.71	1479.76
533.07	1495.67
533.42	1511.27
533.78	1526.89
534.14	1542.78
534.50	1557.81
534.86	1573.35
535.21	1588.25
535.57	1603.75
535.93	1619.03
536.29	1633.56
536.65	1648.30
537.00	1662.69
537.36	1677.65
537.72	1691.84
538.08	1705.93
538.44	1719.32
538.79	1733.05
539.15	1746.35
539.51	1759.72
539.87	1773.71
540.22	1787.10
540.58	1800.54
540.94	1813.45
541.29	1826.06
541.65	1838.54
542.01	1851.58
542.37	1863.71
542.72	1875.95
543.08	1887.55
543.44	1899.73
543.79	1910.85
544.15	1921.60
544.51	1932.99
544.87	1943.69
545.22	1954.45
545.58	1964.69
545.94	1974.42
546.29	1983.96
546.65	1993.87
547.01	2003.03
547.36	2011.56
547.72	2019.95
548.07	2027.86
548.43	2035.96
548.79	2043.88
549.14	2051.44
549.50	2058.56
549.86	2066.21
550.21	2073.49
550.57	2080.73
550.92	2087.37
551.28	2094.22
551.64	2101.31
551.99	2107.78
552.35	2114.10
552.70	2120.07
553.06	2125.93
553.41	2132.25
553.77	2138.25
554.13	2144.15
554.48	2150.27
554.84	2155.82
555.19	2160.95
555.55	2166.00
555.90	2170.49
556.26	2175.54
556.61	2180.25
556.97	2184.66
557.32	2188.63
557.68	2192.87
558.03	2197.04
558.39	2200.57
558.74	2205.26
559.10	2209.28
559.45	2213.03
559.81	2217.23
560.16	2221.18
560.52	2224.52
560.87	2227.95
561.23	2230.72
561.58	2233.71
561.94	2236.30
562.29	2238.72
562.64	2241.65
563.00	2244.26
563.35	2247.89
563.71	2251.02
564.06	2254.23
564.42	2257.18
564.77	2259.95
565.12	2262.27
565.48	2264.32
565.83	2266.49
566.19	2268.07
566.54	2268.85
566.89	2270.12
567.25	2270.89
567.60	2272.39
567.96	2274.20
568.31	2275.06
568.66	2276.48
569.02	2277.30
569.37	2277.76
569.72	2278.87
570.08	2279.30
570.43	2279.70
570.78	2279.34
571.14	2278.03
571.49	2276.82
571.84	2276.58
572.20	2275.57
572.55	2274.76
572.90	2273.21
573.26	2272.07
573.61	2270.49
573.96	2269.20
574.31	2266.44
574.67	2263.71
575.02	2260.33
575.37	2256.87
575.72	2253.45
576.08	2250.01
576.43	2246.81
576.78	2243.39
577.13	2240.16
577.49	2237.02
577.84	2233.70
578.19	2230.01
578.54	2226.55
578.90	2222.75
579.25	2217.49
579.60	2212.80
579.95	2207.92
580.30	2203.15
580.66	2198.12
581.01	2193.20
581.36	2188.34
581.71	2184.36
582.06	2180.20
582.42	2175.89
582.77	2171.05
583.12	2166.62
583.47	2162.26
583.82	2157.47
584.17	2152.52
584.53	2147.31
584.88	2141.91
585.23	2136.33
585.58	2131.11
585.93	2125.79
586.28	2120.92
586.63	2116.11
586.98	2111.23
587.34	2106.59
587.69	2101.80
588.04	2096.61
588.39	2091.13
588.74	2084.70
589.09	2078.50
589.44	2071.75
589.79	2065.87
590.14	2060.36
590.49	2053.85
590.84	2047.50
591.19	2041.69
591.54	2035.35
591.89	2028.22
592.25	2021.60
592.60	2014.49
592.95	2007.21
593.30	2000.14
593.65	1992.72
594.00	1985.62
594.35	1978.43
594.70	1970.47
595.05	1963.52
595.40	1956.41
595.75	1949.09
596.10	1943.21
596.45	1936.78
596.80	1930.81
597.15	1924.33
597.50	1917.52
597.85	1911.18
598.19	1904.74
598.54	1897.75
598.89	1891.17
599.24	1885.29
599.59	1878.87
599.94	1872.87
600.29	1866.65
600.64	1860.16
600.99	1853.02
601.34	1846.55
601.69	1839.65
602.04	1833.02
602.39	1825.83
602.74	1819.18
603.08	1812.52
603.43	1805.86
603.78	1798.67
604.13	1791.51
604.48	1784.42
604.83	1777.66
605.18	1771.11
605.53	1763.28
605.87	1755.38
606.22	1748.26
606.57	1740.47
606.92	1733.18
607.27	1726.13
607.62	1719.16
607.96	1711.98
608.31	1705.56
608.66	1698.03
609.01	1690.69
609.36	1683.33
609.70	1675.41
610.05	1667.48
610.40	1660.04
610.75	1651.77
611.10	1644.25
611.44	1635.88
611.79	1627.86
612.14	1619.28
612.49	1610.00
612.83	1601.61
613.18	1593.50
613.53	1585.33
613.88	1576.97
614.22	1568.74
614.57	1560.14
614.92	1552.20
615.27	1544.72
615.61	1536.31
615.96	1528.24
616.31	1520.67
616.65	1513.16
617.00	1505.71
617.35	1497.97
617.70	1489.66
618.04	1481.20
618.39	1472.88
618.74	1465.28
619.08	1457.03
619.43	1449.39
619.78	1442.54
620.12	1435.46
620.47	1427.99
620.82	1419.94
621.16	1412.27
621.51	1404.59
621.85	1396.91
622.20	1388.43
622.55	1380.04
622.89	1372.11
623.24	1364.43
623.59	1356.98
623.93	1349.45
624.28	1342.13
624.62	1334.66
624.97	1327.39
625.32	1320.69
625.66	1313.76
626.01	1306.65
626.35	1299.18
626.70	1291.40
627.04	1283.72
627.39	1275.95
627.73	1268.58
628.08	1261.70
628.43	1254.58
628.77	1247.30
629.12	1239.79
629.46	1232.70
629.81	1225.20
630.15	1218.00
630.50	1210.70
630.84	1202.50
631.19	1194.59
631.53	1187.05
631.88	1179.52
632.22	1171.97
632.57	1164.59
632.91	1157.03
633.26	1149.72
633.60	1142.40
633.95	1135.20
634.29	1128.07
634.64	1121.35
634.98	1114.00
635.32	1106.84
635.67	1100.19
636.01	1093.52
636.36	1086.74
636.70	1080.11
637.05	1073.56
637.39	1067.17
637.73	1060.72
638.08	1054.92
638.42	1049.01
638.77	1042.61
639.11	1036.10
639.45	1029.67
639.80	1023.00
640.14	1016.58
640.49	1010.09
640.83	1003.73
641.17	997.61
641.52	991.39
641.86	984.86
642.20	979.01
642.55	972.65
642.89	966.18
643.23	959.63
643.58	953.91
643.92	947.80
644.26	941.81
644.61	935.67
644.95	929.61
645.29	923.08
645.64	916.34
645.98	910.07
646.32	904.14
646.66	898.16
647.01	892.48
647.35	886.84
647.69	880.98
648.04	875.46
648.38	869.70
648.72	863.74
649.06	857.78
649.41	851.94
649.75	846.04
650.09	840.18
650.43	834.53
650.78	828.38
651.12	822.47
651.46	816.82
651.80	811.25
652.14	805.83
652.49	800.47
652.83	795.34
653.17	789.77
653.51	784.08
653.85	778.62
654.20	772.96
654.54	766.97
654.88	761.18
655.22	755.38
655.56	749.66
655.90	744.15
656.25	739.03
656.59	733.66
656.93	728.61
657.27	723.49
657.61	718.02
657.95	712.92
658.29	707.86
658.64	702.49
658.98	697.16
659.32	691.73
659.66	686.46
660.00	681.20
660.34	676.20
660.68	671.27
661.02	666.30
661.36	661.64
661.70	657.17
662.05	652.78
662.39	648.44
662.73	643.97
663.07	639.62
663.41	635.14
663.75	630.67
664.09	626.12
664.43	621.68
664.77	617.53
665.11	613.35
665.45	609.12
665.79	605.12
666.13	601.05
666.47	597.03
666.81	592.91
667.15	588.77
667.49	584.84
667.83	580.98
668.17	577.05
668.51	572.98
668.85	568.89
669.19	565.11
669.53	561.36
669.87	557.56
670.21	553.81
670.55	550.07
670.89	546.62
671.23	543.16
671.57	539.65
671.91	536.17
672.25	532.59
672.58	529.16
672.92	525.74
673.26	522.48
673.60	519.27
673.94	516.16
674.28	513.19
674.62	510.26
674.96	507.23
675.30	504.38
675.64	501.42
675.97	498.69
676.31	495.81
676.65	492.80
676.99	490.11
677.33	487.30
677.67	484.60
678.01	481.57
678.34	478.64
678.68	475.79
679.02	472.98
679.36	470.21
679.70	467.52
680.04	464.84
680.37	462.01
680.71	459.23
681.05	456.68
681.39	453.96
681.73	451.32
682.06	448.85
682.40	446.31
682.74	443.81
683.08	441.23
683.42	438.65
683.75	436.22
684.09	433.62
684.43	431.12
684.77	428.64
685.10	426.31
685.44	424.02
685.78	421.75
686.12	419.46
686.45	417.18
686.79	414.86
687.13	412.63
687.46	410.51
687.80	408.34
688.14	406.08
688.48	404.03
688.81	401.79
689.15	399.57
689.49	397.40
689.82	395.31
690.16	393.21
690.50	391.26
690.83	389.27
691.17	387.29
691.51	385.38
691.84	383.53
692.18	381.61
692.52	379.66
692.85	377.71
693.19	375.86
693.52	374.05
693.86	372.23
694.20	370.43
694.53	368.63
694.87	366.78
695.21	364.98
695.54	363.18
695.88	361.44
696.21	359.75
696.55	358.07
696.88	356.42
697.22	354.77
697.56	353.13
697.89	351.48
698.23	349.92
698.56	348.30
698.90	346.72
699.23	345.08
699.57	343.49
699.90	341.96
700.24	340.41
700.58	338.89
700.91	337.39
701.25	335.96
701.58	334.59
701.92	333.21
702.25	331.87
702.59	330.52
702.92	329.23
703.26	327.91
703.59	326.62
703.93	325.42
704.26	324.24
704.60	322.96
704.93	321.69
705.26	320.42
705.60	319.29
705.93	318.09
706.27	317.07
706.60	315.99
706.94	314.87
707.27	313.73
707.61	312.65
707.94	311.62
708.27	310.50
708.61	309.43
708.94	308.46
709.28	307.43
709.61	306.45
709.94	305.48
710.28	304.47
710.61	303.48
710.95	302.41
711.28	301.46
711.61	300.48
711.95	299.61
712.28	298.68
712.61	297.64
712.95	296.70
713.28	295.80
713.61	294.91
713.95	294.05
714.28	293.17
714.61	292.31
714.95	291.48
715.28	290.66
715.61	289.74
715.95	288.81
716.28	287.96
716.61	287.10
716.95	286.25
717.28	285.47
717.61	284.72
717.94	283.92
718.28	283.11
718.61	282.41
718.94	281.67
719.27	280.98
719.61	280.38
719.94	279.76
720.27	279.03
720.60	278.40
720.94	277.78
721.27	277.24
721.60	276.66
721.93	276.03
722.27	275.46
722.60	274.93
722.93	274.39
723.26	273.87
723.59	273.29
723.93	272.76
724.26	272.21
724.59	271.61
724.92	271.09
725.25	270.55
725.59	270.03
725.92	269.52
726.25	269.00
726.58	268.45
726.91	267.95
727.24	267.45
727.57	266.97
727.91	266.43
728.24	265.94
728.57	265.42
728.90	264.96
729.23	264.47
729.56	264.05
729.89	263.55
730.22	263.05
730.55	262.58
730.89	262.13
731.22	261.68
731.55	261.27
731.88	260.85
732.21	260.44
732.54	259.99
732.87	259.56
733.20	259.15
733.53	258.76
733.86	258.37
734.19	257.99
734.52	257.63
734.85	257.36
735.18	256.93
735.51	256.59
735.84	256.24
736.17	255.93
736.50	255.48
736.83	255.27
737.16	254.96
737.49	254.67
737.82	254.31
738.15	254.00
738.48	253.65
738.81	253.34
739.14	253.01
739.47	252.71
739.80	252.43
740.13	252.14
740.46	251.85
740.79	251.53
741.12	251.21
741.45	250.85
741.78	250.48
742.11	250.23
742.44	249.90
742.77	249.63
743.10	249.32
743.43	249.06
743.75	248.69
744.08	248.53
744.41	248.24
744.74	248.01
745.07	247.73
745.40	247.48
745.73	247.25
746.06	246.98
746.39	246.72
746.71	246.41
747.04	246.13
747.37	245.87
747.70	245.65
748.03	245.42
748.36	245.22
748.68	244.97
749.01	244.70
749.34	244.50
749.67	244.23
750.00	244.00
750.33	243.85
750.65	243.61
750.98	243.28
751.31	243.03
751.64	242.79
751.97	242.64
752.29	242.43
752.62	242.17
752.95	241.99
753.28	241.76
753.60	241.55
753.93	241.35
754.26	241.14
754.59	240.89
754.91	240.69
755.24	240.46
755.57	240.28
755.90	240.12
756.22	239.92
756.55	239.71
756.88	239.50
757.20	239.28
757.53	239.11
757.86	238.94
758.19	238.80
758.51	238.61
758.84	238.41
759.17	238.22
759.49	238.05
759.82	237.95
760.15	237.82
760.47	237.70
760.80	237.54
761.13	237.43
761.45	237.27
761.78	237.10
762.11	236.96
762.43	236.82
762.76	236.69
763.08	236.55
763.41	236.42
763.74	236.28
764.06	236.09
764.39	235.97
764.71	235.82
765.04	235.68
765.37	235.56
765.69	235.43
766.02	235.34
766.34	235.21
766.67	235.02
767.00	234.92
767.32	234.86
767.65	234.81
767.97	234.69
768.30	234.57
768.62	234.48
768.95	234.37
769.27	234.26
769.60	234.15
769.92	234.02
770.25	233.91
770.57	233.77
770.90	233.66
771.22	233.55
771.55	233.44
771.87	233.33
772.20	233.25
772.52	233.23
772.85	233.18
773.17	233.08
773.50	232.99
773.82	232.88
774.15	232.72
774.47	232.58
774.80	232.51
775.12	232.43
775.45	232.35
775.77	232.26
776.09	232.19
776.42	232.11
776.74	232.08
777.07	231.99
777.39	231.94
777.72	231.89
778.04	231.79
778.36	231.72
778.69	231.66
779.01	231.58
779.33	231.40
779.66	231.23
779.98	231.17
780.31	231.11
780.63	231.08
780.95	231.04
781.28	230.98
781.60	230.86
781.92	230.80
782.25	230.72
782.57	230.66
782.89	230.56
783.22	230.52
783.54	230.46
783.86	230.43
784.19	230.36
784.51	230.31
784.83	230.24
785.16	230.16
785.48	230.16
785.80	230.13
786.12	230.11
786.45	230.08
786.77	230.03
787.09	229.98
