SpectraSuite Data File
++++++++++++++++++++++++++++++++++++
Date: Fri Feb 01 14:55:02 EST 2013
User: group
Dark Spectrum Present: No
Reference Spectrum Present: No
Number of Sampled Component Spectra: 1
Spectrometers: USB2E7196
Integration Time (usec): 35000 (USB2E7196)
Spectra Averaged: 100 (USB2E7196)
Boxcar Smoothing: 10 (USB2E7196)
Correct for Electrical Dark: No (USB2E7196)
Strobe/Lamp Enabled: No (USB2E7196)
Correct for Detector Non-linearity: No (USB2E7196)
Correct for Stray Light: No (USB2E7196)
Number of Pixels in Processed Spectrum: 2048
>>>>>Begin Processed Spectral Data<<<<<
339.09	0.00
339.48	215.41
339.86	216.77
340.24	217.87
340.63	219.84
341.01	221.82
341.39	221.73
341.78	223.56
342.16	225.15
342.54	225.23
342.93	213.59
343.31	224.39
343.69	224.90
344.07	225.38
344.46	225.84
344.84	226.18
345.22	226.47
345.60	226.69
345.99	226.88
346.37	227.00
346.75	227.11
347.13	227.20
347.52	227.23
347.90	227.31
348.28	227.33
348.66	227.39
349.05	227.37
349.43	227.42
349.81	227.47
350.19	227.53
350.57	227.56
350.96	227.62
351.34	227.68
351.72	227.79
352.10	227.86
352.48	227.91
352.87	227.99
353.25	228.03
353.63	228.14
354.01	228.20
354.39	228.28
354.77	228.33
355.15	228.43
355.54	228.48
355.92	228.53
356.30	228.59
356.68	228.71
357.06	228.81
357.44	228.88
357.82	228.96
358.20	229.03
358.58	229.10
358.97	229.18
359.35	229.29
359.73	229.35
360.11	229.41
360.49	229.49
360.87	229.54
361.25	229.61
361.63	229.68
362.01	229.73
362.39	229.76
362.77	229.82
363.15	229.86
363.53	229.89
363.91	229.92
364.29	229.94
364.67	229.85
365.05	229.85
365.43	229.84
365.81	229.80
366.19	229.86
366.57	229.85
366.95	229.81
367.33	229.78
367.71	229.75
368.09	229.74
368.47	229.70
368.85	229.65
369.23	229.63
369.61	229.55
369.99	229.55
370.37	229.48
370.75	229.44
371.13	229.38
371.51	229.35
371.89	229.28
372.27	229.25
372.65	229.22
373.03	229.14
373.41	229.09
373.78	229.03
374.16	228.89
374.54	228.83
374.92	228.75
375.30	228.66
375.68	228.59
376.06	228.50
376.44	228.39
376.82	228.30
377.19	228.18
377.57	228.12
377.95	228.01
378.33	227.92
378.71	227.81
379.09	227.71
379.47	227.61
379.84	227.51
380.22	227.38
380.60	227.28
380.98	227.23
381.36	227.11
381.73	227.05
382.11	227.01
382.49	226.92
382.87	226.84
383.25	226.77
383.62	226.77
384.00	226.70
384.38	226.66
384.76	226.64
385.13	226.64
385.51	226.59
385.89	226.51
386.27	226.51
386.64	226.47
387.02	226.41
387.40	226.37
387.78	226.32
388.15	226.31
388.53	226.29
388.91	226.23
389.29	226.24
389.66	226.21
390.04	226.17
390.42	226.18
390.79	226.17
391.17	226.13
391.55	226.02
391.92	226.02
392.30	226.02
392.68	226.02
393.05	226.02
393.43	226.02
393.81	226.08
394.18	226.06
394.56	226.10
394.94	226.16
395.31	226.17
395.69	226.26
396.06	226.31
396.44	226.35
396.82	226.43
397.19	226.50
397.57	226.56
397.95	226.65
398.32	226.69
398.70	226.80
399.07	226.92
399.45	227.04
399.82	227.11
400.20	227.21
400.58	227.26
400.95	227.30
401.33	227.43
401.70	227.60
402.08	227.71
402.45	227.82
402.83	227.93
403.20	228.06
403.58	228.14
403.95	228.29
404.33	228.43
404.71	228.57
405.08	228.76
405.46	228.91
405.83	229.04
406.21	229.20
406.58	229.36
406.96	229.53
407.33	229.71
407.70	229.93
408.08	230.20
408.45	230.47
408.83	230.73
409.20	230.95
409.58	231.12
409.95	231.38
410.33	231.67
410.70	231.96
411.08	232.24
411.45	232.58
411.82	232.89
412.20	233.23
412.57	233.66
412.95	233.94
413.32	234.36
413.69	234.78
414.07	235.23
414.44	235.70
414.82	236.19
415.19	236.75
415.56	237.30
415.94	237.82
416.31	238.42
416.68	239.02
417.06	239.73
417.43	240.41
417.81	241.16
418.18	241.90
418.55	242.74
418.93	243.63
419.30	244.50
419.67	245.44
420.04	246.40
420.42	247.37
420.79	248.56
421.16	249.70
421.54	250.90
421.91	252.07
422.28	253.31
422.66	254.58
423.03	255.85
423.40	257.14
423.77	258.58
424.15	260.05
424.52	261.53
424.89	263.11
425.26	264.65
425.64	266.07
426.01	267.68
426.38	269.32
426.75	271.01
427.13	272.76
427.50	274.56
427.87	276.44
428.24	278.28
428.61	280.04
428.99	281.97
429.36	284.04
429.73	286.11
430.10	288.13
430.47	290.21
430.85	292.31
431.22	294.60
431.59	296.93
431.96	299.12
432.33	301.59
432.70	303.97
433.08	306.75
433.45	309.44
433.82	312.07
434.19	314.99
434.56	317.80
434.93	320.47
435.30	323.07
435.68	325.97
436.05	328.79
436.42	331.58
436.79	334.08
437.16	336.76
437.53	339.64
437.90	342.45
438.27	345.24
438.64	348.10
439.01	350.66
439.38	352.94
439.75	355.13
440.13	357.69
440.50	360.10
440.87	362.00
441.24	364.00
441.61	366.16
441.98	367.61
442.35	369.35
442.72	371.19
443.09	373.06
443.46	374.06
443.83	374.71
444.20	375.22
444.57	376.10
444.94	376.40
445.31	376.78
445.68	377.14
446.05	377.22
446.42	376.86
446.79	376.47
447.16	376.05
447.53	375.74
447.90	374.56
448.27	373.35
448.64	371.77
449.01	370.56
449.37	368.59
449.74	366.67
450.11	364.51
450.48	362.07
450.85	359.50
451.22	357.40
451.59	355.36
451.96	353.45
452.33	350.85
452.70	348.52
453.07	345.63
453.43	342.76
453.80	339.99
454.17	337.33
454.54	334.76
454.91	332.03
455.28	329.36
455.65	326.86
456.02	324.46
456.38	322.31
456.75	319.68
457.12	317.46
457.49	315.28
457.86	313.06
458.23	311.18
458.59	309.16
458.96	307.06
459.33	305.20
459.70	303.27
460.07	301.75
460.43	300.02
460.80	298.43
461.17	296.97
461.54	295.47
461.91	294.04
462.27	292.59
462.64	291.28
463.01	289.95
463.38	288.69
463.74	287.33
464.11	286.13
464.48	285.10
464.85	283.94
465.21	283.07
465.58	282.13
465.95	281.02
466.32	280.08
466.68	279.12
467.05	278.20
467.42	277.34
467.78	276.40
468.15	275.51
468.52	274.81
468.88	273.96
469.25	273.16
469.62	272.50
469.98	271.81
470.35	271.23
470.72	270.56
471.08	269.84
471.45	269.26
471.82	268.71
472.18	268.08
472.55	267.62
472.92	267.04
473.28	266.57
473.65	266.09
474.02	265.59
474.38	265.23
474.75	264.88
475.11	264.51
475.48	264.23
475.85	263.95
476.21	263.73
476.58	263.52
476.94	263.34
477.31	263.14
477.67	262.99
478.04	262.82
478.41	262.76
478.77	262.79
479.14	262.69
479.50	262.68
479.87	262.74
480.23	262.81
480.60	262.90
480.96	262.98
481.33	263.20
481.69	263.38
482.06	263.57
482.42	263.76
482.79	264.02
483.15	264.32
483.52	264.74
483.88	265.04
484.25	265.40
484.61	265.81
484.98	266.25
485.34	266.78
485.71	267.38
486.07	268.00
486.44	268.53
486.80	269.24
487.17	269.93
487.53	270.74
487.90	271.60
488.26	272.52
488.62	273.51
488.99	274.46
489.35	275.51
489.72	276.58
490.08	277.78
490.44	279.01
490.81	280.34
491.17	281.63
491.54	283.15
491.90	284.69
492.26	286.36
492.63	288.06
492.99	289.84
493.36	291.71
493.72	293.73
494.08	295.85
494.45	298.05
494.81	300.42
495.17	302.81
495.54	305.33
495.90	307.98
496.26	310.74
496.63	313.70
496.99	316.77
497.35	320.02
497.72	323.43
498.08	326.90
498.44	330.52
498.80	334.44
499.17	338.43
499.53	342.53
499.89	346.88
500.26	351.37
500.62	356.04
500.98	360.98
501.34	366.03
501.71	371.32
502.07	376.75
502.43	382.34
502.79	388.14
503.16	394.21
503.52	400.51
503.88	406.90
504.24	413.53
504.60	420.43
504.97	427.51
505.33	434.79
505.69	442.45
506.05	450.23
506.41	458.05
506.78	466.17
507.14	474.69
507.50	483.42
507.86	492.44
508.22	501.56
508.59	510.73
508.95	520.32
509.31	530.11
509.67	540.18
510.03	550.42
510.39	560.92
510.75	571.73
511.12	582.51
511.48	593.80
511.84	605.25
512.20	616.80
512.56	628.76
512.92	640.94
513.28	653.30
513.64	665.77
514.00	678.45
514.37	691.39
514.73	704.41
515.09	717.37
515.45	730.62
515.81	744.17
516.17	758.19
516.53	772.20
516.89	786.31
517.25	800.61
517.61	815.10
517.97	829.62
518.33	844.02
518.69	858.91
519.05	873.90
519.41	889.06
519.77	904.59
520.13	920.04
520.49	935.36
520.85	950.76
521.21	966.52
521.57	982.78
521.93	998.67
522.29	1015.09
522.65	1031.39
523.01	1047.67
523.37	1063.82
523.73	1080.03
524.09	1096.28
524.45	1112.65
524.81	1129.29
525.17	1146.25
525.53	1163.22
525.89	1180.23
526.25	1197.12
526.61	1213.52
526.97	1230.30
527.33	1246.90
527.68	1263.70
528.04	1280.34
528.40	1297.17
528.76	1314.17
529.12	1330.91
529.48	1347.85
529.84	1363.91
530.20	1380.62
530.56	1397.87
530.91	1415.37
531.27	1432.20
531.63	1448.71
531.99	1465.49
532.35	1481.48
532.71	1497.38
533.07	1513.68
533.42	1529.65
533.78	1545.84
534.14	1562.23
534.50	1577.69
534.86	1593.58
535.21	1608.67
535.57	1624.67
535.93	1640.22
536.29	1655.18
536.65	1670.40
537.00	1685.20
537.36	1700.70
537.72	1715.51
538.08	1729.85
538.44	1743.79
538.79	1757.84
539.15	1771.66
539.51	1785.49
539.87	1799.98
540.22	1813.71
540.58	1827.48
540.94	1841.01
541.29	1853.90
541.65	1866.66
542.01	1879.94
542.37	1892.27
542.72	1904.84
543.08	1916.61
543.44	1929.05
543.79	1940.45
544.15	1951.44
544.51	1963.10
544.87	1974.04
545.22	1984.71
545.58	1994.95
545.94	2004.70
546.29	2014.64
546.65	2024.53
547.01	2033.68
547.36	2042.46
547.72	2051.02
548.07	2058.84
548.43	2066.80
548.79	2074.91
549.14	2082.41
549.50	2089.80
549.86	2097.53
550.21	2104.84
550.57	2111.99
550.92	2118.55
551.28	2125.55
551.64	2132.49
551.99	2138.95
552.35	2145.07
552.70	2151.20
553.06	2157.22
553.41	2163.48
553.77	2169.43
554.13	2175.47
554.48	2181.55
554.84	2186.90
555.19	2192.12
555.55	2197.34
555.90	2201.65
556.26	2206.37
556.61	2211.05
556.97	2215.22
557.32	2219.33
557.68	2223.39
558.03	2227.77
558.39	2231.34
558.74	2235.87
559.10	2239.71
559.45	2243.34
559.81	2247.70
560.16	2251.38
560.52	2254.49
560.87	2257.79
561.23	2260.17
561.58	2263.01
561.94	2265.46
562.29	2267.75
562.64	2270.43
563.00	2273.08
563.35	2276.63
563.71	2279.66
564.06	2282.73
564.42	2285.47
564.77	2287.87
565.12	2289.97
565.48	2291.65
565.83	2293.36
566.19	2294.50
566.54	2295.36
566.89	2296.33
567.25	2296.59
567.60	2297.84
567.96	2299.38
568.31	2300.08
568.66	2301.05
569.02	2301.40
569.37	2301.71
569.72	2302.21
570.08	2301.96
570.43	2301.59
570.78	2300.78
571.14	2299.12
571.49	2297.62
571.84	2297.13
572.20	2295.71
572.55	2294.50
572.90	2292.87
573.26	2291.31
573.61	2289.37
573.96	2287.39
574.31	2284.16
574.67	2280.84
575.02	2276.93
575.37	2273.27
575.72	2269.25
576.08	2265.74
576.43	2262.30
576.78	2258.40
577.13	2255.26
577.49	2252.21
577.84	2248.76
578.19	2244.99
578.54	2241.06
578.90	2236.74
579.25	2231.07
579.60	2226.00
579.95	2220.82
580.30	2215.61
580.66	2210.34
581.01	2205.29
581.36	2200.18
581.71	2195.90
582.06	2191.48
582.42	2186.95
582.77	2181.51
583.12	2176.77
583.47	2172.02
583.82	2166.78
584.17	2161.33
584.53	2155.68
584.88	2149.69
585.23	2143.59
585.58	2137.98
585.93	2132.55
586.28	2127.61
586.63	2122.22
586.98	2116.95
587.34	2112.13
587.69	2107.01
588.04	2101.47
588.39	2095.59
588.74	2088.93
589.09	2082.58
589.44	2075.67
589.79	2069.55
590.14	2063.88
590.49	2057.20
590.84	2050.67
591.19	2044.59
591.54	2037.95
591.89	2030.16
592.25	2023.26
592.60	2015.97
592.95	2008.08
593.30	2000.49
593.65	1992.88
594.00	1986.03
594.35	1978.71
594.70	1970.57
595.05	1963.22
595.40	1956.06
595.75	1948.64
596.10	1942.28
596.45	1935.58
596.80	1929.30
597.15	1922.51
597.50	1915.26
597.85	1908.85
598.19	1902.19
598.54	1894.92
598.89	1888.27
599.24	1882.46
599.59	1875.69
599.94	1869.50
600.29	1863.24
600.64	1856.63
600.99	1849.00
601.34	1841.89
601.69	1834.96
602.04	1828.04
602.39	1820.70
602.74	1813.75
603.08	1807.01
603.43	1800.40
603.78	1793.09
604.13	1785.88
604.48	1778.53
604.83	1771.83
605.18	1764.65
605.53	1756.53
605.87	1748.62
606.22	1741.46
606.57	1733.62
606.92	1726.40
607.27	1719.16
607.62	1712.19
607.96	1704.81
608.31	1698.29
608.66	1690.76
609.01	1683.14
609.36	1675.53
609.70	1667.56
610.05	1659.47
610.40	1651.71
610.75	1643.39
611.10	1635.70
611.44	1627.36
611.79	1619.40
612.14	1610.66
612.49	1601.73
612.83	1593.44
613.18	1585.36
613.53	1577.23
613.88	1568.75
614.22	1560.57
614.57	1552.03
614.92	1544.09
615.27	1536.69
615.61	1528.43
615.96	1520.51
616.31	1512.98
616.65	1505.74
617.00	1498.19
617.35	1490.61
617.70	1482.25
618.04	1473.76
618.39	1465.62
618.74	1458.10
619.08	1449.90
619.43	1442.46
619.78	1435.59
620.12	1428.42
620.47	1420.92
620.82	1412.79
621.16	1405.46
621.51	1397.88
621.85	1390.37
622.20	1381.95
622.55	1373.71
622.89	1365.92
623.24	1358.39
623.59	1351.07
623.93	1343.68
624.28	1336.51
624.62	1329.10
624.97	1321.97
625.32	1315.31
625.66	1308.33
626.01	1301.09
626.35	1293.81
626.70	1286.12
627.04	1278.44
627.39	1270.81
627.73	1263.41
628.08	1256.58
628.43	1249.28
628.77	1242.02
629.12	1234.49
629.46	1227.32
629.81	1219.96
630.15	1212.80
630.50	1205.42
630.84	1197.33
631.19	1189.43
631.53	1182.08
631.88	1174.65
632.22	1167.17
632.57	1159.92
632.91	1152.45
633.26	1145.16
633.60	1137.74
633.95	1130.65
634.29	1123.69
634.64	1116.98
634.98	1109.73
635.32	1102.70
635.67	1096.30
636.01	1089.62
636.36	1082.85
636.70	1076.38
637.05	1069.87
637.39	1063.53
637.73	1057.06
638.08	1051.30
638.42	1045.34
638.77	1038.89
639.11	1032.30
639.45	1025.99
639.80	1019.36
640.14	1012.91
640.49	1006.43
640.83	1000.29
641.17	994.11
641.52	987.88
641.86	981.47
642.20	975.72
642.55	969.42
642.89	962.89
643.23	956.47
643.58	950.79
643.92	944.66
644.26	938.62
644.61	932.60
644.95	926.60
645.29	919.89
645.64	913.20
645.98	906.98
646.32	901.19
646.66	895.20
647.01	889.45
647.35	883.84
647.69	878.04
648.04	872.52
648.38	866.79
648.72	860.70
649.06	854.78
649.41	848.92
649.75	843.02
650.09	837.02
650.43	831.28
650.78	825.08
651.12	819.17
651.46	813.48
651.80	807.63
652.14	802.24
652.49	796.97
652.83	791.87
653.17	786.16
653.51	780.45
653.85	775.08
654.20	769.49
654.54	763.52
654.88	757.88
655.22	752.12
655.56	746.45
655.90	741.06
656.25	735.87
656.59	730.59
656.93	725.57
657.27	720.54
657.61	715.12
657.95	710.13
658.29	705.10
658.64	699.85
658.98	694.70
659.32	689.34
659.66	684.13
660.00	678.78
660.34	673.88
660.68	668.99
661.02	663.99
661.36	659.29
661.70	654.90
662.05	650.47
662.39	646.04
662.73	641.65
663.07	637.38
663.41	632.94
663.75	628.41
664.09	623.90
664.43	619.51
664.77	615.47
665.11	611.22
665.45	607.16
665.79	603.10
666.13	598.95
666.47	594.86
666.81	590.79
667.15	586.75
667.49	582.91
667.83	579.17
668.17	575.30
668.51	571.28
668.85	567.25
669.19	563.52
669.53	559.78
669.87	555.90
670.21	552.24
670.55	548.67
670.89	545.30
671.23	541.88
671.57	538.42
671.91	534.94
672.25	531.59
672.58	528.06
672.92	524.77
673.26	521.66
673.60	518.58
673.94	515.48
674.28	512.64
674.62	509.75
674.96	506.65
675.30	503.74
675.64	500.90
675.97	498.18
676.31	495.32
676.65	492.41
676.99	489.73
677.33	486.83
677.67	484.03
678.01	481.00
678.34	478.01
678.68	475.17
679.02	472.36
679.36	469.55
679.70	466.87
680.04	464.11
680.37	461.30
680.71	458.50
681.05	455.90
681.39	453.22
681.73	450.54
682.06	448.00
682.40	445.51
682.74	442.98
683.08	440.45
683.42	437.87
683.75	435.42
684.09	432.92
684.43	430.52
684.77	428.11
685.10	425.82
685.44	423.53
685.78	421.28
686.12	419.05
686.45	416.80
686.79	414.54
687.13	412.38
687.46	410.22
687.80	408.11
688.14	405.99
688.48	403.95
688.81	401.75
689.15	399.68
689.49	397.53
689.82	395.45
690.16	393.34
690.50	391.39
690.83	389.47
691.17	387.52
691.51	385.63
691.84	383.79
692.18	381.88
692.52	379.95
692.85	378.05
693.19	376.15
693.52	374.36
693.86	372.56
694.20	370.82
694.53	369.06
694.87	367.24
695.21	365.44
695.54	363.64
695.88	361.91
696.21	360.15
696.55	358.46
696.88	356.79
697.22	355.21
697.56	353.64
697.89	351.98
698.23	350.40
698.56	348.81
698.90	347.24
699.23	345.59
699.57	344.06
699.90	342.53
700.24	341.01
700.58	339.49
700.91	338.03
701.25	336.60
701.58	335.24
701.92	333.93
702.25	332.55
702.59	331.24
702.92	329.96
703.26	328.70
703.59	327.48
703.93	326.35
704.26	325.13
704.60	323.79
704.93	322.55
705.26	321.28
705.60	320.15
705.93	318.96
706.27	317.99
706.60	316.96
706.94	315.88
707.27	314.79
707.61	313.75
707.94	312.73
708.27	311.60
708.61	310.51
708.94	309.51
709.28	308.55
709.61	307.60
709.94	306.65
710.28	305.66
710.61	304.68
710.95	303.58
711.28	302.67
711.61	301.78
711.95	300.89
712.28	299.96
712.61	298.99
712.95	298.13
713.28	297.26
713.61	296.39
713.95	295.53
714.28	294.71
714.61	293.84
714.95	292.94
715.28	292.11
715.61	291.26
715.95	290.37
716.28	289.52
716.61	288.67
716.95	287.87
717.28	287.16
717.61	286.40
717.94	285.70
718.28	284.88
718.61	284.15
718.94	283.44
719.27	282.80
719.61	282.14
719.94	281.45
720.27	280.68
720.60	279.99
720.94	279.36
721.27	278.74
721.60	278.16
721.93	277.63
722.27	277.10
722.60	276.60
722.93	276.04
723.26	275.50
723.59	274.94
723.93	274.36
724.26	273.78
724.59	273.22
724.92	272.69
725.25	272.20
725.59	271.66
725.92	271.17
726.25	270.69
726.58	270.16
726.91	269.65
727.24	269.20
727.57	268.70
727.91	268.17
728.24	267.69
728.57	267.22
728.90	266.75
729.23	266.21
729.56	265.73
729.89	265.29
730.22	264.82
730.55	264.36
730.89	263.91
731.22	263.48
731.55	262.97
731.88	262.55
732.21	262.14
732.54	261.73
732.87	261.30
733.20	260.92
733.53	260.53
733.86	260.15
734.19	259.77
734.52	259.42
734.85	259.17
735.18	258.78
735.51	258.42
735.84	258.06
736.17	257.75
736.50	257.35
736.83	257.08
737.16	256.74
737.49	256.42
737.82	256.08
738.15	255.75
738.48	255.51
738.81	255.18
739.14	254.90
739.47	254.58
739.80	254.29
740.13	253.96
740.46	253.62
740.79	253.32
741.12	253.00
741.45	252.69
741.78	252.34
742.11	252.07
742.44	251.73
742.77	251.45
743.10	251.17
743.43	250.88
743.75	250.54
744.08	250.40
744.41	250.13
744.74	249.88
745.07	249.59
745.40	249.35
745.73	249.15
746.06	248.85
746.39	248.61
746.71	248.34
747.04	248.08
747.37	247.84
747.70	247.59
748.03	247.37
748.36	247.13
748.68	246.91
749.01	246.65
749.34	246.45
749.67	246.19
750.00	245.95
750.33	245.78
750.65	245.55
750.98	245.22
751.31	245.03
751.64	244.80
751.97	244.63
752.29	244.42
752.62	244.16
752.95	243.97
753.28	243.75
753.60	243.56
753.93	243.38
754.26	243.20
754.59	242.99
754.91	242.78
755.24	242.59
755.57	242.39
755.90	242.17
756.22	241.98
756.55	241.79
756.88	241.61
757.20	241.37
757.53	241.17
757.86	240.96
758.19	240.76
758.51	240.62
758.84	240.45
759.17	240.26
759.49	240.09
759.82	239.92
760.15	239.79
760.47	239.62
760.80	239.43
761.13	239.28
761.45	239.11
761.78	238.94
762.11	238.82
762.43	238.63
762.76	238.51
763.08	238.37
763.41	238.27
763.74	238.12
764.06	237.98
764.39	237.85
764.71	237.72
765.04	237.58
765.37	237.41
765.69	237.26
766.02	237.14
766.34	237.00
766.67	236.86
767.00	236.74
767.32	236.64
767.65	236.58
767.97	236.44
768.30	236.33
768.62	236.21
768.95	236.06
769.27	235.95
769.60	235.85
769.92	235.75
770.25	235.59
770.57	235.48
770.90	235.41
771.22	235.30
771.55	235.22
771.87	235.12
772.20	235.05
772.52	235.02
772.85	235.01
773.17	234.94
773.50	234.82
773.82	234.71
774.15	234.58
774.47	234.46
774.80	234.39
775.12	234.29
775.45	234.24
775.77	234.17
776.09	234.11
776.42	234.04
776.74	233.97
777.07	233.91
777.39	233.84
777.72	233.75
778.04	233.70
778.36	233.63
778.69	233.57
779.01	233.49
779.33	233.38
779.66	233.22
779.98	233.16
780.31	233.14
780.63	233.13
780.95	233.11
781.28	233.03
781.60	232.95
781.92	232.92
782.25	232.88
782.57	232.83
782.89	232.78
783.22	232.73
783.54	232.66
783.86	232.62
784.19	232.56
784.51	232.57
784.83	232.54
785.16	232.48
785.48	232.48
785.80	232.43
786.12	232.37
786.45	232.32
786.77	232.31
787.09	232.25
