SpectraSuite Data File
++++++++++++++++++++++++++++++++++++
Date: Fri Feb 01 16:10:20 EST 2013
User: group
Dark Spectrum Present: No
Reference Spectrum Present: No
Number of Sampled Component Spectra: 1
Spectrometers: USB2E7196
Integration Time (usec): 35000 (USB2E7196)
Spectra Averaged: 100 (USB2E7196)
Boxcar Smoothing: 10 (USB2E7196)
Correct for Electrical Dark: No (USB2E7196)
Strobe/Lamp Enabled: No (USB2E7196)
Correct for Detector Non-linearity: No (USB2E7196)
Correct for Stray Light: No (USB2E7196)
Number of Pixels in Processed Spectrum: 2048
>>>>>Begin Processed Spectral Data<<<<<
339.09	0.00
339.48	215.01
339.86	216.24
340.24	217.17
340.63	218.79
341.01	221.99
341.39	221.95
341.78	222.66
342.16	224.26
342.54	224.91
342.93	213.03
343.31	223.79
343.69	224.30
344.07	224.76
344.46	225.20
344.84	225.56
345.22	225.80
345.60	226.03
345.99	226.24
346.37	226.36
346.75	226.45
347.13	226.51
347.52	226.58
347.90	226.61
348.28	226.61
348.66	226.63
349.05	226.60
349.43	226.64
349.81	226.66
350.19	226.70
350.57	226.74
350.96	226.83
351.34	226.90
351.72	227.01
352.10	227.08
352.48	227.13
352.87	227.19
353.25	227.23
353.63	227.26
354.01	227.30
354.39	227.37
354.77	227.42
355.15	227.55
355.54	227.58
355.92	227.62
356.30	227.68
356.68	227.81
357.06	227.90
357.44	227.96
357.82	228.05
358.20	228.11
358.58	228.20
358.97	228.25
359.35	228.34
359.73	228.38
360.11	228.43
360.49	228.52
360.87	228.55
361.25	228.63
361.63	228.70
362.01	228.74
362.39	228.75
362.77	228.80
363.15	228.82
363.53	228.86
363.91	228.89
364.29	228.94
364.67	228.84
365.05	228.88
365.43	228.90
365.81	228.92
366.19	228.96
366.57	228.99
366.95	229.00
367.33	228.94
367.71	228.94
368.09	228.96
368.47	228.94
368.85	228.91
369.23	228.87
369.61	228.83
369.99	228.83
370.37	228.84
370.75	228.84
371.13	228.76
371.51	228.73
371.89	228.73
372.27	228.68
372.65	228.64
373.03	228.60
373.41	228.55
373.78	228.47
374.16	228.35
374.54	228.28
374.92	228.23
375.30	228.20
375.68	228.13
376.06	228.07
376.44	227.99
376.82	227.97
377.19	227.94
377.57	227.87
377.95	227.81
378.33	227.70
378.71	227.60
379.09	227.57
379.47	227.52
379.84	227.40
380.22	227.33
380.60	227.23
380.98	227.14
381.36	227.06
381.73	226.99
382.11	226.98
382.49	226.92
382.87	226.83
383.25	226.75
383.62	226.79
384.00	226.70
384.38	226.61
384.76	226.57
385.13	226.52
385.51	226.47
385.89	226.39
386.27	226.37
386.64	226.35
387.02	226.26
387.40	226.19
387.78	226.15
388.15	226.11
388.53	226.13
388.91	226.11
389.29	226.07
389.66	226.05
390.04	226.00
390.42	225.96
390.79	225.96
391.17	225.95
391.55	225.82
391.92	225.84
392.30	225.87
392.68	225.81
393.05	225.79
393.43	225.78
393.81	225.82
394.18	225.79
394.56	225.75
394.94	225.82
395.31	225.83
395.69	225.90
396.06	225.92
396.44	225.94
396.82	225.95
397.19	226.06
397.57	226.11
397.95	226.19
398.32	226.24
398.70	226.29
399.07	226.35
399.45	226.44
399.82	226.48
400.20	226.52
400.58	226.63
400.95	226.67
401.33	226.81
401.70	226.93
402.08	227.07
402.45	227.21
402.83	227.34
403.20	227.49
403.58	227.58
403.95	227.72
404.33	227.85
404.71	227.99
405.08	228.15
405.46	228.29
405.83	228.41
406.21	228.56
406.58	228.75
406.96	228.91
407.33	229.08
407.70	229.29
408.08	229.58
408.45	229.79
408.83	230.06
409.20	230.25
409.58	230.40
409.95	230.64
410.33	230.92
410.70	231.16
411.08	231.43
411.45	231.74
411.82	232.03
412.20	232.37
412.57	232.79
412.95	233.08
413.32	233.49
413.69	233.92
414.07	234.37
414.44	234.80
414.82	235.29
415.19	235.85
415.56	236.39
415.94	236.91
416.31	237.57
416.68	238.18
417.06	238.93
417.43	239.64
417.81	240.40
418.18	241.18
418.55	242.01
418.93	242.87
419.30	243.78
419.67	244.74
420.04	245.70
420.42	246.70
420.79	247.89
421.16	249.04
421.54	250.22
421.91	251.40
422.28	252.67
422.66	253.99
423.03	255.28
423.40	256.62
423.77	258.05
424.15	259.44
424.52	260.91
424.89	262.48
425.26	264.04
425.64	265.48
426.01	267.05
426.38	268.70
426.75	270.38
427.13	272.08
427.50	273.93
427.87	275.80
428.24	277.63
428.61	279.33
428.99	281.27
429.36	283.34
429.73	285.44
430.10	287.44
430.47	289.53
430.85	291.63
431.22	293.86
431.59	296.19
431.96	298.43
432.33	300.90
432.70	303.25
433.08	306.05
433.45	308.68
433.82	311.29
434.19	314.20
434.56	316.97
434.93	319.62
435.30	322.20
435.68	325.03
436.05	327.86
436.42	330.66
436.79	333.18
437.16	335.85
437.53	338.64
437.90	341.43
438.27	344.15
438.64	346.95
439.01	349.52
439.38	351.77
439.75	353.95
440.13	356.47
440.50	358.78
440.87	360.59
441.24	362.54
441.61	364.66
441.98	366.11
442.35	367.92
442.72	369.70
443.09	371.50
443.46	372.47
443.83	373.00
444.20	373.45
444.57	374.26
444.94	374.58
445.31	374.92
445.68	375.30
446.05	375.34
446.42	374.98
446.79	374.56
447.16	374.12
447.53	373.80
447.90	372.60
448.27	371.44
448.64	369.88
449.01	368.71
449.37	366.74
449.74	364.85
450.11	362.63
450.48	360.23
450.85	357.67
451.22	355.62
451.59	353.64
451.96	351.72
452.33	349.09
452.70	346.75
453.07	343.91
453.43	341.02
453.80	338.26
454.17	335.59
454.54	333.05
454.91	330.37
455.28	327.71
455.65	325.24
456.02	322.86
456.38	320.71
456.75	318.11
457.12	315.88
457.49	313.63
457.86	311.49
458.23	309.63
458.59	307.61
458.96	305.50
459.33	303.67
459.70	301.84
460.07	300.39
460.43	298.68
460.80	297.09
461.17	295.64
461.54	294.19
461.91	292.79
462.27	291.36
462.64	290.11
463.01	288.74
463.38	287.51
463.74	286.14
464.11	284.98
464.48	283.97
464.85	282.88
465.21	282.08
465.58	281.11
465.95	280.00
466.32	279.12
466.68	278.23
467.05	277.31
467.42	276.42
467.78	275.47
468.15	274.59
468.52	273.92
468.88	273.06
469.25	272.28
469.62	271.65
469.98	270.96
470.35	270.32
470.72	269.75
471.08	269.07
471.45	268.52
471.82	267.96
472.18	267.36
472.55	266.93
472.92	266.39
473.28	265.97
473.65	265.54
474.02	265.08
474.38	264.73
474.75	264.41
475.11	264.09
475.48	263.85
475.85	263.62
476.21	263.42
476.58	263.25
476.94	263.12
477.31	262.96
477.67	262.84
478.04	262.70
478.41	262.62
478.77	262.61
479.14	262.53
479.50	262.59
479.87	262.65
480.23	262.70
480.60	262.78
480.96	262.89
481.33	263.08
481.69	263.28
482.06	263.48
482.42	263.72
482.79	263.97
483.15	264.29
483.52	264.68
483.88	265.02
484.25	265.38
484.61	265.77
484.98	266.23
485.34	266.79
485.71	267.42
486.07	268.03
486.44	268.60
486.80	269.33
487.17	270.08
487.53	270.87
487.90	271.73
488.26	272.67
488.62	273.63
488.99	274.60
489.35	275.63
489.72	276.75
490.08	277.95
490.44	279.19
490.81	280.51
491.17	281.83
491.54	283.29
491.90	284.86
492.26	286.50
492.63	288.25
492.99	290.02
493.36	291.89
493.72	293.97
494.08	296.13
494.45	298.37
494.81	300.71
495.17	303.16
495.54	305.70
495.90	308.32
496.26	311.12
496.63	314.11
496.99	317.24
497.35	320.53
497.72	323.94
498.08	327.46
498.44	331.15
498.80	335.14
499.17	339.26
499.53	343.42
499.89	347.81
500.26	352.33
500.62	357.00
500.98	361.96
501.34	367.06
501.71	372.37
502.07	377.84
502.43	383.48
502.79	389.33
503.16	395.41
503.52	401.75
503.88	408.20
504.24	414.80
504.60	421.64
504.97	428.77
505.33	436.05
505.69	443.80
506.05	451.60
506.41	459.46
506.78	467.59
507.14	476.08
507.50	484.85
507.86	493.80
508.22	503.02
508.59	512.30
508.95	521.89
509.31	531.74
509.67	541.86
510.03	552.14
510.39	562.70
510.75	573.56
511.12	584.49
511.48	595.78
511.84	607.25
512.20	618.85
512.56	630.78
512.92	642.91
513.28	655.22
513.64	667.65
514.00	680.39
514.37	693.33
514.73	706.44
515.09	719.53
515.45	732.85
515.81	746.49
516.17	760.44
516.53	774.51
516.89	788.64
517.25	802.73
517.61	817.18
517.97	831.66
518.33	846.05
518.69	860.79
519.05	875.71
519.41	890.81
519.77	906.29
520.13	921.73
520.49	937.15
520.85	952.56
521.21	968.22
521.57	984.33
521.93	1000.05
522.29	1016.38
522.65	1032.60
523.01	1048.82
523.37	1064.84
523.73	1080.91
524.09	1097.01
524.45	1113.22
524.81	1129.86
525.17	1146.62
525.53	1163.44
525.89	1180.22
526.25	1197.08
526.61	1213.40
526.97	1230.10
527.33	1246.60
527.68	1263.19
528.04	1279.68
528.40	1296.20
528.76	1313.19
529.12	1329.68
529.48	1346.46
529.84	1362.37
530.20	1378.85
530.56	1395.81
530.91	1413.03
531.27	1429.73
531.63	1446.15
531.99	1462.71
532.35	1478.60
532.71	1494.35
533.07	1510.53
533.42	1526.41
533.78	1542.37
534.14	1558.59
534.50	1573.98
534.86	1589.74
535.21	1604.80
535.57	1620.53
535.93	1636.06
536.29	1650.89
536.65	1665.93
537.00	1680.63
537.36	1695.82
537.72	1710.32
538.08	1724.74
538.44	1738.52
538.79	1752.29
539.15	1765.87
539.51	1779.54
539.87	1793.83
540.22	1807.47
540.58	1821.01
540.94	1834.26
541.29	1847.01
541.65	1859.67
542.01	1872.70
542.37	1884.92
542.72	1897.29
543.08	1909.15
543.44	1921.38
543.79	1932.52
544.15	1943.45
544.51	1955.08
544.87	1965.99
545.22	1976.83
545.58	1986.91
545.94	1996.67
546.29	2006.59
546.65	2016.49
547.01	2025.77
547.36	2034.33
547.72	2042.83
548.07	2050.72
548.43	2058.87
548.79	2066.94
549.14	2074.49
549.50	2081.85
549.86	2089.57
550.21	2096.81
550.57	2103.82
550.92	2110.27
551.28	2117.37
551.64	2124.40
551.99	2130.83
552.35	2136.94
552.70	2143.01
553.06	2148.96
553.41	2155.26
553.77	2161.33
554.13	2167.30
554.48	2173.43
554.84	2179.08
555.19	2184.28
555.55	2189.55
555.90	2194.05
556.26	2198.96
556.61	2203.61
556.97	2208.01
557.32	2212.10
557.68	2216.29
558.03	2220.63
558.39	2224.37
558.74	2228.94
559.10	2232.84
559.45	2236.49
559.81	2240.83
560.16	2244.72
560.52	2247.88
560.87	2251.31
561.23	2253.86
561.58	2256.76
561.94	2259.19
562.29	2261.38
562.64	2264.29
563.00	2266.98
563.35	2270.44
563.71	2273.47
564.06	2276.75
564.42	2279.61
564.77	2282.14
565.12	2284.47
565.48	2286.44
565.83	2288.37
566.19	2289.82
566.54	2290.74
566.89	2291.99
567.25	2292.51
567.60	2293.69
567.96	2295.54
568.31	2296.22
568.66	2297.27
569.02	2297.89
569.37	2298.28
569.72	2299.39
570.08	2299.34
570.43	2299.28
570.78	2298.80
571.14	2297.28
571.49	2295.94
571.84	2295.55
572.20	2294.56
572.55	2293.50
572.90	2291.92
573.26	2290.64
573.61	2288.89
573.96	2287.14
574.31	2284.19
574.67	2281.35
575.02	2277.85
575.37	2274.51
575.72	2270.95
576.08	2267.88
576.43	2264.60
576.78	2261.03
577.13	2257.82
577.49	2254.92
577.84	2251.39
578.19	2247.71
578.54	2244.22
578.90	2240.07
579.25	2234.58
579.60	2229.55
579.95	2224.59
580.30	2219.62
580.66	2214.36
581.01	2209.27
581.36	2204.41
581.71	2200.32
582.06	2195.89
582.42	2191.55
582.77	2186.29
583.12	2181.74
583.47	2177.00
583.82	2172.12
584.17	2166.93
584.53	2161.51
584.88	2155.81
585.23	2150.13
585.58	2144.62
585.93	2139.05
586.28	2134.28
586.63	2129.18
586.98	2124.12
587.34	2119.37
587.69	2114.50
588.04	2109.46
588.39	2103.94
588.74	2097.41
589.09	2091.18
589.44	2084.35
589.79	2078.17
590.14	2072.65
590.49	2066.13
590.84	2059.69
591.19	2053.46
591.54	2046.91
591.89	2039.43
592.25	2032.70
592.60	2025.53
592.95	2018.03
593.30	2010.81
593.65	2003.11
594.00	1996.10
594.35	1988.97
594.70	1980.99
595.05	1973.90
595.40	1966.60
595.75	1959.18
596.10	1953.08
596.45	1946.43
596.80	1940.51
597.15	1933.98
597.50	1926.88
597.85	1920.33
598.19	1913.66
598.54	1906.70
598.89	1900.01
599.24	1894.26
599.59	1887.62
599.94	1881.52
600.29	1875.03
600.64	1868.36
600.99	1860.99
601.34	1854.13
601.69	1847.14
602.04	1840.36
602.39	1833.04
602.74	1826.19
603.08	1819.49
603.43	1812.78
603.78	1805.36
604.13	1798.07
604.48	1790.76
604.83	1783.88
605.18	1777.04
605.53	1769.13
605.87	1761.12
606.22	1754.03
606.57	1746.08
606.92	1738.63
607.27	1731.60
607.62	1724.89
607.96	1717.66
608.31	1711.15
608.66	1703.63
609.01	1696.13
609.36	1688.54
609.70	1680.42
610.05	1672.49
610.40	1664.76
610.75	1656.42
611.10	1648.85
611.44	1640.37
611.79	1632.40
612.14	1623.65
612.49	1614.37
612.83	1606.11
613.18	1598.02
613.53	1589.82
613.88	1581.16
614.22	1573.04
614.57	1564.13
614.92	1556.07
615.27	1548.68
615.61	1540.36
615.96	1532.32
616.31	1524.67
616.65	1517.43
617.00	1509.93
617.35	1501.98
617.70	1493.57
618.04	1485.08
618.39	1476.86
618.74	1469.36
619.08	1460.99
619.43	1453.51
619.78	1446.71
620.12	1439.51
620.47	1431.91
620.82	1423.74
621.16	1416.40
621.51	1408.73
621.85	1401.21
622.20	1392.66
622.55	1384.26
622.89	1376.47
623.24	1368.86
623.59	1361.40
623.93	1353.79
624.28	1346.55
624.62	1339.13
624.97	1332.01
625.32	1325.21
625.66	1318.19
626.01	1310.87
626.35	1303.55
626.70	1295.76
627.04	1288.05
627.39	1280.14
627.73	1272.79
628.08	1266.03
628.43	1258.75
628.77	1251.40
629.12	1243.83
629.46	1236.70
629.81	1229.20
630.15	1221.92
630.50	1214.45
630.84	1206.19
631.19	1198.08
631.53	1190.61
631.88	1183.11
632.22	1175.58
632.57	1168.33
632.91	1160.79
633.26	1153.41
633.60	1145.86
633.95	1138.71
634.29	1131.70
634.64	1125.03
634.98	1117.73
635.32	1110.41
635.67	1103.74
636.01	1097.07
636.36	1090.21
636.70	1083.65
637.05	1077.13
637.39	1070.59
637.73	1064.08
638.08	1058.18
638.42	1052.29
638.77	1045.71
639.11	1039.09
639.45	1032.63
639.80	1025.99
640.14	1019.57
640.49	1013.06
640.83	1006.86
641.17	1000.65
641.52	994.18
641.86	987.62
642.20	981.65
642.55	975.29
642.89	968.85
643.23	962.30
643.58	956.58
643.92	950.31
644.26	944.19
644.61	938.13
644.95	932.15
645.29	925.66
645.64	918.88
645.98	912.59
646.32	906.70
646.66	900.62
647.01	894.83
647.35	889.13
647.69	883.34
648.04	877.74
648.38	871.99
648.72	866.08
649.06	860.12
649.41	854.27
649.75	848.41
650.09	842.47
650.43	836.71
650.78	830.49
651.12	824.66
651.46	818.97
651.80	813.21
652.14	807.87
652.49	802.54
652.83	797.35
653.17	791.67
653.51	785.93
653.85	780.56
654.20	774.90
654.54	768.89
654.88	763.12
655.22	757.22
655.56	751.49
655.90	745.96
656.25	740.72
656.59	735.36
656.93	730.24
657.27	725.05
657.61	719.59
657.95	714.58
658.29	709.46
658.64	704.13
658.98	698.84
659.32	693.31
659.66	688.07
660.00	682.83
660.34	677.85
660.68	672.96
661.02	667.90
661.36	663.24
661.70	658.74
662.05	654.35
662.39	650.05
662.73	645.55
663.07	641.22
663.41	636.76
663.75	632.25
664.09	627.66
664.43	623.30
664.77	619.21
665.11	614.95
665.45	610.76
665.79	606.71
666.13	602.66
666.47	598.56
666.81	594.39
667.15	590.22
667.49	586.39
667.83	582.56
668.17	578.65
668.51	574.53
668.85	570.45
669.19	566.63
669.53	562.72
669.87	558.86
670.21	555.17
670.55	551.56
670.89	548.16
671.23	544.76
671.57	541.28
671.91	537.66
672.25	534.10
672.58	530.63
672.92	527.23
673.26	524.02
673.60	520.81
673.94	517.70
674.28	514.88
674.62	511.89
674.96	508.77
675.30	505.87
675.64	502.95
675.97	500.16
676.31	497.31
676.65	494.47
676.99	491.76
677.33	488.82
677.67	486.02
678.01	482.98
678.34	480.03
678.68	477.12
679.02	474.34
679.36	471.57
679.70	468.80
680.04	466.05
680.37	463.19
680.71	460.46
681.05	457.82
681.39	455.03
681.73	452.39
682.06	449.89
682.40	447.32
682.74	444.76
683.08	442.18
683.42	439.57
683.75	437.02
684.09	434.52
684.43	432.10
684.77	429.62
685.10	427.23
685.44	424.92
685.78	422.60
686.12	420.34
686.45	418.02
686.79	415.71
687.13	413.49
687.46	411.35
687.80	409.19
688.14	406.97
688.48	404.93
688.81	402.67
689.15	400.50
689.49	398.34
689.82	396.24
690.16	394.20
690.50	392.25
690.83	390.33
691.17	388.32
691.51	386.42
691.84	384.54
692.18	382.64
692.52	380.67
692.85	378.74
693.19	376.92
693.52	375.16
693.86	373.38
694.20	371.60
694.53	369.73
694.87	367.88
695.21	366.14
695.54	364.30
695.88	362.60
696.21	360.89
696.55	359.25
696.88	357.60
697.22	355.97
697.56	354.34
697.89	352.71
698.23	351.10
698.56	349.46
698.90	347.90
699.23	346.27
699.57	344.74
699.90	343.19
700.24	341.61
700.58	340.06
700.91	338.56
701.25	337.12
701.58	335.82
701.92	334.43
702.25	333.05
702.59	331.71
702.92	330.38
703.26	329.10
703.59	327.83
703.93	326.61
704.26	325.35
704.60	324.00
704.93	322.68
705.26	321.45
705.60	320.29
705.93	319.09
706.27	318.01
706.60	316.93
706.94	315.89
707.27	314.73
707.61	313.67
707.94	312.65
708.27	311.53
708.61	310.43
708.94	309.46
709.28	308.47
709.61	307.48
709.94	306.49
710.28	305.46
710.61	304.47
710.95	303.38
711.28	302.46
711.61	301.53
711.95	300.63
712.28	299.64
712.61	298.70
712.95	297.78
713.28	296.94
713.61	296.06
713.95	295.15
714.28	294.30
714.61	293.39
714.95	292.53
715.28	291.68
715.61	290.80
715.95	289.91
716.28	289.03
716.61	288.21
716.95	287.36
717.28	286.60
717.61	285.80
717.94	285.07
718.28	284.27
718.61	283.55
718.94	282.81
719.27	282.17
719.61	281.50
719.94	280.86
720.27	280.09
720.60	279.42
720.94	278.77
721.27	278.21
721.60	277.61
721.93	276.99
722.27	276.48
722.60	275.90
722.93	275.33
723.26	274.79
723.59	274.24
723.93	273.69
724.26	273.10
724.59	272.53
724.92	272.00
725.25	271.51
725.59	270.98
725.92	270.54
726.25	270.00
726.58	269.48
726.91	268.95
727.24	268.49
727.57	267.99
727.91	267.51
728.24	267.03
728.57	266.56
728.90	266.09
729.23	265.56
729.56	265.17
729.89	264.71
730.22	264.21
730.55	263.74
730.89	263.35
731.22	262.93
731.55	262.49
731.88	262.07
732.21	261.62
732.54	261.20
732.87	260.78
733.20	260.39
733.53	260.00
733.86	259.67
734.19	259.28
734.52	258.89
734.85	258.57
735.18	258.15
735.51	257.80
735.84	257.46
736.17	257.13
736.50	256.71
736.83	256.48
737.16	256.18
737.49	255.86
737.82	255.50
738.15	255.19
738.48	254.91
738.81	254.60
739.14	254.31
739.47	254.00
739.80	253.68
740.13	253.42
740.46	253.10
740.79	252.75
741.12	252.49
741.45	252.19
741.78	251.84
742.11	251.59
742.44	251.28
742.77	251.00
743.10	250.70
743.43	250.41
743.75	250.03
744.08	249.87
744.41	249.63
744.74	249.37
745.07	249.10
745.40	248.85
745.73	248.63
746.06	248.31
746.39	248.04
746.71	247.74
747.04	247.45
747.37	247.19
747.70	246.95
748.03	246.66
748.36	246.46
748.68	246.25
749.01	245.97
749.34	245.74
749.67	245.52
750.00	245.29
750.33	245.12
750.65	244.90
750.98	244.54
751.31	244.30
751.64	244.08
751.97	243.92
752.29	243.69
752.62	243.45
752.95	243.24
753.28	242.99
753.60	242.79
753.93	242.64
754.26	242.41
754.59	242.18
754.91	241.97
755.24	241.76
755.57	241.53
755.90	241.32
756.22	241.11
756.55	240.86
756.88	240.65
757.20	240.41
757.53	240.22
757.86	240.06
758.19	239.86
758.51	239.70
758.84	239.45
759.17	239.28
759.49	239.08
759.82	238.98
760.15	238.87
760.47	238.74
760.80	238.53
761.13	238.44
761.45	238.29
761.78	238.15
762.11	238.01
762.43	237.88
762.76	237.77
763.08	237.62
763.41	237.49
763.74	237.35
764.06	237.19
764.39	237.04
764.71	236.90
765.04	236.76
765.37	236.62
765.69	236.48
766.02	236.35
766.34	236.22
766.67	236.05
767.00	235.93
767.32	235.84
767.65	235.78
767.97	235.62
768.30	235.52
768.62	235.41
768.95	235.28
769.27	235.16
769.60	235.06
769.92	234.96
770.25	234.84
770.57	234.74
770.90	234.66
771.22	234.58
771.55	234.49
771.87	234.41
772.20	234.33
772.52	234.33
772.85	234.33
773.17	234.26
773.50	234.15
773.82	234.06
774.15	233.93
774.47	233.80
774.80	233.72
775.12	233.62
775.45	233.54
775.77	233.49
776.09	233.39
776.42	233.30
776.74	233.27
777.07	233.21
777.39	233.12
777.72	233.04
778.04	232.99
778.36	232.94
778.69	232.87
779.01	232.82
779.33	232.66
779.66	232.49
779.98	232.43
780.31	232.37
780.63	232.34
780.95	232.27
781.28	232.19
781.60	232.12
781.92	232.08
782.25	232.00
782.57	231.93
782.89	231.87
783.22	231.81
783.54	231.76
783.86	231.72
784.19	231.71
784.51	231.66
784.83	231.59
785.16	231.52
785.48	231.47
785.80	231.43
786.12	231.40
786.45	231.36
786.77	231.32
787.09	231.31
