SpectraSuite Data File
++++++++++++++++++++++++++++++++++++
Date: Fri Feb 01 15:27:29 EST 2013
User: group
Dark Spectrum Present: No
Reference Spectrum Present: No
Number of Sampled Component Spectra: 1
Spectrometers: USB2E7196
Integration Time (usec): 35000 (USB2E7196)
Spectra Averaged: 100 (USB2E7196)
Boxcar Smoothing: 10 (USB2E7196)
Correct for Electrical Dark: No (USB2E7196)
Strobe/Lamp Enabled: No (USB2E7196)
Correct for Detector Non-linearity: No (USB2E7196)
Correct for Stray Light: No (USB2E7196)
Number of Pixels in Processed Spectrum: 2048
>>>>>Begin Processed Spectral Data<<<<<
339.09	0.00
339.48	215.36
339.86	216.39
340.24	218.41
340.63	219.25
341.01	222.31
341.39	222.12
341.78	223.68
342.16	224.51
342.54	224.58
342.93	213.48
343.31	224.27
343.69	224.77
344.07	225.25
344.46	225.65
344.84	226.02
345.22	226.25
345.60	226.48
345.99	226.64
346.37	226.71
346.75	226.83
347.13	226.84
347.52	226.88
347.90	226.91
348.28	226.94
348.66	226.96
349.05	227.00
349.43	227.02
349.81	227.07
350.19	227.12
350.57	227.21
350.96	227.26
351.34	227.33
351.72	227.44
352.10	227.53
352.48	227.62
352.87	227.69
353.25	227.73
353.63	227.80
354.01	227.89
354.39	228.01
354.77	228.07
355.15	228.20
355.54	228.26
355.92	228.35
356.30	228.40
356.68	228.53
357.06	228.59
357.44	228.65
357.82	228.71
358.20	228.77
358.58	228.83
358.97	228.87
359.35	228.94
359.73	229.02
360.11	229.06
360.49	229.11
360.87	229.15
361.25	229.23
361.63	229.32
362.01	229.35
362.39	229.38
362.77	229.46
363.15	229.45
363.53	229.47
363.91	229.45
364.29	229.48
364.67	229.41
365.05	229.41
365.43	229.43
365.81	229.43
366.19	229.48
366.57	229.52
366.95	229.56
367.33	229.55
367.71	229.54
368.09	229.55
368.47	229.55
368.85	229.53
369.23	229.54
369.61	229.44
369.99	229.44
370.37	229.42
370.75	229.38
371.13	229.32
371.51	229.28
371.89	229.26
372.27	229.22
372.65	229.16
373.03	229.13
373.41	229.05
373.78	228.97
374.16	228.86
374.54	228.75
374.92	228.63
375.30	228.58
375.68	228.46
376.06	228.39
376.44	228.29
376.82	228.20
377.19	228.08
377.57	228.03
377.95	227.96
378.33	227.90
378.71	227.81
379.09	227.77
379.47	227.70
379.84	227.58
380.22	227.51
380.60	227.43
380.98	227.34
381.36	227.28
381.73	227.22
382.11	227.20
382.49	227.11
382.87	227.06
383.25	226.98
383.62	227.06
384.00	226.98
384.38	226.91
384.76	226.89
385.13	226.88
385.51	226.79
385.89	226.73
386.27	226.69
386.64	226.66
387.02	226.62
387.40	226.59
387.78	226.60
388.15	226.59
388.53	226.54
388.91	226.50
389.29	226.50
389.66	226.52
390.04	226.45
390.42	226.47
390.79	226.46
391.17	226.44
391.55	226.31
391.92	226.36
392.30	226.35
392.68	226.32
393.05	226.34
393.43	226.36
393.81	226.35
394.18	226.35
394.56	226.35
394.94	226.39
395.31	226.39
395.69	226.44
396.06	226.49
396.44	226.56
396.82	226.59
397.19	226.67
397.57	226.72
397.95	226.78
398.32	226.81
398.70	226.89
399.07	226.96
399.45	227.01
399.82	227.02
400.20	227.08
400.58	227.18
400.95	227.20
401.33	227.34
401.70	227.53
402.08	227.63
402.45	227.75
402.83	227.89
403.20	228.02
403.58	228.12
403.95	228.24
404.33	228.39
404.71	228.53
405.08	228.71
405.46	228.80
405.83	228.95
406.21	229.12
406.58	229.29
406.96	229.45
407.33	229.64
407.70	229.85
408.08	230.16
408.45	230.36
408.83	230.61
409.20	230.80
409.58	230.96
409.95	231.22
410.33	231.49
410.70	231.68
411.08	231.97
411.45	232.26
411.82	232.54
412.20	232.90
412.57	233.32
412.95	233.59
413.32	234.03
413.69	234.45
414.07	234.90
414.44	235.37
414.82	235.89
415.19	236.43
415.56	237.01
415.94	237.53
416.31	238.17
416.68	238.80
417.06	239.53
417.43	240.21
417.81	240.95
418.18	241.70
418.55	242.58
418.93	243.44
419.30	244.34
419.67	245.28
420.04	246.21
420.42	247.19
420.79	248.40
421.16	249.51
421.54	250.71
421.91	251.88
422.28	253.12
422.66	254.40
423.03	255.75
423.40	257.06
423.77	258.45
424.15	259.89
424.52	261.38
424.89	262.99
425.26	264.57
425.64	266.05
426.01	267.65
426.38	269.28
426.75	270.98
427.13	272.68
427.50	274.51
427.87	276.45
428.24	278.35
428.61	280.07
428.99	282.06
429.36	284.13
429.73	286.21
430.10	288.22
430.47	290.30
430.85	292.40
431.22	294.65
431.59	297.08
431.96	299.31
432.33	301.83
432.70	304.19
433.08	307.00
433.45	309.64
433.82	312.28
434.19	315.21
434.56	318.01
434.93	320.72
435.30	323.33
435.68	326.20
436.05	329.02
436.42	331.83
436.79	334.33
437.16	337.05
437.53	339.92
437.90	342.79
438.27	345.52
438.64	348.32
439.01	350.95
439.38	353.20
439.75	355.37
440.13	357.83
440.50	360.17
440.87	362.02
441.24	363.95
441.61	366.11
441.98	367.60
442.35	369.42
442.72	371.25
443.09	373.07
443.46	374.08
443.83	374.69
444.20	375.17
444.57	376.00
444.94	376.31
445.31	376.63
445.68	376.94
446.05	377.05
446.42	376.68
446.79	376.24
447.16	375.74
447.53	375.40
447.90	374.22
448.27	373.05
448.64	371.44
449.01	370.34
449.37	368.36
449.74	366.42
450.11	364.18
450.48	361.73
450.85	359.19
451.22	356.99
451.59	354.94
451.96	352.97
452.33	350.37
452.70	347.98
453.07	345.14
453.43	342.22
453.80	339.45
454.17	336.80
454.54	334.25
454.91	331.57
455.28	328.89
455.65	326.44
456.02	323.97
456.38	321.83
456.75	319.16
457.12	316.91
457.49	314.69
457.86	312.53
458.23	310.66
458.59	308.64
458.96	306.56
459.33	304.72
459.70	302.93
460.07	301.40
460.43	299.71
460.80	298.10
461.17	296.69
461.54	295.19
461.91	293.76
462.27	292.31
462.64	291.04
463.01	289.69
463.38	288.40
463.74	287.03
464.11	285.89
464.48	284.82
464.85	283.68
465.21	282.81
465.58	281.87
465.95	280.73
466.32	279.79
466.68	278.89
467.05	277.98
467.42	277.03
467.78	276.12
468.15	275.21
468.52	274.55
468.88	273.69
469.25	272.90
469.62	272.29
469.98	271.62
470.35	270.96
470.72	270.36
471.08	269.71
471.45	269.23
471.82	268.65
472.18	268.06
472.55	267.62
472.92	267.09
473.28	266.61
473.65	266.16
474.02	265.70
474.38	265.34
474.75	264.99
475.11	264.66
475.48	264.41
475.85	264.20
476.21	263.94
476.58	263.73
476.94	263.61
477.31	263.43
477.67	263.26
478.04	263.17
478.41	263.13
478.77	263.15
479.14	263.06
479.50	263.07
479.87	263.15
480.23	263.22
480.60	263.30
480.96	263.40
481.33	263.64
481.69	263.83
482.06	264.02
482.42	264.24
482.79	264.52
483.15	264.80
483.52	265.13
483.88	265.50
484.25	265.88
484.61	266.30
484.98	266.71
485.34	267.28
485.71	267.87
486.07	268.45
486.44	269.00
486.80	269.70
487.17	270.44
487.53	271.19
487.90	272.05
488.26	273.01
488.62	274.00
488.99	274.95
489.35	275.99
489.72	277.09
490.08	278.30
490.44	279.51
490.81	280.86
491.17	282.25
491.54	283.71
491.90	285.26
492.26	286.87
492.63	288.66
492.99	290.45
493.36	292.29
493.72	294.35
494.08	296.44
494.45	298.69
494.81	301.04
495.17	303.50
495.54	306.06
495.90	308.72
496.26	311.52
496.63	314.49
496.99	317.67
497.35	320.94
497.72	324.31
498.08	327.86
498.44	331.55
498.80	335.47
499.17	339.51
499.53	343.71
499.89	348.09
500.26	352.53
500.62	357.18
500.98	362.14
501.34	367.16
501.71	372.53
502.07	377.97
502.43	383.59
502.79	389.40
503.16	395.46
503.52	401.74
503.88	408.19
504.24	414.81
504.60	421.68
504.97	428.81
505.33	436.14
505.69	443.78
506.05	451.49
506.41	459.34
506.78	467.53
507.14	476.00
507.50	484.72
507.86	493.75
508.22	502.98
508.59	512.28
508.95	521.93
509.31	531.71
509.67	541.77
510.03	552.11
510.39	562.71
510.75	573.50
511.12	584.41
511.48	595.70
511.84	607.23
512.20	618.73
512.56	630.70
512.92	642.88
513.28	655.21
513.64	667.77
514.00	680.54
514.37	693.49
514.73	706.53
515.09	719.56
515.45	732.91
515.81	746.45
516.17	760.41
516.53	774.50
516.89	788.70
517.25	803.00
517.61	817.45
517.97	831.96
518.33	846.46
518.69	861.27
519.05	876.27
519.41	891.35
519.77	906.94
520.13	922.47
520.49	937.91
520.85	953.39
521.21	969.08
521.57	985.29
521.93	1001.15
522.29	1017.59
522.65	1033.97
523.01	1050.21
523.37	1066.41
523.73	1082.54
524.09	1098.73
524.45	1115.14
524.81	1131.79
525.17	1148.60
525.53	1165.57
525.89	1182.42
526.25	1199.31
526.61	1215.79
526.97	1232.66
527.33	1249.20
527.68	1265.84
528.04	1282.40
528.40	1299.11
528.76	1316.26
529.12	1332.85
529.48	1349.71
529.84	1365.85
530.20	1382.50
530.56	1399.56
530.91	1417.04
531.27	1433.84
531.63	1450.35
531.99	1466.98
532.35	1482.95
532.71	1498.89
533.07	1515.13
533.42	1531.18
533.78	1547.24
534.14	1563.58
534.50	1578.97
534.86	1594.90
535.21	1609.99
535.57	1625.99
535.93	1641.53
536.29	1656.35
536.65	1671.59
537.00	1686.54
537.36	1701.79
537.72	1716.40
538.08	1730.83
538.44	1744.68
538.79	1758.64
539.15	1772.49
539.51	1786.23
539.87	1800.59
540.22	1814.35
540.58	1828.42
540.94	1841.90
541.29	1854.87
541.65	1867.70
542.01	1881.12
542.37	1893.46
542.72	1906.03
543.08	1917.81
543.44	1930.35
543.79	1941.70
544.15	1952.71
544.51	1964.18
544.87	1975.23
545.22	1986.02
545.58	1996.20
545.94	2005.94
546.29	2015.79
546.65	2025.60
547.01	2034.94
547.36	2043.80
547.72	2052.42
548.07	2060.11
548.43	2068.19
548.79	2076.39
549.14	2083.79
549.50	2091.19
549.86	2098.95
550.21	2106.30
550.57	2113.58
550.92	2120.06
551.28	2127.08
551.64	2134.19
551.99	2140.77
552.35	2147.02
552.70	2153.15
553.06	2159.33
553.41	2165.68
553.77	2171.84
554.13	2177.92
554.48	2184.02
554.84	2189.37
555.19	2194.75
555.55	2199.96
555.90	2204.44
556.26	2209.25
556.61	2214.07
556.97	2218.13
557.32	2222.22
557.68	2226.31
558.03	2230.59
558.39	2234.28
558.74	2238.92
559.10	2242.67
559.45	2246.24
559.81	2250.48
560.16	2254.47
560.52	2257.66
560.87	2261.12
561.23	2263.79
561.58	2266.67
561.94	2269.06
562.29	2271.59
562.64	2274.10
563.00	2276.68
563.35	2280.13
563.71	2283.17
564.06	2286.24
564.42	2289.07
564.77	2291.65
565.12	2293.87
565.48	2295.44
565.83	2297.23
566.19	2298.44
566.54	2299.55
566.89	2300.71
567.25	2301.12
567.60	2302.39
567.96	2303.98
568.31	2304.75
568.66	2305.71
569.02	2306.32
569.37	2306.73
569.72	2307.46
570.08	2307.55
570.43	2307.40
570.78	2306.84
571.14	2305.27
571.49	2304.09
571.84	2303.71
572.20	2302.43
572.55	2301.51
572.90	2300.21
573.26	2298.96
573.61	2297.37
573.96	2295.41
574.31	2292.32
574.67	2289.27
575.02	2285.55
575.37	2282.10
575.72	2278.18
576.08	2274.94
576.43	2271.67
576.78	2268.01
577.13	2264.83
577.49	2261.68
577.84	2258.18
578.19	2254.36
578.54	2250.65
578.90	2246.14
579.25	2240.62
579.60	2235.63
579.95	2230.45
580.30	2225.40
580.66	2220.15
581.01	2214.97
581.36	2210.02
581.71	2205.80
582.06	2201.45
582.42	2196.93
582.77	2191.60
583.12	2186.92
583.47	2182.00
583.82	2176.81
584.17	2171.42
584.53	2165.78
584.88	2159.90
585.23	2153.92
585.58	2148.42
585.93	2142.87
586.28	2138.11
586.63	2132.99
586.98	2127.76
587.34	2122.94
587.69	2117.92
588.04	2112.59
588.39	2106.93
588.74	2100.34
589.09	2094.24
589.44	2087.15
589.79	2080.92
590.14	2075.28
590.49	2068.75
590.84	2062.38
591.19	2056.20
591.54	2049.66
591.89	2042.09
592.25	2035.40
592.60	2028.27
592.95	2020.55
593.30	2013.17
593.65	2005.48
594.00	1998.38
594.35	1991.13
594.70	1983.10
595.05	1975.77
595.40	1968.36
595.75	1960.74
596.10	1954.42
596.45	1947.53
596.80	1941.43
597.15	1934.70
597.50	1927.44
597.85	1920.97
598.19	1914.19
598.54	1907.02
598.89	1900.35
599.24	1894.48
599.59	1887.61
599.94	1881.39
600.29	1875.00
600.64	1868.40
600.99	1860.76
601.34	1853.75
601.69	1846.76
602.04	1839.68
602.39	1832.29
602.74	1825.45
603.08	1818.85
603.43	1812.07
603.78	1804.80
604.13	1797.65
604.48	1790.42
604.83	1783.67
605.18	1776.56
605.53	1768.46
605.87	1760.37
606.22	1753.10
606.57	1745.20
606.92	1737.90
607.27	1730.57
607.62	1723.67
607.96	1716.30
608.31	1709.68
608.66	1702.10
609.01	1694.47
609.36	1686.98
609.70	1678.84
610.05	1670.56
610.40	1662.65
610.75	1654.35
611.10	1646.68
611.44	1638.36
611.79	1630.41
612.14	1621.69
612.49	1612.60
612.83	1604.37
613.18	1596.34
613.53	1588.26
613.88	1579.75
614.22	1571.51
614.57	1562.94
614.92	1554.84
615.27	1547.27
615.61	1539.00
615.96	1531.03
616.31	1523.41
616.65	1516.09
617.00	1508.65
617.35	1501.08
617.70	1492.83
618.04	1484.25
618.39	1475.86
618.74	1468.05
619.08	1459.63
619.43	1451.98
619.78	1445.04
620.12	1437.69
620.47	1430.16
620.82	1422.08
621.16	1414.62
621.51	1406.98
621.85	1399.43
622.20	1390.92
622.55	1382.61
622.89	1374.86
623.24	1367.24
623.59	1359.80
623.93	1352.25
624.28	1344.98
624.62	1337.41
624.97	1330.13
625.32	1323.46
625.66	1316.47
626.01	1309.27
626.35	1301.87
626.70	1294.15
627.04	1286.40
627.39	1278.72
627.73	1271.26
628.08	1264.21
628.43	1256.84
628.77	1249.39
629.12	1241.71
629.46	1234.56
629.81	1227.08
630.15	1219.78
630.50	1212.33
630.84	1204.18
631.19	1196.27
631.53	1188.80
631.88	1181.30
632.22	1173.84
632.57	1166.54
632.91	1159.02
633.26	1151.65
633.60	1144.26
633.95	1137.26
634.29	1130.28
634.64	1123.51
634.98	1116.13
635.32	1109.03
635.67	1102.49
636.01	1095.94
636.36	1089.23
636.70	1082.70
637.05	1076.20
637.39	1069.80
637.73	1063.31
638.08	1057.48
638.42	1051.53
638.77	1045.06
639.11	1038.46
639.45	1032.01
639.80	1025.29
640.14	1018.92
640.49	1012.42
640.83	1006.11
641.17	999.85
641.52	993.49
641.86	987.19
642.20	981.40
642.55	975.09
642.89	968.58
643.23	962.02
643.58	956.28
643.92	950.07
644.26	943.96
644.61	937.93
644.95	931.91
645.29	925.26
645.64	918.49
645.98	912.13
646.32	906.37
646.66	900.33
647.01	894.64
647.35	888.94
647.69	883.09
648.04	877.64
648.38	871.79
648.72	865.78
649.06	859.73
649.41	853.84
649.75	847.80
650.09	841.86
650.43	836.08
650.78	829.88
651.12	823.96
651.46	818.27
651.80	812.50
652.14	807.12
652.49	801.71
652.83	796.53
653.17	790.86
653.51	785.10
653.85	779.72
654.20	774.02
654.54	767.99
654.88	762.33
655.22	756.44
655.56	750.72
655.90	745.25
656.25	739.96
656.59	734.63
656.93	729.63
657.27	724.51
657.61	719.12
657.95	714.01
658.29	708.87
658.64	703.58
658.98	698.30
659.32	692.74
659.66	687.60
660.00	682.30
660.34	677.34
660.68	672.37
661.02	667.32
661.36	662.62
661.70	658.16
662.05	653.74
662.39	649.33
662.73	644.92
663.07	640.57
663.41	636.06
663.75	631.58
664.09	627.02
664.43	622.64
664.77	618.56
665.11	614.37
665.45	610.33
665.79	606.26
666.13	602.15
666.47	598.12
666.81	593.95
667.15	589.81
667.49	585.90
667.83	582.15
668.17	578.28
668.51	574.19
668.85	570.17
669.19	566.34
669.53	562.54
669.87	558.60
670.21	554.88
670.55	551.30
670.89	547.87
671.23	544.43
671.57	540.92
671.91	537.32
672.25	533.81
672.58	530.30
672.92	526.96
673.26	523.79
673.60	520.67
673.94	517.56
674.28	514.70
674.62	511.77
674.96	508.64
675.30	505.65
675.64	502.68
675.97	499.94
676.31	497.07
676.65	494.17
676.99	491.49
677.33	488.70
677.67	485.86
678.01	482.73
678.34	479.75
678.68	476.83
679.02	474.02
679.36	471.27
679.70	468.56
680.04	465.73
680.37	462.82
680.71	459.99
681.05	457.38
681.39	454.60
681.73	451.94
682.06	449.44
682.40	446.98
682.74	444.48
683.08	441.92
683.42	439.37
683.75	436.87
684.09	434.33
684.43	431.83
684.77	429.37
685.10	427.10
685.44	424.84
685.78	422.61
686.12	420.35
686.45	418.06
686.79	415.76
687.13	413.61
687.46	411.53
687.80	409.40
688.14	407.19
688.48	405.18
688.81	402.98
689.15	400.84
689.49	398.67
689.82	396.63
690.16	394.55
690.50	392.56
690.83	390.62
691.17	388.66
691.51	386.78
691.84	384.97
692.18	383.04
692.52	381.06
692.85	379.11
693.19	377.31
693.52	375.52
693.86	373.72
694.20	371.92
694.53	370.10
694.87	368.29
695.21	366.55
695.54	364.73
695.88	363.01
696.21	361.31
696.55	359.64
696.88	357.99
697.22	356.35
697.56	354.75
697.89	353.09
698.23	351.51
698.56	349.89
698.90	348.29
699.23	346.64
699.57	345.12
699.90	343.60
700.24	342.00
700.58	340.46
700.91	338.92
701.25	337.49
701.58	336.12
701.92	334.77
702.25	333.39
702.59	332.08
702.92	330.75
703.26	329.45
703.59	328.15
703.93	326.94
704.26	325.70
704.60	324.39
704.93	323.14
705.26	321.84
705.60	320.70
705.93	319.55
706.27	318.51
706.60	317.42
706.94	316.34
707.27	315.19
707.61	314.13
707.94	313.12
708.27	312.03
708.61	310.93
708.94	309.90
709.28	308.91
709.61	307.91
709.94	306.94
710.28	305.92
710.61	304.97
710.95	303.88
711.28	302.94
711.61	302.03
711.95	301.11
712.28	300.17
712.61	299.17
712.95	298.23
713.28	297.36
713.61	296.46
713.95	295.58
714.28	294.77
714.61	293.91
714.95	293.06
715.28	292.22
715.61	291.34
715.95	290.49
716.28	289.58
716.61	288.74
716.95	287.93
717.28	287.19
717.61	286.41
717.94	285.66
718.28	284.86
718.61	284.14
718.94	283.41
719.27	282.78
719.61	282.13
719.94	281.48
720.27	280.75
720.60	280.10
720.94	279.48
721.27	278.90
721.60	278.31
721.93	277.72
722.27	277.16
722.60	276.61
722.93	276.02
723.26	275.55
723.59	274.99
723.93	274.46
724.26	273.92
724.59	273.36
724.92	272.86
725.25	272.37
725.59	271.82
725.92	271.33
726.25	270.80
726.58	270.32
726.91	269.85
727.24	269.36
727.57	268.92
727.91	268.41
728.24	267.96
728.57	267.48
728.90	267.04
729.23	266.55
729.56	266.15
729.89	265.71
730.22	265.21
730.55	264.76
730.89	264.29
731.22	263.86
731.55	263.43
731.88	263.01
732.21	262.61
732.54	262.17
732.87	261.73
733.20	261.36
733.53	261.01
733.86	260.63
734.19	260.29
734.52	259.87
734.85	259.57
735.18	259.12
735.51	258.77
735.84	258.39
736.17	258.05
736.50	257.60
736.83	257.36
737.16	257.00
737.49	256.65
737.82	256.34
738.15	255.98
738.48	255.65
738.81	255.36
739.14	255.01
739.47	254.69
739.80	254.41
740.13	254.13
740.46	253.75
740.79	253.40
741.12	253.07
741.45	252.75
741.78	252.40
742.11	252.12
742.44	251.79
742.77	251.50
743.10	251.19
743.43	250.93
743.75	250.54
744.08	250.43
744.41	250.16
744.74	249.87
745.07	249.59
745.40	249.30
745.73	249.01
746.06	248.70
746.39	248.47
746.71	248.20
747.04	247.91
747.37	247.63
747.70	247.40
748.03	247.13
748.36	246.93
748.68	246.67
749.01	246.41
749.34	246.20
749.67	245.93
750.00	245.71
750.33	245.56
750.65	245.34
750.98	244.98
751.31	244.76
751.64	244.54
751.97	244.39
752.29	244.20
752.62	243.94
752.95	243.75
753.28	243.53
753.60	243.31
753.93	243.08
754.26	242.88
754.59	242.64
754.91	242.41
755.24	242.20
755.57	242.00
755.90	241.80
756.22	241.58
756.55	241.40
756.88	241.19
757.20	240.90
757.53	240.70
757.86	240.53
758.19	240.36
758.51	240.17
758.84	239.93
759.17	239.76
759.49	239.63
759.82	239.51
760.15	239.37
760.47	239.21
760.80	239.05
761.13	238.93
761.45	238.79
761.78	238.63
762.11	238.51
762.43	238.37
762.76	238.22
763.08	238.12
763.41	237.99
763.74	237.87
764.06	237.75
764.39	237.57
764.71	237.43
765.04	237.28
765.37	237.19
765.69	237.08
766.02	236.95
766.34	236.82
766.67	236.68
767.00	236.57
767.32	236.54
767.65	236.51
767.97	236.38
768.30	236.31
768.62	236.26
768.95	236.12
769.27	236.02
769.60	235.99
769.92	235.83
770.25	235.72
770.57	235.62
770.90	235.55
771.22	235.50
771.55	235.42
771.87	235.34
772.20	235.19
772.52	235.18
772.85	235.24
773.17	235.16
773.50	235.06
773.82	234.96
774.15	234.79
774.47	234.65
774.80	234.56
775.12	234.45
775.45	234.36
775.77	234.30
776.09	234.22
776.42	234.12
776.74	234.13
777.07	234.07
777.39	233.99
777.72	233.90
778.04	233.84
778.36	233.77
778.69	233.72
779.01	233.67
779.33	233.54
779.66	233.31
779.98	233.23
780.31	233.17
780.63	233.16
780.95	233.12
781.28	233.09
781.60	233.02
781.92	232.98
782.25	232.89
782.57	232.85
782.89	232.78
783.22	232.74
783.54	232.66
783.86	232.62
784.19	232.55
784.51	232.52
784.83	232.47
785.16	232.43
785.48	232.39
785.80	232.37
786.12	232.29
786.45	232.27
786.77	232.22
787.09	232.20
