SpectraSuite Data File
++++++++++++++++++++++++++++++++++++
Date: Fri Feb 01 17:23:15 EST 2013
User: group
Dark Spectrum Present: No
Reference Spectrum Present: No
Number of Sampled Component Spectra: 1
Spectrometers: USB2E7196
Integration Time (usec): 35000 (USB2E7196)
Spectra Averaged: 100 (USB2E7196)
Boxcar Smoothing: 10 (USB2E7196)
Correct for Electrical Dark: No (USB2E7196)
Strobe/Lamp Enabled: No (USB2E7196)
Correct for Detector Non-linearity: No (USB2E7196)
Correct for Stray Light: No (USB2E7196)
Number of Pixels in Processed Spectrum: 2048
>>>>>Begin Processed Spectral Data<<<<<
339.09	0.00
339.48	212.78
339.86	214.37
340.24	215.91
340.63	216.98
341.01	219.77
341.39	219.59
341.78	220.62
342.16	222.03
342.54	222.52
342.93	211.21
343.31	221.91
343.69	222.45
344.07	222.93
344.46	223.36
344.84	223.75
345.22	223.98
345.60	224.24
345.99	224.45
346.37	224.58
346.75	224.69
347.13	224.73
347.52	224.78
347.90	224.86
348.28	224.89
348.66	224.95
349.05	224.92
349.43	224.97
349.81	224.95
350.19	225.01
350.57	225.05
350.96	225.12
351.34	225.16
351.72	225.24
352.10	225.30
352.48	225.38
352.87	225.42
353.25	225.50
353.63	225.56
354.01	225.62
354.39	225.72
354.77	225.77
355.15	225.86
355.54	225.90
355.92	225.94
356.30	226.05
356.68	226.18
357.06	226.28
357.44	226.34
357.82	226.42
358.20	226.49
358.58	226.53
358.97	226.60
359.35	226.70
359.73	226.81
360.11	226.89
360.49	226.92
360.87	226.97
361.25	227.03
361.63	227.10
362.01	227.14
362.39	227.21
362.77	227.27
363.15	227.35
363.53	227.42
363.91	227.45
364.29	227.48
364.67	227.39
365.05	227.40
365.43	227.42
365.81	227.48
366.19	227.55
366.57	227.61
366.95	227.63
367.33	227.61
367.71	227.59
368.09	227.60
368.47	227.60
368.85	227.58
369.23	227.60
369.61	227.54
369.99	227.57
370.37	227.53
370.75	227.55
371.13	227.51
371.51	227.46
371.89	227.43
372.27	227.37
372.65	227.36
373.03	227.33
373.41	227.26
373.78	227.18
374.16	227.02
374.54	226.95
374.92	226.88
375.30	226.79
375.68	226.70
376.06	226.62
376.44	226.52
376.82	226.50
377.19	226.43
377.57	226.35
377.95	226.26
378.33	226.17
378.71	226.08
379.09	226.01
379.47	225.94
379.84	225.88
380.22	225.82
380.60	225.69
380.98	225.62
381.36	225.57
381.73	225.48
382.11	225.50
382.49	225.44
382.87	225.36
383.25	225.29
383.62	225.35
384.00	225.29
384.38	225.28
384.76	225.22
385.13	225.18
385.51	225.12
385.89	225.07
386.27	225.03
386.64	224.98
387.02	224.93
387.40	224.87
387.78	224.83
388.15	224.76
388.53	224.77
388.91	224.74
389.29	224.68
389.66	224.72
390.04	224.67
390.42	224.66
390.79	224.62
391.17	224.66
391.55	224.52
391.92	224.51
392.30	224.49
392.68	224.45
393.05	224.44
393.43	224.45
393.81	224.46
394.18	224.44
394.56	224.41
394.94	224.41
395.31	224.44
395.69	224.48
396.06	224.52
396.44	224.53
396.82	224.54
397.19	224.62
397.57	224.60
397.95	224.62
398.32	224.60
398.70	224.65
399.07	224.69
399.45	224.73
399.82	224.77
400.20	224.81
400.58	224.87
400.95	224.90
401.33	224.97
401.70	225.10
402.08	225.20
402.45	225.30
402.83	225.41
403.20	225.51
403.58	225.57
403.95	225.69
404.33	225.83
404.71	225.97
405.08	226.13
405.46	226.26
405.83	226.39
406.21	226.58
406.58	226.77
406.96	226.93
407.33	227.13
407.70	227.31
408.08	227.62
408.45	227.86
408.83	228.09
409.20	228.32
409.58	228.49
409.95	228.74
410.33	229.02
410.70	229.27
411.08	229.59
411.45	229.91
411.82	230.23
412.20	230.59
412.57	231.02
412.95	231.35
413.32	231.79
413.69	232.25
414.07	232.70
414.44	233.17
414.82	233.66
415.19	234.21
415.56	234.83
415.94	235.38
416.31	236.05
416.68	236.72
417.06	237.47
417.43	238.20
417.81	239.03
418.18	239.83
418.55	240.71
418.93	241.61
419.30	242.56
419.67	243.53
420.04	244.55
420.42	245.59
420.79	246.82
421.16	248.00
421.54	249.23
421.91	250.48
422.28	251.80
422.66	253.22
423.03	254.57
423.40	255.97
423.77	257.41
424.15	258.89
424.52	260.45
424.89	262.11
425.26	263.75
425.64	265.25
426.01	266.91
426.38	268.61
426.75	270.37
427.13	272.15
427.50	274.04
427.87	275.98
428.24	277.91
428.61	279.72
428.99	281.74
429.36	283.90
429.73	286.06
430.10	288.17
430.47	290.30
430.85	292.51
431.22	294.80
431.59	297.28
431.96	299.60
432.33	302.18
432.70	304.63
433.08	307.51
433.45	310.23
433.82	312.93
434.19	315.95
434.56	318.85
434.93	321.58
435.30	324.29
435.68	327.27
436.05	330.22
436.42	333.11
436.79	335.75
437.16	338.50
437.53	341.42
437.90	344.27
438.27	347.10
438.64	349.99
439.01	352.67
439.38	354.97
439.75	357.18
440.13	359.74
440.50	362.16
440.87	364.08
441.24	366.10
441.61	368.31
441.98	369.84
442.35	371.76
442.72	373.68
443.09	375.53
443.46	376.53
443.83	377.12
444.20	377.66
444.57	378.50
444.94	378.91
445.31	379.25
445.68	379.64
446.05	379.73
446.42	379.39
446.79	378.98
447.16	378.53
447.53	378.23
447.90	377.04
448.27	375.87
448.64	374.25
449.01	373.05
449.37	371.07
449.74	369.09
450.11	366.73
450.48	364.16
450.85	361.52
451.22	359.35
451.59	357.27
451.96	355.27
452.33	352.58
452.70	350.11
453.07	347.21
453.43	344.20
453.80	341.32
454.17	338.54
454.54	335.89
454.91	333.05
455.28	330.27
455.65	327.65
456.02	325.10
456.38	322.84
456.75	320.08
457.12	317.69
457.49	315.41
457.86	313.15
458.23	311.27
458.59	309.17
458.96	307.00
459.33	305.03
459.70	303.09
460.07	301.51
460.43	299.72
460.80	298.02
461.17	296.53
461.54	294.98
461.91	293.48
462.27	291.98
462.64	290.72
463.01	289.32
463.38	288.01
463.74	286.58
464.11	285.39
464.48	284.34
464.85	283.24
465.21	282.34
465.58	281.38
465.95	280.23
466.32	279.27
466.68	278.32
467.05	277.44
467.42	276.51
467.78	275.58
468.15	274.66
468.52	274.00
468.88	273.14
469.25	272.36
469.62	271.76
469.98	271.07
470.35	270.45
470.72	269.83
471.08	269.12
471.45	268.59
471.82	268.04
472.18	267.44
472.55	267.01
472.92	266.42
473.28	265.97
473.65	265.55
474.02	265.13
474.38	264.79
474.75	264.48
475.11	264.15
475.48	263.88
475.85	263.68
476.21	263.42
476.58	263.22
476.94	263.03
477.31	262.81
477.67	262.66
478.04	262.52
478.41	262.46
478.77	262.55
479.14	262.47
479.50	262.44
479.87	262.49
480.23	262.55
480.60	262.65
480.96	262.71
481.33	262.88
481.69	263.09
482.06	263.28
482.42	263.42
482.79	263.67
483.15	263.97
483.52	264.35
483.88	264.72
484.25	265.14
484.61	265.60
484.98	266.05
485.34	266.65
485.71	267.23
486.07	267.85
486.44	268.41
486.80	269.12
487.17	269.90
487.53	270.72
487.90	271.58
488.26	272.53
488.62	273.53
488.99	274.52
489.35	275.57
489.72	276.70
490.08	277.95
490.44	279.19
490.81	280.53
491.17	281.91
491.54	283.44
491.90	284.95
492.26	286.61
492.63	288.37
492.99	290.11
493.36	291.96
493.72	293.97
494.08	296.02
494.45	298.30
494.81	300.63
495.17	303.08
495.54	305.62
495.90	308.30
496.26	311.08
496.63	314.04
496.99	317.10
497.35	320.36
497.72	323.69
498.08	327.16
498.44	330.78
498.80	334.64
499.17	338.63
499.53	342.74
499.89	347.08
500.26	351.47
500.62	356.12
500.98	361.11
501.34	366.16
501.71	371.48
502.07	376.84
502.43	382.38
502.79	388.08
503.16	394.10
503.52	400.31
503.88	406.63
504.24	413.18
504.60	419.98
504.97	426.97
505.33	434.19
505.69	441.83
506.05	449.49
506.41	457.23
506.78	465.25
507.14	473.60
507.50	482.16
507.86	491.08
508.22	500.10
508.59	509.09
508.95	518.48
509.31	528.09
509.67	538.00
510.03	548.12
510.39	558.53
510.75	569.06
511.12	579.69
511.48	590.75
511.84	601.95
512.20	613.28
512.56	625.00
512.92	636.95
513.28	649.02
513.64	661.21
514.00	673.68
514.37	686.23
514.73	699.03
515.09	711.74
515.45	724.66
515.81	737.93
516.17	751.55
516.53	765.41
516.89	779.29
517.25	793.11
517.61	807.17
517.97	821.19
518.33	835.32
518.69	849.80
519.05	864.34
519.41	879.15
519.77	894.22
520.13	909.24
520.49	924.20
520.85	939.14
521.21	954.48
521.57	970.22
521.93	985.67
522.29	1001.56
522.65	1017.44
523.01	1033.25
523.37	1048.90
523.73	1064.64
524.09	1080.29
524.45	1096.12
524.81	1112.37
525.17	1128.71
525.53	1145.24
525.89	1161.63
526.25	1178.14
526.61	1194.25
526.97	1210.64
527.33	1226.79
527.68	1243.04
528.04	1259.18
528.40	1275.33
528.76	1291.96
529.12	1308.28
529.48	1324.72
529.84	1340.39
530.20	1356.56
530.56	1373.17
530.91	1390.26
531.27	1406.79
531.63	1422.81
531.99	1439.04
532.35	1454.82
532.71	1470.48
533.07	1486.48
533.42	1502.16
533.78	1517.86
534.14	1533.86
534.50	1548.85
534.86	1564.34
535.21	1579.18
535.57	1594.72
535.93	1610.02
536.29	1624.55
536.65	1639.31
537.00	1653.75
537.36	1668.83
537.72	1683.04
538.08	1697.37
538.44	1710.83
538.79	1724.58
539.15	1738.06
539.51	1751.69
539.87	1765.70
540.22	1779.23
540.58	1792.76
540.94	1805.88
541.29	1818.40
541.65	1830.82
542.01	1843.84
542.37	1856.22
542.72	1868.59
543.08	1880.53
543.44	1892.86
543.79	1904.17
544.15	1915.13
544.51	1926.79
544.87	1937.65
545.22	1948.65
545.58	1958.91
545.94	1968.83
546.29	1978.75
546.65	1988.76
547.01	1998.05
547.36	2006.86
547.72	2015.43
548.07	2023.42
548.43	2031.51
548.79	2039.57
549.14	2047.39
549.50	2054.87
549.86	2062.44
550.21	2070.01
550.57	2077.21
550.92	2083.95
551.28	2091.20
551.64	2098.42
551.99	2105.11
552.35	2111.56
552.70	2118.00
553.06	2124.15
553.41	2130.61
553.77	2136.81
554.13	2143.01
554.48	2149.29
554.84	2155.20
555.19	2160.62
555.55	2166.02
555.90	2171.11
556.26	2176.59
556.61	2181.48
556.97	2186.19
557.32	2190.73
557.68	2195.03
558.03	2199.44
558.39	2203.41
558.74	2208.21
559.10	2212.43
559.45	2216.36
559.81	2220.96
560.16	2224.98
560.52	2228.66
560.87	2232.50
561.23	2235.41
561.58	2238.65
561.94	2241.54
562.29	2243.96
562.64	2247.14
563.00	2249.98
563.35	2253.55
563.71	2256.98
564.06	2260.48
564.42	2263.88
564.77	2266.89
565.12	2269.71
565.48	2272.24
565.83	2274.55
566.19	2276.42
566.54	2277.53
566.89	2279.18
567.25	2280.21
567.60	2281.79
567.96	2283.95
568.31	2285.10
568.66	2286.60
569.02	2287.69
569.37	2288.51
569.72	2289.87
570.08	2290.56
570.43	2291.09
570.78	2291.04
571.14	2289.84
571.49	2288.87
571.84	2288.51
572.20	2287.80
572.55	2287.00
572.90	2285.72
573.26	2284.69
573.61	2283.14
573.96	2282.08
574.31	2279.44
574.67	2276.80
575.02	2273.60
575.37	2270.36
575.72	2267.03
576.08	2263.96
576.43	2260.77
576.78	2257.64
577.13	2254.72
577.49	2251.54
577.84	2248.52
578.19	2245.07
578.54	2241.88
578.90	2238.10
579.25	2233.10
579.60	2228.50
579.95	2223.94
580.30	2219.15
580.66	2214.37
581.01	2209.72
581.36	2204.84
581.71	2201.01
582.06	2196.96
582.42	2192.91
582.77	2188.03
583.12	2183.67
583.47	2179.48
583.82	2174.93
584.17	2169.95
584.53	2164.69
584.88	2159.48
585.23	2153.96
585.58	2148.77
585.93	2143.51
586.28	2138.79
586.63	2134.03
586.98	2129.07
587.34	2124.49
587.69	2119.88
588.04	2114.93
588.39	2109.61
588.74	2103.39
589.09	2097.56
589.44	2091.03
589.79	2084.86
590.14	2079.41
590.49	2073.03
590.84	2066.58
591.19	2060.83
591.54	2054.47
591.89	2047.52
592.25	2041.11
592.60	2034.04
592.95	2026.67
593.30	2019.49
593.65	2012.08
594.00	2005.15
594.35	1998.11
594.70	1990.05
595.05	1983.24
595.40	1976.10
595.75	1968.70
596.10	1962.74
596.45	1956.09
596.80	1950.12
597.15	1943.91
597.50	1937.14
597.85	1930.66
598.19	1924.24
598.54	1917.30
598.89	1910.69
599.24	1904.76
599.59	1898.27
599.94	1892.08
600.29	1886.01
600.64	1879.53
600.99	1872.50
601.34	1865.87
601.69	1858.94
602.04	1852.39
602.39	1844.99
602.74	1838.23
603.08	1831.63
603.43	1824.95
603.78	1817.72
604.13	1810.40
604.48	1803.24
604.83	1796.29
605.18	1789.80
605.53	1781.90
605.87	1773.91
606.22	1766.71
606.57	1758.70
606.92	1751.11
607.27	1744.04
607.62	1737.07
607.96	1729.81
608.31	1723.24
608.66	1715.60
609.01	1708.15
609.36	1700.69
609.70	1692.64
610.05	1684.49
610.40	1676.89
610.75	1668.53
611.10	1660.76
611.44	1652.25
611.79	1644.13
612.14	1635.42
612.49	1625.92
612.83	1617.45
613.18	1609.13
613.53	1601.09
613.88	1592.66
614.22	1584.44
614.57	1575.67
614.92	1567.53
615.27	1560.08
615.61	1551.58
615.96	1543.41
616.31	1535.52
616.65	1527.93
617.00	1520.26
617.35	1512.51
617.70	1504.00
618.04	1495.33
618.39	1487.08
618.74	1479.52
619.08	1471.18
619.43	1463.47
619.78	1456.47
620.12	1449.21
620.47	1441.78
620.82	1433.45
621.16	1425.76
621.51	1418.11
621.85	1410.35
622.20	1401.74
622.55	1393.07
622.89	1385.07
623.24	1377.42
623.59	1370.01
623.93	1362.39
624.28	1355.13
624.62	1347.71
624.97	1340.44
625.32	1333.62
625.66	1326.47
626.01	1319.14
626.35	1311.62
626.70	1303.79
627.04	1296.11
627.39	1288.21
627.73	1280.68
628.08	1273.61
628.43	1266.39
628.77	1258.99
629.12	1251.53
629.46	1244.38
629.81	1236.79
630.15	1229.44
630.50	1221.91
630.84	1213.67
631.19	1205.55
631.53	1197.87
631.88	1190.05
632.22	1182.32
632.57	1174.91
632.91	1167.28
633.26	1159.83
633.60	1152.29
633.95	1145.05
634.29	1137.84
634.64	1131.11
634.98	1123.66
635.32	1116.39
635.67	1109.57
636.01	1102.77
636.36	1095.82
636.70	1089.07
637.05	1082.51
637.39	1076.00
637.73	1069.41
638.08	1063.40
638.42	1057.41
638.77	1050.96
639.11	1044.38
639.45	1037.95
639.80	1031.29
640.14	1024.87
640.49	1018.37
640.83	1012.14
641.17	1005.90
641.52	999.54
641.86	992.95
642.20	987.00
642.55	980.64
642.89	974.21
643.23	967.49
643.58	961.72
643.92	955.55
644.26	949.55
644.61	943.40
644.95	937.39
645.29	930.79
645.64	924.04
645.98	917.62
646.32	911.56
646.66	905.42
647.01	899.58
647.35	893.80
647.69	887.76
648.04	882.08
648.38	876.29
648.72	870.29
649.06	864.26
649.41	858.35
649.75	852.37
650.09	846.45
650.43	840.67
650.78	834.41
651.12	828.31
651.46	822.46
651.80	816.80
652.14	811.32
652.49	805.90
652.83	800.65
653.17	795.06
653.51	789.53
653.85	784.08
654.20	778.44
654.54	772.38
654.88	766.62
655.22	760.77
655.56	754.99
655.90	749.47
656.25	744.18
656.59	738.79
656.93	733.62
657.27	728.42
657.61	723.04
657.95	717.95
658.29	712.90
658.64	707.63
658.98	702.16
659.32	696.66
659.66	691.48
660.00	686.19
660.34	681.21
660.68	676.12
661.02	671.09
661.36	666.31
661.70	661.83
662.05	657.46
662.39	653.03
662.73	648.56
663.07	644.17
663.41	639.82
663.75	635.39
664.09	630.83
664.43	626.40
664.77	622.25
665.11	618.05
665.45	613.86
665.79	609.84
666.13	605.84
666.47	601.69
666.81	597.52
667.15	593.36
667.49	589.32
667.83	585.50
668.17	581.57
668.51	577.48
668.85	573.38
669.19	569.50
669.53	565.71
669.87	561.82
670.21	558.04
670.55	554.23
670.89	550.70
671.23	547.29
671.57	543.75
671.91	540.22
672.25	536.60
672.58	533.11
672.92	529.59
673.26	526.33
673.60	523.19
673.94	520.03
674.28	517.11
674.62	514.19
674.96	511.08
675.30	508.14
675.64	505.27
675.97	502.46
676.31	499.58
676.65	496.61
676.99	493.85
677.33	490.99
677.67	488.19
678.01	485.12
678.34	482.15
678.68	479.25
679.02	476.40
679.36	473.61
679.70	470.84
680.04	468.10
680.37	465.28
680.71	462.41
681.05	459.74
681.39	456.99
681.73	454.27
682.06	451.70
682.40	449.14
682.74	446.53
683.08	443.93
683.42	441.31
683.75	438.73
684.09	436.13
684.43	433.62
684.77	431.13
685.10	428.76
685.44	426.38
685.78	424.08
686.12	421.80
686.45	419.47
686.79	417.20
687.13	414.96
687.46	412.70
687.80	410.52
688.14	408.22
688.48	406.13
688.81	403.97
689.15	401.79
689.49	399.62
689.82	397.54
690.16	395.49
690.50	393.50
690.83	391.58
691.17	389.60
691.51	387.66
691.84	385.81
692.18	383.88
692.52	381.89
692.85	379.90
693.19	378.01
693.52	376.15
693.86	374.29
694.20	372.44
694.53	370.63
694.87	368.78
695.21	366.97
695.54	365.14
695.88	363.34
696.21	361.58
696.55	359.82
696.88	358.05
697.22	356.29
697.56	354.62
697.89	352.92
698.23	351.35
698.56	349.74
698.90	348.12
699.23	346.47
699.57	344.89
699.90	343.30
700.24	341.67
700.58	340.15
700.91	338.67
701.25	337.21
701.58	335.79
701.92	334.41
702.25	333.05
702.59	331.66
702.92	330.30
703.26	329.02
703.59	327.74
703.93	326.55
704.26	325.33
704.60	324.06
704.93	322.75
705.26	321.43
705.60	320.23
705.93	319.06
706.27	318.00
706.60	316.96
706.94	315.92
707.27	314.79
707.61	313.66
707.94	312.57
708.27	311.49
708.61	310.41
708.94	309.35
709.28	308.35
709.61	307.36
709.94	306.38
710.28	305.29
710.61	304.30
710.95	303.18
711.28	302.22
711.61	301.22
711.95	300.36
712.28	299.42
712.61	298.44
712.95	297.48
713.28	296.55
713.61	295.58
713.95	294.63
714.28	293.79
714.61	292.94
714.95	292.05
715.28	291.18
715.61	290.34
715.95	289.48
716.28	288.62
716.61	287.72
716.95	286.91
717.28	286.17
717.61	285.38
717.94	284.66
718.28	283.87
718.61	283.13
718.94	282.35
719.27	281.67
719.61	281.02
719.94	280.35
720.27	279.63
720.60	278.98
720.94	278.35
721.27	277.73
721.60	277.14
721.93	276.58
722.27	276.00
722.60	275.43
722.93	274.85
723.26	274.32
723.59	273.80
723.93	273.24
724.26	272.67
724.59	272.10
724.92	271.57
725.25	271.08
725.59	270.58
725.92	270.11
726.25	269.55
726.58	269.02
726.91	268.53
727.24	268.03
727.57	267.55
727.91	267.03
728.24	266.56
728.57	266.08
728.90	265.60
729.23	265.11
729.56	264.67
729.89	264.20
730.22	263.67
730.55	263.20
730.89	262.73
731.22	262.26
731.55	261.84
731.88	261.42
732.21	260.96
732.54	260.48
732.87	260.02
733.20	259.61
733.53	259.23
733.86	258.87
734.19	258.45
734.52	258.06
734.85	257.73
735.18	257.31
735.51	256.94
735.84	256.54
736.17	256.18
736.50	255.73
736.83	255.47
737.16	255.14
737.49	254.79
737.82	254.41
738.15	254.06
738.48	253.75
738.81	253.41
739.14	253.05
739.47	252.77
739.80	252.45
740.13	252.15
740.46	251.79
740.79	251.41
741.12	251.12
741.45	250.81
741.78	250.45
742.11	250.15
742.44	249.79
742.77	249.53
743.10	249.21
743.43	248.91
743.75	248.55
744.08	248.37
744.41	248.11
744.74	247.87
745.07	247.57
745.40	247.29
745.73	247.05
746.06	246.79
746.39	246.52
746.71	246.25
747.04	245.97
747.37	245.72
747.70	245.46
748.03	245.16
748.36	244.93
748.68	244.73
749.01	244.46
749.34	244.28
749.67	244.03
750.00	243.82
750.33	243.68
750.65	243.44
750.98	243.10
751.31	242.90
751.64	242.70
751.97	242.54
752.29	242.29
752.62	242.02
752.95	241.79
753.28	241.57
753.60	241.39
753.93	241.19
754.26	241.00
754.59	240.79
754.91	240.60
755.24	240.36
755.57	240.14
755.90	239.99
756.22	239.76
756.55	239.56
756.88	239.34
757.20	239.08
757.53	238.89
757.86	238.75
758.19	238.54
758.51	238.36
758.84	238.16
759.17	237.99
759.49	237.82
759.82	237.71
760.15	237.58
760.47	237.42
760.80	237.25
761.13	237.09
761.45	236.94
761.78	236.82
762.11	236.65
762.43	236.51
762.76	236.36
763.08	236.22
763.41	236.09
763.74	235.93
764.06	235.82
764.39	235.69
764.71	235.50
765.04	235.38
765.37	235.23
765.69	235.10
766.02	234.96
766.34	234.85
766.67	234.71
767.00	234.59
767.32	234.46
767.65	234.44
767.97	234.32
768.30	234.19
768.62	234.08
768.95	234.00
769.27	233.88
769.60	233.79
769.92	233.65
770.25	233.53
770.57	233.42
770.90	233.34
771.22	233.22
771.55	233.15
771.87	233.06
772.20	233.00
772.52	232.98
772.85	233.01
773.17	232.89
773.50	232.79
773.82	232.68
774.15	232.56
774.47	232.39
774.80	232.30
775.12	232.20
775.45	232.09
775.77	232.01
776.09	231.94
776.42	231.85
776.74	231.83
777.07	231.74
777.39	231.68
777.72	231.58
778.04	231.53
778.36	231.45
778.69	231.37
779.01	231.30
779.33	231.15
779.66	230.99
779.98	230.94
780.31	230.90
780.63	230.87
780.95	230.84
781.28	230.79
781.60	230.74
781.92	230.71
782.25	230.65
782.57	230.59
782.89	230.50
783.22	230.42
783.54	230.35
783.86	230.28
784.19	230.22
784.51	230.20
784.83	230.13
785.16	230.09
785.48	230.05
785.80	230.00
786.12	229.96
786.45	229.93
786.77	229.89
787.09	229.83
