SpectraSuite Data File
++++++++++++++++++++++++++++++++++++
Date: Fri Feb 01 17:11:16 EST 2013
User: group
Dark Spectrum Present: No
Reference Spectrum Present: No
Number of Sampled Component Spectra: 1
Spectrometers: USB2E7196
Integration Time (usec): 35000 (USB2E7196)
Spectra Averaged: 100 (USB2E7196)
Boxcar Smoothing: 10 (USB2E7196)
Correct for Electrical Dark: No (USB2E7196)
Strobe/Lamp Enabled: No (USB2E7196)
Correct for Detector Non-linearity: No (USB2E7196)
Correct for Stray Light: No (USB2E7196)
Number of Pixels in Processed Spectrum: 2048
>>>>>Begin Processed Spectral Data<<<<<
339.09	0.00
339.48	213.25
339.86	214.64
340.24	216.39
340.63	217.56
341.01	220.74
341.39	220.02
341.78	221.53
342.16	222.41
342.54	222.82
342.93	211.63
343.31	222.34
343.69	222.88
344.07	223.35
344.46	223.76
344.84	224.16
345.22	224.37
345.60	224.61
345.99	224.79
346.37	224.92
346.75	225.05
347.13	225.09
347.52	225.19
347.90	225.27
348.28	225.28
348.66	225.31
349.05	225.34
349.43	225.37
349.81	225.42
350.19	225.48
350.57	225.54
350.96	225.60
351.34	225.67
351.72	225.72
352.10	225.79
352.48	225.86
352.87	225.88
353.25	225.95
353.63	226.02
354.01	226.07
354.39	226.17
354.77	226.24
355.15	226.32
355.54	226.39
355.92	226.41
356.30	226.52
356.68	226.66
357.06	226.73
357.44	226.80
357.82	226.89
358.20	226.94
358.58	227.02
358.97	227.06
359.35	227.15
359.73	227.26
360.11	227.33
360.49	227.38
360.87	227.44
361.25	227.49
361.63	227.56
362.01	227.64
362.39	227.66
362.77	227.72
363.15	227.78
363.53	227.79
363.91	227.83
364.29	227.83
364.67	227.78
365.05	227.80
365.43	227.84
365.81	227.80
366.19	227.86
366.57	227.89
366.95	227.92
367.33	227.88
367.71	227.86
368.09	227.87
368.47	227.88
368.85	227.90
369.23	227.89
369.61	227.84
369.99	227.84
370.37	227.86
370.75	227.85
371.13	227.79
371.51	227.71
371.89	227.69
372.27	227.69
372.65	227.63
373.03	227.59
373.41	227.54
373.78	227.52
374.16	227.41
374.54	227.30
374.92	227.25
375.30	227.19
375.68	227.11
376.06	227.05
376.44	227.00
376.82	226.92
377.19	226.89
377.57	226.84
377.95	226.76
378.33	226.65
378.71	226.57
379.09	226.51
379.47	226.48
379.84	226.41
380.22	226.30
380.60	226.22
380.98	226.15
381.36	226.07
381.73	225.99
382.11	225.98
382.49	225.96
382.87	225.90
383.25	225.88
383.62	225.94
384.00	225.85
384.38	225.80
384.76	225.76
385.13	225.70
385.51	225.67
385.89	225.59
386.27	225.56
386.64	225.56
387.02	225.50
387.40	225.44
387.78	225.41
388.15	225.39
388.53	225.36
388.91	225.34
389.29	225.29
389.66	225.29
390.04	225.22
390.42	225.17
390.79	225.14
391.17	225.10
391.55	225.00
391.92	225.00
392.30	224.98
392.68	224.96
393.05	224.93
393.43	224.92
393.81	224.93
394.18	224.90
394.56	224.85
394.94	224.89
395.31	224.90
395.69	224.94
396.06	224.98
396.44	225.02
396.82	225.08
397.19	225.15
397.57	225.17
397.95	225.23
398.32	225.28
398.70	225.31
399.07	225.38
399.45	225.40
399.82	225.44
400.20	225.48
400.58	225.53
400.95	225.58
401.33	225.68
401.70	225.82
402.08	225.91
402.45	226.01
402.83	226.10
403.20	226.22
403.58	226.33
403.95	226.43
404.33	226.52
404.71	226.58
405.08	226.76
405.46	226.88
405.83	227.01
406.21	227.12
406.58	227.30
406.96	227.44
407.33	227.61
407.70	227.79
408.08	228.07
408.45	228.29
408.83	228.49
409.20	228.64
409.58	228.79
409.95	229.01
410.33	229.26
410.70	229.53
411.08	229.82
411.45	230.08
411.82	230.33
412.20	230.69
412.57	231.10
412.95	231.38
413.32	231.79
413.69	232.19
414.07	232.65
414.44	233.09
414.82	233.57
415.19	234.13
415.56	234.67
415.94	235.21
416.31	235.84
416.68	236.49
417.06	237.24
417.43	237.95
417.81	238.75
418.18	239.55
418.55	240.38
418.93	241.25
419.30	242.16
419.67	243.16
420.04	244.15
420.42	245.14
420.79	246.36
421.16	247.54
421.54	248.74
421.91	249.94
422.28	251.22
422.66	252.57
423.03	253.91
423.40	255.27
423.77	256.65
424.15	258.09
424.52	259.60
424.89	261.26
425.26	262.84
425.64	264.30
426.01	265.90
426.38	267.53
426.75	269.22
427.13	270.97
427.50	272.75
427.87	274.64
428.24	276.55
428.61	278.30
428.99	280.25
429.36	282.37
429.73	284.49
430.10	286.53
430.47	288.62
430.85	290.75
431.22	293.03
431.59	295.46
431.96	297.69
432.33	300.17
432.70	302.53
433.08	305.33
433.45	307.96
433.82	310.53
434.19	313.45
434.56	316.29
434.93	318.95
435.30	321.65
435.68	324.56
436.05	327.44
436.42	330.22
436.79	332.76
437.16	335.48
437.53	338.30
437.90	341.10
438.27	343.87
438.64	346.68
439.01	349.27
439.38	351.49
439.75	353.72
440.13	356.32
440.50	358.67
440.87	360.56
441.24	362.61
441.61	364.83
441.98	366.35
442.35	368.14
442.72	370.02
443.09	371.80
443.46	372.86
443.83	373.42
444.20	373.95
444.57	374.79
444.94	375.08
445.31	375.46
445.68	375.82
446.05	375.91
446.42	375.58
446.79	375.19
447.16	374.76
447.53	374.46
447.90	373.21
448.27	372.03
448.64	370.43
449.01	369.26
449.37	367.30
449.74	365.45
450.11	363.24
450.48	360.78
450.85	358.21
451.22	355.97
451.59	353.95
451.96	352.02
452.33	349.39
452.70	347.02
453.07	344.14
453.43	341.30
453.80	338.49
454.17	335.77
454.54	333.21
454.91	330.52
455.28	327.78
455.65	325.31
456.02	322.89
456.38	320.76
456.75	318.06
457.12	315.78
457.49	313.47
457.86	311.28
458.23	309.42
458.59	307.39
458.96	305.30
459.33	303.43
459.70	301.55
460.07	300.06
460.43	298.33
460.80	296.74
461.17	295.24
461.54	293.73
461.91	292.30
462.27	290.86
462.64	289.58
463.01	288.24
463.38	286.94
463.74	285.56
464.11	284.36
464.48	283.37
464.85	282.24
465.21	281.39
465.58	280.44
465.95	279.33
466.32	278.42
466.68	277.52
467.05	276.64
467.42	275.77
467.78	274.82
468.15	273.94
468.52	273.28
468.88	272.41
469.25	271.67
469.62	271.02
469.98	270.36
470.35	269.73
470.72	269.14
471.08	268.50
471.45	267.96
471.82	267.43
472.18	266.84
472.55	266.45
472.92	265.95
473.28	265.51
473.65	265.06
474.02	264.59
474.38	264.23
474.75	263.92
475.11	263.57
475.48	263.33
475.85	263.12
476.21	262.88
476.58	262.75
476.94	262.61
477.31	262.50
477.67	262.32
478.04	262.23
478.41	262.18
478.77	262.21
479.14	262.14
479.50	262.17
479.87	262.22
480.23	262.28
480.60	262.35
480.96	262.43
481.33	262.68
481.69	262.91
482.06	263.12
482.42	263.30
482.79	263.56
483.15	263.85
483.52	264.21
483.88	264.55
484.25	264.90
484.61	265.30
484.98	265.72
485.34	266.29
485.71	266.85
486.07	267.45
486.44	268.00
486.80	268.74
487.17	269.45
487.53	270.20
487.90	271.04
488.26	271.98
488.62	272.98
488.99	273.91
489.35	274.95
489.72	276.05
490.08	277.24
490.44	278.49
490.81	279.82
491.17	281.18
491.54	282.66
491.90	284.19
492.26	285.81
492.63	287.57
492.99	289.31
493.36	291.18
493.72	293.27
494.08	295.38
494.45	297.59
494.81	299.98
495.17	302.43
495.54	304.99
495.90	307.62
496.26	310.40
496.63	313.37
496.99	316.49
497.35	319.76
497.72	323.16
498.08	326.61
498.44	330.29
498.80	334.18
499.17	338.21
499.53	342.37
499.89	346.74
500.26	351.21
500.62	355.89
500.98	360.85
501.34	365.84
501.71	371.14
502.07	376.49
502.43	382.01
502.79	387.79
503.16	393.83
503.52	400.09
503.88	406.45
504.24	413.06
504.60	419.92
504.97	426.93
505.33	434.16
505.69	441.83
506.05	449.57
506.41	457.37
506.78	465.45
507.14	473.82
507.50	482.46
507.86	491.36
508.22	500.47
508.59	509.56
508.95	519.01
509.31	528.71
509.67	538.80
510.03	549.04
510.39	559.51
510.75	570.16
511.12	580.90
511.48	592.08
511.84	603.30
512.20	614.64
512.56	626.45
512.92	638.48
513.28	650.73
513.64	662.92
514.00	675.54
514.37	688.33
514.73	701.22
515.09	714.03
515.45	727.12
515.81	740.54
516.17	754.33
516.53	768.25
516.89	782.29
517.25	796.18
517.61	810.43
517.97	824.64
518.33	838.79
518.69	853.40
519.05	868.09
519.41	883.11
519.77	898.30
520.13	913.56
520.49	928.71
520.85	943.77
521.21	959.16
521.57	975.10
521.93	990.61
522.29	1006.61
522.65	1022.69
523.01	1038.56
523.37	1054.29
523.73	1070.23
524.09	1086.04
524.45	1101.92
524.81	1118.31
525.17	1134.64
525.53	1151.18
525.89	1167.86
526.25	1184.39
526.61	1200.40
526.97	1216.89
527.33	1233.10
527.68	1249.32
528.04	1265.53
528.40	1281.77
528.76	1298.54
529.12	1314.75
529.48	1331.22
529.84	1346.94
530.20	1363.04
530.56	1379.61
530.91	1396.66
531.27	1413.03
531.63	1429.19
531.99	1445.49
532.35	1461.23
532.71	1476.86
533.07	1492.75
533.42	1508.38
533.78	1524.12
534.14	1540.11
534.50	1555.03
534.86	1570.46
535.21	1585.41
535.57	1600.92
535.93	1616.03
536.29	1630.54
536.65	1645.24
537.00	1659.71
537.36	1674.73
537.72	1689.06
538.08	1703.28
538.44	1716.70
538.79	1730.32
539.15	1743.59
539.51	1757.04
539.87	1771.04
540.22	1784.46
540.58	1797.91
540.94	1810.67
541.29	1823.12
541.65	1835.48
542.01	1848.32
542.37	1860.49
542.72	1872.59
543.08	1884.15
543.44	1896.48
543.79	1907.68
544.15	1918.44
544.51	1929.80
544.87	1940.65
545.22	1951.41
545.58	1961.51
545.94	1971.32
546.29	1981.09
546.65	1990.88
547.01	1999.99
547.36	2008.56
547.72	2017.07
548.07	2025.03
548.43	2033.27
548.79	2041.25
549.14	2049.01
549.50	2056.35
549.86	2063.98
550.21	2071.35
550.57	2078.63
550.92	2085.32
551.28	2092.44
551.64	2099.62
551.99	2106.33
552.35	2112.45
552.70	2118.68
553.06	2124.83
553.41	2131.23
553.77	2137.17
554.13	2143.18
554.48	2149.43
554.84	2155.17
555.19	2160.43
555.55	2165.70
555.90	2170.43
556.26	2175.63
556.61	2180.42
556.97	2185.08
557.32	2189.48
557.68	2193.71
558.03	2198.06
558.39	2201.73
558.74	2206.40
559.10	2210.45
559.45	2214.20
559.81	2218.59
560.16	2222.48
560.52	2225.93
560.87	2229.39
561.23	2232.45
561.58	2235.58
561.94	2238.39
562.29	2240.71
562.64	2243.79
563.00	2246.47
563.35	2250.10
563.71	2253.22
564.06	2256.38
564.42	2259.39
564.77	2262.14
565.12	2264.84
565.48	2267.05
565.83	2269.19
566.19	2270.76
566.54	2271.83
566.89	2273.27
567.25	2274.31
567.60	2275.74
567.96	2277.48
568.31	2278.66
568.66	2280.10
569.02	2281.07
569.37	2281.60
569.72	2282.79
570.08	2283.12
570.43	2283.44
570.78	2283.09
571.14	2281.84
571.49	2280.91
571.84	2280.70
572.20	2279.72
572.55	2278.76
572.90	2277.23
573.26	2276.13
573.61	2274.45
573.96	2273.01
574.31	2270.12
574.67	2267.35
575.02	2263.94
575.37	2260.80
575.72	2257.42
576.08	2253.90
576.43	2250.62
576.78	2247.30
577.13	2244.10
577.49	2241.02
577.84	2237.74
578.19	2234.13
578.54	2230.93
578.90	2227.01
579.25	2221.71
579.60	2217.23
579.95	2212.40
580.30	2207.69
580.66	2202.75
581.01	2198.06
581.36	2193.32
581.71	2189.63
582.06	2185.50
582.42	2181.45
582.77	2176.51
583.12	2171.98
583.47	2167.73
583.82	2163.25
584.17	2158.21
584.53	2153.05
584.88	2147.71
585.23	2142.25
585.58	2137.00
585.93	2131.56
586.28	2126.85
586.63	2122.06
586.98	2116.88
587.34	2112.43
587.69	2107.63
588.04	2102.66
588.39	2097.29
588.74	2091.09
589.09	2084.93
589.44	2078.26
589.79	2072.18
590.14	2066.65
590.49	2060.23
590.84	2053.80
591.19	2047.93
591.54	2041.52
591.89	2034.62
592.25	2028.15
592.60	2021.12
592.95	2013.84
593.30	2006.75
593.65	1999.35
594.00	1992.52
594.35	1985.53
594.70	1977.49
595.05	1970.79
595.40	1963.51
595.75	1956.18
596.10	1950.22
596.45	1943.71
596.80	1937.78
597.15	1931.48
597.50	1924.87
597.85	1918.54
598.19	1912.22
598.54	1905.39
598.89	1899.00
599.24	1893.03
599.59	1886.57
599.94	1880.37
600.29	1874.22
600.64	1867.78
600.99	1860.57
601.34	1853.76
601.69	1846.80
602.04	1840.19
602.39	1832.76
602.74	1826.16
603.08	1819.58
603.43	1812.77
603.78	1805.53
604.13	1798.33
604.48	1791.27
604.83	1784.26
605.18	1777.57
605.53	1769.68
605.87	1761.58
606.22	1754.27
606.57	1746.41
606.92	1738.92
607.27	1732.01
607.62	1725.13
607.96	1717.95
608.31	1711.49
608.66	1704.15
609.01	1696.82
609.36	1689.31
609.70	1681.40
610.05	1673.44
610.40	1665.81
610.75	1657.48
611.10	1649.91
611.44	1641.37
611.79	1633.28
612.14	1624.69
612.49	1615.38
612.83	1607.02
613.18	1598.94
613.53	1590.84
613.88	1582.36
614.22	1574.06
614.57	1565.34
614.92	1557.27
615.27	1549.92
615.61	1541.64
615.96	1533.50
616.31	1525.75
616.65	1518.36
617.00	1510.86
617.35	1503.06
617.70	1494.82
618.04	1486.39
618.39	1478.07
618.74	1470.68
619.08	1462.35
619.43	1454.69
619.78	1447.74
620.12	1440.65
620.47	1433.12
620.82	1425.04
621.16	1417.53
621.51	1409.96
621.85	1402.31
622.20	1393.76
622.55	1385.12
622.89	1377.16
623.24	1369.40
623.59	1362.02
623.93	1354.50
624.28	1347.16
624.62	1339.72
624.97	1332.49
625.32	1325.60
625.66	1318.64
626.01	1311.38
626.35	1304.12
626.70	1296.38
627.04	1288.71
627.39	1280.75
627.73	1273.32
628.08	1266.34
628.43	1259.21
628.77	1251.98
629.12	1244.46
629.46	1237.36
629.81	1229.82
630.15	1222.54
630.50	1215.15
630.84	1206.96
631.19	1198.98
631.53	1191.45
631.88	1183.77
632.22	1176.06
632.57	1168.69
632.91	1161.07
633.26	1153.69
633.60	1146.13
633.95	1138.97
634.29	1131.92
634.64	1125.27
634.98	1117.90
635.32	1110.72
635.67	1104.01
636.01	1097.27
636.36	1090.53
636.70	1083.92
637.05	1077.46
637.39	1071.05
637.73	1064.59
638.08	1058.60
638.42	1052.59
638.77	1046.07
639.11	1039.60
639.45	1033.25
639.80	1026.68
640.14	1020.36
640.49	1013.79
640.83	1007.57
641.17	1001.45
641.52	995.02
641.86	988.56
642.20	982.69
642.55	976.32
642.89	969.81
643.23	963.27
643.58	957.39
643.92	951.21
644.26	945.23
644.61	939.05
644.95	933.08
645.29	926.68
645.64	920.01
645.98	913.85
646.32	907.80
646.66	901.67
647.01	895.90
647.35	890.16
647.69	884.34
648.04	878.70
648.38	872.85
648.72	866.96
649.06	860.93
649.41	855.01
649.75	849.17
650.09	843.27
650.43	837.43
650.78	831.35
651.12	825.37
651.46	819.58
651.80	814.00
652.14	808.58
652.49	803.17
652.83	798.02
653.17	792.35
653.51	786.78
653.85	781.42
654.20	775.80
654.54	769.77
654.88	764.01
655.22	758.18
655.56	752.48
655.90	746.92
656.25	741.77
656.59	736.43
656.93	731.30
657.27	726.08
657.61	720.66
657.95	715.50
658.29	710.47
658.64	705.20
658.98	699.75
659.32	694.19
659.66	688.95
660.00	683.66
660.34	678.60
660.68	673.66
661.02	668.58
661.36	663.89
661.70	659.42
662.05	655.11
662.39	650.76
662.73	646.27
663.07	641.96
663.41	637.46
663.75	632.96
664.09	628.39
664.43	623.99
664.77	619.88
665.11	615.67
665.45	611.53
665.79	607.48
666.13	603.38
666.47	599.28
666.81	595.15
667.15	590.91
667.49	587.01
667.83	583.06
668.17	579.18
668.51	575.08
668.85	570.99
669.19	567.04
669.53	563.21
669.87	559.34
670.21	555.61
670.55	551.86
670.89	548.40
671.23	545.00
671.57	541.49
671.91	537.91
672.25	534.36
672.58	530.77
672.92	527.30
673.26	524.12
673.60	520.97
673.94	517.84
674.28	514.93
674.62	511.97
674.96	508.97
675.30	506.07
675.64	503.14
675.97	500.30
676.31	497.43
676.65	494.42
676.99	491.70
677.33	488.84
677.67	486.08
678.01	483.04
678.34	480.01
678.68	477.11
679.02	474.37
679.36	471.62
679.70	468.85
680.04	466.09
680.37	463.23
680.71	460.44
681.05	457.77
681.39	455.03
681.73	452.37
682.06	449.78
682.40	447.21
682.74	444.60
683.08	442.07
683.42	439.45
683.75	437.01
684.09	434.43
684.43	431.93
684.77	429.48
685.10	427.11
685.44	424.75
685.78	422.47
686.12	420.15
686.45	417.79
686.79	415.55
687.13	413.35
687.46	411.20
687.80	409.02
688.14	406.78
688.48	404.75
688.81	402.54
689.15	400.38
689.49	398.23
689.82	396.18
690.16	394.10
690.50	392.15
690.83	390.21
691.17	388.21
691.51	386.31
691.84	384.42
692.18	382.56
692.52	380.64
692.85	378.69
693.19	376.83
693.52	375.03
693.86	373.18
694.20	371.41
694.53	369.64
694.87	367.80
695.21	366.07
695.54	364.23
695.88	362.47
696.21	360.75
696.55	359.03
696.88	357.37
697.22	355.70
697.56	354.02
697.89	352.32
698.23	350.71
698.56	349.10
698.90	347.54
699.23	345.90
699.57	344.30
699.90	342.78
700.24	341.25
700.58	339.73
700.91	338.26
701.25	336.77
701.58	335.39
701.92	334.01
702.25	332.60
702.59	331.20
702.92	329.86
703.26	328.54
703.59	327.26
703.93	326.06
704.26	324.83
704.60	323.56
704.93	322.30
705.26	321.03
705.60	319.79
705.93	318.59
706.27	317.54
706.60	316.53
706.94	315.41
707.27	314.23
707.61	313.11
707.94	312.06
708.27	311.00
708.61	309.84
708.94	308.83
709.28	307.84
709.61	306.87
709.94	305.92
710.28	304.90
710.61	303.91
710.95	302.82
711.28	301.90
711.61	300.94
711.95	300.01
712.28	299.08
712.61	298.12
712.95	297.18
713.28	296.24
713.61	295.28
713.95	294.37
714.28	293.51
714.61	292.67
714.95	291.81
715.28	290.96
715.61	290.11
715.95	289.22
716.28	288.37
716.61	287.53
716.95	286.70
717.28	285.92
717.61	285.10
717.94	284.36
718.28	283.52
718.61	282.77
718.94	282.11
719.27	281.46
719.61	280.77
719.94	280.07
720.27	279.33
720.60	278.70
720.94	278.09
721.27	277.51
721.60	276.92
721.93	276.32
722.27	275.71
722.60	275.14
722.93	274.58
723.26	274.05
723.59	273.48
723.93	272.92
724.26	272.40
724.59	271.87
724.92	271.29
725.25	270.80
725.59	270.27
725.92	269.71
726.25	269.20
726.58	268.72
726.91	268.27
727.24	267.78
727.57	267.27
727.91	266.77
728.24	266.30
728.57	265.78
728.90	265.33
729.23	264.84
729.56	264.43
729.89	263.95
730.22	263.47
730.55	262.97
730.89	262.54
731.22	262.06
731.55	261.65
731.88	261.25
732.21	260.78
732.54	260.34
732.87	259.92
733.20	259.47
733.53	259.08
733.86	258.68
734.19	258.31
734.52	257.94
734.85	257.61
735.18	257.18
735.51	256.83
735.84	256.44
736.17	256.10
736.50	255.69
736.83	255.49
737.16	255.17
737.49	254.89
737.82	254.53
738.15	254.22
738.48	253.87
738.81	253.56
739.14	253.28
739.47	253.01
739.80	252.74
740.13	252.46
740.46	252.12
740.79	251.79
741.12	251.50
741.45	251.18
741.78	250.90
742.11	250.63
742.44	250.31
742.77	250.00
743.10	249.73
743.43	249.40
743.75	248.98
744.08	248.83
744.41	248.55
744.74	248.28
745.07	248.03
745.40	247.78
745.73	247.58
746.06	247.30
746.39	247.04
746.71	246.77
747.04	246.50
747.37	246.27
747.70	246.03
748.03	245.77
748.36	245.57
748.68	245.29
749.01	245.06
749.34	244.86
749.67	244.70
750.00	244.47
750.33	244.35
750.65	244.15
750.98	243.79
751.31	243.56
751.64	243.34
751.97	243.15
752.29	242.89
752.62	242.59
752.95	242.41
753.28	242.16
753.60	241.93
753.93	241.79
754.26	241.57
754.59	241.39
754.91	241.18
755.24	240.97
755.57	240.73
755.90	240.55
756.22	240.35
756.55	240.08
756.88	239.87
757.20	239.65
757.53	239.44
757.86	239.26
758.19	239.11
758.51	238.96
758.84	238.76
759.17	238.63
759.49	238.46
759.82	238.30
760.15	238.18
760.47	238.04
760.80	237.85
761.13	237.73
761.45	237.51
761.78	237.38
762.11	237.21
762.43	237.09
762.76	236.94
763.08	236.80
763.41	236.69
763.74	236.55
764.06	236.40
764.39	236.27
764.71	236.13
765.04	235.97
765.37	235.83
765.69	235.66
766.02	235.51
766.34	235.38
766.67	235.21
767.00	235.09
767.32	235.01
767.65	234.92
767.97	234.81
768.30	234.75
768.62	234.60
768.95	234.47
769.27	234.37
769.60	234.24
769.92	234.12
770.25	233.98
770.57	233.87
770.90	233.74
771.22	233.66
771.55	233.56
771.87	233.48
772.20	233.37
772.52	233.37
772.85	233.37
773.17	233.28
773.50	233.18
773.82	233.07
774.15	232.97
774.47	232.81
774.80	232.70
775.12	232.60
775.45	232.56
775.77	232.51
776.09	232.44
776.42	232.36
776.74	232.32
777.07	232.21
777.39	232.13
777.72	232.05
778.04	231.98
778.36	231.89
778.69	231.76
779.01	231.71
779.33	231.55
779.66	231.36
779.98	231.28
780.31	231.21
780.63	231.14
780.95	231.09
781.28	231.03
781.60	230.93
781.92	230.88
782.25	230.77
782.57	230.68
782.89	230.59
783.22	230.50
783.54	230.42
783.86	230.39
784.19	230.32
784.51	230.31
784.83	230.23
785.16	230.19
785.48	230.16
785.80	230.11
786.12	230.08
786.45	230.06
786.77	230.04
787.09	230.01
