SpectraSuite Data File
++++++++++++++++++++++++++++++++++++
Date: Fri Feb 01 14:55:34 EST 2013
User: group
Dark Spectrum Present: No
Reference Spectrum Present: No
Number of Sampled Component Spectra: 1
Spectrometers: USB2E7196
Integration Time (usec): 35000 (USB2E7196)
Spectra Averaged: 100 (USB2E7196)
Boxcar Smoothing: 10 (USB2E7196)
Correct for Electrical Dark: No (USB2E7196)
Strobe/Lamp Enabled: No (USB2E7196)
Correct for Detector Non-linearity: No (USB2E7196)
Correct for Stray Light: No (USB2E7196)
Number of Pixels in Processed Spectrum: 2048
>>>>>Begin Processed Spectral Data<<<<<
339.09	0.00
339.48	215.48
339.86	216.95
340.24	218.68
340.63	219.80
341.01	222.80
341.39	222.64
341.78	223.34
342.16	224.96
342.54	225.90
342.93	213.76
343.31	224.58
343.69	225.13
344.07	225.58
344.46	226.00
344.84	226.39
345.22	226.62
345.60	226.87
345.99	227.07
346.37	227.21
346.75	227.30
347.13	227.38
347.52	227.44
347.90	227.50
348.28	227.55
348.66	227.61
349.05	227.61
349.43	227.65
349.81	227.69
350.19	227.73
350.57	227.79
350.96	227.86
351.34	227.94
351.72	228.03
352.10	228.13
352.48	228.18
352.87	228.22
353.25	228.28
353.63	228.32
354.01	228.38
354.39	228.39
354.77	228.45
355.15	228.53
355.54	228.55
355.92	228.59
356.30	228.65
356.68	228.76
357.06	228.82
357.44	228.84
357.82	228.91
358.20	228.98
358.58	229.03
358.97	229.08
359.35	229.13
359.73	229.16
360.11	229.21
360.49	229.27
360.87	229.27
361.25	229.32
361.63	229.35
362.01	229.36
362.39	229.41
362.77	229.44
363.15	229.46
363.53	229.50
363.91	229.51
364.29	229.52
364.67	229.45
365.05	229.45
365.43	229.47
365.81	229.45
366.19	229.43
366.57	229.45
366.95	229.44
367.33	229.39
367.71	229.39
368.09	229.36
368.47	229.32
368.85	229.32
369.23	229.28
369.61	229.25
369.99	229.25
370.37	229.23
370.75	229.20
371.13	229.15
371.51	229.07
371.89	229.02
372.27	228.98
372.65	228.91
373.03	228.84
373.41	228.77
373.78	228.73
374.16	228.65
374.54	228.54
374.92	228.49
375.30	228.44
375.68	228.35
376.06	228.28
376.44	228.21
376.82	228.10
377.19	228.02
377.57	227.96
377.95	227.88
378.33	227.77
378.71	227.69
379.09	227.61
379.47	227.58
379.84	227.49
380.22	227.41
380.60	227.34
380.98	227.32
381.36	227.25
381.73	227.17
382.11	227.11
382.49	227.07
382.87	226.98
383.25	226.90
383.62	226.93
384.00	226.84
384.38	226.78
384.76	226.76
385.13	226.77
385.51	226.71
385.89	226.66
386.27	226.65
386.64	226.59
387.02	226.56
387.40	226.48
387.78	226.47
388.15	226.44
388.53	226.40
388.91	226.32
389.29	226.29
389.66	226.28
390.04	226.24
390.42	226.19
390.79	226.20
391.17	226.19
391.55	226.07
391.92	226.12
392.30	226.13
392.68	226.11
393.05	226.12
393.43	226.12
393.81	226.14
394.18	226.14
394.56	226.17
394.94	226.22
395.31	226.25
395.69	226.33
396.06	226.38
396.44	226.46
396.82	226.49
397.19	226.61
397.57	226.63
397.95	226.72
398.32	226.80
398.70	226.86
399.07	226.95
399.45	227.04
399.82	227.09
400.20	227.20
400.58	227.29
400.95	227.35
401.33	227.47
401.70	227.65
402.08	227.74
402.45	227.89
402.83	227.99
403.20	228.10
403.58	228.18
403.95	228.30
404.33	228.44
404.71	228.56
405.08	228.72
405.46	228.87
405.83	229.04
406.21	229.22
406.58	229.38
406.96	229.55
407.33	229.74
407.70	229.94
408.08	230.23
408.45	230.46
408.83	230.68
409.20	230.93
409.58	231.11
409.95	231.38
410.33	231.63
410.70	231.92
411.08	232.23
411.45	232.55
411.82	232.89
412.20	233.26
412.57	233.72
412.95	234.00
413.32	234.44
413.69	234.86
414.07	235.27
414.44	235.77
414.82	236.24
415.19	236.80
415.56	237.37
415.94	237.86
416.31	238.49
416.68	239.10
417.06	239.76
417.43	240.42
417.81	241.23
418.18	242.02
418.55	242.82
418.93	243.71
419.30	244.59
419.67	245.50
420.04	246.45
420.42	247.45
420.79	248.66
421.16	249.81
421.54	250.99
421.91	252.23
422.28	253.44
422.66	254.78
423.03	256.07
423.40	257.41
423.77	258.83
424.15	260.29
424.52	261.78
424.89	263.41
425.26	264.96
425.64	266.39
426.01	267.98
426.38	269.66
426.75	271.35
427.13	273.10
427.50	274.91
427.87	276.79
428.24	278.66
428.61	280.41
428.99	282.36
429.36	284.45
429.73	286.54
430.10	288.58
430.47	290.62
430.85	292.78
431.22	295.01
431.59	297.40
431.96	299.61
432.33	302.16
432.70	304.57
433.08	307.41
433.45	310.06
433.82	312.69
434.19	315.57
434.56	318.35
434.93	321.01
435.30	323.64
435.68	326.54
436.05	329.37
436.42	332.19
436.79	334.74
437.16	337.39
437.53	340.24
437.90	343.06
438.27	345.85
438.64	348.65
439.01	351.22
439.38	353.45
439.75	355.61
440.13	358.07
440.50	360.37
440.87	362.21
441.24	364.14
441.61	366.25
441.98	367.74
442.35	369.51
442.72	371.36
443.09	373.15
443.46	374.11
443.83	374.68
444.20	375.13
444.57	375.93
444.94	376.26
445.31	376.58
445.68	376.90
446.05	376.94
446.42	376.56
446.79	376.16
447.16	375.73
447.53	375.44
447.90	374.29
448.27	373.13
448.64	371.53
449.01	370.39
449.37	368.42
449.74	366.50
450.11	364.26
450.48	361.78
450.85	359.26
451.22	357.11
451.59	355.07
451.96	353.17
452.33	350.60
452.70	348.24
453.07	345.41
453.43	342.53
453.80	339.76
454.17	337.06
454.54	334.51
454.91	331.78
455.28	329.06
455.65	326.53
456.02	324.09
456.38	321.92
456.75	319.21
457.12	317.02
457.49	314.84
457.86	312.68
458.23	310.83
458.59	308.76
458.96	306.69
459.33	304.89
459.70	303.01
460.07	301.45
460.43	299.71
460.80	298.07
461.17	296.66
461.54	295.20
461.91	293.79
462.27	292.28
462.64	291.01
463.01	289.71
463.38	288.43
463.74	287.06
464.11	285.92
464.48	284.90
464.85	283.75
465.21	282.84
465.58	281.94
465.95	280.85
466.32	279.93
466.68	279.03
467.05	278.12
467.42	277.21
467.78	276.28
468.15	275.42
468.52	274.75
468.88	273.87
469.25	273.08
469.62	272.49
469.98	271.85
470.35	271.25
470.72	270.64
471.08	269.94
471.45	269.38
471.82	268.83
472.18	268.22
472.55	267.81
472.92	267.28
473.28	266.79
473.65	266.33
474.02	265.90
474.38	265.51
474.75	265.13
475.11	264.78
475.48	264.50
475.85	264.30
476.21	264.04
476.58	263.81
476.94	263.66
477.31	263.44
477.67	263.27
478.04	263.12
478.41	263.03
478.77	263.14
479.14	263.06
479.50	263.04
479.87	263.11
480.23	263.14
480.60	263.21
480.96	263.30
481.33	263.52
481.69	263.71
482.06	263.90
482.42	264.10
482.79	264.33
483.15	264.69
483.52	265.01
483.88	265.36
484.25	265.78
484.61	266.17
484.98	266.63
485.34	267.18
485.71	267.77
486.07	268.34
486.44	268.86
486.80	269.58
487.17	270.30
487.53	271.14
487.90	272.01
488.26	272.93
488.62	273.90
488.99	274.84
489.35	275.86
489.72	276.95
490.08	278.14
490.44	279.36
490.81	280.65
491.17	281.99
491.54	283.43
491.90	284.89
492.26	286.48
492.63	288.16
492.99	289.92
493.36	291.71
493.72	293.75
494.08	295.83
494.45	298.04
494.81	300.40
495.17	302.77
495.54	305.28
495.90	307.91
496.26	310.67
496.63	313.59
496.99	316.67
497.35	319.90
497.72	323.27
498.08	326.79
498.44	330.43
498.80	334.33
499.17	338.37
499.53	342.55
499.89	346.95
500.26	351.47
500.62	356.12
500.98	361.13
501.34	366.19
501.71	371.44
502.07	376.88
502.43	382.46
502.79	388.23
503.16	394.32
503.52	400.57
503.88	406.98
504.24	413.61
504.60	420.50
504.97	427.62
505.33	434.94
505.69	442.61
506.05	450.35
506.41	458.20
506.78	466.35
507.14	474.73
507.50	483.40
507.86	492.35
508.22	501.56
508.59	510.76
508.95	520.35
509.31	530.18
509.67	540.21
510.03	550.51
510.39	561.02
510.75	571.84
511.12	582.74
511.48	594.06
511.84	605.48
512.20	616.98
512.56	628.89
512.92	641.05
513.28	653.35
513.64	665.88
514.00	678.55
514.37	691.49
514.73	704.54
515.09	717.54
515.45	730.83
515.81	744.45
516.17	758.44
516.53	772.59
516.89	786.78
517.25	800.99
517.61	815.45
517.97	829.93
518.33	844.33
518.69	859.17
519.05	874.15
519.41	889.32
519.77	904.86
520.13	920.35
520.49	935.70
520.85	951.18
521.21	966.93
521.57	983.22
521.93	999.10
522.29	1015.65
522.65	1032.03
523.01	1048.32
523.37	1064.38
523.73	1080.61
524.09	1096.78
524.45	1113.21
524.81	1129.90
525.17	1146.82
525.53	1163.81
525.89	1180.78
526.25	1197.65
526.61	1214.04
526.97	1230.88
527.33	1247.43
527.68	1264.26
528.04	1280.82
528.40	1297.55
528.76	1314.72
529.12	1331.43
529.48	1348.33
529.84	1364.49
530.20	1381.16
530.56	1398.29
530.91	1415.76
531.27	1432.61
531.63	1449.09
531.99	1465.62
532.35	1481.76
532.71	1497.56
533.07	1513.90
533.42	1529.71
533.78	1545.76
534.14	1562.16
534.50	1577.52
534.86	1593.50
535.21	1608.56
535.57	1624.71
535.93	1640.24
536.29	1654.98
536.65	1670.23
537.00	1685.10
537.36	1700.40
537.72	1715.17
538.08	1729.69
538.44	1743.59
538.79	1757.55
539.15	1771.43
539.51	1785.41
539.87	1799.70
540.22	1813.63
540.58	1827.55
540.94	1841.13
541.29	1854.39
541.65	1867.31
542.01	1880.76
542.37	1893.28
542.72	1905.85
543.08	1917.72
543.44	1930.27
543.79	1941.67
544.15	1952.57
544.51	1964.21
544.87	1975.25
545.22	1986.09
545.58	1996.25
545.94	2006.17
546.29	2016.01
546.65	2025.85
547.01	2035.09
547.36	2044.00
547.72	2052.47
548.07	2060.34
548.43	2068.50
548.79	2076.51
549.14	2084.02
549.50	2091.35
549.86	2098.99
550.21	2106.21
550.57	2113.44
550.92	2119.94
551.28	2127.01
551.64	2134.12
551.99	2140.59
552.35	2146.65
552.70	2152.66
553.06	2158.53
553.41	2164.81
553.77	2170.87
554.13	2176.74
554.48	2182.83
554.84	2188.11
555.19	2193.48
555.55	2198.52
555.90	2202.94
556.26	2207.55
556.61	2212.20
556.97	2216.28
557.32	2220.32
557.68	2224.44
558.03	2228.59
558.39	2232.34
558.74	2236.84
559.10	2240.57
559.45	2244.21
559.81	2248.65
560.16	2252.36
560.52	2255.66
560.87	2258.90
561.23	2261.52
561.58	2264.53
561.94	2267.01
562.29	2269.49
562.64	2272.10
563.00	2274.64
563.35	2278.14
563.71	2281.22
564.06	2284.28
564.42	2287.13
564.77	2289.47
565.12	2291.71
565.48	2293.44
565.83	2295.08
566.19	2296.30
566.54	2297.19
566.89	2298.00
567.25	2298.25
567.60	2299.50
567.96	2301.04
568.31	2301.76
568.66	2302.61
569.02	2303.03
569.37	2303.08
569.72	2303.60
570.08	2303.38
570.43	2303.24
570.78	2302.29
571.14	2300.66
571.49	2299.09
571.84	2298.52
572.20	2297.07
572.55	2295.75
572.90	2293.99
573.26	2292.44
573.61	2290.58
573.96	2288.53
574.31	2285.50
574.67	2282.37
575.02	2278.53
575.37	2274.97
575.72	2270.97
576.08	2267.56
576.43	2264.09
576.78	2260.21
577.13	2256.90
577.49	2253.75
577.84	2250.05
578.19	2246.20
578.54	2242.20
578.90	2237.65
579.25	2231.99
579.60	2226.95
579.95	2221.81
580.30	2216.60
580.66	2211.24
581.01	2206.11
581.36	2201.07
581.71	2196.67
582.06	2191.99
582.42	2187.51
582.77	2181.99
583.12	2177.12
583.47	2172.13
583.82	2166.90
584.17	2161.58
584.53	2155.87
584.88	2150.00
585.23	2144.13
585.58	2138.57
585.93	2133.11
586.28	2128.38
586.63	2123.20
586.98	2118.19
587.34	2113.41
587.69	2108.45
588.04	2103.02
588.39	2097.19
588.74	2090.62
589.09	2084.40
589.44	2077.46
589.79	2071.24
590.14	2065.58
590.49	2059.04
590.84	2052.35
591.19	2046.20
591.54	2039.58
591.89	2032.06
592.25	2025.21
592.60	2017.92
592.95	2010.17
593.30	2002.71
593.65	1994.98
594.00	1987.85
594.35	1980.54
594.70	1972.31
595.05	1964.94
595.40	1957.70
595.75	1950.17
596.10	1943.68
596.45	1936.85
596.80	1930.61
597.15	1923.80
597.50	1916.61
597.85	1910.19
598.19	1903.56
598.54	1896.44
598.89	1889.84
599.24	1883.88
599.59	1877.03
599.94	1870.88
600.29	1864.55
600.64	1857.96
600.99	1850.55
601.34	1843.63
601.69	1836.56
602.04	1829.61
602.39	1822.32
602.74	1815.46
603.08	1808.62
603.43	1801.97
603.78	1794.66
604.13	1787.36
604.48	1780.19
604.83	1773.37
605.18	1766.25
605.53	1758.33
605.87	1750.15
606.22	1742.80
606.57	1734.93
606.92	1727.58
607.27	1720.27
607.62	1713.15
607.96	1705.82
608.31	1699.16
608.66	1691.55
609.01	1683.98
609.36	1676.56
609.70	1668.54
610.05	1660.37
610.40	1652.70
610.75	1644.39
611.10	1636.87
611.44	1628.58
611.79	1620.48
612.14	1611.89
612.49	1602.79
612.83	1594.58
613.18	1586.57
613.53	1578.58
613.88	1570.05
614.22	1561.92
614.57	1553.41
614.92	1545.60
615.27	1538.03
615.61	1529.79
615.96	1521.72
616.31	1514.10
616.65	1506.62
617.00	1499.07
617.35	1491.49
617.70	1483.18
618.04	1474.76
618.39	1466.42
618.74	1458.86
619.08	1450.65
619.43	1443.05
619.78	1436.28
620.12	1429.08
620.47	1421.53
620.82	1413.40
621.16	1406.16
621.51	1398.52
621.85	1390.85
622.20	1382.30
622.55	1374.14
622.89	1366.29
623.24	1358.80
623.59	1351.46
623.93	1344.05
624.28	1336.96
624.62	1329.50
624.97	1322.37
625.32	1315.72
625.66	1308.81
626.01	1301.66
626.35	1294.15
626.70	1286.46
627.04	1278.70
627.39	1270.92
627.73	1263.61
628.08	1256.75
628.43	1249.34
628.77	1242.05
629.12	1234.54
629.46	1227.47
629.81	1220.08
630.15	1212.90
630.50	1205.59
630.84	1197.46
631.19	1189.60
631.53	1182.14
631.88	1174.68
632.22	1167.23
632.57	1159.89
632.91	1152.38
633.26	1145.04
633.60	1137.90
633.95	1130.90
634.29	1123.87
634.64	1117.30
634.98	1110.07
635.32	1103.04
635.67	1096.65
636.01	1090.13
636.36	1083.44
636.70	1077.00
637.05	1070.51
637.39	1064.14
637.73	1057.64
638.08	1051.93
638.42	1046.04
638.77	1039.62
639.11	1033.05
639.45	1026.75
639.80	1020.18
640.14	1013.80
640.49	1007.31
640.83	1001.08
641.17	994.84
641.52	988.66
641.86	982.32
642.20	976.61
642.55	970.44
642.89	963.92
643.23	957.41
643.58	951.67
643.92	945.42
644.26	939.41
644.61	933.41
644.95	927.51
645.29	920.88
645.64	914.12
645.98	907.85
646.32	902.08
646.66	895.98
647.01	890.26
647.35	884.58
647.69	878.89
648.04	873.34
648.38	867.64
648.72	861.55
649.06	855.49
649.41	849.56
649.75	843.63
650.09	837.76
650.43	832.00
650.78	825.80
651.12	819.97
651.46	814.21
651.80	808.45
652.14	802.98
652.49	797.63
652.83	792.55
653.17	786.80
653.51	781.09
653.85	775.76
654.20	770.09
654.54	764.16
654.88	758.37
655.22	752.54
655.56	746.87
655.90	741.53
656.25	736.26
656.59	730.92
656.93	725.74
657.27	720.61
657.61	715.24
657.95	710.31
658.29	705.29
658.64	700.16
658.98	694.97
659.32	689.61
659.66	684.41
660.00	679.11
660.34	674.30
660.68	669.46
661.02	664.46
661.36	659.80
661.70	655.31
662.05	651.04
662.39	646.71
662.73	642.25
663.07	637.97
663.41	633.54
663.75	629.13
664.09	624.63
664.43	620.32
664.77	616.21
665.11	611.97
665.45	607.93
665.79	603.83
666.13	599.73
666.47	595.64
666.81	591.55
667.15	587.44
667.49	583.54
667.83	579.75
668.17	575.85
668.51	571.88
668.85	567.92
669.19	564.09
669.53	560.34
669.87	556.55
670.21	552.82
670.55	549.29
670.89	545.90
671.23	542.48
671.57	538.95
671.91	535.48
672.25	532.07
672.58	528.52
672.92	525.12
673.26	522.00
673.60	518.93
673.94	515.88
674.28	513.02
674.62	510.08
674.96	507.03
675.30	504.15
675.64	501.22
675.97	498.54
676.31	495.69
676.65	492.77
676.99	490.08
677.33	487.25
677.67	484.42
678.01	481.37
678.34	478.43
678.68	475.58
679.02	472.78
679.36	470.00
679.70	467.34
680.04	464.63
680.37	461.74
680.71	458.99
681.05	456.36
681.39	453.71
681.73	451.08
682.06	448.59
682.40	446.04
682.74	443.55
683.08	440.95
683.42	438.41
683.75	435.89
684.09	433.37
684.43	430.96
684.77	428.52
685.10	426.20
685.44	423.91
685.78	421.70
686.12	419.50
686.45	417.25
686.79	414.93
687.13	412.73
687.46	410.63
687.80	408.47
688.14	406.35
688.48	404.29
688.81	402.05
689.15	399.89
689.49	397.80
689.82	395.72
690.16	393.69
690.50	391.73
690.83	389.83
691.17	387.85
691.51	385.98
691.84	384.16
692.18	382.26
692.52	380.29
692.85	378.35
693.19	376.45
693.52	374.63
693.86	372.87
694.20	371.13
694.53	369.29
694.87	367.47
695.21	365.62
695.54	363.78
695.88	362.08
696.21	360.33
696.55	358.62
696.88	356.96
697.22	355.31
697.56	353.71
697.89	352.08
698.23	350.47
698.56	348.84
698.90	347.23
699.23	345.60
699.57	344.08
699.90	342.56
700.24	341.03
700.58	339.49
700.91	338.00
701.25	336.57
701.58	335.25
701.92	333.89
702.25	332.50
702.59	331.19
702.92	329.94
703.26	328.67
703.59	327.42
703.93	326.25
704.26	325.05
704.60	323.79
704.93	322.53
705.26	321.35
705.60	320.19
705.93	319.08
706.27	318.08
706.60	317.05
706.94	316.02
707.27	314.92
707.61	313.91
707.94	312.90
708.27	311.81
708.61	310.76
708.94	309.77
709.28	308.85
709.61	307.86
709.94	306.88
710.28	305.86
710.61	304.89
710.95	303.82
711.28	302.93
711.61	301.96
711.95	301.06
712.28	300.07
712.61	299.11
712.95	298.22
713.28	297.32
713.61	296.40
713.95	295.49
714.28	294.63
714.61	293.75
714.95	292.91
715.28	292.09
715.61	291.20
715.95	290.34
716.28	289.49
716.61	288.68
716.95	287.92
717.28	287.21
717.61	286.48
717.94	285.74
718.28	284.94
718.61	284.29
718.94	283.63
719.27	283.00
719.61	282.37
719.94	281.70
720.27	281.01
720.60	280.39
720.94	279.74
721.27	279.13
721.60	278.59
721.93	277.99
722.27	277.42
722.60	276.89
722.93	276.35
723.26	275.83
723.59	275.27
723.93	274.69
724.26	274.11
724.59	273.56
724.92	273.03
725.25	272.55
725.59	271.97
725.92	271.46
726.25	270.98
726.58	270.50
726.91	269.99
727.24	269.54
727.57	269.05
727.91	268.57
728.24	268.13
728.57	267.64
728.90	267.18
729.23	266.70
729.56	266.26
729.89	265.78
730.22	265.28
730.55	264.79
730.89	264.38
731.22	263.98
731.55	263.56
731.88	263.15
732.21	262.67
732.54	262.25
732.87	261.83
733.20	261.40
733.53	261.00
733.86	260.63
734.19	260.20
734.52	259.79
734.85	259.49
735.18	259.06
735.51	258.69
735.84	258.32
736.17	257.94
736.50	257.53
736.83	257.30
737.16	256.96
737.49	256.68
737.82	256.33
738.15	255.98
738.48	255.58
738.81	255.25
739.14	254.94
739.47	254.65
739.80	254.33
740.13	254.02
740.46	253.68
740.79	253.32
741.12	253.01
741.45	252.72
741.78	252.35
742.11	252.08
742.44	251.73
742.77	251.44
743.10	251.15
743.43	250.82
743.75	250.43
744.08	250.29
744.41	249.96
744.74	249.65
745.07	249.35
745.40	249.14
745.73	248.88
746.06	248.60
746.39	248.31
746.71	248.04
747.04	247.77
747.37	247.50
747.70	247.22
748.03	247.00
748.36	246.76
748.68	246.51
749.01	246.26
749.34	246.06
749.67	245.85
750.00	245.65
750.33	245.54
750.65	245.33
750.98	244.99
751.31	244.80
751.64	244.61
751.97	244.46
752.29	244.22
752.62	244.01
752.95	243.81
753.28	243.59
753.60	243.38
753.93	243.21
754.26	243.02
754.59	242.84
754.91	242.63
755.24	242.49
755.57	242.37
755.90	242.17
756.22	241.98
756.55	241.75
756.88	241.56
757.20	241.33
757.53	241.13
757.86	240.97
758.19	240.87
758.51	240.71
758.84	240.49
759.17	240.33
759.49	240.19
759.82	240.09
760.15	240.00
760.47	239.86
760.80	239.67
761.13	239.57
761.45	239.44
761.78	239.29
762.11	239.12
762.43	238.93
762.76	238.79
763.08	238.68
763.41	238.56
763.74	238.44
764.06	238.33
764.39	238.20
764.71	238.09
765.04	237.95
765.37	237.81
765.69	237.70
766.02	237.57
766.34	237.41
766.67	237.24
767.00	237.13
767.32	237.05
767.65	237.02
767.97	236.90
768.30	236.83
768.62	236.73
768.95	236.59
769.27	236.50
769.60	236.40
769.92	236.28
770.25	236.17
770.57	236.03
770.90	235.90
771.22	235.81
771.55	235.68
771.87	235.59
772.20	235.51
772.52	235.50
772.85	235.53
773.17	235.46
773.50	235.40
773.82	235.26
774.15	235.15
774.47	235.00
774.80	234.91
775.12	234.79
775.45	234.70
775.77	234.63
776.09	234.54
776.42	234.46
776.74	234.41
777.07	234.35
777.39	234.28
777.72	234.22
778.04	234.16
778.36	234.03
778.69	233.92
779.01	233.85
779.33	233.69
779.66	233.53
779.98	233.42
780.31	233.29
780.63	233.27
780.95	233.18
781.28	233.10
781.60	233.00
781.92	232.94
782.25	232.87
782.57	232.81
782.89	232.77
783.22	232.68
783.54	232.58
783.86	232.51
784.19	232.44
784.51	232.39
784.83	232.33
785.16	232.27
785.48	232.23
785.80	232.16
786.12	232.11
786.45	232.05
786.77	232.03
787.09	231.99
