SpectraSuite Data File
++++++++++++++++++++++++++++++++++++
Date: Fri Feb 01 17:20:49 EST 2013
User: group
Dark Spectrum Present: No
Reference Spectrum Present: No
Number of Sampled Component Spectra: 1
Spectrometers: USB2E7196
Integration Time (usec): 35000 (USB2E7196)
Spectra Averaged: 100 (USB2E7196)
Boxcar Smoothing: 10 (USB2E7196)
Correct for Electrical Dark: No (USB2E7196)
Strobe/Lamp Enabled: No (USB2E7196)
Correct for Detector Non-linearity: No (USB2E7196)
Correct for Stray Light: No (USB2E7196)
Number of Pixels in Processed Spectrum: 2048
>>>>>Begin Processed Spectral Data<<<<<
339.09	0.00
339.48	213.12
339.86	214.64
340.24	215.94
340.63	217.39
341.01	219.81
341.39	220.49
341.78	221.70
342.16	222.24
342.54	223.02
342.93	211.58
343.31	222.28
343.69	222.81
344.07	223.27
344.46	223.70
344.84	224.05
345.22	224.28
345.60	224.49
345.99	224.66
346.37	224.81
346.75	224.92
347.13	225.00
347.52	225.07
347.90	225.13
348.28	225.14
348.66	225.17
349.05	225.14
349.43	225.15
349.81	225.18
350.19	225.20
350.57	225.24
350.96	225.26
351.34	225.32
351.72	225.40
352.10	225.52
352.48	225.57
352.87	225.65
353.25	225.74
353.63	225.82
354.01	225.88
354.39	225.91
354.77	225.97
355.15	226.04
355.54	226.10
355.92	226.16
356.30	226.23
356.68	226.37
357.06	226.44
357.44	226.48
357.82	226.51
358.20	226.59
358.58	226.66
358.97	226.73
359.35	226.79
359.73	226.88
360.11	226.92
360.49	226.97
360.87	227.01
361.25	227.05
361.63	227.11
362.01	227.18
362.39	227.21
362.77	227.27
363.15	227.30
363.53	227.32
363.91	227.31
364.29	227.33
364.67	227.24
365.05	227.28
365.43	227.32
365.81	227.35
366.19	227.43
366.57	227.47
366.95	227.49
367.33	227.47
367.71	227.46
368.09	227.46
368.47	227.48
368.85	227.46
369.23	227.44
369.61	227.41
369.99	227.38
370.37	227.40
370.75	227.40
371.13	227.36
371.51	227.30
371.89	227.29
372.27	227.26
372.65	227.23
373.03	227.18
373.41	227.13
373.78	227.06
374.16	226.93
374.54	226.85
374.92	226.77
375.30	226.71
375.68	226.65
376.06	226.55
376.44	226.51
376.82	226.46
377.19	226.42
377.57	226.33
377.95	226.25
378.33	226.13
378.71	226.01
379.09	225.97
379.47	225.94
379.84	225.86
380.22	225.79
380.60	225.70
380.98	225.67
381.36	225.61
381.73	225.57
382.11	225.54
382.49	225.48
382.87	225.41
383.25	225.34
383.62	225.39
384.00	225.31
384.38	225.23
384.76	225.19
385.13	225.18
385.51	225.16
385.89	225.09
386.27	225.09
386.64	225.09
387.02	225.04
387.40	224.99
387.78	224.95
388.15	224.91
388.53	224.91
388.91	224.88
389.29	224.86
389.66	224.84
390.04	224.83
390.42	224.81
390.79	224.80
391.17	224.80
391.55	224.69
391.92	224.72
392.30	224.72
392.68	224.71
393.05	224.70
393.43	224.70
393.81	224.74
394.18	224.73
394.56	224.72
394.94	224.75
395.31	224.74
395.69	224.81
396.06	224.87
396.44	224.88
396.82	224.91
397.19	224.98
397.57	225.00
397.95	225.02
398.32	225.05
398.70	225.08
399.07	225.17
399.45	225.18
399.82	225.21
400.20	225.28
400.58	225.33
400.95	225.35
401.33	225.46
401.70	225.56
402.08	225.64
402.45	225.71
402.83	225.80
403.20	225.94
403.58	226.00
403.95	226.08
404.33	226.20
404.71	226.27
405.08	226.46
405.46	226.59
405.83	226.70
406.21	226.84
406.58	227.03
406.96	227.19
407.33	227.39
407.70	227.61
408.08	227.86
408.45	228.08
408.83	228.32
409.20	228.49
409.58	228.68
409.95	228.96
410.33	229.24
410.70	229.50
411.08	229.76
411.45	230.09
411.82	230.43
412.20	230.80
412.57	231.25
412.95	231.52
413.32	231.96
413.69	232.41
414.07	232.87
414.44	233.34
414.82	233.81
415.19	234.37
415.56	234.90
415.94	235.47
416.31	236.13
416.68	236.75
417.06	237.49
417.43	238.20
417.81	238.98
418.18	239.79
418.55	240.60
418.93	241.54
419.30	242.45
419.67	243.39
420.04	244.39
420.42	245.38
420.79	246.61
421.16	247.77
421.54	249.01
421.91	250.23
422.28	251.55
422.66	252.93
423.03	254.27
423.40	255.67
423.77	257.14
424.15	258.60
424.52	260.16
424.89	261.87
425.26	263.47
425.64	264.95
426.01	266.64
426.38	268.41
426.75	270.12
427.13	271.94
427.50	273.81
427.87	275.79
428.24	277.75
428.61	279.56
428.99	281.54
429.36	283.69
429.73	285.82
430.10	287.89
430.47	290.02
430.85	292.19
431.22	294.50
431.59	296.93
431.96	299.28
432.33	301.81
432.70	304.26
433.08	307.16
433.45	309.91
433.82	312.60
434.19	315.55
434.56	318.49
434.93	321.22
435.30	323.96
435.68	326.89
436.05	329.79
436.42	332.67
436.79	335.31
437.16	338.09
437.53	341.05
437.90	343.95
438.27	346.76
438.64	349.71
439.01	352.34
439.38	354.68
439.75	356.89
440.13	359.45
440.50	361.81
440.87	363.75
441.24	365.77
441.61	368.00
441.98	369.54
442.35	371.43
442.72	373.36
443.09	375.25
443.46	376.30
443.83	376.91
444.20	377.43
444.57	378.31
444.94	378.59
445.31	378.94
445.68	379.37
446.05	379.48
446.42	379.09
446.79	378.71
447.16	378.24
447.53	377.96
447.90	376.80
448.27	375.68
448.64	374.01
449.01	372.86
449.37	370.83
449.74	368.92
450.11	366.54
450.48	364.01
450.85	361.36
451.22	359.17
451.59	357.12
451.96	355.15
452.33	352.49
452.70	350.12
453.07	347.20
453.43	344.21
453.80	341.38
454.17	338.60
454.54	335.95
454.91	333.18
455.28	330.40
455.65	327.84
456.02	325.26
456.38	323.07
456.75	320.32
457.12	318.01
457.49	315.69
457.86	313.46
458.23	311.51
458.59	309.45
458.96	307.26
459.33	305.33
459.70	303.37
460.07	301.80
460.43	300.00
460.80	298.34
461.17	296.83
461.54	295.26
461.91	293.79
462.27	292.32
462.64	291.02
463.01	289.64
463.38	288.30
463.74	286.92
464.11	285.72
464.48	284.64
464.85	283.47
465.21	282.59
465.58	281.69
465.95	280.54
466.32	279.52
466.68	278.61
467.05	277.70
467.42	276.78
467.78	275.82
468.15	274.93
468.52	274.26
468.88	273.34
469.25	272.53
469.62	271.88
469.98	271.20
470.35	270.51
470.72	269.87
471.08	269.20
471.45	268.61
471.82	268.04
472.18	267.40
472.55	266.95
472.92	266.39
473.28	265.88
473.65	265.46
474.02	265.01
474.38	264.60
474.75	264.24
475.11	263.90
475.48	263.61
475.85	263.36
476.21	263.08
476.58	262.94
476.94	262.80
477.31	262.66
477.67	262.49
478.04	262.37
478.41	262.34
478.77	262.35
479.14	262.27
479.50	262.29
479.87	262.38
480.23	262.46
480.60	262.56
480.96	262.62
481.33	262.83
481.69	263.05
482.06	263.28
482.42	263.52
482.79	263.78
483.15	264.11
483.52	264.48
483.88	264.84
484.25	265.16
484.61	265.63
484.98	266.06
485.34	266.62
485.71	267.22
486.07	267.81
486.44	268.40
486.80	269.12
487.17	269.87
487.53	270.67
487.90	271.53
488.26	272.45
488.62	273.46
488.99	274.41
489.35	275.50
489.72	276.63
490.08	277.80
490.44	279.04
490.81	280.40
491.17	281.76
491.54	283.23
491.90	284.78
492.26	286.41
492.63	288.13
492.99	289.86
493.36	291.75
493.72	293.80
494.08	295.88
494.45	298.11
494.81	300.50
495.17	302.95
495.54	305.54
495.90	308.21
496.26	310.97
496.63	313.93
496.99	316.99
497.35	320.20
497.72	323.61
498.08	327.16
498.44	330.76
498.80	334.69
499.17	338.72
499.53	342.90
499.89	347.25
500.26	351.71
500.62	356.36
500.98	361.31
501.34	366.32
501.71	371.66
502.07	377.07
502.43	382.55
502.79	388.32
503.16	394.34
503.52	400.53
503.88	406.92
504.24	413.45
504.60	420.26
504.97	427.31
505.33	434.52
505.69	442.09
506.05	449.80
506.41	457.58
506.78	465.66
507.14	473.99
507.50	482.56
507.86	491.44
508.22	500.56
508.59	509.60
508.95	518.99
509.31	528.60
509.67	538.51
510.03	548.56
510.39	558.94
510.75	569.54
511.12	580.30
511.48	591.37
511.84	602.69
512.20	614.05
512.56	625.75
512.92	637.64
513.28	649.81
513.64	662.05
514.00	674.40
514.37	687.08
514.73	699.83
515.09	712.57
515.45	725.65
515.81	738.88
516.17	752.56
516.53	766.41
516.89	780.34
517.25	794.20
517.61	808.37
517.97	822.54
518.33	836.70
518.69	851.12
519.05	865.71
519.41	880.46
519.77	895.68
520.13	910.71
520.49	925.88
520.85	940.88
521.21	956.14
521.57	971.98
521.93	987.35
522.29	1003.33
522.65	1019.24
523.01	1035.04
523.37	1050.73
523.73	1066.50
524.09	1082.26
524.45	1098.07
524.81	1114.35
525.17	1130.66
525.53	1147.06
525.89	1163.46
526.25	1179.88
526.61	1195.95
526.97	1212.36
527.33	1228.38
527.68	1244.71
528.04	1260.72
528.40	1276.81
528.76	1293.61
529.12	1309.97
529.48	1326.57
529.84	1342.22
530.20	1358.50
530.56	1375.07
530.91	1392.12
531.27	1408.66
531.63	1424.77
531.99	1441.09
532.35	1456.83
532.71	1472.60
533.07	1488.54
533.42	1504.19
533.78	1519.98
534.14	1535.84
534.50	1550.95
534.86	1566.46
535.21	1581.33
535.57	1596.99
535.93	1612.36
536.29	1626.83
536.65	1641.56
537.00	1656.00
537.36	1671.19
537.72	1685.42
538.08	1699.77
538.44	1713.35
538.79	1727.03
539.15	1740.40
539.51	1753.91
539.87	1768.12
540.22	1781.59
540.58	1795.19
540.94	1808.23
541.29	1820.83
541.65	1833.51
542.01	1846.49
542.37	1858.72
542.72	1871.03
543.08	1882.79
543.44	1894.98
543.79	1906.25
544.15	1917.18
544.51	1928.76
544.87	1939.69
545.22	1950.59
545.58	1960.76
545.94	1970.65
546.29	1980.41
546.65	1990.45
547.01	1999.84
547.36	2008.56
547.72	2017.17
548.07	2025.36
548.43	2033.56
548.79	2041.82
549.14	2049.50
549.50	2056.95
549.86	2064.80
550.21	2072.26
550.57	2079.68
550.92	2086.59
551.28	2093.89
551.64	2101.12
551.99	2107.84
552.35	2114.12
552.70	2120.23
553.06	2126.48
553.41	2133.00
553.77	2139.17
554.13	2145.46
554.48	2151.77
554.84	2157.54
555.19	2162.91
555.55	2168.24
555.90	2173.16
556.26	2178.49
556.61	2183.24
556.97	2188.04
557.32	2192.52
557.68	2196.98
558.03	2201.43
558.39	2205.24
558.74	2210.06
559.10	2214.46
559.45	2218.36
559.81	2222.83
560.16	2227.08
560.52	2230.56
560.87	2234.21
561.23	2237.25
561.58	2240.46
561.94	2243.45
562.29	2246.02
562.64	2249.27
563.00	2252.00
563.35	2255.72
563.71	2258.99
564.06	2262.63
564.42	2265.78
564.77	2268.73
565.12	2271.42
565.48	2273.79
565.83	2276.10
566.19	2277.74
566.54	2278.73
566.89	2280.38
567.25	2281.63
567.60	2283.26
567.96	2285.48
568.31	2286.75
568.66	2288.22
569.02	2289.00
569.37	2289.55
569.72	2290.92
570.08	2291.40
570.43	2291.86
570.78	2291.80
571.14	2290.59
571.49	2289.64
571.84	2289.60
572.20	2288.85
572.55	2288.19
572.90	2286.72
573.26	2285.71
573.61	2284.21
573.96	2282.98
574.31	2280.23
574.67	2277.47
575.02	2274.20
575.37	2271.05
575.72	2267.77
576.08	2264.74
576.43	2261.79
576.78	2258.55
577.13	2255.40
577.49	2252.30
577.84	2249.29
578.19	2245.70
578.54	2242.62
578.90	2238.90
579.25	2233.57
579.60	2228.94
579.95	2224.24
580.30	2219.61
580.66	2214.83
581.01	2210.23
581.36	2205.46
581.71	2201.82
582.06	2197.71
582.42	2193.66
582.77	2188.85
583.12	2184.43
583.47	2180.15
583.82	2175.58
584.17	2170.58
584.53	2165.35
584.88	2160.24
585.23	2154.61
585.58	2149.31
585.93	2144.06
586.28	2139.37
586.63	2134.62
586.98	2129.77
587.34	2124.95
587.69	2120.28
588.04	2115.39
588.39	2110.08
588.74	2103.70
589.09	2097.62
589.44	2091.19
589.79	2085.20
590.14	2079.48
590.49	2073.16
590.84	2066.85
591.19	2060.97
591.54	2054.80
591.89	2047.95
592.25	2041.44
592.60	2034.39
592.95	2027.33
593.30	2020.07
593.65	2012.56
594.00	2005.65
594.35	1998.52
594.70	1990.94
595.05	1984.03
595.40	1976.74
595.75	1969.37
596.10	1963.65
596.45	1957.16
596.80	1950.90
597.15	1944.50
597.50	1937.88
597.85	1931.47
598.19	1925.00
598.54	1918.12
598.89	1911.52
599.24	1905.57
599.59	1899.06
599.94	1892.86
600.29	1886.50
600.64	1879.89
600.99	1872.64
601.34	1865.92
601.69	1858.93
602.04	1852.12
602.39	1844.73
602.74	1837.96
603.08	1831.25
603.43	1824.40
603.78	1817.08
604.13	1810.10
604.48	1802.90
604.83	1795.86
605.18	1789.09
605.53	1781.09
605.87	1773.10
606.22	1765.81
606.57	1757.81
606.92	1750.16
607.27	1743.19
607.62	1736.26
607.96	1729.19
608.31	1722.73
608.66	1715.16
609.01	1707.70
609.36	1700.17
609.70	1692.27
610.05	1684.28
610.40	1676.73
610.75	1668.39
611.10	1660.74
611.44	1652.14
611.79	1644.05
612.14	1635.47
612.49	1626.03
612.83	1617.60
613.18	1609.36
613.53	1601.26
613.88	1592.70
614.22	1584.48
614.57	1575.76
614.92	1567.73
615.27	1560.10
615.61	1551.68
615.96	1543.51
616.31	1535.72
616.65	1528.16
617.00	1520.45
617.35	1512.62
617.70	1504.25
618.04	1495.68
618.39	1487.23
618.74	1479.65
619.08	1471.29
619.43	1463.52
619.78	1456.51
620.12	1449.33
620.47	1441.86
620.82	1433.50
621.16	1425.97
621.51	1418.25
621.85	1410.54
622.20	1401.88
622.55	1393.25
622.89	1385.20
623.24	1377.47
623.59	1369.93
623.93	1362.36
624.28	1355.07
624.62	1347.47
624.97	1340.04
625.32	1333.20
625.66	1326.06
626.01	1318.68
626.35	1311.29
626.70	1303.43
627.04	1295.65
627.39	1287.68
627.73	1280.15
628.08	1273.22
628.43	1265.96
628.77	1258.59
629.12	1250.97
629.46	1243.68
629.81	1236.16
630.15	1228.94
630.50	1221.49
630.84	1213.32
631.19	1205.17
631.53	1197.41
631.88	1189.76
632.22	1182.08
632.57	1174.64
632.91	1167.04
633.26	1159.64
633.60	1152.10
633.95	1144.84
634.29	1137.75
634.64	1130.96
634.98	1123.49
635.32	1116.30
635.67	1109.55
636.01	1102.78
636.36	1095.84
636.70	1089.35
637.05	1082.78
637.39	1076.19
637.73	1069.73
638.08	1063.68
638.42	1057.72
638.77	1051.35
639.11	1044.70
639.45	1038.25
639.80	1031.55
640.14	1025.13
640.49	1018.56
640.83	1012.22
641.17	1006.06
641.52	999.73
641.86	993.23
642.20	987.31
642.55	980.74
642.89	974.22
643.23	967.55
643.58	961.80
643.92	955.49
644.26	949.49
644.61	943.34
644.95	937.21
645.29	930.70
645.64	923.90
645.98	917.46
646.32	911.49
646.66	905.45
647.01	899.62
647.35	893.88
647.69	887.93
648.04	882.31
648.38	876.52
648.72	870.50
649.06	864.51
649.41	858.46
649.75	852.59
650.09	846.67
650.43	840.91
650.78	834.72
651.12	828.73
651.46	822.95
651.80	817.29
652.14	811.90
652.49	806.49
652.83	801.30
653.17	795.73
653.51	790.05
653.85	784.59
654.20	778.99
654.54	773.02
654.88	767.24
655.22	761.26
655.56	755.50
655.90	749.94
656.25	744.65
656.59	739.31
656.93	734.20
657.27	729.01
657.61	723.58
657.95	718.42
658.29	713.31
658.64	707.94
658.98	702.54
659.32	696.93
659.66	691.65
660.00	686.35
660.34	681.36
660.68	676.38
661.02	671.26
661.36	666.47
661.70	661.89
662.05	657.49
662.39	653.21
662.73	648.67
663.07	644.35
663.41	639.88
663.75	635.46
664.09	630.89
664.43	626.49
664.77	622.36
665.11	618.14
665.45	614.00
665.79	609.88
666.13	605.77
666.47	601.72
666.81	597.59
667.15	593.41
667.49	589.43
667.83	585.59
668.17	581.64
668.51	577.59
668.85	573.47
669.19	569.61
669.53	565.74
669.87	561.88
670.21	558.07
670.55	554.35
670.89	550.86
671.23	547.39
671.57	543.82
671.91	540.25
672.25	536.67
672.58	533.17
672.92	529.74
673.26	526.53
673.60	523.32
673.94	520.17
674.28	517.20
674.62	514.23
674.96	511.14
675.30	508.25
675.64	505.32
675.97	502.59
676.31	499.63
676.65	496.68
676.99	493.95
677.33	491.06
677.67	488.24
678.01	485.23
678.34	482.26
678.68	479.32
679.02	476.46
679.36	473.65
679.70	470.85
680.04	468.09
680.37	465.18
680.71	462.35
681.05	459.70
681.39	457.01
681.73	454.31
682.06	451.71
682.40	449.17
682.74	446.53
683.08	443.90
683.42	441.30
683.75	438.78
684.09	436.14
684.43	433.67
684.77	431.17
685.10	428.73
685.44	426.32
685.78	424.01
686.12	421.72
686.45	419.44
686.79	417.16
687.13	414.98
687.46	412.79
687.80	410.64
688.14	408.36
688.48	406.31
688.81	404.12
689.15	401.96
689.49	399.70
689.82	397.61
690.16	395.47
690.50	393.50
690.83	391.52
691.17	389.50
691.51	387.60
691.84	385.72
692.18	383.81
692.52	381.88
692.85	379.93
693.19	378.01
693.52	376.13
693.86	374.27
694.20	372.42
694.53	370.63
694.87	368.76
695.21	366.95
695.54	365.05
695.88	363.24
696.21	361.54
696.55	359.86
696.88	358.18
697.22	356.52
697.56	354.84
697.89	353.16
698.23	351.60
698.56	349.93
698.90	348.36
699.23	346.70
699.57	345.15
699.90	343.58
700.24	342.08
700.58	340.57
700.91	339.09
701.25	337.62
701.58	336.26
701.92	334.90
702.25	333.49
702.59	332.14
702.92	330.78
703.26	329.43
703.59	328.16
703.93	326.93
704.26	325.67
704.60	324.40
704.93	323.10
705.26	321.85
705.60	320.68
705.93	319.47
706.27	318.40
706.60	317.28
706.94	316.21
707.27	315.10
707.61	314.01
707.94	312.95
708.27	311.85
708.61	310.68
708.94	309.61
709.28	308.63
709.61	307.62
709.94	306.68
710.28	305.63
710.61	304.60
710.95	303.50
711.28	302.57
711.61	301.61
711.95	300.71
712.28	299.73
712.61	298.73
712.95	297.78
713.28	296.90
713.61	296.00
713.95	295.11
714.28	294.20
714.61	293.29
714.95	292.42
715.28	291.53
715.61	290.67
715.95	289.83
716.28	288.95
716.61	288.10
716.95	287.24
717.28	286.52
717.61	285.76
717.94	285.02
718.28	284.19
718.61	283.43
718.94	282.68
719.27	281.98
719.61	281.33
719.94	280.65
720.27	279.93
720.60	279.25
720.94	278.64
721.27	278.04
721.60	277.47
721.93	276.84
722.27	276.33
722.60	275.78
722.93	275.22
723.26	274.71
723.59	274.13
723.93	273.59
724.26	272.98
724.59	272.40
724.92	271.83
725.25	271.34
725.59	270.84
725.92	270.34
726.25	269.80
726.58	269.28
726.91	268.78
727.24	268.27
727.57	267.80
727.91	267.25
728.24	266.74
728.57	266.21
728.90	265.73
729.23	265.18
729.56	264.74
729.89	264.24
730.22	263.71
730.55	263.26
730.89	262.80
731.22	262.39
731.55	261.92
731.88	261.50
732.21	261.04
732.54	260.55
732.87	260.12
733.20	259.73
733.53	259.29
733.86	258.90
734.19	258.52
734.52	258.09
734.85	257.75
735.18	257.34
735.51	256.99
735.84	256.65
736.17	256.30
736.50	255.86
736.83	255.64
737.16	255.30
737.49	254.95
737.82	254.56
738.15	254.18
738.48	253.84
738.81	253.52
739.14	253.22
739.47	252.93
739.80	252.63
740.13	252.30
740.46	251.98
740.79	251.66
741.12	251.36
741.45	251.03
741.78	250.69
742.11	250.42
742.44	250.10
742.77	249.80
743.10	249.50
743.43	249.19
743.75	248.75
744.08	248.60
744.41	248.34
744.74	248.08
745.07	247.80
745.40	247.55
745.73	247.29
746.06	247.00
746.39	246.73
746.71	246.44
747.04	246.19
747.37	245.91
747.70	245.66
748.03	245.38
748.36	245.17
748.68	244.95
749.01	244.63
749.34	244.36
749.67	244.13
750.00	243.93
750.33	243.81
750.65	243.62
750.98	243.26
751.31	243.04
751.64	242.84
751.97	242.66
752.29	242.48
752.62	242.23
752.95	242.01
753.28	241.83
753.60	241.59
753.93	241.41
754.26	241.22
754.59	241.00
754.91	240.76
755.24	240.54
755.57	240.34
755.90	240.17
756.22	240.00
756.55	239.78
756.88	239.54
757.20	239.28
757.53	239.07
757.86	238.90
758.19	238.75
758.51	238.59
758.84	238.38
759.17	238.16
759.49	238.01
759.82	237.89
760.15	237.70
760.47	237.57
760.80	237.38
761.13	237.23
761.45	237.09
761.78	236.95
762.11	236.82
762.43	236.64
762.76	236.50
763.08	236.40
763.41	236.29
763.74	236.13
764.06	235.97
764.39	235.82
764.71	235.66
765.04	235.49
765.37	235.35
765.69	235.23
766.02	235.13
766.34	234.96
766.67	234.83
767.00	234.73
767.32	234.68
767.65	234.61
767.97	234.52
768.30	234.37
768.62	234.25
768.95	234.13
769.27	234.01
769.60	233.94
769.92	233.80
770.25	233.66
770.57	233.55
770.90	233.45
771.22	233.36
771.55	233.28
771.87	233.17
772.20	233.08
772.52	233.06
772.85	233.09
773.17	233.01
773.50	232.89
773.82	232.80
774.15	232.66
774.47	232.55
774.80	232.45
775.12	232.38
775.45	232.31
775.77	232.25
776.09	232.18
776.42	232.07
776.74	232.02
777.07	231.91
777.39	231.82
777.72	231.73
778.04	231.69
778.36	231.64
778.69	231.58
779.01	231.54
779.33	231.38
779.66	231.18
779.98	231.14
780.31	231.12
780.63	231.09
780.95	231.05
781.28	230.95
781.60	230.87
781.92	230.82
782.25	230.75
782.57	230.69
782.89	230.60
783.22	230.54
783.54	230.48
783.86	230.46
784.19	230.45
784.51	230.45
784.83	230.37
785.16	230.30
785.48	230.23
785.80	230.16
786.12	230.10
786.45	230.10
786.77	230.03
787.09	229.97
