SpectraSuite Data File
++++++++++++++++++++++++++++++++++++
Date: Fri Feb 01 16:20:48 EST 2013
User: group
Dark Spectrum Present: No
Reference Spectrum Present: No
Number of Sampled Component Spectra: 1
Spectrometers: USB2E7196
Integration Time (usec): 35000 (USB2E7196)
Spectra Averaged: 100 (USB2E7196)
Boxcar Smoothing: 10 (USB2E7196)
Correct for Electrical Dark: No (USB2E7196)
Strobe/Lamp Enabled: No (USB2E7196)
Correct for Detector Non-linearity: No (USB2E7196)
Correct for Stray Light: No (USB2E7196)
Number of Pixels in Processed Spectrum: 2048
>>>>>Begin Processed Spectral Data<<<<<
339.09	0.00
339.48	213.85
339.86	215.47
340.24	217.31
340.63	218.44
341.01	221.25
341.39	220.93
341.78	221.99
342.16	223.49
342.54	223.72
342.93	212.33
343.31	223.09
343.69	223.63
344.07	224.09
344.46	224.49
344.84	224.86
345.22	225.11
345.60	225.38
345.99	225.60
346.37	225.76
346.75	225.86
347.13	225.94
347.52	225.99
347.90	226.07
348.28	226.12
348.66	226.17
349.05	226.18
349.43	226.21
349.81	226.24
350.19	226.28
350.57	226.40
350.96	226.49
351.34	226.55
351.72	226.64
352.10	226.76
352.48	226.84
352.87	226.93
353.25	226.98
353.63	227.04
354.01	227.09
354.39	227.15
354.77	227.24
355.15	227.33
355.54	227.41
355.92	227.45
356.30	227.59
356.68	227.73
357.06	227.85
357.44	227.91
357.82	227.98
358.20	228.11
358.58	228.14
358.97	228.21
359.35	228.32
359.73	228.41
360.11	228.47
360.49	228.51
360.87	228.55
361.25	228.61
361.63	228.70
362.01	228.77
362.39	228.80
362.77	228.86
363.15	228.89
363.53	228.95
363.91	229.00
364.29	229.01
364.67	228.96
365.05	228.95
365.43	228.97
365.81	229.02
366.19	229.06
366.57	229.08
366.95	229.07
367.33	229.00
367.71	228.97
368.09	228.96
368.47	228.98
368.85	228.95
369.23	228.96
369.61	228.92
369.99	228.89
370.37	228.87
370.75	228.86
371.13	228.80
371.51	228.73
371.89	228.71
372.27	228.64
372.65	228.57
373.03	228.52
373.41	228.46
373.78	228.39
374.16	228.28
374.54	228.20
374.92	228.13
375.30	228.11
375.68	228.06
376.06	227.99
376.44	227.92
376.82	227.87
377.19	227.79
377.57	227.69
377.95	227.58
378.33	227.52
378.71	227.41
379.09	227.31
379.47	227.23
379.84	227.13
380.22	227.06
380.60	226.97
380.98	226.86
381.36	226.80
381.73	226.72
382.11	226.62
382.49	226.54
382.87	226.48
383.25	226.40
383.62	226.41
384.00	226.33
384.38	226.26
384.76	226.19
385.13	226.16
385.51	226.11
385.89	226.05
386.27	225.95
386.64	225.90
387.02	225.88
387.40	225.85
387.78	225.79
388.15	225.75
388.53	225.72
388.91	225.73
389.29	225.68
389.66	225.65
390.04	225.62
390.42	225.65
390.79	225.61
391.17	225.60
391.55	225.49
391.92	225.51
392.30	225.55
392.68	225.52
393.05	225.49
393.43	225.48
393.81	225.49
394.18	225.50
394.56	225.50
394.94	225.55
395.31	225.56
395.69	225.63
396.06	225.66
396.44	225.72
396.82	225.71
397.19	225.79
397.57	225.83
397.95	225.93
398.32	225.91
398.70	226.01
399.07	226.09
399.45	226.15
399.82	226.19
400.20	226.22
400.58	226.33
400.95	226.38
401.33	226.46
401.70	226.61
402.08	226.71
402.45	226.81
402.83	226.92
403.20	227.03
403.58	227.11
403.95	227.23
404.33	227.33
404.71	227.47
405.08	227.63
405.46	227.72
405.83	227.84
406.21	227.99
406.58	228.13
406.96	228.25
407.33	228.43
407.70	228.61
408.08	228.88
408.45	229.12
408.83	229.32
409.20	229.52
409.58	229.70
409.95	229.97
410.33	230.25
410.70	230.51
411.08	230.81
411.45	231.09
411.82	231.39
412.20	231.77
412.57	232.23
412.95	232.52
413.32	232.96
413.69	233.37
414.07	233.80
414.44	234.24
414.82	234.73
415.19	235.25
415.56	235.78
415.94	236.30
416.31	236.91
416.68	237.55
417.06	238.31
417.43	239.02
417.81	239.80
418.18	240.57
418.55	241.37
418.93	242.28
419.30	243.19
419.67	244.17
420.04	245.12
420.42	246.07
420.79	247.28
421.16	248.44
421.54	249.64
421.91	250.88
422.28	252.14
422.66	253.45
423.03	254.76
423.40	256.13
423.77	257.55
424.15	258.95
424.52	260.43
424.89	262.00
425.26	263.56
425.64	264.99
426.01	266.59
426.38	268.24
426.75	269.86
427.13	271.61
427.50	273.39
427.87	275.25
428.24	277.13
428.61	278.88
428.99	280.79
429.36	282.85
429.73	284.90
430.10	286.92
430.47	288.98
430.85	291.08
431.22	293.30
431.59	295.70
431.96	297.99
432.33	300.46
432.70	302.87
433.08	305.66
433.45	308.32
433.82	310.93
434.19	313.81
434.56	316.65
434.93	319.27
435.30	321.89
435.68	324.74
436.05	327.52
436.42	330.30
436.79	332.82
437.16	335.56
437.53	338.38
437.90	341.19
438.27	343.91
438.64	346.74
439.01	349.30
439.38	351.47
439.75	353.58
440.13	356.09
440.50	358.37
440.87	360.18
441.24	362.05
441.61	364.20
441.98	365.65
442.35	367.42
442.72	369.25
443.09	371.03
443.46	372.03
443.83	372.64
444.20	373.15
444.57	374.00
444.94	374.24
445.31	374.58
445.68	374.98
446.05	375.06
446.42	374.71
446.79	374.27
447.16	373.87
447.53	373.59
447.90	372.43
448.27	371.31
448.64	369.75
449.01	368.62
449.37	366.62
449.74	364.75
450.11	362.52
450.48	360.04
450.85	357.52
451.22	355.38
451.59	353.38
451.96	351.47
452.33	348.82
452.70	346.48
453.07	343.66
453.43	340.71
453.80	337.97
454.17	335.28
454.54	332.80
454.91	330.07
455.28	327.33
455.65	324.84
456.02	322.41
456.38	320.26
456.75	317.63
457.12	315.43
457.49	313.24
457.86	311.06
458.23	309.23
458.59	307.20
458.96	305.15
459.33	303.22
459.70	301.29
460.07	299.84
460.43	298.13
460.80	296.47
461.17	295.06
461.54	293.55
461.91	292.15
462.27	290.68
462.64	289.44
463.01	288.12
463.38	286.82
463.74	285.42
464.11	284.26
464.48	283.25
464.85	282.10
465.21	281.23
465.58	280.32
465.95	279.25
466.32	278.31
466.68	277.41
467.05	276.56
467.42	275.70
467.78	274.75
468.15	273.88
468.52	273.26
468.88	272.41
469.25	271.62
469.62	270.97
469.98	270.31
470.35	269.64
470.72	269.08
471.08	268.44
471.45	267.92
471.82	267.37
472.18	266.78
472.55	266.38
472.92	265.85
473.28	265.41
473.65	264.95
474.02	264.52
474.38	264.17
474.75	263.87
475.11	263.54
475.48	263.28
475.85	263.05
476.21	262.82
476.58	262.61
476.94	262.49
477.31	262.36
477.67	262.21
478.04	262.13
478.41	262.08
478.77	262.15
479.14	262.08
479.50	262.11
479.87	262.18
480.23	262.24
480.60	262.29
480.96	262.39
481.33	262.62
481.69	262.83
482.06	263.04
482.42	263.24
482.79	263.51
483.15	263.89
483.52	264.27
483.88	264.65
484.25	265.05
484.61	265.49
484.98	265.94
485.34	266.52
485.71	267.12
486.07	267.68
486.44	268.24
486.80	268.94
487.17	269.64
487.53	270.47
487.90	271.35
488.26	272.30
488.62	273.27
488.99	274.28
489.35	275.34
489.72	276.43
490.08	277.64
490.44	278.88
490.81	280.18
491.17	281.57
491.54	283.06
491.90	284.62
492.26	286.32
492.63	288.03
492.99	289.80
493.36	291.71
493.72	293.79
494.08	295.90
494.45	298.16
494.81	300.57
495.17	303.00
495.54	305.58
495.90	308.27
496.26	311.13
496.63	314.07
496.99	317.18
497.35	320.44
497.72	323.86
498.08	327.39
498.44	331.08
498.80	335.00
499.17	339.04
499.53	343.23
499.89	347.58
500.26	352.12
500.62	356.82
500.98	361.81
501.34	366.91
501.71	372.26
502.07	377.76
502.43	383.34
502.79	389.19
503.16	395.28
503.52	401.58
503.88	408.00
504.24	414.61
504.60	421.55
504.97	428.72
505.33	436.04
505.69	443.78
506.05	451.56
506.41	459.47
506.78	467.61
507.14	476.15
507.50	484.85
507.86	493.86
508.22	503.01
508.59	512.22
508.95	521.80
509.31	531.64
509.67	541.73
510.03	552.08
510.39	562.58
510.75	573.36
511.12	584.29
511.48	595.57
511.84	607.13
512.20	618.60
512.56	630.58
512.92	642.79
513.28	655.16
513.64	667.61
514.00	680.32
514.37	693.27
514.73	706.33
515.09	719.37
515.45	732.66
515.81	746.29
516.17	760.27
516.53	774.45
516.89	788.63
517.25	802.82
517.61	817.21
517.97	831.67
518.33	846.18
518.69	860.90
519.05	875.86
519.41	890.89
519.77	906.50
520.13	921.86
520.49	937.17
520.85	952.54
521.21	968.19
521.57	984.38
521.93	1000.14
522.29	1016.43
522.65	1032.59
523.01	1048.79
523.37	1064.80
523.73	1080.82
524.09	1096.71
524.45	1112.92
524.81	1129.49
525.17	1146.23
525.53	1163.08
525.89	1179.93
526.25	1196.71
526.61	1213.08
526.97	1229.78
527.33	1246.11
527.68	1262.77
528.04	1279.25
528.40	1295.69
528.76	1312.73
529.12	1329.27
529.48	1346.02
529.84	1361.95
530.20	1378.61
530.56	1395.49
530.91	1412.84
531.27	1429.56
531.63	1446.03
531.99	1462.51
532.35	1478.38
532.71	1494.30
533.07	1510.47
533.42	1526.19
533.78	1542.20
534.14	1558.41
534.50	1573.75
534.86	1589.60
535.21	1604.58
535.57	1620.34
535.93	1635.93
536.29	1650.65
536.65	1665.58
537.00	1680.39
537.36	1695.64
537.72	1709.97
538.08	1724.32
538.44	1738.07
538.79	1751.93
539.15	1765.61
539.51	1779.20
539.87	1793.43
540.22	1806.98
540.58	1820.64
540.94	1833.99
541.29	1846.59
541.65	1859.18
542.01	1872.28
542.37	1884.52
542.72	1896.84
543.08	1908.62
543.44	1920.82
543.79	1932.03
544.15	1942.98
544.51	1954.39
544.87	1965.27
545.22	1976.13
545.58	1986.20
545.94	1995.79
546.29	2005.73
546.65	2015.54
547.01	2025.00
547.36	2033.70
547.72	2042.11
548.07	2049.91
548.43	2057.91
548.79	2066.17
549.14	2073.68
549.50	2080.78
549.86	2088.42
550.21	2095.78
550.57	2102.88
550.92	2109.37
551.28	2116.43
551.64	2123.44
551.99	2129.98
552.35	2136.15
552.70	2142.24
553.06	2148.31
553.41	2154.81
553.77	2160.71
554.13	2166.68
554.48	2172.62
554.84	2178.05
555.19	2183.39
555.55	2188.72
555.90	2193.26
556.26	2198.10
556.61	2202.73
556.97	2207.08
557.32	2211.19
557.68	2215.18
558.03	2219.42
558.39	2223.13
558.74	2227.77
559.10	2231.63
559.45	2235.31
559.81	2239.67
560.16	2243.49
560.52	2246.76
560.87	2250.09
561.23	2252.60
561.58	2255.55
561.94	2258.09
562.29	2260.47
562.64	2263.16
563.00	2265.72
563.35	2269.11
563.71	2272.12
564.06	2275.43
564.42	2278.42
564.77	2280.98
565.12	2283.39
565.48	2285.42
565.83	2287.38
566.19	2288.65
566.54	2289.54
566.89	2290.61
567.25	2291.15
567.60	2292.54
567.96	2294.24
568.31	2295.03
568.66	2296.31
569.02	2296.99
569.37	2297.39
569.72	2298.31
570.08	2298.41
570.43	2298.44
570.78	2297.99
571.14	2296.58
571.49	2295.10
571.84	2294.81
572.20	2293.73
572.55	2292.73
572.90	2291.26
573.26	2289.82
573.61	2288.09
573.96	2286.38
574.31	2283.52
574.67	2280.57
575.02	2276.96
575.37	2273.59
575.72	2269.96
576.08	2266.72
576.43	2263.27
576.78	2259.64
577.13	2256.48
577.49	2253.46
577.84	2249.97
578.19	2246.34
578.54	2242.90
578.90	2238.85
579.25	2233.32
579.60	2228.30
579.95	2223.22
580.30	2218.19
580.66	2213.18
581.01	2208.35
581.36	2203.56
581.71	2199.41
582.06	2194.98
582.42	2190.60
582.77	2185.47
583.12	2180.88
583.47	2176.16
583.82	2171.37
584.17	2166.24
584.53	2160.73
584.88	2155.07
585.23	2149.40
585.58	2143.90
585.93	2138.31
586.28	2133.60
586.63	2128.64
586.98	2123.66
587.34	2119.02
587.69	2114.24
588.04	2109.08
588.39	2103.53
588.74	2097.06
589.09	2090.95
589.44	2084.24
589.79	2078.16
590.14	2072.54
590.49	2066.00
590.84	2059.67
591.19	2053.76
591.54	2047.30
591.89	2040.06
592.25	2033.31
592.60	2026.15
592.95	2018.73
593.30	2011.44
593.65	2003.96
594.00	1996.94
594.35	1989.74
594.70	1981.96
595.05	1974.76
595.40	1967.55
595.75	1960.04
596.10	1953.94
596.45	1947.28
596.80	1941.21
597.15	1934.78
597.50	1927.72
597.85	1921.33
598.19	1914.74
598.54	1907.61
598.89	1900.94
599.24	1895.13
599.59	1888.60
599.94	1882.33
600.29	1875.95
600.64	1869.51
600.99	1862.08
601.34	1855.40
601.69	1848.44
602.04	1841.48
602.39	1834.17
602.74	1827.20
603.08	1820.54
603.43	1813.75
603.78	1806.41
604.13	1799.15
604.48	1791.78
604.83	1784.96
605.18	1778.04
605.53	1770.02
605.87	1761.94
606.22	1754.72
606.57	1746.86
606.92	1739.65
607.27	1732.53
607.62	1725.61
607.96	1718.17
608.31	1711.54
608.66	1703.81
609.01	1696.26
609.36	1688.64
609.70	1680.54
610.05	1672.57
610.40	1664.84
610.75	1656.58
611.10	1648.95
611.44	1640.46
611.79	1632.51
612.14	1623.82
612.49	1614.66
612.83	1606.33
613.18	1598.33
613.53	1590.29
613.88	1581.63
614.22	1573.17
614.57	1564.52
614.92	1556.51
615.27	1549.05
615.61	1540.76
615.96	1532.71
616.31	1525.11
616.65	1517.73
617.00	1510.33
617.35	1502.67
617.70	1494.24
618.04	1485.75
618.39	1477.56
618.74	1470.08
619.08	1461.77
619.43	1454.19
619.78	1447.26
620.12	1440.08
620.47	1432.55
620.82	1424.37
621.16	1417.06
621.51	1409.56
621.85	1401.92
622.20	1393.39
622.55	1385.01
622.89	1377.11
623.24	1369.51
623.59	1362.18
623.93	1354.74
624.28	1347.35
624.62	1339.78
624.97	1332.70
625.32	1325.90
625.66	1318.76
626.01	1311.57
626.35	1304.12
626.70	1296.33
627.04	1288.61
627.39	1280.71
627.73	1273.34
628.08	1266.42
628.43	1258.96
628.77	1251.48
629.12	1243.97
629.46	1236.89
629.81	1229.51
630.15	1222.23
630.50	1214.80
630.84	1206.58
631.19	1198.63
631.53	1191.15
631.88	1183.56
632.22	1175.91
632.57	1168.55
632.91	1161.00
633.26	1153.54
633.60	1146.09
633.95	1139.03
634.29	1131.94
634.64	1125.36
634.98	1117.88
635.32	1110.69
635.67	1104.13
636.01	1097.54
636.36	1090.70
636.70	1084.03
637.05	1077.43
637.39	1071.05
637.73	1064.50
638.08	1058.57
638.42	1052.56
638.77	1046.09
639.11	1039.48
639.45	1033.08
639.80	1026.45
640.14	1020.07
640.49	1013.49
640.83	1007.20
641.17	1000.86
641.52	994.47
641.86	987.94
642.20	982.12
642.55	975.84
642.89	969.31
643.23	962.70
643.58	956.94
643.92	950.79
644.26	944.67
644.61	938.55
644.95	932.51
645.29	925.91
645.64	919.16
645.98	912.88
646.32	907.07
646.66	901.04
647.01	895.25
647.35	889.47
647.69	883.60
648.04	878.12
648.38	872.27
648.72	866.34
649.06	860.39
649.41	854.52
649.75	848.49
650.09	842.61
650.43	836.86
650.78	830.71
651.12	824.64
651.46	818.94
651.80	813.18
652.14	807.83
652.49	802.41
652.83	797.19
653.17	791.42
653.51	785.64
653.85	780.30
654.20	774.67
654.54	768.71
654.88	762.98
655.22	757.01
655.56	751.46
655.90	746.01
656.25	740.66
656.59	735.22
656.93	730.11
657.27	724.94
657.61	719.46
657.95	714.35
658.29	709.33
658.64	704.13
658.98	698.81
659.32	693.36
659.66	688.19
660.00	682.89
660.34	677.90
660.68	672.97
661.02	667.84
661.36	663.09
661.70	658.66
662.05	654.32
662.39	650.07
662.73	645.58
663.07	641.20
663.41	636.78
663.75	632.30
664.09	627.65
664.43	623.25
664.77	619.20
665.11	614.93
665.45	610.79
665.79	606.64
666.13	602.53
666.47	598.42
666.81	594.22
667.15	590.08
667.49	586.21
667.83	582.42
668.17	578.47
668.51	574.39
668.85	570.30
669.19	566.46
669.53	562.60
669.87	558.61
670.21	554.90
670.55	551.22
670.89	547.84
671.23	544.53
671.57	541.00
671.91	537.41
672.25	533.88
672.58	530.35
672.92	526.93
673.26	523.73
673.60	520.59
673.94	517.51
674.28	514.61
674.62	511.63
674.96	508.52
675.30	505.61
675.64	502.68
675.97	499.93
676.31	497.05
676.65	494.09
676.99	491.48
677.33	488.60
677.67	485.76
678.01	482.69
678.34	479.69
678.68	476.86
679.02	474.01
679.36	471.23
679.70	468.50
680.04	465.78
680.37	462.89
680.71	460.07
681.05	457.44
681.39	454.67
681.73	452.05
682.06	449.53
682.40	446.97
682.74	444.44
683.08	441.88
683.42	439.27
683.75	436.71
684.09	434.14
684.43	431.71
684.77	429.20
685.10	426.80
685.44	424.48
685.78	422.16
686.12	419.92
686.45	417.65
686.79	415.36
687.13	413.13
687.46	410.99
687.80	408.81
688.14	406.57
688.48	404.55
688.81	402.33
689.15	400.15
689.49	398.02
689.82	395.88
690.16	393.80
690.50	391.88
690.83	390.00
691.17	387.99
691.51	386.03
691.84	384.25
692.18	382.33
692.52	380.33
692.85	378.40
693.19	376.50
693.52	374.69
693.86	372.91
694.20	371.18
694.53	369.39
694.87	367.56
695.21	365.79
695.54	363.95
695.88	362.24
696.21	360.53
696.55	358.84
696.88	357.22
697.22	355.54
697.56	353.90
697.89	352.24
698.23	350.69
698.56	349.12
698.90	347.52
699.23	345.93
699.57	344.41
699.90	342.87
700.24	341.38
700.58	339.83
700.91	338.33
701.25	336.83
701.58	335.46
701.92	334.10
702.25	332.75
702.59	331.38
702.92	330.00
703.26	328.66
703.59	327.40
703.93	326.22
704.26	325.00
704.60	323.70
704.93	322.40
705.26	321.13
705.60	319.93
705.93	318.77
706.27	317.70
706.60	316.64
706.94	315.53
707.27	314.39
707.61	313.34
707.94	312.31
708.27	311.25
708.61	310.17
708.94	309.17
709.28	308.15
709.61	307.21
709.94	306.29
710.28	305.30
710.61	304.33
710.95	303.23
711.28	302.30
711.61	301.35
711.95	300.47
712.28	299.52
712.61	298.55
712.95	297.60
713.28	296.71
713.61	295.83
713.95	294.96
714.28	294.14
714.61	293.28
714.95	292.43
715.28	291.53
715.61	290.65
715.95	289.79
716.28	288.95
716.61	288.14
716.95	287.33
717.28	286.62
717.61	285.83
717.94	285.09
718.28	284.27
718.61	283.51
718.94	282.78
719.27	282.11
719.61	281.45
719.94	280.79
720.27	280.07
720.60	279.37
720.94	278.74
721.27	278.09
721.60	277.51
721.93	276.88
722.27	276.37
722.60	275.80
722.93	275.24
723.26	274.70
723.59	274.11
723.93	273.55
724.26	272.94
724.59	272.34
724.92	271.83
725.25	271.34
725.59	270.84
725.92	270.32
726.25	269.81
726.58	269.28
726.91	268.77
727.24	268.31
727.57	267.87
727.91	267.37
728.24	266.90
728.57	266.38
728.90	265.95
729.23	265.46
729.56	265.07
729.89	264.60
730.22	264.10
730.55	263.62
730.89	263.20
731.22	262.77
731.55	262.39
731.88	261.98
732.21	261.56
732.54	261.13
732.87	260.71
733.20	260.29
733.53	259.93
733.86	259.56
734.19	259.19
734.52	258.76
734.85	258.49
735.18	258.09
735.51	257.76
735.84	257.38
736.17	257.03
736.50	256.64
736.83	256.40
737.16	256.08
737.49	255.78
737.82	255.45
738.15	255.12
738.48	254.76
738.81	254.39
739.14	254.05
739.47	253.72
739.80	253.44
740.13	253.14
740.46	252.80
740.79	252.48
741.12	252.13
741.45	251.82
741.78	251.43
742.11	251.15
742.44	250.81
742.77	250.53
743.10	250.26
743.43	249.94
743.75	249.59
744.08	249.44
744.41	249.19
744.74	248.89
745.07	248.60
745.40	248.38
745.73	248.19
746.06	247.93
746.39	247.70
746.71	247.44
747.04	247.21
747.37	246.97
747.70	246.76
748.03	246.56
748.36	246.36
748.68	246.14
749.01	245.89
749.34	245.71
749.67	245.48
750.00	245.21
750.33	245.06
750.65	244.81
750.98	244.47
751.31	244.20
751.64	244.00
751.97	243.81
752.29	243.57
752.62	243.29
752.95	243.09
753.28	242.87
753.60	242.65
753.93	242.46
754.26	242.23
754.59	241.97
754.91	241.76
755.24	241.54
755.57	241.33
755.90	241.14
756.22	240.90
756.55	240.69
756.88	240.51
757.20	240.25
757.53	240.06
757.86	239.90
758.19	239.76
758.51	239.59
758.84	239.39
759.17	239.20
759.49	239.07
759.82	238.95
760.15	238.79
760.47	238.62
760.80	238.41
761.13	238.30
761.45	238.14
761.78	237.95
762.11	237.80
762.43	237.65
762.76	237.47
763.08	237.33
763.41	237.22
763.74	237.09
764.06	236.96
764.39	236.81
764.71	236.67
765.04	236.50
765.37	236.37
765.69	236.23
766.02	236.12
766.34	235.97
766.67	235.76
767.00	235.60
767.32	235.57
767.65	235.50
767.97	235.36
768.30	235.23
768.62	235.13
768.95	235.03
769.27	234.91
769.60	234.86
769.92	234.76
770.25	234.60
770.57	234.46
770.90	234.33
771.22	234.22
771.55	234.10
771.87	234.01
772.20	233.87
772.52	233.88
772.85	233.92
773.17	233.82
773.50	233.78
773.82	233.70
774.15	233.55
774.47	233.43
774.80	233.34
775.12	233.32
775.45	233.23
775.77	233.14
776.09	233.09
776.42	232.98
776.74	232.93
777.07	232.87
777.39	232.81
777.72	232.76
778.04	232.71
778.36	232.63
778.69	232.60
779.01	232.57
779.33	232.45
779.66	232.28
779.98	232.21
780.31	232.17
780.63	232.16
780.95	232.13
781.28	232.09
781.60	232.06
781.92	231.95
782.25	231.87
782.57	231.85
782.89	231.76
783.22	231.70
783.54	231.62
783.86	231.55
784.19	231.49
784.51	231.45
784.83	231.39
785.16	231.34
785.48	231.30
785.80	231.24
786.12	231.22
786.45	231.14
786.77	231.12
787.09	231.03
