SpectraSuite Data File
++++++++++++++++++++++++++++++++++++
Date: Fri Feb 01 15:31:16 EST 2013
User: group
Dark Spectrum Present: No
Reference Spectrum Present: No
Number of Sampled Component Spectra: 1
Spectrometers: USB2E7196
Integration Time (usec): 35000 (USB2E7196)
Spectra Averaged: 100 (USB2E7196)
Boxcar Smoothing: 10 (USB2E7196)
Correct for Electrical Dark: No (USB2E7196)
Strobe/Lamp Enabled: No (USB2E7196)
Correct for Detector Non-linearity: No (USB2E7196)
Correct for Stray Light: No (USB2E7196)
Number of Pixels in Processed Spectrum: 2048
>>>>>Begin Processed Spectral Data<<<<<
339.09	0.00
339.48	215.00
339.86	216.29
340.24	217.85
340.63	219.26
341.01	221.76
341.39	222.19
341.78	223.90
342.16	224.67
342.54	224.87
342.93	213.48
343.31	224.28
343.69	224.81
344.07	225.28
344.46	225.70
344.84	226.09
345.22	226.33
345.60	226.55
345.99	226.73
346.37	226.86
346.75	226.98
347.13	227.02
347.52	227.05
347.90	227.09
348.28	227.11
348.66	227.14
349.05	227.12
349.43	227.13
349.81	227.17
350.19	227.24
350.57	227.30
350.96	227.38
351.34	227.45
351.72	227.54
352.10	227.66
352.48	227.72
352.87	227.75
353.25	227.83
353.63	227.89
354.01	227.92
354.39	228.00
354.77	228.05
355.15	228.16
355.54	228.23
355.92	228.28
356.30	228.34
356.68	228.45
357.06	228.52
357.44	228.56
357.82	228.61
358.20	228.68
358.58	228.72
358.97	228.78
359.35	228.83
359.73	228.89
360.11	228.95
360.49	229.01
360.87	229.08
361.25	229.13
361.63	229.24
362.01	229.29
362.39	229.32
362.77	229.36
363.15	229.37
363.53	229.43
363.91	229.44
364.29	229.45
364.67	229.38
365.05	229.42
365.43	229.44
365.81	229.47
366.19	229.49
366.57	229.53
366.95	229.51
367.33	229.50
367.71	229.50
368.09	229.45
368.47	229.44
368.85	229.43
369.23	229.43
369.61	229.33
369.99	229.33
370.37	229.30
370.75	229.30
371.13	229.24
371.51	229.16
371.89	229.14
372.27	229.11
372.65	229.11
373.03	229.04
373.41	228.99
373.78	228.92
374.16	228.82
374.54	228.73
374.92	228.69
375.30	228.66
375.68	228.56
376.06	228.54
376.44	228.48
376.82	228.39
377.19	228.32
377.57	228.28
377.95	228.19
378.33	228.10
378.71	227.98
379.09	227.92
379.47	227.88
379.84	227.78
380.22	227.72
380.60	227.63
380.98	227.56
381.36	227.51
381.73	227.42
382.11	227.38
382.49	227.32
382.87	227.22
383.25	227.17
383.62	227.21
384.00	227.10
384.38	227.01
384.76	227.00
385.13	226.95
385.51	226.89
385.89	226.81
386.27	226.77
386.64	226.74
387.02	226.71
387.40	226.65
387.78	226.62
388.15	226.57
388.53	226.49
388.91	226.44
389.29	226.39
389.66	226.39
390.04	226.36
390.42	226.35
390.79	226.33
391.17	226.30
391.55	226.17
391.92	226.19
392.30	226.21
392.68	226.17
393.05	226.16
393.43	226.17
393.81	226.20
394.18	226.18
394.56	226.18
394.94	226.21
395.31	226.23
395.69	226.29
396.06	226.34
396.44	226.39
396.82	226.43
397.19	226.49
397.57	226.50
397.95	226.56
398.32	226.59
398.70	226.67
399.07	226.73
399.45	226.81
399.82	226.84
400.20	226.91
400.58	226.99
400.95	227.02
401.33	227.15
401.70	227.28
402.08	227.39
402.45	227.50
402.83	227.63
403.20	227.75
403.58	227.84
403.95	227.98
404.33	228.10
404.71	228.26
405.08	228.50
405.46	228.67
405.83	228.80
406.21	228.96
406.58	229.13
406.96	229.28
407.33	229.50
407.70	229.69
408.08	229.95
408.45	230.19
408.83	230.44
409.20	230.63
409.58	230.84
409.95	231.08
410.33	231.37
410.70	231.63
411.08	231.92
411.45	232.24
411.82	232.52
412.20	232.89
412.57	233.29
412.95	233.58
413.32	234.00
413.69	234.45
414.07	234.87
414.44	235.33
414.82	235.83
415.19	236.37
415.56	236.98
415.94	237.55
416.31	238.15
416.68	238.76
417.06	239.50
417.43	240.20
417.81	240.99
418.18	241.76
418.55	242.61
418.93	243.49
419.30	244.42
419.67	245.38
420.04	246.35
420.42	247.32
420.79	248.48
421.16	249.62
421.54	250.79
421.91	252.03
422.28	253.28
422.66	254.57
423.03	255.89
423.40	257.15
423.77	258.53
424.15	259.96
424.52	261.46
424.89	263.06
425.26	264.58
425.64	266.04
426.01	267.63
426.38	269.29
426.75	270.99
427.13	272.68
427.50	274.48
427.87	276.37
428.24	278.25
428.61	280.04
428.99	282.01
429.36	284.14
429.73	286.19
430.10	288.23
430.47	290.34
430.85	292.46
431.22	294.73
431.59	297.15
431.96	299.44
432.33	301.96
432.70	304.33
433.08	307.16
433.45	309.80
433.82	312.44
434.19	315.38
434.56	318.16
434.93	320.82
435.30	323.45
435.68	326.36
436.05	329.23
436.42	331.98
436.79	334.49
437.16	337.21
437.53	340.06
437.90	342.84
438.27	345.57
438.64	348.44
439.01	351.02
439.38	353.26
439.75	355.40
440.13	357.89
440.50	360.20
440.87	362.06
441.24	364.02
441.61	366.16
441.98	367.59
442.35	369.41
442.72	371.28
443.09	373.13
443.46	374.11
443.83	374.66
444.20	375.20
444.57	376.03
444.94	376.31
445.31	376.66
445.68	377.02
446.05	377.11
446.42	376.66
446.79	376.27
447.16	375.77
447.53	375.43
447.90	374.26
448.27	373.14
448.64	371.57
449.01	370.40
449.37	368.43
449.74	366.54
450.11	364.29
450.48	361.78
450.85	359.22
451.22	357.05
451.59	355.03
451.96	353.03
452.33	350.41
452.70	348.01
453.07	345.19
453.43	342.31
453.80	339.55
454.17	336.93
454.54	334.40
454.91	331.72
455.28	329.10
455.65	326.65
456.02	324.17
456.38	321.97
456.75	319.32
457.12	317.05
457.49	314.85
457.86	312.65
458.23	310.78
458.59	308.73
458.96	306.63
459.33	304.78
459.70	302.95
460.07	301.45
460.43	299.75
460.80	298.10
461.17	296.62
461.54	295.10
461.91	293.63
462.27	292.14
462.64	290.87
463.01	289.49
463.38	288.18
463.74	286.84
464.11	285.73
464.48	284.71
464.85	283.60
465.21	282.68
465.58	281.77
465.95	280.73
466.32	279.84
466.68	278.94
467.05	278.03
467.42	277.09
467.78	276.14
468.15	275.26
468.52	274.60
468.88	273.75
469.25	272.94
469.62	272.30
469.98	271.63
470.35	270.97
470.72	270.38
471.08	269.71
471.45	269.17
471.82	268.58
472.18	267.98
472.55	267.53
472.92	267.05
473.28	266.57
473.65	266.05
474.02	265.56
474.38	265.24
474.75	264.92
475.11	264.59
475.48	264.32
475.85	264.06
476.21	263.82
476.58	263.63
476.94	263.49
477.31	263.37
477.67	263.24
478.04	263.13
478.41	263.06
478.77	263.11
479.14	263.00
479.50	263.04
479.87	263.07
480.23	263.12
480.60	263.15
480.96	263.25
481.33	263.48
481.69	263.69
482.06	263.83
482.42	264.02
482.79	264.28
483.15	264.63
483.52	265.04
483.88	265.38
484.25	265.79
484.61	266.24
484.98	266.65
485.34	267.22
485.71	267.80
486.07	268.40
486.44	268.95
486.80	269.67
487.17	270.37
487.53	271.18
487.90	272.06
488.26	273.00
488.62	274.00
488.99	275.00
489.35	276.05
489.72	277.17
490.08	278.38
490.44	279.59
490.81	280.91
491.17	282.28
491.54	283.77
491.90	285.29
492.26	286.92
492.63	288.64
492.99	290.39
493.36	292.31
493.72	294.35
494.08	296.46
494.45	298.71
494.81	301.08
495.17	303.49
495.54	306.04
495.90	308.73
496.26	311.53
496.63	314.49
496.99	317.59
497.35	320.83
497.72	324.23
498.08	327.79
498.44	331.49
498.80	335.37
499.17	339.42
499.53	343.62
499.89	348.00
500.26	352.52
500.62	357.16
500.98	362.16
501.34	367.21
501.71	372.58
502.07	378.02
502.43	383.62
502.79	389.50
503.16	395.61
503.52	401.84
503.88	408.24
504.24	414.86
504.60	421.75
504.97	428.98
505.33	436.37
505.69	444.07
506.05	451.80
506.41	459.69
506.78	467.83
507.14	476.30
507.50	485.05
507.86	494.08
508.22	503.33
508.59	512.48
508.95	522.07
509.31	531.85
509.67	541.95
510.03	552.30
510.39	562.82
510.75	573.67
511.12	584.64
511.48	595.94
511.84	607.40
512.20	618.91
512.56	630.82
512.92	642.95
513.28	655.36
513.64	667.87
514.00	680.61
514.37	693.47
514.73	706.50
515.09	719.53
515.45	732.82
515.81	746.45
516.17	760.50
516.53	774.67
516.89	788.83
517.25	803.00
517.61	817.37
517.97	831.87
518.33	846.24
518.69	861.11
519.05	876.16
519.41	891.37
519.77	906.92
520.13	922.45
520.49	937.81
520.85	953.17
521.21	968.96
521.57	985.27
521.93	1001.17
522.29	1017.58
522.65	1033.83
523.01	1050.10
523.37	1066.12
523.73	1082.34
524.09	1098.48
524.45	1114.86
524.81	1131.63
525.17	1148.51
525.53	1165.48
525.89	1182.50
526.25	1199.29
526.61	1215.67
526.97	1232.45
527.33	1249.04
527.68	1265.64
528.04	1282.25
528.40	1299.00
528.76	1316.01
529.12	1332.54
529.48	1349.46
529.84	1365.65
530.20	1382.42
530.56	1399.52
530.91	1417.08
531.27	1433.88
531.63	1450.37
531.99	1467.10
532.35	1483.08
532.71	1499.04
533.07	1515.28
533.42	1531.25
533.78	1547.36
534.14	1563.63
534.50	1579.06
534.86	1594.92
535.21	1610.00
535.57	1625.99
535.93	1641.50
536.29	1656.35
536.65	1671.63
537.00	1686.42
537.36	1701.68
537.72	1716.18
538.08	1730.66
538.44	1744.36
538.79	1758.30
539.15	1772.12
539.51	1785.88
539.87	1800.32
540.22	1814.01
540.58	1828.00
540.94	1841.44
541.29	1854.46
541.65	1867.34
542.01	1880.71
542.37	1893.14
542.72	1905.84
543.08	1917.61
543.44	1929.96
543.79	1941.28
544.15	1952.23
544.51	1964.03
544.87	1975.08
545.22	1985.86
545.58	1995.96
545.94	2005.75
546.29	2015.66
546.65	2025.39
547.01	2034.72
547.36	2043.43
547.72	2052.05
548.07	2059.85
548.43	2067.95
548.79	2076.03
549.14	2083.59
549.50	2090.86
549.86	2098.68
550.21	2105.93
550.57	2113.03
550.92	2119.68
551.28	2126.77
551.64	2133.84
551.99	2140.24
552.35	2146.39
552.70	2152.60
553.06	2158.64
553.41	2165.15
553.77	2171.23
554.13	2177.39
554.48	2183.45
554.84	2188.84
555.19	2194.15
555.55	2199.29
555.90	2203.65
556.26	2208.48
556.61	2213.23
556.97	2217.35
557.32	2221.40
557.68	2225.53
558.03	2229.90
558.39	2233.61
558.74	2238.23
559.10	2242.04
559.45	2245.63
559.81	2249.88
560.16	2253.64
560.52	2256.95
560.87	2260.28
561.23	2262.95
561.58	2265.97
561.94	2268.62
562.29	2271.16
562.64	2273.66
563.00	2276.32
563.35	2279.86
563.71	2282.95
564.06	2285.98
564.42	2288.95
564.77	2291.33
565.12	2293.51
565.48	2295.41
565.83	2297.29
566.19	2298.55
566.54	2299.57
566.89	2300.73
567.25	2301.36
567.60	2302.82
567.96	2304.45
568.31	2305.24
568.66	2306.21
569.02	2306.60
569.37	2306.68
569.72	2307.52
570.08	2307.73
570.43	2307.62
570.78	2306.93
571.14	2305.39
571.49	2304.00
571.84	2303.62
572.20	2302.48
572.55	2301.54
572.90	2299.88
573.26	2298.48
573.61	2296.70
573.96	2294.85
574.31	2291.88
574.67	2288.74
575.02	2284.97
575.37	2281.43
575.72	2277.59
576.08	2274.18
576.43	2270.92
576.78	2267.28
577.13	2263.92
577.49	2260.87
577.84	2257.28
578.19	2253.56
578.54	2249.78
578.90	2245.64
579.25	2240.02
579.60	2235.06
579.95	2229.92
580.30	2224.84
580.66	2219.48
581.01	2214.62
581.36	2209.59
581.71	2205.30
582.06	2200.85
582.42	2196.50
582.77	2191.25
583.12	2186.65
583.47	2181.86
583.82	2176.68
584.17	2171.47
584.53	2165.87
584.88	2160.00
585.23	2154.13
585.58	2148.57
585.93	2143.11
586.28	2138.31
586.63	2133.12
586.98	2127.96
587.34	2123.21
587.69	2118.33
588.04	2113.12
588.39	2107.23
588.74	2100.76
589.09	2094.58
589.44	2087.65
589.79	2081.39
590.14	2075.82
590.49	2069.05
590.84	2062.65
591.19	2056.66
591.54	2049.94
591.89	2042.47
592.25	2035.70
592.60	2028.52
592.95	2020.91
593.30	2013.48
593.65	2005.71
594.00	1998.72
594.35	1991.33
594.70	1983.15
595.05	1975.87
595.40	1968.43
595.75	1960.85
596.10	1954.48
596.45	1947.67
596.80	1941.44
597.15	1934.78
597.50	1927.40
597.85	1920.94
598.19	1914.22
598.54	1906.97
598.89	1900.41
599.24	1894.57
599.59	1887.84
599.94	1881.49
600.29	1875.14
600.64	1868.54
600.99	1860.97
601.34	1853.93
601.69	1847.05
602.04	1840.15
602.39	1832.73
602.74	1825.83
603.08	1819.13
603.43	1812.36
603.78	1805.00
604.13	1797.77
604.48	1790.41
604.83	1783.66
605.18	1776.55
605.53	1768.50
605.87	1760.49
606.22	1753.21
606.57	1745.20
606.92	1737.89
607.27	1730.70
607.62	1723.80
607.96	1716.43
608.31	1709.83
608.66	1702.21
609.01	1694.57
609.36	1687.00
609.70	1678.97
610.05	1670.84
610.40	1662.99
610.75	1654.74
611.10	1647.07
611.44	1638.74
611.79	1630.89
612.14	1622.16
612.49	1613.23
612.83	1604.85
613.18	1596.77
613.53	1588.71
613.88	1580.21
614.22	1571.75
614.57	1563.24
614.92	1555.18
615.27	1547.64
615.61	1539.47
615.96	1531.64
616.31	1523.95
616.65	1516.62
617.00	1509.13
617.35	1501.55
617.70	1493.29
618.04	1484.72
618.39	1476.57
618.74	1468.96
619.08	1460.50
619.43	1453.03
619.78	1446.06
620.12	1438.86
620.47	1431.27
620.82	1423.02
621.16	1415.63
621.51	1408.13
621.85	1400.41
622.20	1391.78
622.55	1383.42
622.89	1375.50
623.24	1367.80
623.59	1360.45
623.93	1353.02
624.28	1345.70
624.62	1338.20
624.97	1331.01
625.32	1324.28
625.66	1317.11
626.01	1309.94
626.35	1302.49
626.70	1294.68
627.04	1286.90
627.39	1279.17
627.73	1271.70
628.08	1264.73
628.43	1257.41
628.77	1249.96
629.12	1242.40
629.46	1235.29
629.81	1227.92
630.15	1220.63
630.50	1213.14
630.84	1204.90
631.19	1196.88
631.53	1189.37
631.88	1181.80
632.22	1174.15
632.57	1166.86
632.91	1159.41
633.26	1151.91
633.60	1144.57
633.95	1137.50
634.29	1130.54
634.64	1123.86
634.98	1116.60
635.32	1109.49
635.67	1102.89
636.01	1096.33
636.36	1089.57
636.70	1083.07
637.05	1076.49
637.39	1070.06
637.73	1063.65
638.08	1057.81
638.42	1051.88
638.77	1045.46
639.11	1038.88
639.45	1032.61
639.80	1025.90
640.14	1019.38
640.49	1012.93
640.83	1006.68
641.17	1000.37
641.52	993.97
641.86	987.53
642.20	981.71
642.55	975.44
642.89	968.90
643.23	962.40
643.58	956.62
643.92	950.36
644.26	944.25
644.61	938.25
644.95	932.17
645.29	925.54
645.64	918.74
645.98	912.34
646.32	906.48
646.66	900.43
647.01	894.63
647.35	888.95
647.69	883.03
648.04	877.51
648.38	871.75
648.72	865.73
649.06	859.66
649.41	853.75
649.75	847.72
650.09	841.70
650.43	835.85
650.78	829.64
651.12	823.72
651.46	817.98
651.80	812.13
652.14	806.73
652.49	801.42
652.83	796.31
653.17	790.71
653.51	785.01
653.85	779.61
654.20	773.93
654.54	767.98
654.88	762.31
655.22	756.47
655.56	750.81
655.90	745.34
656.25	740.02
656.59	734.63
656.93	729.58
657.27	724.46
657.61	719.03
657.95	714.03
658.29	708.99
658.64	703.74
658.98	698.46
659.32	692.98
659.66	687.74
660.00	682.30
660.34	677.34
660.68	672.43
661.02	667.35
661.36	662.72
661.70	658.23
662.05	653.83
662.39	649.38
662.73	644.87
663.07	640.53
663.41	636.18
663.75	631.72
664.09	627.22
664.43	622.87
664.77	618.81
665.11	614.49
665.45	610.35
665.79	606.25
666.13	602.17
666.47	598.10
666.81	593.93
667.15	589.86
667.49	585.99
667.83	582.21
668.17	578.30
668.51	574.21
668.85	570.10
669.19	566.21
669.53	562.36
669.87	558.50
670.21	554.81
670.55	551.11
670.89	547.65
671.23	544.17
671.57	540.65
671.91	537.08
672.25	533.55
672.58	529.97
672.92	526.61
673.26	523.46
673.60	520.32
673.94	517.24
674.28	514.34
674.62	511.45
674.96	508.33
675.30	505.41
675.64	502.51
675.97	499.83
676.31	496.99
676.65	494.08
676.99	491.38
677.33	488.49
677.67	485.66
678.01	482.61
678.34	479.59
678.68	476.72
679.02	473.91
679.36	471.26
679.70	468.59
680.04	465.85
680.37	462.94
680.71	460.19
681.05	457.56
681.39	454.86
681.73	452.15
682.06	449.59
682.40	447.03
682.74	444.51
683.08	441.90
683.42	439.29
683.75	436.84
684.09	434.30
684.43	431.87
684.77	429.49
685.10	427.15
685.44	424.86
685.78	422.54
686.12	420.27
686.45	417.92
686.79	415.60
687.13	413.39
687.46	411.20
687.80	409.02
688.14	406.81
688.48	404.72
688.81	402.47
689.15	400.33
689.49	398.21
689.82	396.14
690.16	394.08
690.50	392.15
690.83	390.18
691.17	388.21
691.51	386.31
691.84	384.46
692.18	382.55
692.52	380.61
692.85	378.72
693.19	376.87
693.52	375.10
693.86	373.32
694.20	371.53
694.53	369.78
694.87	367.95
695.21	366.19
695.54	364.37
695.88	362.66
696.21	360.94
696.55	359.29
696.88	357.63
697.22	355.99
697.56	354.35
697.89	352.68
698.23	351.08
698.56	349.48
698.90	347.86
699.23	346.19
699.57	344.65
699.90	343.14
700.24	341.60
700.58	340.07
700.91	338.58
701.25	337.16
701.58	335.79
701.92	334.48
702.25	333.12
702.59	331.77
702.92	330.52
703.26	329.22
703.59	327.95
703.93	326.74
704.26	325.52
704.60	324.21
704.93	322.96
705.26	321.75
705.60	320.61
705.93	319.46
706.27	318.45
706.60	317.41
706.94	316.36
707.27	315.26
707.61	314.25
707.94	313.28
708.27	312.18
708.61	311.12
708.94	310.13
709.28	309.17
709.61	308.24
709.94	307.24
710.28	306.22
710.61	305.24
710.95	304.21
711.28	303.30
711.61	302.43
711.95	301.51
712.28	300.59
712.61	299.61
712.95	298.65
713.28	297.80
713.61	296.88
713.95	295.94
714.28	295.05
714.61	294.14
714.95	293.29
715.28	292.42
715.61	291.55
715.95	290.68
716.28	289.81
716.61	288.94
716.95	288.15
717.28	287.43
717.61	286.66
717.94	285.87
718.28	285.06
718.61	284.35
718.94	283.66
719.27	282.98
719.61	282.33
719.94	281.70
720.27	280.94
720.60	280.26
720.94	279.61
721.27	279.02
721.60	278.43
721.93	277.80
722.27	277.26
722.60	276.69
722.93	276.12
723.26	275.60
723.59	275.05
723.93	274.47
724.26	273.90
724.59	273.33
724.92	272.83
725.25	272.32
725.59	271.78
725.92	271.26
726.25	270.72
726.58	270.17
726.91	269.68
727.24	269.25
727.57	268.76
727.91	268.30
728.24	267.82
728.57	267.34
728.90	266.86
729.23	266.31
729.56	265.89
729.89	265.39
730.22	264.89
730.55	264.38
730.89	263.93
731.22	263.45
731.55	263.03
731.88	262.61
732.21	262.17
732.54	261.75
732.87	261.30
733.20	260.89
733.53	260.52
733.86	260.14
734.19	259.72
734.52	259.37
734.85	259.03
735.18	258.61
735.51	258.23
735.84	257.87
736.17	257.55
736.50	257.11
736.83	256.87
737.16	256.52
737.49	256.22
737.82	255.86
738.15	255.56
738.48	255.20
738.81	254.84
739.14	254.51
739.47	254.22
739.80	253.94
740.13	253.65
740.46	253.31
740.79	252.99
741.12	252.66
741.45	252.34
741.78	251.99
742.11	251.73
742.44	251.45
742.77	251.17
743.10	250.88
743.43	250.62
743.75	250.25
744.08	250.09
744.41	249.81
744.74	249.53
745.07	249.25
745.40	249.01
745.73	248.78
746.06	248.50
746.39	248.22
746.71	247.96
747.04	247.70
747.37	247.44
747.70	247.18
748.03	246.94
748.36	246.71
748.68	246.50
749.01	246.27
749.34	246.02
749.67	245.79
750.00	245.55
750.33	245.38
750.65	245.16
750.98	244.84
751.31	244.62
751.64	244.48
751.97	244.31
752.29	244.09
752.62	243.84
752.95	243.65
753.28	243.41
753.60	243.19
753.93	243.02
754.26	242.84
754.59	242.65
754.91	242.46
755.24	242.28
755.57	242.07
755.90	241.86
756.22	241.70
756.55	241.50
756.88	241.33
757.20	241.10
757.53	240.90
757.86	240.74
758.19	240.57
758.51	240.34
758.84	240.14
759.17	239.99
759.49	239.86
759.82	239.73
760.15	239.61
760.47	239.44
760.80	239.25
761.13	239.08
761.45	238.91
761.78	238.78
762.11	238.62
762.43	238.47
762.76	238.32
763.08	238.18
763.41	238.05
763.74	237.94
764.06	237.78
764.39	237.66
764.71	237.50
765.04	237.37
765.37	237.26
765.69	237.14
766.02	237.00
766.34	236.84
766.67	236.67
767.00	236.59
767.32	236.55
767.65	236.51
767.97	236.39
768.30	236.25
768.62	236.13
768.95	235.98
769.27	235.86
769.60	235.81
769.92	235.65
770.25	235.55
770.57	235.42
770.90	235.32
771.22	235.17
771.55	235.09
771.87	234.97
772.20	234.86
772.52	234.83
772.85	234.84
773.17	234.76
773.50	234.68
773.82	234.52
774.15	234.36
774.47	234.23
774.80	234.16
775.12	234.14
775.45	234.07
775.77	234.00
776.09	233.91
776.42	233.81
776.74	233.78
777.07	233.69
777.39	233.64
777.72	233.54
778.04	233.49
778.36	233.40
778.69	233.37
779.01	233.31
779.33	233.14
779.66	232.97
779.98	232.90
780.31	232.81
780.63	232.82
780.95	232.78
781.28	232.72
781.60	232.66
781.92	232.61
782.25	232.56
782.57	232.49
782.89	232.45
783.22	232.41
783.54	232.35
783.86	232.34
784.19	232.25
784.51	232.28
784.83	232.24
785.16	232.20
785.48	232.14
785.80	232.12
786.12	232.13
786.45	232.10
786.77	232.08
787.09	232.06
