SpectraSuite Data File
++++++++++++++++++++++++++++++++++++
Date: Fri Feb 01 17:01:49 EST 2013
User: group
Dark Spectrum Present: No
Reference Spectrum Present: No
Number of Sampled Component Spectra: 1
Spectrometers: USB2E7196
Integration Time (usec): 35000 (USB2E7196)
Spectra Averaged: 100 (USB2E7196)
Boxcar Smoothing: 10 (USB2E7196)
Correct for Electrical Dark: No (USB2E7196)
Strobe/Lamp Enabled: No (USB2E7196)
Correct for Detector Non-linearity: No (USB2E7196)
Correct for Stray Light: No (USB2E7196)
Number of Pixels in Processed Spectrum: 2048
>>>>>Begin Processed Spectral Data<<<<<
339.09	0.00
339.48	213.29
339.86	214.59
340.24	216.29
340.63	217.36
341.01	220.71
341.39	219.87
341.78	221.26
342.16	222.87
342.54	223.04
342.93	211.72
343.31	222.42
343.69	222.94
344.07	223.38
344.46	223.79
344.84	224.17
345.22	224.40
345.60	224.68
345.99	224.88
346.37	225.00
346.75	225.11
347.13	225.19
347.52	225.22
347.90	225.30
348.28	225.32
348.66	225.36
349.05	225.36
349.43	225.37
349.81	225.39
350.19	225.44
350.57	225.48
350.96	225.53
351.34	225.61
351.72	225.72
352.10	225.87
352.48	225.93
352.87	226.01
353.25	226.05
353.63	226.11
354.01	226.17
354.39	226.24
354.77	226.31
355.15	226.39
355.54	226.48
355.92	226.53
356.30	226.60
356.68	226.75
357.06	226.81
357.44	226.89
357.82	226.96
358.20	227.03
358.58	227.13
358.97	227.24
359.35	227.29
359.73	227.36
360.11	227.38
360.49	227.47
360.87	227.48
361.25	227.53
361.63	227.61
362.01	227.65
362.39	227.69
362.77	227.73
363.15	227.78
363.53	227.79
363.91	227.81
364.29	227.83
364.67	227.75
365.05	227.77
365.43	227.79
365.81	227.81
366.19	227.86
366.57	227.85
366.95	227.81
367.33	227.79
367.71	227.79
368.09	227.82
368.47	227.79
368.85	227.77
369.23	227.78
369.61	227.68
369.99	227.70
370.37	227.66
370.75	227.69
371.13	227.61
371.51	227.55
371.89	227.50
372.27	227.45
372.65	227.41
373.03	227.35
373.41	227.29
373.78	227.24
374.16	227.11
374.54	227.07
374.92	227.02
375.30	226.98
375.68	226.88
376.06	226.80
376.44	226.75
376.82	226.70
377.19	226.59
377.57	226.52
377.95	226.44
378.33	226.38
378.71	226.25
379.09	226.24
379.47	226.18
379.84	226.12
380.22	226.06
380.60	225.96
380.98	225.91
381.36	225.81
381.73	225.73
382.11	225.67
382.49	225.61
382.87	225.53
383.25	225.45
383.62	225.52
384.00	225.46
384.38	225.36
384.76	225.34
385.13	225.36
385.51	225.34
385.89	225.25
386.27	225.19
386.64	225.16
387.02	225.09
387.40	225.04
387.78	225.03
388.15	224.99
388.53	224.99
388.91	224.96
389.29	224.97
389.66	224.95
390.04	224.93
390.42	224.89
390.79	224.90
391.17	224.87
391.55	224.74
391.92	224.74
392.30	224.76
392.68	224.74
393.05	224.71
393.43	224.74
393.81	224.77
394.18	224.76
394.56	224.77
394.94	224.81
395.31	224.85
395.69	224.92
396.06	224.95
396.44	224.97
396.82	225.01
397.19	225.07
397.57	225.08
397.95	225.11
398.32	225.14
398.70	225.18
399.07	225.27
399.45	225.31
399.82	225.36
400.20	225.41
400.58	225.50
400.95	225.53
401.33	225.59
401.70	225.73
402.08	225.83
402.45	225.91
402.83	226.00
403.20	226.09
403.58	226.17
403.95	226.29
404.33	226.38
404.71	226.50
405.08	226.70
405.46	226.84
405.83	226.97
406.21	227.13
406.58	227.27
406.96	227.41
407.33	227.58
407.70	227.78
408.08	228.06
408.45	228.22
408.83	228.45
409.20	228.65
409.58	228.81
409.95	229.05
410.33	229.29
410.70	229.53
411.08	229.81
411.45	230.08
411.82	230.37
412.20	230.77
412.57	231.15
412.95	231.39
413.32	231.82
413.69	232.25
414.07	232.66
414.44	233.14
414.82	233.64
415.19	234.20
415.56	234.72
415.94	235.24
416.31	235.92
416.68	236.55
417.06	237.25
417.43	237.95
417.81	238.70
418.18	239.49
418.55	240.36
418.93	241.24
419.30	242.14
419.67	243.06
420.04	243.95
420.42	244.92
420.79	246.12
421.16	247.25
421.54	248.43
421.91	249.63
422.28	250.88
422.66	252.21
423.03	253.51
423.40	254.85
423.77	256.24
424.15	257.66
424.52	259.12
424.89	260.73
425.26	262.24
425.64	263.68
426.01	265.26
426.38	266.92
426.75	268.54
427.13	270.25
427.50	272.06
427.87	273.94
428.24	275.82
428.61	277.54
428.99	279.47
429.36	281.55
429.73	283.59
430.10	285.58
430.47	287.60
430.85	289.71
431.22	291.93
431.59	294.32
431.96	296.50
432.33	299.02
432.70	301.38
433.08	304.19
433.45	306.82
433.82	309.42
434.19	312.27
434.56	315.07
434.93	317.69
435.30	320.28
435.68	323.12
436.05	325.95
436.42	328.69
436.79	331.19
437.16	333.90
437.53	336.72
437.90	339.53
438.27	342.26
438.64	345.02
439.01	347.58
439.38	349.80
439.75	351.99
440.13	354.47
440.50	356.76
440.87	358.60
441.24	360.58
441.61	362.73
441.98	364.22
442.35	366.02
442.72	367.85
443.09	369.67
443.46	370.70
443.83	371.26
444.20	371.84
444.57	372.65
444.94	372.92
445.31	373.27
445.68	373.64
446.05	373.71
446.42	373.39
446.79	373.00
447.16	372.57
447.53	372.26
447.90	371.09
448.27	370.01
448.64	368.47
449.01	367.30
449.37	365.36
449.74	363.45
450.11	361.25
450.48	358.85
450.85	356.40
451.22	354.26
451.59	352.29
451.96	350.35
452.33	347.81
452.70	345.47
453.07	342.66
453.43	339.77
453.80	337.05
454.17	334.39
454.54	331.83
454.91	329.07
455.28	326.43
455.65	323.97
456.02	321.51
456.38	319.33
456.75	316.70
457.12	314.44
457.49	312.27
457.86	310.09
458.23	308.29
458.59	306.22
458.96	304.14
459.33	302.28
459.70	300.40
460.07	298.88
460.43	297.20
460.80	295.62
461.17	294.22
461.54	292.75
461.91	291.33
462.27	289.91
462.64	288.71
463.01	287.38
463.38	286.08
463.74	284.76
464.11	283.61
464.48	282.59
464.85	281.53
465.21	280.64
465.58	279.74
465.95	278.63
466.32	277.74
466.68	276.90
467.05	276.01
467.42	275.15
467.78	274.22
468.15	273.36
468.52	272.72
468.88	271.87
469.25	271.07
469.62	270.43
469.98	269.82
470.35	269.21
470.72	268.63
471.08	267.98
471.45	267.45
471.82	266.87
472.18	266.31
472.55	265.82
472.92	265.36
473.28	264.89
473.65	264.43
474.02	263.99
474.38	263.63
474.75	263.34
475.11	263.04
475.48	262.80
475.85	262.54
476.21	262.27
476.58	262.10
476.94	261.97
477.31	261.85
477.67	261.67
478.04	261.55
478.41	261.46
478.77	261.53
479.14	261.45
479.50	261.53
479.87	261.58
480.23	261.70
480.60	261.74
480.96	261.85
481.33	262.07
481.69	262.28
482.06	262.47
482.42	262.63
482.79	262.87
483.15	263.19
483.52	263.62
483.88	263.98
484.25	264.38
484.61	264.83
484.98	265.27
485.34	265.85
485.71	266.46
486.07	267.06
486.44	267.60
486.80	268.34
487.17	269.06
487.53	269.89
487.90	270.72
488.26	271.68
488.62	272.68
488.99	273.67
489.35	274.70
489.72	275.84
490.08	277.05
490.44	278.26
490.81	279.61
491.17	280.93
491.54	282.43
491.90	283.92
492.26	285.55
492.63	287.27
492.99	289.06
493.36	290.91
493.72	292.98
494.08	295.07
494.45	297.29
494.81	299.66
495.17	302.06
495.54	304.64
495.90	307.29
496.26	310.08
496.63	313.01
496.99	316.11
497.35	319.39
497.72	322.79
498.08	326.30
498.44	329.98
498.80	333.90
499.17	337.92
499.53	342.07
499.89	346.38
500.26	350.87
500.62	355.50
500.98	360.48
501.34	365.48
501.71	370.83
502.07	376.24
502.43	381.81
502.79	387.64
503.16	393.70
503.52	399.98
503.88	406.37
504.24	412.99
504.60	419.77
504.97	426.79
505.33	434.00
505.69	441.66
506.05	449.40
506.41	457.15
506.78	465.20
507.14	473.58
507.50	482.27
507.86	491.18
508.22	500.29
508.59	509.36
508.95	518.87
509.31	528.57
509.67	538.53
510.03	548.70
510.39	559.08
510.75	569.64
511.12	580.38
511.48	591.53
511.84	602.81
512.20	614.22
512.56	625.97
512.92	638.05
513.28	650.30
513.64	662.52
514.00	675.14
514.37	687.93
514.73	700.81
515.09	713.65
515.45	726.81
515.81	740.12
516.17	753.86
516.53	767.76
516.89	781.65
517.25	795.53
517.61	809.66
517.97	823.87
518.33	838.14
518.69	852.71
519.05	867.33
519.41	882.23
519.77	897.53
520.13	912.72
520.49	927.75
520.85	942.71
521.21	958.22
521.57	974.17
521.93	989.60
522.29	1005.61
522.65	1021.53
523.01	1037.40
523.37	1053.16
523.73	1069.05
524.09	1084.79
524.45	1100.78
524.81	1117.03
525.17	1133.45
525.53	1150.00
525.89	1166.56
526.25	1182.99
526.61	1199.15
526.97	1215.59
527.33	1231.63
527.68	1247.81
528.04	1264.08
528.40	1280.33
528.76	1296.85
529.12	1312.91
529.48	1329.53
529.84	1345.19
530.20	1361.45
530.56	1378.02
530.91	1394.97
531.27	1411.38
531.63	1427.56
531.99	1443.77
532.35	1459.48
532.71	1475.20
533.07	1491.21
533.42	1506.78
533.78	1522.50
534.14	1538.37
534.50	1553.28
534.86	1568.86
535.21	1583.80
535.57	1599.32
535.93	1614.61
536.29	1629.21
536.65	1643.99
537.00	1658.36
537.36	1673.46
537.72	1687.62
538.08	1701.67
538.44	1715.29
538.79	1728.91
539.15	1742.26
539.51	1755.72
539.87	1769.82
540.22	1783.15
540.58	1796.46
540.94	1809.42
541.29	1821.95
541.65	1834.33
542.01	1847.28
542.37	1859.40
542.72	1871.52
543.08	1883.12
543.44	1895.28
543.79	1906.38
544.15	1917.11
544.51	1928.50
544.87	1939.27
545.22	1950.04
545.58	1960.13
545.94	1969.66
546.29	1979.45
546.65	1989.11
547.01	1998.25
547.36	2006.77
547.72	2015.18
548.07	2023.06
548.43	2031.15
548.79	2039.17
549.14	2046.72
549.50	2053.91
549.86	2061.34
550.21	2068.60
550.57	2075.64
550.92	2082.11
551.28	2088.91
551.64	2096.04
551.99	2102.48
552.35	2108.49
552.70	2114.54
553.06	2120.46
553.41	2126.87
553.77	2132.67
554.13	2138.81
554.48	2144.94
554.84	2150.52
555.19	2155.81
555.55	2160.95
555.90	2165.56
556.26	2170.44
556.61	2175.05
556.97	2179.46
557.32	2183.64
557.68	2187.77
558.03	2192.02
558.39	2195.54
558.74	2200.28
559.10	2204.12
559.45	2207.83
559.81	2212.07
560.16	2215.98
560.52	2219.41
560.87	2222.75
561.23	2225.47
561.58	2228.29
561.94	2230.87
562.29	2233.17
562.64	2235.93
563.00	2238.60
563.35	2242.00
563.71	2245.26
564.06	2248.65
564.42	2251.67
564.77	2254.38
565.12	2256.96
565.48	2259.20
565.83	2261.42
566.19	2262.95
566.54	2263.98
566.89	2265.32
567.25	2266.15
567.60	2267.41
567.96	2269.20
568.31	2270.31
568.66	2271.63
569.02	2272.41
569.37	2272.91
569.72	2274.07
570.08	2274.54
570.43	2274.70
570.78	2274.37
571.14	2273.00
571.49	2271.73
571.84	2271.50
572.20	2270.64
572.55	2269.66
572.90	2268.10
573.26	2266.92
573.61	2265.29
573.96	2264.00
574.31	2261.27
574.67	2258.63
575.02	2255.31
575.37	2252.15
575.72	2248.51
576.08	2245.29
576.43	2242.19
576.78	2238.79
577.13	2235.67
577.49	2232.59
577.84	2229.38
578.19	2225.92
578.54	2222.50
578.90	2218.65
579.25	2213.42
579.60	2208.67
579.95	2203.89
580.30	2199.06
580.66	2194.13
581.01	2189.40
581.36	2184.56
581.71	2180.58
582.06	2176.20
582.42	2172.03
582.77	2167.03
583.12	2162.71
583.47	2158.42
583.82	2153.74
584.17	2148.64
584.53	2143.50
584.88	2138.08
585.23	2132.55
585.58	2127.25
585.93	2122.01
586.28	2117.33
586.63	2112.39
586.98	2107.40
587.34	2102.96
587.69	2098.19
588.04	2093.28
588.39	2088.04
588.74	2081.55
589.09	2075.56
589.44	2068.97
589.79	2063.10
590.14	2057.67
590.49	2051.30
590.84	2045.07
591.19	2039.25
591.54	2032.92
591.89	2025.79
592.25	2019.32
592.60	2012.41
592.95	2005.12
593.30	1997.91
593.65	1990.45
594.00	1983.64
594.35	1976.62
594.70	1968.68
595.05	1961.86
595.40	1954.61
595.75	1947.03
596.10	1941.26
596.45	1934.87
596.80	1928.87
597.15	1922.49
597.50	1915.76
597.85	1909.37
598.19	1902.83
598.54	1895.77
598.89	1889.44
599.24	1883.69
599.59	1877.12
599.94	1870.87
600.29	1864.57
600.64	1858.10
600.99	1850.89
601.34	1844.16
601.69	1837.35
602.04	1830.74
602.39	1823.46
602.74	1816.71
603.08	1810.14
603.43	1803.36
603.78	1795.91
604.13	1788.83
604.48	1781.63
604.83	1774.70
605.18	1767.97
605.53	1760.10
605.87	1752.28
606.22	1744.96
606.57	1736.94
606.92	1729.60
607.27	1722.58
607.62	1715.68
607.96	1708.66
608.31	1702.26
608.66	1694.80
609.01	1687.35
609.36	1679.85
609.70	1671.94
610.05	1664.00
610.40	1656.43
610.75	1648.26
611.10	1640.80
611.44	1632.41
611.79	1624.45
612.14	1615.78
612.49	1606.56
612.83	1598.28
613.18	1590.11
613.53	1582.15
613.88	1573.73
614.22	1565.65
614.57	1556.99
614.92	1548.98
615.27	1541.46
615.61	1533.09
615.96	1525.09
616.31	1517.50
616.65	1510.11
617.00	1502.63
617.35	1495.03
617.70	1486.78
618.04	1478.38
618.39	1470.16
618.74	1462.65
619.08	1454.45
619.43	1447.05
619.78	1440.20
620.12	1433.10
620.47	1425.74
620.82	1417.59
621.16	1410.25
621.51	1402.59
621.85	1395.14
622.20	1386.63
622.55	1378.32
622.89	1370.48
623.24	1362.78
623.59	1355.37
623.93	1347.88
624.28	1340.65
624.62	1333.16
624.97	1325.99
625.32	1319.11
625.66	1312.21
626.01	1305.13
626.35	1297.79
626.70	1289.96
627.04	1282.24
627.39	1274.33
627.73	1266.93
628.08	1260.09
628.43	1252.95
628.77	1245.66
629.12	1238.04
629.46	1231.04
629.81	1223.51
630.15	1216.37
630.50	1209.12
630.84	1200.98
631.19	1192.98
631.53	1185.46
631.88	1178.01
632.22	1170.42
632.57	1163.19
632.91	1155.56
633.26	1148.16
633.60	1140.73
633.95	1133.61
634.29	1126.61
634.64	1119.99
634.98	1112.74
635.32	1105.59
635.67	1098.84
636.01	1092.13
636.36	1085.46
636.70	1078.89
637.05	1072.39
637.39	1065.94
637.73	1059.40
638.08	1053.52
638.42	1047.61
638.77	1041.17
639.11	1034.50
639.45	1028.14
639.80	1021.56
640.14	1015.25
640.49	1008.74
640.83	1002.51
641.17	996.28
641.52	990.00
641.86	983.48
642.20	977.57
642.55	971.27
642.89	964.96
643.23	958.46
643.58	952.70
643.92	946.56
644.26	940.57
644.61	934.52
644.95	928.51
645.29	922.03
645.64	915.22
645.98	908.98
646.32	903.16
646.66	897.19
647.01	891.41
647.35	885.72
647.69	879.89
648.04	874.27
648.38	868.58
648.72	862.69
649.06	856.80
649.41	851.01
649.75	845.13
650.09	839.16
650.43	833.41
650.78	827.33
651.12	821.45
651.46	815.71
651.80	810.05
652.14	804.77
652.49	799.37
652.83	794.34
653.17	788.67
653.51	782.99
653.85	777.54
654.20	772.00
654.54	766.03
654.88	760.27
655.22	754.44
655.56	748.75
655.90	743.31
656.25	738.12
656.59	732.72
656.93	727.62
657.27	722.49
657.61	717.07
657.95	711.94
658.29	706.92
658.64	701.66
658.98	696.33
659.32	690.86
659.66	685.66
660.00	680.47
660.34	675.65
660.68	670.77
661.02	665.78
661.36	661.02
661.70	656.50
662.05	652.25
662.39	647.97
662.73	643.56
663.07	639.21
663.41	634.74
663.75	630.34
664.09	625.79
664.43	621.41
664.77	617.38
665.11	613.19
665.45	609.06
665.79	605.02
666.13	600.89
666.47	596.80
666.81	592.70
667.15	588.57
667.49	584.61
667.83	580.80
668.17	576.85
668.51	572.82
668.85	568.77
669.19	564.91
669.53	561.08
669.87	557.15
670.21	553.44
670.55	549.80
670.89	546.36
671.23	542.95
671.57	539.40
671.91	535.87
672.25	532.33
672.58	528.83
672.92	525.40
673.26	522.24
673.60	519.11
673.94	516.05
674.28	513.08
674.62	510.12
674.96	507.02
675.30	504.17
675.64	501.21
675.97	498.48
676.31	495.65
676.65	492.75
676.99	490.09
677.33	487.19
677.67	484.45
678.01	481.43
678.34	478.43
678.68	475.59
679.02	472.75
679.36	469.91
679.70	467.19
680.04	464.44
680.37	461.63
680.71	458.83
681.05	456.14
681.39	453.49
681.73	450.82
682.06	448.27
682.40	445.74
682.74	443.21
683.08	440.65
683.42	438.01
683.75	435.51
684.09	432.91
684.43	430.49
684.77	427.96
685.10	425.60
685.44	423.36
685.78	421.13
686.12	418.91
686.45	416.71
686.79	414.39
687.13	412.24
687.46	410.05
687.80	407.92
688.14	405.69
688.48	403.57
688.81	401.37
689.15	399.23
689.49	397.06
689.82	395.00
690.16	392.90
690.50	390.95
690.83	389.01
691.17	387.09
691.51	385.19
691.84	383.36
692.18	381.44
692.52	379.48
692.85	377.46
693.19	375.58
693.52	373.73
693.86	371.95
694.20	370.14
694.53	368.38
694.87	366.53
695.21	364.74
695.54	362.91
695.88	361.14
696.21	359.45
696.55	357.79
696.88	356.13
697.22	354.51
697.56	352.88
697.89	351.23
698.23	349.59
698.56	347.99
698.90	346.41
699.23	344.78
699.57	343.16
699.90	341.66
700.24	340.11
700.58	338.64
700.91	337.11
701.25	335.69
701.58	334.31
701.92	332.94
702.25	331.60
702.59	330.26
702.92	328.99
703.26	327.67
703.59	326.39
703.93	325.17
704.26	323.94
704.60	322.65
704.93	321.40
705.26	320.20
705.60	319.01
705.93	317.85
706.27	316.82
706.60	315.79
706.94	314.68
707.27	313.54
707.61	312.43
707.94	311.44
708.27	310.36
708.61	309.28
708.94	308.27
709.28	307.30
709.61	306.35
709.94	305.37
710.28	304.35
710.61	303.35
710.95	302.31
711.28	301.38
711.61	300.41
711.95	299.47
712.28	298.52
712.61	297.57
712.95	296.64
713.28	295.74
713.61	294.84
713.95	293.99
714.28	293.13
714.61	292.27
714.95	291.38
715.28	290.53
715.61	289.63
715.95	288.78
716.28	287.92
716.61	287.07
716.95	286.22
717.28	285.46
717.61	284.70
717.94	283.95
718.28	283.16
718.61	282.44
718.94	281.73
719.27	281.10
719.61	280.42
719.94	279.74
720.27	278.99
720.60	278.32
720.94	277.70
721.27	277.13
721.60	276.54
721.93	275.94
722.27	275.39
722.60	274.84
722.93	274.23
723.26	273.68
723.59	273.13
723.93	272.59
724.26	272.06
724.59	271.51
724.92	270.97
725.25	270.48
725.59	270.00
725.92	269.53
726.25	268.98
726.58	268.51
726.91	268.00
727.24	267.58
727.57	267.12
727.91	266.59
728.24	266.12
728.57	265.67
728.90	265.22
729.23	264.69
729.56	264.27
729.89	263.84
730.22	263.37
730.55	262.89
730.89	262.44
731.22	261.97
731.55	261.53
731.88	261.12
732.21	260.68
732.54	260.22
732.87	259.75
733.20	259.36
733.53	258.94
733.86	258.58
734.19	258.16
734.52	257.76
734.85	257.47
735.18	257.09
735.51	256.68
735.84	256.32
736.17	256.02
736.50	255.62
736.83	255.38
737.16	255.06
737.49	254.70
737.82	254.37
738.15	254.06
738.48	253.71
738.81	253.35
739.14	253.03
739.47	252.73
739.80	252.42
740.13	252.12
740.46	251.82
740.79	251.50
741.12	251.19
741.45	250.90
741.78	250.52
742.11	250.23
742.44	249.93
742.77	249.63
743.10	249.32
743.43	249.04
743.75	248.66
744.08	248.51
744.41	248.28
744.74	248.04
745.07	247.74
745.40	247.53
745.73	247.30
746.06	247.04
746.39	246.77
746.71	246.53
747.04	246.27
747.37	246.02
747.70	245.83
748.03	245.58
748.36	245.38
748.68	245.15
749.01	244.92
749.34	244.70
749.67	244.50
750.00	244.24
750.33	244.07
750.65	243.85
750.98	243.51
751.31	243.26
751.64	243.01
751.97	242.87
752.29	242.64
752.62	242.38
752.95	242.19
753.28	241.98
753.60	241.77
753.93	241.59
754.26	241.39
754.59	241.12
754.91	240.91
755.24	240.67
755.57	240.49
755.90	240.29
756.22	240.08
756.55	239.85
756.88	239.71
757.20	239.49
757.53	239.32
757.86	239.11
758.19	238.99
758.51	238.85
758.84	238.66
759.17	238.52
759.49	238.38
759.82	238.25
760.15	238.09
760.47	237.95
760.80	237.77
761.13	237.59
761.45	237.42
761.78	237.28
762.11	237.14
762.43	236.97
762.76	236.81
763.08	236.65
763.41	236.58
763.74	236.42
764.06	236.26
764.39	236.12
764.71	236.01
765.04	235.84
765.37	235.68
765.69	235.55
766.02	235.42
766.34	235.31
766.67	235.14
767.00	235.02
767.32	234.94
767.65	234.86
767.97	234.77
768.30	234.69
768.62	234.57
768.95	234.42
769.27	234.34
769.60	234.26
769.92	234.15
770.25	233.96
770.57	233.83
770.90	233.75
771.22	233.62
771.55	233.50
771.87	233.45
772.20	233.34
772.52	233.31
772.85	233.32
773.17	233.21
773.50	233.12
773.82	233.04
774.15	232.95
774.47	232.80
774.80	232.72
775.12	232.60
775.45	232.52
775.77	232.44
776.09	232.36
776.42	232.27
776.74	232.25
777.07	232.22
777.39	232.16
777.72	232.07
778.04	232.01
778.36	231.95
778.69	231.87
779.01	231.79
779.33	231.65
779.66	231.49
779.98	231.41
780.31	231.34
780.63	231.28
780.95	231.21
781.28	231.15
781.60	231.10
781.92	231.05
782.25	230.99
782.57	230.96
782.89	230.87
783.22	230.79
783.54	230.71
783.86	230.65
784.19	230.57
784.51	230.56
784.83	230.50
785.16	230.45
785.48	230.37
785.80	230.38
786.12	230.32
786.45	230.21
786.77	230.18
787.09	230.13
