SpectraSuite Data File
++++++++++++++++++++++++++++++++++++
Date: Fri Feb 01 17:08:17 EST 2013
User: group
Dark Spectrum Present: No
Reference Spectrum Present: No
Number of Sampled Component Spectra: 1
Spectrometers: USB2E7196
Integration Time (usec): 35000 (USB2E7196)
Spectra Averaged: 100 (USB2E7196)
Boxcar Smoothing: 10 (USB2E7196)
Correct for Electrical Dark: No (USB2E7196)
Strobe/Lamp Enabled: No (USB2E7196)
Correct for Detector Non-linearity: No (USB2E7196)
Correct for Stray Light: No (USB2E7196)
Number of Pixels in Processed Spectrum: 2048
>>>>>Begin Processed Spectral Data<<<<<
339.09	0.00
339.48	213.52
339.86	214.99
340.24	215.78
340.63	217.24
341.01	220.49
341.39	220.67
341.78	221.93
342.16	222.91
342.54	223.70
342.93	211.99
343.31	222.71
343.69	223.25
344.07	223.74
344.46	224.23
344.84	224.61
345.22	224.87
345.60	225.12
345.99	225.32
346.37	225.48
346.75	225.57
347.13	225.63
347.52	225.68
347.90	225.74
348.28	225.77
348.66	225.82
349.05	225.82
349.43	225.92
349.81	225.94
350.19	225.94
350.57	225.97
350.96	226.01
351.34	226.10
351.72	226.20
352.10	226.29
352.48	226.32
352.87	226.42
353.25	226.46
353.63	226.53
354.01	226.58
354.39	226.66
354.77	226.72
355.15	226.82
355.54	226.89
355.92	226.97
356.30	227.04
356.68	227.12
357.06	227.20
357.44	227.23
357.82	227.27
358.20	227.34
358.58	227.41
358.97	227.47
359.35	227.52
359.73	227.59
360.11	227.62
360.49	227.68
360.87	227.72
361.25	227.78
361.63	227.84
362.01	227.90
362.39	227.93
362.77	227.97
363.15	228.00
363.53	228.00
363.91	227.98
364.29	227.97
364.67	227.90
365.05	227.92
365.43	227.91
365.81	227.95
366.19	227.99
366.57	228.03
366.95	228.03
367.33	228.02
367.71	228.00
368.09	228.01
368.47	227.96
368.85	227.90
369.23	227.89
369.61	227.81
369.99	227.78
370.37	227.73
370.75	227.75
371.13	227.69
371.51	227.65
371.89	227.60
372.27	227.58
372.65	227.54
373.03	227.46
373.41	227.42
373.78	227.35
374.16	227.26
374.54	227.18
374.92	227.10
375.30	227.01
375.68	226.92
376.06	226.84
376.44	226.76
376.82	226.72
377.19	226.62
377.57	226.59
377.95	226.48
378.33	226.41
378.71	226.28
379.09	226.23
379.47	226.20
379.84	226.14
380.22	226.06
380.60	225.97
380.98	225.92
381.36	225.86
381.73	225.78
382.11	225.74
382.49	225.65
382.87	225.57
383.25	225.52
383.62	225.55
384.00	225.47
384.38	225.42
384.76	225.40
385.13	225.41
385.51	225.30
385.89	225.26
386.27	225.20
386.64	225.17
387.02	225.12
387.40	225.05
387.78	225.03
388.15	225.02
388.53	225.02
388.91	224.98
389.29	224.92
389.66	224.92
390.04	224.90
390.42	224.92
390.79	224.93
391.17	224.95
391.55	224.86
391.92	224.88
392.30	224.88
392.68	224.83
393.05	224.82
393.43	224.84
393.81	224.85
394.18	224.86
394.56	224.86
394.94	224.86
395.31	224.89
395.69	224.93
396.06	224.93
396.44	224.95
396.82	224.99
397.19	225.09
397.57	225.12
397.95	225.16
398.32	225.16
398.70	225.22
399.07	225.27
399.45	225.33
399.82	225.39
400.20	225.43
400.58	225.54
400.95	225.56
401.33	225.72
401.70	225.86
402.08	225.95
402.45	226.07
402.83	226.19
403.20	226.31
403.58	226.36
403.95	226.48
404.33	226.58
404.71	226.69
405.08	226.83
405.46	226.94
405.83	227.07
406.21	227.25
406.58	227.37
406.96	227.51
407.33	227.64
407.70	227.82
408.08	228.11
408.45	228.30
408.83	228.50
409.20	228.66
409.58	228.82
409.95	229.08
410.33	229.29
410.70	229.54
411.08	229.82
411.45	230.11
411.82	230.40
412.20	230.77
412.57	231.20
412.95	231.49
413.32	231.92
413.69	232.30
414.07	232.68
414.44	233.14
414.82	233.62
415.19	234.21
415.56	234.75
415.94	235.26
416.31	235.88
416.68	236.52
417.06	237.23
417.43	237.89
417.81	238.61
418.18	239.42
418.55	240.22
418.93	241.06
419.30	241.97
419.67	242.94
420.04	243.88
420.42	244.83
420.79	246.00
421.16	247.11
421.54	248.32
421.91	249.53
422.28	250.80
422.66	252.11
423.03	253.37
423.40	254.70
423.77	256.10
424.15	257.50
424.52	258.97
424.89	260.58
425.26	262.15
425.64	263.60
426.01	265.20
426.38	266.88
426.75	268.56
427.13	270.29
427.50	272.10
427.87	273.96
428.24	275.82
428.61	277.56
428.99	279.51
429.36	281.62
429.73	283.71
430.10	285.71
430.47	287.78
430.85	289.90
431.22	292.10
431.59	294.50
431.96	296.75
432.33	299.21
432.70	301.59
433.08	304.40
433.45	307.07
433.82	309.62
434.19	312.48
434.56	315.31
434.93	317.98
435.30	320.59
435.68	323.48
436.05	326.26
436.42	329.08
436.79	331.57
437.16	334.26
437.53	337.07
437.90	339.89
438.27	342.62
438.64	345.42
439.01	348.02
439.38	350.22
439.75	352.40
440.13	354.84
440.50	357.16
440.87	358.98
441.24	360.86
441.61	363.03
441.98	364.50
442.35	366.24
442.72	368.08
443.09	369.86
443.46	370.85
443.83	371.45
444.20	371.91
444.57	372.79
444.94	373.09
445.31	373.43
445.68	373.81
446.05	373.91
446.42	373.56
446.79	373.09
447.16	372.67
447.53	372.32
447.90	371.27
448.27	370.11
448.64	368.52
449.01	367.40
449.37	365.45
449.74	363.61
450.11	361.40
450.48	358.90
450.85	356.38
451.22	354.23
451.59	352.23
451.96	350.36
452.33	347.75
452.70	345.38
453.07	342.57
453.43	339.67
453.80	336.91
454.17	334.23
454.54	331.75
454.91	329.03
455.28	326.36
455.65	323.81
456.02	321.37
456.38	319.25
456.75	316.59
457.12	314.33
457.49	312.06
457.86	309.88
458.23	308.03
458.59	305.99
458.96	303.91
459.33	302.06
459.70	300.17
460.07	298.64
460.43	296.95
460.80	295.34
461.17	293.89
461.54	292.36
461.91	290.94
462.27	289.53
462.64	288.30
463.01	286.96
463.38	285.73
463.74	284.37
464.11	283.21
464.48	282.22
464.85	281.09
465.21	280.28
465.58	279.35
465.95	278.26
466.32	277.40
466.68	276.48
467.05	275.58
467.42	274.73
467.78	273.82
468.15	272.92
468.52	272.26
468.88	271.43
469.25	270.67
469.62	270.05
469.98	269.39
470.35	268.78
470.72	268.23
471.08	267.57
471.45	267.05
471.82	266.52
472.18	265.96
472.55	265.57
472.92	265.08
473.28	264.68
473.65	264.26
474.02	263.85
474.38	263.53
474.75	263.27
475.11	262.91
475.48	262.69
475.85	262.45
476.21	262.27
476.58	262.10
476.94	262.00
477.31	261.84
477.67	261.70
478.04	261.61
478.41	261.60
478.77	261.68
479.14	261.61
479.50	261.66
479.87	261.74
480.23	261.81
480.60	261.87
480.96	261.98
481.33	262.24
481.69	262.45
482.06	262.62
482.42	262.82
482.79	263.10
483.15	263.40
483.52	263.83
483.88	264.12
484.25	264.50
484.61	264.92
484.98	265.37
485.34	265.94
485.71	266.50
486.07	267.08
486.44	267.64
486.80	268.34
487.17	269.01
487.53	269.82
487.90	270.72
488.26	271.66
488.62	272.66
488.99	273.59
489.35	274.64
489.72	275.79
490.08	276.99
490.44	278.23
490.81	279.53
491.17	280.88
491.54	282.41
491.90	283.99
492.26	285.69
492.63	287.42
492.99	289.23
493.36	291.12
493.72	293.18
494.08	295.26
494.45	297.53
494.81	299.92
495.17	302.36
495.54	304.94
495.90	307.63
496.26	310.41
496.63	313.39
496.99	316.43
497.35	319.71
497.72	323.11
498.08	326.60
498.44	330.31
498.80	334.20
499.17	338.21
499.53	342.32
499.89	346.60
500.26	351.07
500.62	355.69
500.98	360.65
501.34	365.67
501.71	370.92
502.07	376.37
502.43	381.97
502.79	387.72
503.16	393.68
503.52	399.85
503.88	406.20
504.24	412.80
504.60	419.66
504.97	426.72
505.33	433.94
505.69	441.55
506.05	449.21
506.41	456.96
506.78	465.00
507.14	473.36
507.50	482.04
507.86	490.95
508.22	500.02
508.59	509.10
508.95	518.48
509.31	528.21
509.67	538.13
510.03	548.30
510.39	558.69
510.75	569.36
511.12	580.19
511.48	591.29
511.84	602.59
512.20	613.91
512.56	625.61
512.92	637.63
513.28	649.86
513.64	662.21
514.00	674.79
514.37	687.57
514.73	700.41
515.09	713.16
515.45	726.23
515.81	739.63
516.17	753.37
516.53	767.38
516.89	781.33
517.25	795.20
517.61	809.32
517.97	823.54
518.33	837.69
518.69	852.22
519.05	867.00
519.41	881.81
519.77	897.03
520.13	912.18
520.49	927.27
520.85	942.30
521.21	957.55
521.57	973.43
521.93	988.87
522.29	1004.86
522.65	1020.87
523.01	1036.79
523.37	1052.47
523.73	1068.17
524.09	1083.84
524.45	1099.82
524.81	1116.12
525.17	1132.56
525.53	1149.13
525.89	1165.61
526.25	1181.95
526.61	1197.87
526.97	1214.21
527.33	1230.26
527.68	1246.42
528.04	1262.44
528.40	1278.67
528.76	1295.37
529.12	1311.56
529.48	1328.08
529.84	1343.66
530.20	1359.75
530.56	1376.27
530.91	1393.27
531.27	1409.70
531.63	1425.81
531.99	1441.93
532.35	1457.54
532.71	1473.04
533.07	1488.88
533.42	1504.51
533.78	1520.33
534.14	1536.26
534.50	1551.29
534.86	1566.72
535.21	1581.56
535.57	1597.11
535.93	1612.14
536.29	1626.60
536.65	1641.20
537.00	1655.41
537.36	1670.42
537.72	1684.61
538.08	1698.62
538.44	1712.12
538.79	1725.65
539.15	1738.82
539.51	1752.15
539.87	1766.05
540.22	1779.32
540.58	1792.66
540.94	1805.51
541.29	1817.83
541.65	1830.17
542.01	1842.92
542.37	1855.06
542.72	1867.20
543.08	1878.70
543.44	1890.91
543.79	1901.91
544.15	1912.72
544.51	1924.08
544.87	1934.75
545.22	1945.37
545.58	1955.38
545.94	1964.94
546.29	1974.58
546.65	1984.41
547.01	1993.61
547.36	2002.23
547.72	2010.62
548.07	2018.54
548.43	2026.50
548.79	2034.47
549.14	2041.88
549.50	2049.10
549.86	2056.62
550.21	2063.88
550.57	2070.96
550.92	2077.40
551.28	2084.31
551.64	2091.35
551.99	2097.95
552.35	2104.15
552.70	2110.31
553.06	2116.40
553.41	2122.58
553.77	2128.64
554.13	2134.64
554.48	2140.77
554.84	2146.26
555.19	2151.49
555.55	2156.62
555.90	2161.28
556.26	2166.32
556.61	2171.07
556.97	2175.72
557.32	2179.83
557.68	2183.92
558.03	2188.17
558.39	2191.83
558.74	2196.53
559.10	2200.48
559.45	2204.16
559.81	2208.43
560.16	2212.39
560.52	2215.68
560.87	2219.22
561.23	2221.95
561.58	2224.94
561.94	2227.59
562.29	2230.05
562.64	2232.95
563.00	2235.46
563.35	2239.07
563.71	2242.17
564.06	2245.52
564.42	2248.37
564.77	2251.17
565.12	2253.74
565.48	2255.98
565.83	2258.11
566.19	2259.63
566.54	2260.54
566.89	2261.70
567.25	2262.38
567.60	2263.58
567.96	2265.42
568.31	2266.29
568.66	2267.64
569.02	2268.47
569.37	2268.87
569.72	2270.02
570.08	2270.44
570.43	2270.82
570.78	2270.39
571.14	2269.16
571.49	2267.97
571.84	2267.70
572.20	2266.86
572.55	2266.07
572.90	2264.54
573.26	2263.36
573.61	2261.92
573.96	2260.53
574.31	2257.93
574.67	2255.36
575.02	2252.12
575.37	2248.87
575.72	2245.53
576.08	2242.30
576.43	2239.08
576.78	2235.64
577.13	2232.45
577.49	2229.33
577.84	2225.96
578.19	2222.46
578.54	2219.11
578.90	2215.33
579.25	2210.08
579.60	2205.23
579.95	2200.33
580.30	2195.70
580.66	2190.76
581.01	2185.86
581.36	2181.09
581.71	2177.24
582.06	2173.01
582.42	2168.74
582.77	2163.81
583.12	2159.51
583.47	2155.13
583.82	2150.41
584.17	2145.40
584.53	2140.17
584.88	2134.95
585.23	2129.48
585.58	2124.23
585.93	2119.02
586.28	2114.33
586.63	2109.56
586.98	2104.77
587.34	2100.26
587.69	2095.62
588.04	2090.74
588.39	2085.42
588.74	2079.21
589.09	2073.22
589.44	2066.61
589.79	2060.75
590.14	2055.40
590.49	2049.01
590.84	2042.82
591.19	2036.91
591.54	2030.62
591.89	2023.54
592.25	2016.93
592.60	2009.86
592.95	2002.51
593.30	1995.32
593.65	1987.82
594.00	1980.88
594.35	1973.90
594.70	1966.09
595.05	1959.07
595.40	1951.89
595.75	1944.61
596.10	1938.56
596.45	1932.03
596.80	1926.11
597.15	1919.78
597.50	1912.97
597.85	1906.62
598.19	1900.09
598.54	1893.29
598.89	1886.85
599.24	1881.09
599.59	1874.72
599.94	1868.58
600.29	1862.39
600.64	1855.87
600.99	1848.73
601.34	1842.11
601.69	1835.05
602.04	1828.45
602.39	1821.06
602.74	1814.37
603.08	1807.72
603.43	1801.20
603.78	1793.94
604.13	1786.82
604.48	1779.67
604.83	1772.75
605.18	1765.89
605.53	1758.11
605.87	1750.21
606.22	1743.08
606.57	1735.25
606.92	1727.82
607.27	1720.90
607.62	1714.10
607.96	1706.94
608.31	1700.46
608.66	1692.98
609.01	1685.64
609.36	1678.07
609.70	1670.31
610.05	1662.32
610.40	1654.72
610.75	1646.52
611.10	1638.96
611.44	1630.59
611.79	1622.57
612.14	1613.97
612.49	1604.87
612.83	1596.52
613.18	1588.41
613.53	1580.42
613.88	1571.90
614.22	1563.77
614.57	1555.23
614.92	1547.22
615.27	1539.79
615.61	1531.56
615.96	1523.57
616.31	1516.10
616.65	1508.78
617.00	1501.22
617.35	1493.61
617.70	1485.47
618.04	1477.00
618.39	1468.85
618.74	1461.41
619.08	1453.12
619.43	1445.63
619.78	1438.78
620.12	1431.68
620.47	1424.32
620.82	1416.20
621.16	1408.82
621.51	1401.19
621.85	1393.51
622.20	1385.06
622.55	1376.74
622.89	1368.91
623.24	1361.32
623.59	1353.78
623.93	1346.30
624.28	1339.19
624.62	1331.71
624.97	1324.50
625.32	1317.68
625.66	1310.71
626.01	1303.55
626.35	1296.26
626.70	1288.58
627.04	1280.94
627.39	1273.16
627.73	1265.83
628.08	1258.94
628.43	1251.81
628.77	1244.59
629.12	1237.16
629.46	1230.12
629.81	1222.63
630.15	1215.45
630.50	1208.06
630.84	1200.09
631.19	1192.18
631.53	1184.67
631.88	1177.11
632.22	1169.55
632.57	1162.26
632.91	1154.64
633.26	1147.23
633.60	1139.90
633.95	1132.79
634.29	1125.80
634.64	1119.14
634.98	1111.75
635.32	1104.62
635.67	1097.93
636.01	1091.29
636.36	1084.50
636.70	1077.90
637.05	1071.46
637.39	1065.01
637.73	1058.60
638.08	1052.69
638.42	1046.68
638.77	1040.31
639.11	1033.84
639.45	1027.42
639.80	1020.77
640.14	1014.52
640.49	1008.03
640.83	1001.77
641.17	995.53
641.52	989.17
641.86	982.63
642.20	976.80
642.55	970.51
642.89	964.19
643.23	957.53
643.58	951.83
643.92	945.71
644.26	939.73
644.61	933.64
644.95	927.70
645.29	921.13
645.64	914.43
645.98	908.11
646.32	902.22
646.66	896.20
647.01	890.50
647.35	884.79
647.69	878.93
648.04	873.37
648.38	867.68
648.72	861.88
649.06	856.01
649.41	850.17
649.75	844.35
650.09	838.44
650.43	832.84
650.78	826.70
651.12	820.80
651.46	815.05
651.80	809.35
652.14	803.92
652.49	798.60
652.83	793.52
653.17	787.87
653.51	782.24
653.85	776.87
654.20	771.41
654.54	765.46
654.88	759.80
655.22	753.92
655.56	748.22
655.90	742.73
656.25	737.52
656.59	732.18
656.93	727.04
657.27	721.93
657.61	716.52
657.95	711.50
658.29	706.46
658.64	701.25
658.98	695.95
659.32	690.49
659.66	685.26
660.00	680.03
660.34	675.11
660.68	670.27
661.02	665.24
661.36	660.40
661.70	655.88
662.05	651.58
662.39	647.34
662.73	642.95
663.07	638.63
663.41	634.20
663.75	629.79
664.09	625.28
664.43	620.94
664.77	616.83
665.11	612.57
665.45	608.43
665.79	604.30
666.13	600.21
666.47	596.21
666.81	592.11
667.15	587.98
667.49	584.10
667.83	580.22
668.17	576.35
668.51	572.29
668.85	568.27
669.19	564.42
669.53	560.61
669.87	556.74
670.21	552.98
670.55	549.32
670.89	545.90
671.23	542.50
671.57	538.91
671.91	535.41
672.25	531.90
672.58	528.44
672.92	525.12
673.26	521.96
673.60	518.82
673.94	515.75
674.28	512.85
674.62	509.93
674.96	506.83
675.30	503.96
675.64	501.17
675.97	498.42
676.31	495.58
676.65	492.63
676.99	489.93
677.33	487.10
677.67	484.31
678.01	481.26
678.34	478.33
678.68	475.52
679.02	472.70
679.36	469.97
679.70	467.22
680.04	464.47
680.37	461.64
680.71	458.79
681.05	456.18
681.39	453.45
681.73	450.81
682.06	448.31
682.40	445.82
682.74	443.22
683.08	440.67
683.42	438.06
683.75	435.51
684.09	432.94
684.43	430.45
684.77	428.01
685.10	425.66
685.44	423.32
685.78	420.98
686.12	418.76
686.45	416.50
686.79	414.23
687.13	412.00
687.46	409.87
687.80	407.74
688.14	405.50
688.48	403.44
688.81	401.16
689.15	399.00
689.49	396.81
689.82	394.79
690.16	392.76
690.50	390.83
690.83	388.97
691.17	386.96
691.51	385.12
691.84	383.33
692.18	381.45
692.52	379.47
692.85	377.55
693.19	375.64
693.52	373.80
693.86	372.00
694.20	370.26
694.53	368.47
694.87	366.66
695.21	364.87
695.54	363.05
695.88	361.33
696.21	359.65
696.55	357.95
696.88	356.24
697.22	354.60
697.56	352.94
697.89	351.29
698.23	349.71
698.56	348.11
698.90	346.51
699.23	344.87
699.57	343.32
699.90	341.80
700.24	340.29
700.58	338.79
700.91	337.31
701.25	335.84
701.58	334.45
701.92	333.07
702.25	331.68
702.59	330.30
702.92	328.97
703.26	327.66
703.59	326.37
703.93	325.20
704.26	323.91
704.60	322.63
704.93	321.37
705.26	320.12
705.60	318.93
705.93	317.72
706.27	316.64
706.60	315.62
706.94	314.55
707.27	313.42
707.61	312.36
707.94	311.32
708.27	310.25
708.61	309.16
708.94	308.12
709.28	307.19
709.61	306.24
709.94	305.34
710.28	304.33
710.61	303.38
710.95	302.29
711.28	301.39
711.61	300.46
711.95	299.54
712.28	298.65
712.61	297.69
712.95	296.76
713.28	295.87
713.61	294.95
713.95	294.07
714.28	293.23
714.61	292.34
714.95	291.50
715.28	290.63
715.61	289.78
715.95	288.93
716.28	288.07
716.61	287.23
716.95	286.36
717.28	285.60
717.61	284.83
717.94	284.10
718.28	283.31
718.61	282.57
718.94	281.91
719.27	281.19
719.61	280.55
719.94	279.91
720.27	279.23
720.60	278.56
720.94	277.94
721.27	277.34
721.60	276.76
721.93	276.16
722.27	275.61
722.60	275.07
722.93	274.51
723.26	273.95
723.59	273.36
723.93	272.83
724.26	272.26
724.59	271.68
724.92	271.14
725.25	270.62
725.59	270.12
725.92	269.61
726.25	269.11
726.58	268.60
726.91	268.08
727.24	267.59
727.57	267.10
727.91	266.55
728.24	266.06
728.57	265.57
728.90	265.08
729.23	264.57
729.56	264.14
729.89	263.68
730.22	263.19
730.55	262.78
730.89	262.33
731.22	261.90
731.55	261.46
731.88	261.04
732.21	260.60
732.54	260.15
732.87	259.68
733.20	259.27
733.53	258.88
733.86	258.53
734.19	258.11
734.52	257.74
734.85	257.46
735.18	257.06
735.51	256.71
735.84	256.37
736.17	256.04
736.50	255.65
736.83	255.41
737.16	255.11
737.49	254.74
737.82	254.40
738.15	254.05
738.48	253.75
738.81	253.39
739.14	253.08
739.47	252.78
739.80	252.46
740.13	252.21
740.46	251.92
740.79	251.57
741.12	251.27
741.45	250.94
741.78	250.61
742.11	250.34
742.44	250.02
742.77	249.75
743.10	249.44
743.43	249.09
743.75	248.72
744.08	248.55
744.41	248.31
744.74	248.04
745.07	247.76
745.40	247.49
745.73	247.26
746.06	247.00
746.39	246.76
746.71	246.52
747.04	246.21
747.37	245.90
747.70	245.65
748.03	245.42
748.36	245.18
748.68	244.91
749.01	244.64
749.34	244.42
749.67	244.21
750.00	244.00
750.33	243.88
750.65	243.64
750.98	243.29
751.31	243.05
751.64	242.88
751.97	242.74
752.29	242.53
752.62	242.28
752.95	242.06
753.28	241.86
753.60	241.60
753.93	241.45
754.26	241.30
754.59	241.11
754.91	240.87
755.24	240.72
755.57	240.55
755.90	240.38
756.22	240.18
756.55	239.94
756.88	239.72
757.20	239.48
757.53	239.33
757.86	239.18
758.19	239.03
758.51	238.84
758.84	238.60
759.17	238.45
759.49	238.28
759.82	238.16
760.15	237.98
760.47	237.84
760.80	237.67
761.13	237.52
761.45	237.35
761.78	237.23
762.11	237.06
762.43	236.90
762.76	236.75
763.08	236.60
763.41	236.47
763.74	236.34
764.06	236.21
764.39	236.03
764.71	235.89
765.04	235.71
765.37	235.57
765.69	235.46
766.02	235.33
766.34	235.22
766.67	235.06
767.00	234.95
767.32	234.90
767.65	234.84
767.97	234.71
768.30	234.59
768.62	234.46
768.95	234.36
769.27	234.23
769.60	234.11
769.92	234.01
770.25	233.91
770.57	233.78
770.90	233.65
771.22	233.54
771.55	233.45
771.87	233.39
772.20	233.29
772.52	233.26
772.85	233.27
773.17	233.19
773.50	233.11
773.82	232.98
774.15	232.85
774.47	232.68
774.80	232.57
775.12	232.47
775.45	232.39
775.77	232.30
776.09	232.23
776.42	232.14
776.74	232.09
777.07	232.01
777.39	231.95
777.72	231.85
778.04	231.80
778.36	231.70
778.69	231.63
779.01	231.57
779.33	231.45
779.66	231.26
779.98	231.19
780.31	231.15
780.63	231.14
780.95	231.07
781.28	231.03
781.60	230.94
781.92	230.90
782.25	230.86
782.57	230.81
782.89	230.75
783.22	230.69
783.54	230.58
783.86	230.54
784.19	230.48
784.51	230.47
784.83	230.39
785.16	230.35
785.48	230.29
785.80	230.24
786.12	230.18
786.45	230.15
786.77	230.11
787.09	230.04
