SpectraSuite Data File
++++++++++++++++++++++++++++++++++++
Date: Fri Feb 01 15:53:47 EST 2013
User: group
Dark Spectrum Present: No
Reference Spectrum Present: No
Number of Sampled Component Spectra: 1
Spectrometers: USB2E7196
Integration Time (usec): 35000 (USB2E7196)
Spectra Averaged: 100 (USB2E7196)
Boxcar Smoothing: 10 (USB2E7196)
Correct for Electrical Dark: No (USB2E7196)
Strobe/Lamp Enabled: No (USB2E7196)
Correct for Detector Non-linearity: No (USB2E7196)
Correct for Stray Light: No (USB2E7196)
Number of Pixels in Processed Spectrum: 2048
>>>>>Begin Processed Spectral Data<<<<<
339.09	0.00
339.48	215.15
339.86	216.34
340.24	217.41
340.63	219.45
341.01	221.38
341.39	222.43
341.78	223.34
342.16	224.17
342.54	224.68
342.93	213.14
343.31	223.93
343.69	224.44
344.07	224.87
344.46	225.31
344.84	225.65
345.22	225.90
345.60	226.10
345.99	226.27
346.37	226.37
346.75	226.48
347.13	226.52
347.52	226.58
347.90	226.67
348.28	226.68
348.66	226.70
349.05	226.72
349.43	226.75
349.81	226.77
350.19	226.80
350.57	226.86
350.96	226.94
351.34	226.99
351.72	227.09
352.10	227.22
352.48	227.28
352.87	227.33
353.25	227.39
353.63	227.47
354.01	227.50
354.39	227.62
354.77	227.67
355.15	227.80
355.54	227.84
355.92	227.87
356.30	227.94
356.68	228.08
357.06	228.11
357.44	228.16
357.82	228.23
358.20	228.28
358.58	228.35
358.97	228.42
359.35	228.48
359.73	228.58
360.11	228.61
360.49	228.65
360.87	228.71
361.25	228.75
361.63	228.80
362.01	228.88
362.39	228.89
362.77	228.93
363.15	228.95
363.53	228.99
363.91	229.00
364.29	229.04
364.67	228.99
365.05	229.02
365.43	229.06
365.81	229.08
366.19	229.16
366.57	229.20
366.95	229.17
367.33	229.18
367.71	229.15
368.09	229.17
368.47	229.17
368.85	229.14
369.23	229.16
369.61	229.10
369.99	229.09
370.37	229.06
370.75	229.07
371.13	229.01
371.51	228.98
371.89	229.01
372.27	228.97
372.65	228.91
373.03	228.87
373.41	228.81
373.78	228.74
374.16	228.63
374.54	228.53
374.92	228.48
375.30	228.40
375.68	228.31
376.06	228.24
376.44	228.19
376.82	228.13
377.19	228.07
377.57	228.02
377.95	227.95
378.33	227.92
378.71	227.80
379.09	227.75
379.47	227.70
379.84	227.59
380.22	227.47
380.60	227.42
380.98	227.38
381.36	227.33
381.73	227.26
382.11	227.22
382.49	227.18
382.87	227.11
383.25	227.07
383.62	227.09
384.00	227.02
384.38	226.93
384.76	226.90
385.13	226.87
385.51	226.83
385.89	226.75
386.27	226.71
386.64	226.68
387.02	226.61
387.40	226.55
387.78	226.51
388.15	226.54
388.53	226.51
388.91	226.47
389.29	226.43
389.66	226.45
390.04	226.38
390.42	226.36
390.79	226.34
391.17	226.29
391.55	226.19
391.92	226.20
392.30	226.23
392.68	226.22
393.05	226.19
393.43	226.21
393.81	226.22
394.18	226.18
394.56	226.20
394.94	226.25
395.31	226.26
395.69	226.29
396.06	226.29
396.44	226.32
396.82	226.34
397.19	226.40
397.57	226.45
397.95	226.56
398.32	226.58
398.70	226.64
399.07	226.75
399.45	226.83
399.82	226.89
400.20	226.93
400.58	227.00
400.95	227.05
401.33	227.13
401.70	227.26
402.08	227.37
402.45	227.44
402.83	227.55
403.20	227.66
403.58	227.78
403.95	227.89
404.33	228.00
404.71	228.13
405.08	228.31
405.46	228.42
405.83	228.54
406.21	228.67
406.58	228.86
406.96	228.99
407.33	229.16
407.70	229.34
408.08	229.61
408.45	229.86
408.83	230.12
409.20	230.29
409.58	230.49
409.95	230.77
410.33	231.04
410.70	231.28
411.08	231.56
411.45	231.87
411.82	232.20
412.20	232.60
412.57	233.00
412.95	233.31
413.32	233.71
413.69	234.13
414.07	234.59
414.44	235.05
414.82	235.54
415.19	236.11
415.56	236.64
415.94	237.19
416.31	237.81
416.68	238.46
417.06	239.23
417.43	239.91
417.81	240.67
418.18	241.45
418.55	242.32
418.93	243.20
419.30	244.05
419.67	244.97
420.04	245.89
420.42	246.87
420.79	248.04
421.16	249.19
421.54	250.37
421.91	251.60
422.28	252.87
422.66	254.20
423.03	255.49
423.40	256.84
423.77	258.24
424.15	259.65
424.52	261.14
424.89	262.71
425.26	264.28
425.64	265.73
426.01	267.34
426.38	268.93
426.75	270.60
427.13	272.31
427.50	274.13
427.87	276.01
428.24	277.89
428.61	279.62
428.99	281.54
429.36	283.68
429.73	285.72
430.10	287.71
430.47	289.77
430.85	291.90
431.22	294.14
431.59	296.51
431.96	298.78
432.33	301.23
432.70	303.63
433.08	306.45
433.45	309.05
433.82	311.62
434.19	314.52
434.56	317.35
434.93	320.02
435.30	322.63
435.68	325.49
436.05	328.30
436.42	331.07
436.79	333.59
437.16	336.24
437.53	339.10
437.90	341.91
438.27	344.64
438.64	347.44
439.01	350.03
439.38	352.25
439.75	354.37
440.13	356.84
440.50	359.13
440.87	360.91
441.24	362.83
441.61	365.00
441.98	366.50
442.35	368.29
442.72	370.12
443.09	371.92
443.46	372.90
443.83	373.52
444.20	374.06
444.57	374.91
444.94	375.16
445.31	375.46
445.68	375.78
446.05	375.88
446.42	375.50
446.79	375.07
447.16	374.65
447.53	374.36
447.90	373.21
448.27	372.05
448.64	370.52
449.01	369.38
449.37	367.43
449.74	365.54
450.11	363.28
450.48	360.85
450.85	358.34
451.22	356.24
451.59	354.20
451.96	352.23
452.33	349.62
452.70	347.29
453.07	344.45
453.43	341.59
453.80	338.81
454.17	336.09
454.54	333.55
454.91	330.82
455.28	328.16
455.65	325.69
456.02	323.24
456.38	321.09
456.75	318.46
457.12	316.21
457.49	313.99
457.86	311.86
458.23	310.01
458.59	307.97
458.96	305.89
459.33	304.01
459.70	302.15
460.07	300.67
460.43	298.98
460.80	297.37
461.17	295.95
461.54	294.47
461.91	293.10
462.27	291.67
462.64	290.42
463.01	289.04
463.38	287.73
463.74	286.39
464.11	285.26
464.48	284.28
464.85	283.13
465.21	282.27
465.58	281.30
465.95	280.22
466.32	279.30
466.68	278.39
467.05	277.53
467.42	276.68
467.78	275.69
468.15	274.83
468.52	274.18
468.88	273.33
469.25	272.54
469.62	271.92
469.98	271.26
470.35	270.61
470.72	270.03
471.08	269.40
471.45	268.87
471.82	268.33
472.18	267.70
472.55	267.30
472.92	266.77
473.28	266.34
473.65	265.88
474.02	265.45
474.38	265.09
474.75	264.76
475.11	264.41
475.48	264.18
475.85	263.96
476.21	263.76
476.58	263.54
476.94	263.42
477.31	263.24
477.67	263.09
478.04	262.98
478.41	262.93
478.77	262.95
479.14	262.87
479.50	262.87
479.87	262.95
480.23	263.02
480.60	263.11
480.96	263.22
481.33	263.43
481.69	263.63
482.06	263.82
482.42	264.02
482.79	264.22
483.15	264.55
483.52	264.91
483.88	265.23
484.25	265.63
484.61	266.05
484.98	266.49
485.34	267.00
485.71	267.59
486.07	268.19
486.44	268.75
486.80	269.44
487.17	270.12
487.53	270.94
487.90	271.80
488.26	272.70
488.62	273.63
488.99	274.60
489.35	275.64
489.72	276.75
490.08	277.97
490.44	279.24
490.81	280.52
491.17	281.87
491.54	283.35
491.90	284.89
492.26	286.51
492.63	288.23
492.99	290.02
493.36	291.91
493.72	293.90
494.08	296.03
494.45	298.29
494.81	300.71
495.17	303.14
495.54	305.68
495.90	308.42
496.26	311.28
496.63	314.20
496.99	317.32
497.35	320.58
497.72	323.96
498.08	327.50
498.44	331.19
498.80	335.17
499.17	339.19
499.53	343.40
499.89	347.81
500.26	352.37
500.62	357.08
500.98	362.09
501.34	367.21
501.71	372.56
502.07	378.01
502.43	383.64
502.79	389.45
503.16	395.55
503.52	401.82
503.88	408.24
504.24	414.87
504.60	421.75
504.97	428.94
505.33	436.25
505.69	443.96
506.05	451.77
506.41	459.60
506.78	467.85
507.14	476.29
507.50	485.03
507.86	494.06
508.22	503.26
508.59	512.39
508.95	521.98
509.31	531.77
509.67	541.90
510.03	552.13
510.39	562.72
510.75	573.54
511.12	584.47
511.48	595.77
511.84	607.35
512.20	618.83
512.56	630.69
512.92	642.95
513.28	655.28
513.64	667.81
514.00	680.58
514.37	693.50
514.73	706.56
515.09	719.60
515.45	732.91
515.81	746.54
516.17	760.58
516.53	774.71
516.89	788.95
517.25	803.08
517.61	817.54
517.97	831.89
518.33	846.34
518.69	861.14
519.05	876.15
519.41	891.20
519.77	906.82
520.13	922.30
520.49	937.66
520.85	953.10
521.21	968.75
521.57	984.96
521.93	1000.66
522.29	1017.01
522.65	1033.19
523.01	1049.40
523.37	1065.39
523.73	1081.62
524.09	1097.62
524.45	1113.86
524.81	1130.48
525.17	1147.37
525.53	1164.34
525.89	1181.17
526.25	1197.95
526.61	1214.30
526.97	1231.07
527.33	1247.43
527.68	1263.99
528.04	1280.42
528.40	1296.98
528.76	1313.98
529.12	1330.48
529.48	1347.34
529.84	1363.28
530.20	1379.91
530.56	1396.89
530.91	1414.35
531.27	1431.00
531.63	1447.57
531.99	1464.14
532.35	1480.11
532.71	1495.91
533.07	1512.19
533.42	1527.96
533.78	1544.01
534.14	1560.22
534.50	1575.50
534.86	1591.45
535.21	1606.61
535.57	1622.55
535.93	1637.98
536.29	1652.72
536.65	1667.77
537.00	1682.64
537.36	1698.12
537.72	1712.62
538.08	1726.93
538.44	1740.56
538.79	1754.44
539.15	1768.00
539.51	1781.65
539.87	1796.03
540.22	1809.83
540.58	1823.55
540.94	1837.04
541.29	1850.08
541.65	1862.81
542.01	1876.17
542.37	1888.43
542.72	1900.86
543.08	1912.57
543.44	1924.99
543.79	1936.27
544.15	1947.23
544.51	1958.67
544.87	1969.48
545.22	1980.20
545.58	1990.47
545.94	2000.28
546.29	2010.16
546.65	2019.99
547.01	2029.44
547.36	2038.07
547.72	2046.44
548.07	2054.14
548.43	2062.20
548.79	2070.10
549.14	2077.66
549.50	2084.93
549.86	2092.59
550.21	2099.86
550.57	2106.94
550.92	2113.40
551.28	2120.31
551.64	2127.34
551.99	2133.89
552.35	2140.05
552.70	2146.31
553.06	2152.26
553.41	2158.55
553.77	2164.53
554.13	2170.70
554.48	2176.73
554.84	2182.11
555.19	2187.35
555.55	2192.47
555.90	2196.94
556.26	2201.68
556.61	2206.35
556.97	2210.43
557.32	2214.43
557.68	2218.60
558.03	2223.02
558.39	2226.79
558.74	2231.65
559.10	2235.57
559.45	2239.24
559.81	2243.52
560.16	2247.36
560.52	2250.71
560.87	2254.18
561.23	2256.96
561.58	2259.93
561.94	2262.45
562.29	2264.86
562.64	2267.45
563.00	2270.17
563.35	2273.73
563.71	2276.81
564.06	2279.99
564.42	2282.87
564.77	2285.53
565.12	2287.81
565.48	2289.71
565.83	2291.64
566.19	2292.79
566.54	2293.73
566.89	2294.86
567.25	2295.59
567.60	2296.80
567.96	2298.41
568.31	2299.21
568.66	2300.16
569.02	2300.63
569.37	2300.81
569.72	2301.75
570.08	2302.06
570.43	2302.13
570.78	2301.39
571.14	2299.91
571.49	2298.60
571.84	2298.31
572.20	2297.27
572.55	2296.16
572.90	2294.58
573.26	2293.12
573.61	2291.55
573.96	2289.80
574.31	2286.81
574.67	2283.76
575.02	2280.14
575.37	2276.65
575.72	2272.81
576.08	2269.64
576.43	2266.22
576.78	2262.64
577.13	2259.39
577.49	2256.26
577.84	2252.70
578.19	2249.14
578.54	2245.49
578.90	2241.19
579.25	2235.75
579.60	2230.71
579.95	2225.67
580.30	2220.73
580.66	2215.56
581.01	2210.49
581.36	2205.55
581.71	2201.32
582.06	2196.75
582.42	2192.27
582.77	2187.11
583.12	2182.54
583.47	2177.66
583.82	2172.70
584.17	2167.48
584.53	2162.00
584.88	2156.33
585.23	2150.53
585.58	2145.07
585.93	2139.76
586.28	2135.23
586.63	2130.07
586.98	2125.01
587.34	2120.40
587.69	2115.37
588.04	2110.08
588.39	2104.62
588.74	2098.09
589.09	2091.93
589.44	2085.06
589.79	2079.12
590.14	2073.51
590.49	2067.03
590.84	2060.72
591.19	2054.69
591.54	2048.21
591.89	2040.78
592.25	2033.95
592.60	2026.76
592.95	2019.00
593.30	2011.53
593.65	2003.88
594.00	1996.80
594.35	1989.50
594.70	1981.51
595.05	1974.29
595.40	1967.00
595.75	1959.36
596.10	1953.19
596.45	1946.52
596.80	1940.40
597.15	1933.84
597.50	1926.69
597.85	1920.21
598.19	1913.56
598.54	1906.45
598.89	1899.77
599.24	1894.05
599.59	1887.42
599.94	1881.29
600.29	1874.98
600.64	1868.40
600.99	1860.83
601.34	1854.00
601.69	1847.20
602.04	1840.25
602.39	1832.96
602.74	1826.22
603.08	1819.47
603.43	1812.74
603.78	1805.39
604.13	1798.29
604.48	1790.85
604.83	1784.02
605.18	1777.00
605.53	1768.94
605.87	1760.94
606.22	1753.81
606.57	1745.75
606.92	1738.47
607.27	1731.24
607.62	1724.45
607.96	1717.16
608.31	1710.48
608.66	1703.03
609.01	1695.30
609.36	1687.75
609.70	1679.70
610.05	1671.59
610.40	1663.90
610.75	1655.58
611.10	1647.88
611.44	1639.41
611.79	1631.48
612.14	1622.86
612.49	1613.72
612.83	1605.34
613.18	1597.22
613.53	1589.05
613.88	1580.52
614.22	1572.17
614.57	1563.59
614.92	1555.36
615.27	1547.76
615.61	1539.56
615.96	1531.51
616.31	1523.96
616.65	1516.53
617.00	1508.98
617.35	1501.39
617.70	1493.05
618.04	1484.55
618.39	1476.31
618.74	1468.68
619.08	1460.32
619.43	1452.72
619.78	1445.83
620.12	1438.62
620.47	1431.16
620.82	1423.00
621.16	1415.56
621.51	1408.00
621.85	1400.37
622.20	1392.02
622.55	1383.67
622.89	1375.70
623.24	1368.04
623.59	1360.61
623.93	1353.11
624.28	1345.92
624.62	1338.40
624.97	1331.20
625.32	1324.56
625.66	1317.63
626.01	1310.46
626.35	1303.03
626.70	1295.31
627.04	1287.56
627.39	1279.93
627.73	1272.57
628.08	1265.54
628.43	1258.23
628.77	1250.83
629.12	1243.27
629.46	1236.11
629.81	1228.84
630.15	1221.61
630.50	1214.20
630.84	1206.06
631.19	1198.25
631.53	1190.76
631.88	1183.24
632.22	1175.55
632.57	1168.16
632.91	1160.55
633.26	1153.21
633.60	1145.83
633.95	1138.78
634.29	1131.83
634.64	1125.05
634.98	1117.63
635.32	1110.57
635.67	1103.97
636.01	1097.30
636.36	1090.60
636.70	1084.05
637.05	1077.36
637.39	1070.85
637.73	1064.30
638.08	1058.37
638.42	1052.24
638.77	1045.75
639.11	1039.00
639.45	1032.74
639.80	1026.08
640.14	1019.74
640.49	1013.16
640.83	1006.83
641.17	1000.45
641.52	993.97
641.86	987.54
642.20	981.67
642.55	975.35
642.89	968.88
643.23	962.35
643.58	956.49
643.92	950.26
644.26	944.17
644.61	938.17
644.95	932.14
645.29	925.61
645.64	918.91
645.98	912.51
646.32	906.78
646.66	900.64
647.01	894.82
647.35	889.03
647.69	883.25
648.04	877.77
648.38	872.04
648.72	866.05
649.06	859.94
649.41	854.03
649.75	848.07
650.09	842.15
650.43	836.33
650.78	830.16
651.12	824.18
651.46	818.52
651.80	812.81
652.14	807.40
652.49	801.97
652.83	796.84
653.17	791.23
653.51	785.43
653.85	780.09
654.20	774.43
654.54	768.45
654.88	762.67
655.22	756.81
655.56	751.15
655.90	745.77
656.25	740.56
656.59	735.26
656.93	730.19
657.27	725.00
657.61	719.58
657.95	714.47
658.29	709.47
658.64	704.24
658.98	698.99
659.32	693.54
659.66	688.37
660.00	683.00
660.34	678.06
660.68	673.18
661.02	668.12
661.36	663.38
661.70	658.90
662.05	654.57
662.39	650.22
662.73	645.72
663.07	641.32
663.41	636.80
663.75	632.28
664.09	627.77
664.43	623.46
664.77	619.37
665.11	615.15
665.45	610.99
665.79	606.88
666.13	602.64
666.47	598.55
666.81	594.34
667.15	590.22
667.49	586.28
667.83	582.45
668.17	578.57
668.51	574.51
668.85	570.42
669.19	566.55
669.53	562.67
669.87	558.81
670.21	555.14
670.55	551.51
670.89	548.11
671.23	544.63
671.57	541.03
671.91	537.44
672.25	533.93
672.58	530.39
672.92	526.97
673.26	523.83
673.60	520.73
673.94	517.62
674.28	514.78
674.62	511.88
674.96	508.77
675.30	505.84
675.64	502.85
675.97	500.10
676.31	497.19
676.65	494.22
676.99	491.51
677.33	488.61
677.67	485.79
678.01	482.75
678.34	479.79
678.68	476.98
679.02	474.18
679.36	471.46
679.70	468.77
680.04	466.01
680.37	463.17
680.71	460.31
681.05	457.71
681.39	454.92
681.73	452.26
682.06	449.77
682.40	447.18
682.74	444.73
683.08	442.23
683.42	439.66
683.75	437.22
684.09	434.68
684.43	432.26
684.77	429.82
685.10	427.43
685.44	425.11
685.78	422.75
686.12	420.55
686.45	418.25
686.79	415.95
687.13	413.79
687.46	411.59
687.80	409.44
688.14	407.23
688.48	405.20
688.81	402.92
689.15	400.74
689.49	398.64
689.82	396.59
690.16	394.51
690.50	392.55
690.83	390.63
691.17	388.66
691.51	386.74
691.84	384.91
692.18	382.96
692.52	380.99
692.85	379.03
693.19	377.13
693.52	375.32
693.86	373.44
694.20	371.67
694.53	369.88
694.87	368.07
695.21	366.28
695.54	364.43
695.88	362.73
696.21	360.96
696.55	359.27
696.88	357.55
697.22	355.85
697.56	354.25
697.89	352.53
698.23	350.90
698.56	349.27
698.90	347.65
699.23	346.04
699.57	344.48
699.90	343.00
700.24	341.48
700.58	339.91
700.91	338.43
701.25	336.94
701.58	335.60
701.92	334.25
702.25	332.87
702.59	331.52
702.92	330.17
703.26	328.90
703.59	327.59
703.93	326.41
704.26	325.22
704.60	323.86
704.93	322.59
705.26	321.35
705.60	320.22
705.93	319.05
706.27	318.01
706.60	316.95
706.94	315.88
707.27	314.72
707.61	313.66
707.94	312.65
708.27	311.55
708.61	310.43
708.94	309.42
709.28	308.43
709.61	307.47
709.94	306.55
710.28	305.51
710.61	304.56
710.95	303.46
711.28	302.52
711.61	301.59
711.95	300.67
712.28	299.71
712.61	298.72
712.95	297.80
713.28	296.87
713.61	295.99
713.95	295.05
714.28	294.22
714.61	293.37
714.95	292.56
715.28	291.71
715.61	290.85
715.95	289.95
716.28	289.13
716.61	288.29
716.95	287.46
717.28	286.71
717.61	285.96
717.94	285.22
718.28	284.40
718.61	283.69
718.94	283.00
719.27	282.35
719.61	281.69
719.94	281.04
720.27	280.38
720.60	279.73
720.94	279.15
721.27	278.55
721.60	277.91
721.93	277.28
722.27	276.72
722.60	276.18
722.93	275.61
723.26	275.08
723.59	274.54
723.93	273.99
724.26	273.47
724.59	272.90
724.92	272.42
725.25	271.96
725.59	271.46
725.92	270.98
726.25	270.48
726.58	269.97
726.91	269.46
727.24	269.02
727.57	268.50
727.91	267.94
728.24	267.47
728.57	267.03
728.90	266.59
729.23	266.12
729.56	265.69
729.89	265.24
730.22	264.77
730.55	264.31
730.89	263.87
731.22	263.44
731.55	263.02
731.88	262.57
732.21	262.13
732.54	261.69
732.87	261.27
733.20	260.87
733.53	260.49
733.86	260.12
734.19	259.72
734.52	259.37
734.85	259.11
735.18	258.68
735.51	258.34
735.84	257.98
736.17	257.62
736.50	257.23
736.83	256.98
737.16	256.62
737.49	256.28
737.82	255.93
738.15	255.61
738.48	255.28
738.81	254.96
739.14	254.63
739.47	254.31
739.80	253.99
740.13	253.68
740.46	253.35
740.79	253.03
741.12	252.69
741.45	252.38
741.78	252.02
742.11	251.75
742.44	251.39
742.77	251.07
743.10	250.77
743.43	250.48
743.75	250.12
744.08	249.99
744.41	249.67
744.74	249.39
745.07	249.07
745.40	248.84
745.73	248.60
746.06	248.31
746.39	248.05
746.71	247.78
747.04	247.51
747.37	247.24
747.70	246.97
748.03	246.76
748.36	246.52
748.68	246.29
749.01	246.06
749.34	245.85
749.67	245.68
750.00	245.43
750.33	245.25
750.65	245.04
750.98	244.69
751.31	244.50
751.64	244.31
751.97	244.15
752.29	243.89
752.62	243.65
752.95	243.46
753.28	243.25
753.60	243.03
753.93	242.86
754.26	242.67
754.59	242.49
754.91	242.26
755.24	242.06
755.57	241.86
755.90	241.67
756.22	241.48
756.55	241.23
756.88	241.06
757.20	240.82
757.53	240.63
757.86	240.47
758.19	240.32
758.51	240.15
758.84	239.95
759.17	239.80
759.49	239.66
759.82	239.53
760.15	239.39
760.47	239.23
760.80	239.08
761.13	238.97
761.45	238.79
761.78	238.68
762.11	238.52
762.43	238.37
762.76	238.19
763.08	238.08
763.41	237.96
763.74	237.85
764.06	237.73
764.39	237.56
764.71	237.41
765.04	237.27
765.37	237.13
765.69	236.99
766.02	236.85
766.34	236.70
766.67	236.55
767.00	236.45
767.32	236.39
767.65	236.33
767.97	236.20
768.30	236.09
768.62	235.96
768.95	235.87
769.27	235.78
769.60	235.73
769.92	235.61
770.25	235.50
770.57	235.41
770.90	235.30
771.22	235.22
771.55	235.12
771.87	235.02
772.20	234.92
772.52	234.94
772.85	234.94
773.17	234.85
773.50	234.79
773.82	234.68
774.15	234.56
774.47	234.36
774.80	234.26
775.12	234.19
775.45	234.11
775.77	234.04
776.09	233.97
776.42	233.83
776.74	233.79
777.07	233.68
777.39	233.59
777.72	233.53
778.04	233.48
778.36	233.41
778.69	233.37
779.01	233.33
779.33	233.14
779.66	232.96
779.98	232.89
780.31	232.77
780.63	232.78
780.95	232.73
781.28	232.74
781.60	232.66
781.92	232.58
782.25	232.50
782.57	232.40
782.89	232.32
783.22	232.30
783.54	232.22
783.86	232.19
784.19	232.10
784.51	232.07
784.83	232.02
785.16	231.96
785.48	231.90
785.80	231.84
786.12	231.81
786.45	231.78
786.77	231.75
787.09	231.71
