SpectraSuite Data File
++++++++++++++++++++++++++++++++++++
Date: Fri Feb 01 16:30:19 EST 2013
User: group
Dark Spectrum Present: No
Reference Spectrum Present: No
Number of Sampled Component Spectra: 1
Spectrometers: USB2E7196
Integration Time (usec): 35000 (USB2E7196)
Spectra Averaged: 100 (USB2E7196)
Boxcar Smoothing: 10 (USB2E7196)
Correct for Electrical Dark: No (USB2E7196)
Strobe/Lamp Enabled: No (USB2E7196)
Correct for Detector Non-linearity: No (USB2E7196)
Correct for Stray Light: No (USB2E7196)
Number of Pixels in Processed Spectrum: 2048
>>>>>Begin Processed Spectral Data<<<<<
339.09	0.00
339.48	214.29
339.86	216.44
340.24	216.73
340.63	217.74
341.01	220.71
341.39	221.11
341.78	221.86
342.16	223.13
342.54	223.80
342.93	212.35
343.31	223.09
343.69	223.62
344.07	224.04
344.46	224.44
344.84	224.85
345.22	225.09
345.60	225.31
345.99	225.53
346.37	225.68
346.75	225.77
347.13	225.88
347.52	225.96
347.90	226.01
348.28	226.03
348.66	226.05
349.05	226.05
349.43	226.10
349.81	226.16
350.19	226.20
350.57	226.24
350.96	226.31
351.34	226.36
351.72	226.43
352.10	226.54
352.48	226.63
352.87	226.72
353.25	226.80
353.63	226.91
354.01	226.97
354.39	227.06
354.77	227.15
355.15	227.22
355.54	227.28
355.92	227.36
356.30	227.43
356.68	227.61
357.06	227.68
357.44	227.75
357.82	227.80
358.20	227.87
358.58	227.93
358.97	228.01
359.35	228.09
359.73	228.19
360.11	228.22
360.49	228.27
360.87	228.27
361.25	228.32
361.63	228.37
362.01	228.40
362.39	228.40
362.77	228.43
363.15	228.47
363.53	228.50
363.91	228.49
364.29	228.55
364.67	228.44
365.05	228.45
365.43	228.48
365.81	228.49
366.19	228.54
366.57	228.57
366.95	228.53
367.33	228.52
367.71	228.50
368.09	228.51
368.47	228.53
368.85	228.54
369.23	228.57
369.61	228.52
369.99	228.52
370.37	228.53
370.75	228.56
371.13	228.51
371.51	228.44
371.89	228.44
372.27	228.39
372.65	228.38
373.03	228.32
373.41	228.25
373.78	228.19
374.16	228.09
374.54	228.05
374.92	228.01
375.30	227.93
375.68	227.85
376.06	227.78
376.44	227.71
376.82	227.64
377.19	227.53
377.57	227.47
377.95	227.37
378.33	227.28
378.71	227.12
379.09	227.07
379.47	227.01
379.84	226.89
380.22	226.82
380.60	226.70
380.98	226.63
381.36	226.54
381.73	226.50
382.11	226.43
382.49	226.33
382.87	226.26
383.25	226.20
383.62	226.26
384.00	226.18
384.38	226.09
384.76	226.05
385.13	226.03
385.51	226.00
385.89	225.94
386.27	225.95
386.64	225.95
387.02	225.88
387.40	225.85
387.78	225.84
388.15	225.79
388.53	225.77
388.91	225.75
389.29	225.73
389.66	225.70
390.04	225.66
390.42	225.65
390.79	225.66
391.17	225.62
391.55	225.49
391.92	225.51
392.30	225.55
392.68	225.53
393.05	225.53
393.43	225.52
393.81	225.54
394.18	225.48
394.56	225.48
394.94	225.52
395.31	225.51
395.69	225.55
396.06	225.62
396.44	225.65
396.82	225.68
397.19	225.75
397.57	225.75
397.95	225.80
398.32	225.82
398.70	225.90
399.07	225.98
399.45	226.04
399.82	226.10
400.20	226.16
400.58	226.21
400.95	226.21
401.33	226.32
401.70	226.46
402.08	226.55
402.45	226.66
402.83	226.80
403.20	226.90
403.58	226.98
403.95	227.10
404.33	227.23
404.71	227.34
405.08	227.48
405.46	227.63
405.83	227.78
406.21	227.94
406.58	228.05
406.96	228.21
407.33	228.39
407.70	228.57
408.08	228.81
408.45	229.06
408.83	229.31
409.20	229.50
409.58	229.67
409.95	229.94
410.33	230.19
410.70	230.42
411.08	230.74
411.45	231.07
411.82	231.35
412.20	231.68
412.57	232.10
412.95	232.42
413.32	232.86
413.69	233.25
414.07	233.69
414.44	234.17
414.82	234.65
415.19	235.22
415.56	235.78
415.94	236.34
416.31	236.99
416.68	237.58
417.06	238.33
417.43	239.00
417.81	239.76
418.18	240.55
418.55	241.36
418.93	242.23
419.30	243.09
419.67	244.06
420.04	245.03
420.42	246.07
420.79	247.26
421.16	248.40
421.54	249.59
421.91	250.82
422.28	252.07
422.66	253.42
423.03	254.70
423.40	256.01
423.77	257.37
424.15	258.77
424.52	260.26
424.89	261.80
425.26	263.37
425.64	264.83
426.01	266.39
426.38	268.04
426.75	269.72
427.13	271.45
427.50	273.23
427.87	275.09
428.24	276.90
428.61	278.64
428.99	280.53
429.36	282.64
429.73	284.66
430.10	286.65
430.47	288.70
430.85	290.85
431.22	293.09
431.59	295.48
431.96	297.67
432.33	300.16
432.70	302.54
433.08	305.31
433.45	307.95
433.82	310.50
434.19	313.37
434.56	316.13
434.93	318.79
435.30	321.37
435.68	324.24
436.05	327.08
436.42	329.82
436.79	332.28
437.16	334.91
437.53	337.74
437.90	340.55
438.27	343.27
438.64	346.01
439.01	348.56
439.38	350.79
439.75	352.94
440.13	355.38
440.50	357.67
440.87	359.51
441.24	361.39
441.61	363.52
441.98	365.06
442.35	366.83
442.72	368.67
443.09	370.44
443.46	371.45
443.83	372.02
444.20	372.54
444.57	373.48
444.94	373.78
445.31	374.13
445.68	374.47
446.05	374.50
446.42	374.12
446.79	373.71
447.16	373.27
447.53	373.03
447.90	371.90
448.27	370.81
448.64	369.24
449.01	368.12
449.37	366.23
449.74	364.30
450.11	362.14
450.48	359.66
450.85	357.17
451.22	355.04
451.59	352.99
451.96	351.06
452.33	348.41
452.70	346.11
453.07	343.29
453.43	340.43
453.80	337.70
454.17	335.09
454.54	332.58
454.91	329.84
455.28	327.16
455.65	324.71
456.02	322.27
456.38	320.14
456.75	317.49
457.12	315.28
457.49	313.10
457.86	310.93
458.23	309.11
458.59	307.08
458.96	305.00
459.33	303.23
459.70	301.39
460.07	299.94
460.43	298.23
460.80	296.63
461.17	295.23
461.54	293.75
461.91	292.29
462.27	290.88
462.64	289.67
463.01	288.32
463.38	287.04
463.74	285.64
464.11	284.49
464.48	283.51
464.85	282.42
465.21	281.54
465.58	280.60
465.95	279.49
466.32	278.62
466.68	277.73
467.05	276.79
467.42	275.90
467.78	274.96
468.15	274.10
468.52	273.46
468.88	272.57
469.25	271.80
469.62	271.22
469.98	270.56
470.35	269.94
470.72	269.37
471.08	268.72
471.45	268.21
471.82	267.68
472.18	267.06
472.55	266.60
472.92	266.09
473.28	265.65
473.65	265.24
474.02	264.80
474.38	264.40
474.75	264.10
475.11	263.77
475.48	263.49
475.85	263.25
476.21	263.01
476.58	262.83
476.94	262.73
477.31	262.58
477.67	262.41
478.04	262.29
478.41	262.21
478.77	262.26
479.14	262.20
479.50	262.23
479.87	262.30
480.23	262.38
480.60	262.45
480.96	262.50
481.33	262.72
481.69	262.92
482.06	263.14
482.42	263.35
482.79	263.62
483.15	263.95
483.52	264.35
483.88	264.67
484.25	265.07
484.61	265.47
484.98	265.90
485.34	266.42
485.71	267.04
486.07	267.67
486.44	268.22
486.80	268.94
487.17	269.65
487.53	270.47
487.90	271.32
488.26	272.25
488.62	273.26
488.99	274.22
489.35	275.27
489.72	276.40
490.08	277.60
490.44	278.84
490.81	280.16
491.17	281.49
491.54	283.01
491.90	284.56
492.26	286.23
492.63	287.97
492.99	289.80
493.36	291.68
493.72	293.72
494.08	295.86
494.45	298.08
494.81	300.44
495.17	302.90
495.54	305.46
495.90	308.12
496.26	310.95
496.63	313.94
496.99	317.00
497.35	320.23
497.72	323.64
498.08	327.18
498.44	330.87
498.80	334.82
499.17	338.85
499.53	343.00
499.89	347.39
500.26	351.89
500.62	356.54
500.98	361.52
501.34	366.57
501.71	371.91
502.07	377.37
502.43	383.02
502.79	388.85
503.16	394.92
503.52	401.24
503.88	407.61
504.24	414.20
504.60	421.12
504.97	428.30
505.33	435.61
505.69	443.31
506.05	451.08
506.41	458.96
506.78	467.13
507.14	475.62
507.50	484.40
507.86	493.46
508.22	502.68
508.59	511.88
508.95	521.50
509.31	531.29
509.67	541.40
510.03	551.71
510.39	562.23
510.75	573.02
511.12	583.90
511.48	595.20
511.84	606.68
512.20	618.18
512.56	630.14
512.92	642.30
513.28	654.71
513.64	667.18
514.00	679.87
514.37	692.75
514.73	705.81
515.09	718.78
515.45	732.10
515.81	745.61
516.17	759.58
516.53	773.74
516.89	787.87
517.25	801.99
517.61	816.32
517.97	830.77
518.33	845.13
518.69	859.92
519.05	874.94
519.41	890.12
519.77	905.67
520.13	921.03
520.49	936.39
520.85	951.70
521.21	967.31
521.57	983.39
521.93	999.07
522.29	1015.38
522.65	1031.52
523.01	1047.63
523.37	1063.65
523.73	1079.72
524.09	1095.64
524.45	1111.84
524.81	1128.40
525.17	1145.17
525.53	1161.92
525.89	1178.73
526.25	1195.52
526.61	1211.87
526.97	1228.54
527.33	1244.94
527.68	1261.48
528.04	1277.88
528.40	1294.35
528.76	1311.44
529.12	1328.00
529.48	1344.84
529.84	1360.71
530.20	1377.35
530.56	1394.27
530.91	1411.61
531.27	1428.32
531.63	1444.65
531.99	1461.13
532.35	1476.99
532.71	1492.82
533.07	1508.97
533.42	1524.83
533.78	1540.71
534.14	1556.89
534.50	1572.13
534.86	1587.84
535.21	1602.86
535.57	1618.67
535.93	1634.07
536.29	1648.68
536.65	1663.57
537.00	1678.34
537.36	1693.60
537.72	1707.99
538.08	1722.38
538.44	1736.02
538.79	1749.81
539.15	1763.51
539.51	1777.18
539.87	1791.45
540.22	1804.99
540.58	1818.67
540.94	1831.92
541.29	1844.72
541.65	1857.21
542.01	1870.26
542.37	1882.53
542.72	1894.88
543.08	1906.62
543.44	1918.94
543.79	1930.15
544.15	1941.07
544.51	1952.50
544.87	1963.34
545.22	1974.08
545.58	1984.06
545.94	1993.74
546.29	2003.42
546.65	2013.30
547.01	2022.57
547.36	2031.23
547.72	2039.74
548.07	2047.46
548.43	2055.51
548.79	2063.47
549.14	2070.99
549.50	2078.34
549.86	2085.92
550.21	2093.23
550.57	2100.36
550.92	2107.01
551.28	2113.95
551.64	2121.12
551.99	2127.52
552.35	2133.60
552.70	2139.67
553.06	2145.71
553.41	2152.09
553.77	2158.16
554.13	2164.10
554.48	2170.22
554.84	2175.58
555.19	2180.76
555.55	2186.13
555.90	2190.58
556.26	2195.42
556.61	2200.04
556.97	2204.34
557.32	2208.40
557.68	2212.53
558.03	2216.75
558.39	2220.25
558.74	2224.88
559.10	2228.60
559.45	2232.33
559.81	2236.70
560.16	2240.59
560.52	2243.79
560.87	2247.11
561.23	2249.81
561.58	2252.86
561.94	2255.22
562.29	2257.76
562.64	2260.52
563.00	2263.03
563.35	2266.68
563.71	2269.76
564.06	2273.06
564.42	2275.86
564.77	2278.45
565.12	2280.74
565.48	2282.72
565.83	2284.75
566.19	2286.11
566.54	2287.02
566.89	2288.07
567.25	2288.57
567.60	2289.84
567.96	2291.59
568.31	2292.61
568.66	2293.68
569.02	2294.22
569.37	2294.74
569.72	2295.47
570.08	2295.60
570.43	2295.71
570.78	2295.12
571.14	2293.75
571.49	2292.57
571.84	2292.32
572.20	2291.30
572.55	2290.29
572.90	2288.81
573.26	2287.45
573.61	2285.78
573.96	2284.25
574.31	2281.49
574.67	2278.67
575.02	2275.07
575.37	2271.75
575.72	2268.01
576.08	2264.76
576.43	2261.47
576.78	2257.84
577.13	2254.95
577.49	2251.97
577.84	2248.63
578.19	2244.95
578.54	2241.35
578.90	2237.12
579.25	2231.61
579.60	2226.64
579.95	2221.70
580.30	2216.68
580.66	2211.59
581.01	2206.71
581.36	2201.78
581.71	2197.63
582.06	2193.27
582.42	2188.87
582.77	2183.76
583.12	2179.19
583.47	2174.55
583.82	2169.65
584.17	2164.50
584.53	2158.91
584.88	2153.43
585.23	2147.68
585.58	2142.34
585.93	2137.03
586.28	2132.41
586.63	2127.44
586.98	2122.56
587.34	2117.85
587.69	2113.17
588.04	2107.92
588.39	2102.37
588.74	2095.91
589.09	2089.79
589.44	2083.08
589.79	2077.33
590.14	2071.83
590.49	2065.38
590.84	2059.09
591.19	2053.20
591.54	2046.83
591.89	2039.62
592.25	2032.77
592.60	2025.52
592.95	2017.89
593.30	2010.59
593.65	2003.05
594.00	1995.96
594.35	1988.85
594.70	1981.01
595.05	1973.84
595.40	1966.66
595.75	1959.19
596.10	1953.14
596.45	1946.67
596.80	1940.52
597.15	1933.84
597.50	1926.72
597.85	1920.33
598.19	1913.70
598.54	1906.39
598.89	1899.76
599.24	1893.92
599.59	1887.19
599.94	1881.12
600.29	1874.85
600.64	1868.27
600.99	1860.89
601.34	1854.13
601.69	1847.08
602.04	1840.06
602.39	1832.70
602.74	1825.91
603.08	1819.20
603.43	1812.55
603.78	1805.16
604.13	1797.97
604.48	1790.73
604.83	1783.88
605.18	1776.83
605.53	1768.89
605.87	1761.12
606.22	1753.94
606.57	1746.00
606.92	1738.73
607.27	1731.50
607.62	1724.70
607.96	1717.46
608.31	1710.73
608.66	1703.30
609.01	1695.71
609.36	1688.23
609.70	1680.23
610.05	1672.09
610.40	1664.39
610.75	1655.96
611.10	1648.23
611.44	1639.90
611.79	1631.79
612.14	1623.11
612.49	1614.01
612.83	1605.71
613.18	1597.49
613.53	1589.32
613.88	1580.69
614.22	1572.43
614.57	1563.76
614.92	1555.66
615.27	1548.16
615.61	1539.89
615.96	1531.76
616.31	1524.15
616.65	1516.83
617.00	1509.20
617.35	1501.54
617.70	1493.37
618.04	1484.95
618.39	1476.73
618.74	1469.07
619.08	1460.80
619.43	1453.24
619.78	1446.35
620.12	1439.06
620.47	1431.52
620.82	1423.40
621.16	1416.07
621.51	1408.53
621.85	1400.99
622.20	1392.50
622.55	1384.07
622.89	1376.18
623.24	1368.49
623.59	1361.11
623.93	1353.57
624.28	1346.36
624.62	1338.84
624.97	1331.51
625.32	1324.72
625.66	1317.67
626.01	1310.47
626.35	1303.05
626.70	1295.33
627.04	1287.52
627.39	1279.70
627.73	1272.29
628.08	1265.38
628.43	1258.09
628.77	1250.65
629.12	1243.08
629.46	1235.91
629.81	1228.41
630.15	1221.15
630.50	1213.79
630.84	1205.61
631.19	1197.70
631.53	1190.21
631.88	1182.72
632.22	1175.11
632.57	1167.82
632.91	1160.29
633.26	1152.88
633.60	1145.51
633.95	1138.34
634.29	1131.41
634.64	1124.81
634.98	1117.57
635.32	1110.34
635.67	1103.65
636.01	1097.03
636.36	1090.27
636.70	1083.77
637.05	1077.24
637.39	1070.86
637.73	1064.27
638.08	1058.38
638.42	1052.34
638.77	1045.84
639.11	1039.18
639.45	1032.76
639.80	1026.01
640.14	1019.65
640.49	1013.11
640.83	1006.85
641.17	1000.61
641.52	994.15
641.86	987.69
642.20	981.69
642.55	975.35
642.89	968.90
643.23	962.46
643.58	956.66
643.92	950.44
644.26	944.39
644.61	938.31
644.95	932.27
645.29	925.66
645.64	918.96
645.98	912.71
646.32	906.91
646.66	900.87
647.01	895.10
647.35	889.33
647.69	883.55
648.04	877.93
648.38	872.10
648.72	866.11
649.06	860.02
649.41	854.14
649.75	848.23
650.09	842.29
650.43	836.40
650.78	830.20
651.12	824.25
651.46	818.55
651.80	812.76
652.14	807.39
652.49	802.04
652.83	796.93
653.17	791.13
653.51	785.42
653.85	780.10
654.20	774.45
654.54	768.45
654.88	762.68
655.22	756.82
655.56	751.14
655.90	745.69
656.25	740.39
656.59	735.04
656.93	729.98
657.27	724.86
657.61	719.42
657.95	714.25
658.29	709.12
658.64	703.84
658.98	698.51
659.32	693.07
659.66	687.87
660.00	682.45
660.34	677.53
660.68	672.57
661.02	667.47
661.36	662.69
661.70	658.19
662.05	653.76
662.39	649.41
662.73	645.04
663.07	640.66
663.41	636.28
663.75	631.79
664.09	627.16
664.43	622.74
664.77	618.64
665.11	614.52
665.45	610.37
665.79	606.29
666.13	602.14
666.47	598.06
666.81	593.90
667.15	589.80
667.49	585.92
667.83	582.10
668.17	578.22
668.51	574.19
668.85	570.16
669.19	566.40
669.53	562.55
669.87	558.48
670.21	554.74
670.55	551.07
670.89	547.66
671.23	544.23
671.57	540.69
671.91	537.12
672.25	533.57
672.58	530.04
672.92	526.57
673.26	523.48
673.60	520.31
673.94	517.17
674.28	514.28
674.62	511.30
674.96	508.23
675.30	505.27
675.64	502.34
675.97	499.54
676.31	496.60
676.65	493.68
676.99	491.07
677.33	488.27
677.67	485.49
678.01	482.46
678.34	479.48
678.68	476.61
679.02	473.82
679.36	471.09
679.70	468.40
680.04	465.67
680.37	462.79
680.71	460.01
681.05	457.40
681.39	454.63
681.73	452.01
682.06	449.48
682.40	446.95
682.74	444.42
683.08	441.90
683.42	439.32
683.75	436.84
684.09	434.30
684.43	431.84
684.77	429.37
685.10	427.06
685.44	424.78
685.78	422.48
686.12	420.26
686.45	417.95
686.79	415.59
687.13	413.42
687.46	411.27
687.80	409.11
688.14	406.89
688.48	404.85
688.81	402.60
689.15	400.44
689.49	398.30
689.82	396.20
690.16	394.08
690.50	392.18
690.83	390.20
691.17	388.20
691.51	386.27
691.84	384.41
692.18	382.38
692.52	380.39
692.85	378.49
693.19	376.58
693.52	374.72
693.86	372.95
694.20	371.16
694.53	369.36
694.87	367.51
695.21	365.73
695.54	363.91
695.88	362.16
696.21	360.43
696.55	358.72
696.88	357.04
697.22	355.41
697.56	353.78
697.89	352.13
698.23	350.52
698.56	348.88
698.90	347.32
699.23	345.71
699.57	344.15
699.90	342.57
700.24	341.04
700.58	339.51
700.91	338.00
701.25	336.52
701.58	335.13
701.92	333.75
702.25	332.33
702.59	330.96
702.92	329.58
703.26	328.27
703.59	327.01
703.93	325.80
704.26	324.57
704.60	323.19
704.93	321.92
705.26	320.67
705.60	319.52
705.93	318.31
706.27	317.28
706.60	316.22
706.94	315.13
707.27	313.97
707.61	312.92
707.94	311.91
708.27	310.80
708.61	309.67
708.94	308.65
709.28	307.69
709.61	306.72
709.94	305.78
710.28	304.77
710.61	303.78
710.95	302.73
711.28	301.80
711.61	300.91
711.95	300.01
712.28	299.04
712.61	298.05
712.95	297.11
713.28	296.22
713.61	295.34
713.95	294.46
714.28	293.62
714.61	292.76
714.95	291.90
715.28	291.08
715.61	290.24
715.95	289.40
716.28	288.54
716.61	287.72
716.95	286.95
717.28	286.20
717.61	285.47
717.94	284.71
718.28	283.90
718.61	283.15
718.94	282.43
719.27	281.80
719.61	281.17
719.94	280.48
720.27	279.77
720.60	279.09
720.94	278.48
721.27	277.89
721.60	277.31
721.93	276.72
722.27	276.17
722.60	275.68
722.93	275.11
723.26	274.60
723.59	274.06
723.93	273.47
724.26	272.92
724.59	272.33
724.92	271.81
725.25	271.32
725.59	270.84
725.92	270.35
726.25	269.81
726.58	269.32
726.91	268.87
727.24	268.42
727.57	267.96
727.91	267.44
728.24	266.97
728.57	266.44
728.90	265.98
729.23	265.52
729.56	265.06
729.89	264.60
730.22	264.10
730.55	263.64
730.89	263.22
731.22	262.79
731.55	262.34
731.88	261.92
732.21	261.47
732.54	261.04
732.87	260.60
733.20	260.20
733.53	259.81
733.86	259.41
734.19	258.99
734.52	258.59
734.85	258.28
735.18	257.84
735.51	257.53
735.84	257.16
736.17	256.79
736.50	256.34
736.83	256.07
737.16	255.73
737.49	255.39
737.82	255.06
738.15	254.71
738.48	254.40
738.81	254.06
739.14	253.75
739.47	253.42
739.80	253.13
740.13	252.86
740.46	252.51
740.79	252.18
741.12	251.89
741.45	251.61
741.78	251.27
742.11	251.03
742.44	250.67
742.77	250.40
743.10	250.10
743.43	249.81
743.75	249.42
744.08	249.29
744.41	249.01
744.74	248.70
745.07	248.43
745.40	248.17
745.73	247.96
746.06	247.69
746.39	247.44
746.71	247.18
747.04	246.87
747.37	246.62
747.70	246.40
748.03	246.14
748.36	245.89
748.68	245.66
749.01	245.36
749.34	245.17
749.67	244.92
750.00	244.67
750.33	244.51
750.65	244.33
750.98	243.96
751.31	243.75
751.64	243.57
751.97	243.38
752.29	243.15
752.62	242.87
752.95	242.67
753.28	242.43
753.60	242.21
753.93	242.06
754.26	241.86
754.59	241.60
754.91	241.38
755.24	241.22
755.57	241.00
755.90	240.88
756.22	240.65
756.55	240.43
756.88	240.25
757.20	240.03
757.53	239.83
757.86	239.65
758.19	239.48
758.51	239.31
758.84	239.15
759.17	239.00
759.49	238.87
759.82	238.74
760.15	238.63
760.47	238.49
760.80	238.32
761.13	238.21
761.45	238.09
761.78	237.91
762.11	237.74
762.43	237.57
762.76	237.39
763.08	237.28
763.41	237.20
763.74	237.09
764.06	236.94
764.39	236.81
764.71	236.68
765.04	236.52
765.37	236.37
765.69	236.24
766.02	236.10
766.34	235.97
766.67	235.81
767.00	235.69
767.32	235.60
767.65	235.54
767.97	235.42
768.30	235.31
768.62	235.21
768.95	235.09
769.27	235.04
769.60	234.94
769.92	234.83
770.25	234.69
770.57	234.57
770.90	234.49
771.22	234.38
771.55	234.32
771.87	234.27
772.20	234.19
772.52	234.16
772.85	234.15
773.17	234.06
773.50	233.95
773.82	233.81
774.15	233.67
774.47	233.49
774.80	233.38
775.12	233.30
775.45	233.25
775.77	233.20
776.09	233.11
776.42	233.02
776.74	232.98
777.07	232.91
777.39	232.83
777.72	232.72
778.04	232.65
778.36	232.56
778.69	232.46
779.01	232.39
779.33	232.26
779.66	232.09
779.98	232.04
780.31	231.98
780.63	232.01
780.95	231.98
781.28	231.96
781.60	231.90
781.92	231.83
782.25	231.72
782.57	231.62
782.89	231.54
783.22	231.49
783.54	231.39
783.86	231.32
784.19	231.24
784.51	231.25
784.83	231.18
785.16	231.10
785.48	231.05
785.80	231.02
786.12	230.95
786.45	230.92
786.77	230.87
787.09	230.84
