SpectraSuite Data File
++++++++++++++++++++++++++++++++++++
Date: Fri Feb 01 15:43:01 EST 2013
User: group
Dark Spectrum Present: No
Reference Spectrum Present: No
Number of Sampled Component Spectra: 1
Spectrometers: USB2E7196
Integration Time (usec): 35000 (USB2E7196)
Spectra Averaged: 100 (USB2E7196)
Boxcar Smoothing: 10 (USB2E7196)
Correct for Electrical Dark: No (USB2E7196)
Strobe/Lamp Enabled: No (USB2E7196)
Correct for Detector Non-linearity: No (USB2E7196)
Correct for Stray Light: No (USB2E7196)
Number of Pixels in Processed Spectrum: 2048
>>>>>Begin Processed Spectral Data<<<<<
339.09	0.00
339.48	214.92
339.86	217.04
340.24	217.83
340.63	219.43
341.01	222.00
341.39	221.97
341.78	222.96
342.16	224.53
342.54	225.11
342.93	213.32
343.31	224.12
343.69	224.68
344.07	225.10
344.46	225.54
344.84	225.87
345.22	226.10
345.60	226.32
345.99	226.52
346.37	226.64
346.75	226.72
347.13	226.78
347.52	226.83
347.90	226.91
348.28	226.95
348.66	226.99
349.05	226.95
349.43	227.00
349.81	227.03
350.19	227.06
350.57	227.10
350.96	227.18
351.34	227.25
351.72	227.30
352.10	227.42
352.48	227.45
352.87	227.57
353.25	227.65
353.63	227.71
354.01	227.77
354.39	227.84
354.77	227.92
355.15	227.99
355.54	228.06
355.92	228.08
356.30	228.16
356.68	228.30
357.06	228.39
357.44	228.45
357.82	228.51
358.20	228.58
358.58	228.63
358.97	228.68
359.35	228.75
359.73	228.85
360.11	228.89
360.49	228.98
360.87	228.98
361.25	229.00
361.63	229.09
362.01	229.18
362.39	229.18
362.77	229.24
363.15	229.27
363.53	229.30
363.91	229.34
364.29	229.37
364.67	229.28
365.05	229.31
365.43	229.34
365.81	229.36
366.19	229.41
366.57	229.48
366.95	229.46
367.33	229.42
367.71	229.38
368.09	229.39
368.47	229.35
368.85	229.35
369.23	229.35
369.61	229.27
369.99	229.24
370.37	229.24
370.75	229.25
371.13	229.20
371.51	229.14
371.89	229.11
372.27	229.06
372.65	229.02
373.03	228.97
373.41	228.92
373.78	228.87
374.16	228.76
374.54	228.70
374.92	228.61
375.30	228.54
375.68	228.50
376.06	228.44
376.44	228.41
376.82	228.36
377.19	228.29
377.57	228.24
377.95	228.16
378.33	228.12
378.71	227.99
379.09	227.94
379.47	227.85
379.84	227.78
380.22	227.71
380.60	227.63
380.98	227.54
381.36	227.45
381.73	227.38
382.11	227.36
382.49	227.27
382.87	227.26
383.25	227.23
383.62	227.25
384.00	227.19
384.38	227.12
384.76	227.07
385.13	227.08
385.51	227.01
385.89	226.96
386.27	226.87
386.64	226.84
387.02	226.79
387.40	226.79
387.78	226.73
388.15	226.73
388.53	226.70
388.91	226.68
389.29	226.66
389.66	226.65
390.04	226.61
390.42	226.62
390.79	226.56
391.17	226.52
391.55	226.41
391.92	226.38
392.30	226.39
392.68	226.37
393.05	226.33
393.43	226.38
393.81	226.36
394.18	226.38
394.56	226.41
394.94	226.43
395.31	226.43
395.69	226.49
396.06	226.50
396.44	226.55
396.82	226.58
397.19	226.67
397.57	226.71
397.95	226.75
398.32	226.76
398.70	226.86
399.07	226.95
399.45	227.03
399.82	227.07
400.20	227.14
400.58	227.21
400.95	227.28
401.33	227.35
401.70	227.50
402.08	227.56
402.45	227.65
402.83	227.78
403.20	227.90
403.58	227.99
403.95	228.10
404.33	228.20
404.71	228.33
405.08	228.49
405.46	228.60
405.83	228.78
406.21	228.93
406.58	229.09
406.96	229.25
407.33	229.40
407.70	229.62
408.08	229.86
408.45	230.06
408.83	230.27
409.20	230.49
409.58	230.68
409.95	230.99
410.33	231.27
410.70	231.50
411.08	231.77
411.45	232.08
411.82	232.37
412.20	232.76
412.57	233.20
412.95	233.49
413.32	233.89
413.69	234.27
414.07	234.70
414.44	235.19
414.82	235.67
415.19	236.23
415.56	236.76
415.94	237.33
416.31	238.00
416.68	238.67
417.06	239.37
417.43	240.06
417.81	240.80
418.18	241.58
418.55	242.39
418.93	243.29
419.30	244.18
419.67	245.15
420.04	246.09
420.42	247.06
420.79	248.25
421.16	249.41
421.54	250.63
421.91	251.85
422.28	253.09
422.66	254.42
423.03	255.74
423.40	257.09
423.77	258.48
424.15	259.90
424.52	261.35
424.89	262.96
425.26	264.53
425.64	265.98
426.01	267.58
426.38	269.27
426.75	270.93
427.13	272.67
427.50	274.48
427.87	276.37
428.24	278.22
428.61	279.98
428.99	281.94
429.36	284.01
429.73	286.13
430.10	288.13
430.47	290.19
430.85	292.29
431.22	294.56
431.59	296.90
431.96	299.13
432.33	301.60
432.70	303.99
433.08	306.76
433.45	309.40
433.82	311.98
434.19	314.82
434.56	317.69
434.93	320.31
435.30	322.94
435.68	325.83
436.05	328.67
436.42	331.40
436.79	333.87
437.16	336.56
437.53	339.36
437.90	342.13
438.27	344.83
438.64	347.66
439.01	350.21
439.38	352.45
439.75	354.61
440.13	357.11
440.50	359.45
440.87	361.29
441.24	363.24
441.61	365.42
441.98	366.96
442.35	368.71
442.72	370.58
443.09	372.40
443.46	373.34
443.83	373.91
444.20	374.42
444.57	375.29
444.94	375.54
445.31	375.82
445.68	376.22
446.05	376.30
446.42	375.95
446.79	375.54
447.16	375.12
447.53	374.83
447.90	373.66
448.27	372.48
448.64	370.97
449.01	369.84
449.37	367.83
449.74	365.89
450.11	363.61
450.48	361.12
450.85	358.55
451.22	356.46
451.59	354.44
451.96	352.50
452.33	349.89
452.70	347.56
453.07	344.77
453.43	341.82
453.80	339.06
454.17	336.38
454.54	333.82
454.91	331.04
455.28	328.36
455.65	325.85
456.02	323.41
456.38	321.21
456.75	318.57
457.12	316.30
457.49	314.11
457.86	311.98
458.23	310.14
458.59	308.08
458.96	305.94
459.33	304.11
459.70	302.29
460.07	300.81
460.43	299.11
460.80	297.47
461.17	296.05
461.54	294.57
461.91	293.13
462.27	291.69
462.64	290.53
463.01	289.20
463.38	287.94
463.74	286.61
464.11	285.46
464.48	284.42
464.85	283.35
465.21	282.47
465.58	281.56
465.95	280.47
466.32	279.62
466.68	278.75
467.05	277.85
467.42	276.96
467.78	276.03
468.15	275.16
468.52	274.56
468.88	273.69
469.25	272.93
469.62	272.32
469.98	271.64
470.35	270.97
470.72	270.37
471.08	269.77
471.45	269.22
471.82	268.65
472.18	268.05
472.55	267.63
472.92	267.13
473.28	266.67
473.65	266.26
474.02	265.81
474.38	265.47
474.75	265.17
475.11	264.83
475.48	264.58
475.85	264.36
476.21	264.06
476.58	263.93
476.94	263.79
477.31	263.65
477.67	263.49
478.04	263.37
478.41	263.32
478.77	263.37
479.14	263.28
479.50	263.28
479.87	263.38
480.23	263.47
480.60	263.50
480.96	263.59
481.33	263.74
481.69	263.93
482.06	264.11
482.42	264.27
482.79	264.53
483.15	264.85
483.52	265.23
483.88	265.59
484.25	265.93
484.61	266.36
484.98	266.79
485.34	267.37
485.71	267.94
486.07	268.52
486.44	269.02
486.80	269.75
487.17	270.50
487.53	271.27
487.90	272.10
488.26	273.06
488.62	273.99
488.99	274.93
489.35	275.99
489.72	277.10
490.08	278.34
490.44	279.56
490.81	280.92
491.17	282.24
491.54	283.71
491.90	285.30
492.26	286.92
492.63	288.64
492.99	290.38
493.36	292.31
493.72	294.35
494.08	296.47
494.45	298.70
494.81	301.03
495.17	303.48
495.54	306.02
495.90	308.71
496.26	311.58
496.63	314.58
496.99	317.69
497.35	320.90
497.72	324.29
498.08	327.77
498.44	331.40
498.80	335.30
499.17	339.34
499.53	343.49
499.89	347.84
500.26	352.35
500.62	357.05
500.98	362.00
501.34	367.08
501.71	372.42
502.07	377.83
502.43	383.49
502.79	389.32
503.16	395.43
503.52	401.68
503.88	408.02
504.24	414.62
504.60	421.51
504.97	428.65
505.33	436.00
505.69	443.71
506.05	451.50
506.41	459.42
506.78	467.58
507.14	476.07
507.50	484.81
507.86	493.84
508.22	503.08
508.59	512.24
508.95	521.88
509.31	531.68
509.67	541.83
510.03	552.08
510.39	562.57
510.75	573.35
511.12	584.24
511.48	595.62
511.84	607.08
512.20	618.65
512.56	630.67
512.92	642.81
513.28	655.24
513.64	667.76
514.00	680.44
514.37	693.37
514.73	706.40
515.09	719.45
515.45	732.78
515.81	746.33
516.17	760.39
516.53	774.46
516.89	788.63
517.25	802.82
517.61	817.29
517.97	831.86
518.33	846.31
518.69	861.21
519.05	876.15
519.41	891.35
519.77	906.76
520.13	922.20
520.49	937.62
520.85	952.95
521.21	968.64
521.57	985.00
521.93	1000.84
522.29	1017.31
522.65	1033.49
523.01	1049.68
523.37	1065.71
523.73	1081.80
524.09	1097.83
524.45	1114.22
524.81	1130.77
525.17	1147.61
525.53	1164.52
525.89	1181.37
526.25	1198.10
526.61	1214.59
526.97	1231.39
527.33	1247.98
527.68	1264.61
528.04	1280.98
528.40	1297.76
528.76	1314.75
529.12	1331.33
529.48	1348.27
529.84	1364.21
530.20	1380.91
530.56	1397.98
530.91	1415.32
531.27	1432.23
531.63	1448.70
531.99	1465.34
532.35	1481.35
532.71	1497.19
533.07	1513.42
533.42	1529.36
533.78	1545.49
534.14	1561.74
534.50	1577.04
534.86	1592.84
535.21	1608.00
535.57	1624.07
535.93	1639.58
536.29	1654.43
536.65	1669.30
537.00	1684.03
537.36	1699.47
537.72	1714.05
538.08	1728.42
538.44	1742.26
538.79	1756.04
539.15	1769.77
539.51	1783.39
539.87	1797.81
540.22	1811.71
540.58	1825.57
540.94	1838.87
541.29	1851.74
541.65	1864.39
542.01	1877.63
542.37	1889.94
542.72	1902.39
543.08	1914.15
543.44	1926.40
543.79	1937.54
544.15	1948.67
544.51	1960.10
544.87	1970.99
545.22	1981.72
545.58	1991.88
545.94	2001.73
546.29	2011.58
546.65	2021.49
547.01	2030.79
547.36	2039.46
547.72	2047.81
548.07	2055.44
548.43	2063.53
548.79	2071.55
549.14	2078.96
549.50	2086.26
549.86	2093.91
550.21	2101.10
550.57	2108.18
550.92	2114.64
551.28	2121.78
551.64	2128.76
551.99	2135.31
552.35	2141.31
552.70	2147.53
553.06	2153.54
553.41	2159.89
553.77	2165.89
554.13	2171.93
554.48	2177.89
554.84	2183.27
555.19	2188.54
555.55	2193.70
555.90	2198.32
556.26	2203.10
556.61	2207.96
556.97	2212.30
557.32	2216.66
557.68	2220.88
558.03	2225.16
558.39	2228.93
558.74	2233.51
559.10	2237.53
559.45	2241.32
559.81	2245.67
560.16	2249.49
560.52	2252.83
560.87	2256.15
561.23	2258.85
561.58	2261.71
561.94	2264.43
562.29	2266.78
562.64	2269.49
563.00	2272.24
563.35	2275.72
563.71	2278.90
564.06	2281.97
564.42	2284.82
564.77	2287.16
565.12	2289.36
565.48	2291.42
565.83	2293.31
566.19	2294.66
566.54	2295.46
566.89	2296.58
567.25	2297.20
567.60	2298.43
567.96	2299.95
568.31	2300.83
568.66	2301.94
569.02	2302.58
569.37	2302.82
569.72	2303.80
570.08	2303.92
570.43	2303.91
570.78	2303.26
571.14	2301.71
571.49	2300.62
571.84	2300.35
572.20	2299.18
572.55	2298.24
572.90	2296.54
573.26	2295.12
573.61	2293.44
573.96	2291.70
574.31	2288.66
574.67	2285.72
575.02	2282.17
575.37	2278.87
575.72	2274.98
576.08	2271.66
576.43	2268.46
576.78	2264.72
577.13	2261.53
577.49	2258.34
577.84	2254.75
578.19	2251.07
578.54	2247.43
578.90	2243.09
579.25	2237.43
579.60	2232.48
579.95	2227.42
580.30	2222.44
580.66	2217.30
581.01	2212.26
581.36	2207.31
581.71	2203.08
582.06	2198.46
582.42	2193.87
582.77	2188.46
583.12	2183.99
583.47	2179.24
583.82	2174.11
584.17	2168.94
584.53	2163.34
584.88	2157.80
585.23	2152.04
585.58	2146.50
585.93	2141.08
586.28	2136.18
586.63	2131.08
586.98	2125.88
587.34	2121.02
587.69	2116.09
588.04	2110.73
588.39	2105.10
588.74	2098.65
589.09	2092.56
589.44	2085.72
589.79	2079.80
590.14	2074.27
590.49	2067.60
590.84	2061.19
591.19	2055.14
591.54	2048.53
591.89	2041.10
592.25	2034.18
592.60	2026.88
592.95	2019.31
593.30	2012.02
593.65	2004.44
594.00	1997.32
594.35	1990.23
594.70	1982.33
595.05	1975.06
595.40	1967.87
595.75	1960.33
596.10	1953.98
596.45	1947.14
596.80	1941.00
597.15	1934.33
597.50	1927.22
597.85	1920.78
598.19	1914.14
598.54	1906.93
598.89	1900.33
599.24	1894.48
599.59	1887.71
599.94	1881.53
600.29	1875.19
600.64	1868.45
600.99	1861.02
601.34	1854.17
601.69	1847.04
602.04	1840.14
602.39	1832.77
602.74	1825.80
603.08	1819.02
603.43	1812.28
603.78	1804.93
604.13	1797.66
604.48	1790.23
604.83	1783.29
605.18	1776.22
605.53	1768.11
605.87	1760.12
606.22	1752.84
606.57	1744.93
606.92	1737.64
607.27	1730.49
607.62	1723.58
607.96	1716.24
608.31	1709.55
608.66	1702.02
609.01	1694.54
609.36	1686.92
609.70	1679.02
610.05	1670.93
610.40	1663.20
610.75	1654.98
611.10	1647.42
611.44	1639.11
611.79	1631.21
612.14	1622.52
612.49	1613.37
612.83	1604.97
613.18	1596.71
613.53	1588.67
613.88	1580.01
614.22	1571.86
614.57	1563.26
614.92	1555.19
615.27	1547.71
615.61	1539.45
615.96	1531.33
616.31	1523.58
616.65	1516.36
617.00	1508.72
617.35	1501.15
617.70	1492.77
618.04	1484.20
618.39	1475.85
618.74	1468.21
619.08	1459.93
619.43	1452.44
619.78	1445.60
620.12	1438.44
620.47	1430.99
620.82	1422.76
621.16	1415.49
621.51	1407.79
621.85	1400.19
622.20	1391.70
622.55	1383.25
622.89	1375.43
623.24	1367.96
623.59	1360.64
623.93	1352.99
624.28	1345.75
624.62	1338.14
624.97	1330.98
625.32	1324.26
625.66	1317.37
626.01	1310.18
626.35	1302.64
626.70	1294.90
627.04	1287.06
627.39	1279.45
627.73	1272.11
628.08	1265.33
628.43	1257.94
628.77	1250.58
629.12	1242.97
629.46	1235.79
629.81	1228.47
630.15	1221.14
630.50	1213.60
630.84	1205.35
631.19	1197.46
631.53	1189.97
631.88	1182.49
632.22	1174.93
632.57	1167.58
632.91	1159.97
633.26	1152.61
633.60	1145.38
633.95	1138.29
634.29	1131.39
634.64	1124.61
634.98	1117.26
635.32	1110.03
635.67	1103.50
636.01	1096.83
636.36	1090.05
636.70	1083.52
637.05	1076.87
637.39	1070.44
637.73	1063.94
638.08	1058.13
638.42	1052.06
638.77	1045.59
639.11	1038.98
639.45	1032.64
639.80	1025.98
640.14	1019.56
640.49	1012.96
640.83	1006.59
641.17	1000.28
641.52	993.89
641.86	987.47
642.20	981.64
642.55	975.38
642.89	968.85
643.23	962.32
643.58	956.49
643.92	950.33
644.26	944.28
644.61	938.32
644.95	932.35
645.29	925.71
645.64	919.04
645.98	912.68
646.32	906.83
646.66	900.75
647.01	894.92
647.35	889.16
647.69	883.40
648.04	877.84
648.38	872.03
648.72	865.94
649.06	859.88
649.41	853.95
649.75	847.94
650.09	842.01
650.43	836.22
650.78	830.07
651.12	824.07
651.46	818.35
651.80	812.55
652.14	807.08
652.49	801.69
652.83	796.54
653.17	790.85
653.51	785.09
653.85	779.73
654.20	774.08
654.54	768.12
654.88	762.37
655.22	756.51
655.56	750.91
655.90	745.61
656.25	740.39
656.59	735.05
656.93	729.92
657.27	724.71
657.61	719.27
657.95	714.19
658.29	709.12
658.64	703.92
658.98	698.59
659.32	693.12
659.66	687.95
660.00	682.59
660.34	677.70
660.68	672.82
661.02	667.83
661.36	663.15
661.70	658.70
662.05	654.35
662.39	650.00
662.73	645.48
663.07	641.01
663.41	636.53
663.75	632.08
664.09	627.55
664.43	623.21
664.77	619.12
665.11	614.84
665.45	610.73
665.79	606.63
666.13	602.54
666.47	598.53
666.81	594.37
667.15	590.25
667.49	586.30
667.83	582.53
668.17	578.56
668.51	574.47
668.85	570.45
669.19	566.62
669.53	562.76
669.87	558.91
670.21	555.30
670.55	551.61
670.89	548.14
671.23	544.76
671.57	541.20
671.91	537.63
672.25	534.17
672.58	530.61
672.92	527.22
673.26	524.05
673.60	520.90
673.94	517.78
674.28	514.87
674.62	511.97
674.96	508.83
675.30	505.91
675.64	503.01
675.97	500.19
676.31	497.26
676.65	494.36
676.99	491.59
677.33	488.68
677.67	485.86
678.01	482.83
678.34	479.78
678.68	476.95
679.02	474.15
679.36	471.40
679.70	468.67
680.04	465.88
680.37	462.99
680.71	460.16
681.05	457.59
681.39	454.85
681.73	452.15
682.06	449.62
682.40	447.06
682.74	444.53
683.08	442.03
683.42	439.47
683.75	437.01
684.09	434.53
684.43	432.04
684.77	429.61
685.10	427.24
685.44	424.98
685.78	422.69
686.12	420.45
686.45	418.14
686.79	415.84
687.13	413.67
687.46	411.55
687.80	409.41
688.14	407.20
688.48	405.13
688.81	402.93
689.15	400.78
689.49	398.64
689.82	396.57
690.16	394.48
690.50	392.49
690.83	390.55
691.17	388.57
691.51	386.67
691.84	384.83
692.18	382.90
692.52	380.90
692.85	379.01
693.19	377.15
693.52	375.38
693.86	373.61
694.20	371.82
694.53	370.02
694.87	368.20
695.21	366.40
695.54	364.62
695.88	362.90
696.21	361.18
696.55	359.54
696.88	357.85
697.22	356.21
697.56	354.59
697.89	352.89
698.23	351.30
698.56	349.73
698.90	348.15
699.23	346.54
699.57	345.02
699.90	343.46
700.24	341.88
700.58	340.31
700.91	338.78
701.25	337.34
701.58	335.98
701.92	334.62
702.25	333.30
702.59	331.96
702.92	330.63
703.26	329.35
703.59	328.07
703.93	326.90
704.26	325.65
704.60	324.38
704.93	323.10
705.26	321.86
705.60	320.69
705.93	319.54
706.27	318.54
706.60	317.49
706.94	316.43
707.27	315.32
707.61	314.32
707.94	313.32
708.27	312.24
708.61	311.15
708.94	310.15
709.28	309.14
709.61	308.16
709.94	307.24
710.28	306.19
710.61	305.20
710.95	304.12
711.28	303.20
711.61	302.26
711.95	301.37
712.28	300.40
712.61	299.38
712.95	298.45
713.28	297.58
713.61	296.67
713.95	295.79
714.28	294.98
714.61	294.07
714.95	293.23
715.28	292.36
715.61	291.47
715.95	290.60
716.28	289.71
716.61	288.87
716.95	288.05
717.28	287.32
717.61	286.55
717.94	285.82
718.28	285.02
718.61	284.23
718.94	283.51
719.27	282.85
719.61	282.19
719.94	281.53
720.27	280.77
720.60	280.08
720.94	279.41
721.27	278.80
721.60	278.20
721.93	277.56
722.27	277.01
722.60	276.45
722.93	275.87
723.26	275.37
723.59	274.78
723.93	274.19
724.26	273.61
724.59	273.03
724.92	272.50
725.25	271.99
725.59	271.50
725.92	270.99
726.25	270.47
726.58	269.99
726.91	269.48
727.24	269.01
727.57	268.56
727.91	268.07
728.24	267.60
728.57	267.14
728.90	266.74
729.23	266.26
729.56	265.86
729.89	265.42
730.22	264.92
730.55	264.48
730.89	264.05
731.22	263.62
731.55	263.20
731.88	262.78
732.21	262.31
732.54	261.86
732.87	261.43
733.20	261.06
733.53	260.67
733.86	260.30
734.19	259.88
734.52	259.51
734.85	259.20
735.18	258.78
735.51	258.41
735.84	258.03
736.17	257.68
736.50	257.27
736.83	257.04
737.16	256.74
737.49	256.40
737.82	256.03
738.15	255.72
738.48	255.39
738.81	255.08
739.14	254.83
739.47	254.54
739.80	254.22
740.13	253.91
740.46	253.57
740.79	253.25
741.12	252.97
741.45	252.63
741.78	252.29
742.11	252.02
742.44	251.71
742.77	251.43
743.10	251.13
743.43	250.82
743.75	250.41
744.08	250.27
744.41	250.00
744.74	249.77
745.07	249.48
745.40	249.26
745.73	249.03
746.06	248.72
746.39	248.47
746.71	248.20
747.04	247.96
747.37	247.70
747.70	247.46
748.03	247.20
748.36	246.98
748.68	246.75
749.01	246.49
749.34	246.25
749.67	246.00
750.00	245.76
750.33	245.62
750.65	245.40
750.98	245.04
751.31	244.80
751.64	244.57
751.97	244.43
752.29	244.18
752.62	243.89
752.95	243.68
753.28	243.44
753.60	243.22
753.93	243.04
754.26	242.89
754.59	242.66
754.91	242.46
755.24	242.26
755.57	242.07
755.90	241.89
756.22	241.72
756.55	241.50
756.88	241.33
757.20	241.08
757.53	240.89
757.86	240.75
758.19	240.60
758.51	240.44
758.84	240.20
759.17	240.05
759.49	239.91
759.82	239.78
760.15	239.66
760.47	239.56
760.80	239.36
761.13	239.22
761.45	239.08
761.78	238.93
762.11	238.77
762.43	238.60
762.76	238.45
763.08	238.30
763.41	238.18
763.74	238.02
764.06	237.87
764.39	237.73
764.71	237.57
765.04	237.42
765.37	237.27
765.69	237.15
766.02	237.03
766.34	236.88
766.67	236.72
767.00	236.62
767.32	236.51
767.65	236.44
767.97	236.30
768.30	236.18
768.62	236.05
768.95	235.93
769.27	235.83
769.60	235.72
769.92	235.59
770.25	235.46
770.57	235.37
770.90	235.30
771.22	235.21
771.55	235.10
771.87	235.01
772.20	234.96
772.52	234.93
772.85	234.92
773.17	234.83
773.50	234.74
773.82	234.60
774.15	234.51
774.47	234.35
774.80	234.26
775.12	234.17
775.45	234.11
775.77	234.04
776.09	233.99
776.42	233.93
776.74	233.88
777.07	233.80
777.39	233.71
777.72	233.62
778.04	233.55
778.36	233.52
778.69	233.46
779.01	233.39
779.33	233.23
779.66	233.07
779.98	233.01
780.31	232.97
780.63	232.97
780.95	232.87
781.28	232.81
781.60	232.73
781.92	232.68
782.25	232.60
782.57	232.55
782.89	232.46
783.22	232.35
783.54	232.29
783.86	232.23
784.19	232.16
784.51	232.13
784.83	232.04
785.16	231.94
785.48	231.88
785.80	231.82
786.12	231.78
786.45	231.75
786.77	231.69
787.09	231.63
