SpectraSuite Data File
++++++++++++++++++++++++++++++++++++
Date: Fri Feb 01 15:41:01 EST 2013
User: group
Dark Spectrum Present: No
Reference Spectrum Present: No
Number of Sampled Component Spectra: 1
Spectrometers: USB2E7196
Integration Time (usec): 35000 (USB2E7196)
Spectra Averaged: 100 (USB2E7196)
Boxcar Smoothing: 10 (USB2E7196)
Correct for Electrical Dark: No (USB2E7196)
Strobe/Lamp Enabled: No (USB2E7196)
Correct for Detector Non-linearity: No (USB2E7196)
Correct for Stray Light: No (USB2E7196)
Number of Pixels in Processed Spectrum: 2048
>>>>>Begin Processed Spectral Data<<<<<
339.09	0.00
339.48	215.05
339.86	216.55
340.24	216.96
340.63	219.40
341.01	222.39
341.39	221.43
341.78	222.92
342.16	224.58
342.54	224.70
342.93	213.28
343.31	224.03
343.69	224.57
344.07	225.02
344.46	225.47
344.84	225.84
345.22	226.08
345.60	226.33
345.99	226.56
346.37	226.68
346.75	226.78
347.13	226.84
347.52	226.89
347.90	226.93
348.28	226.96
348.66	227.00
349.05	227.03
349.43	227.09
349.81	227.11
350.19	227.13
350.57	227.16
350.96	227.20
351.34	227.29
351.72	227.36
352.10	227.43
352.48	227.49
352.87	227.53
353.25	227.55
353.63	227.60
354.01	227.64
354.39	227.73
354.77	227.82
355.15	227.91
355.54	227.97
355.92	227.98
356.30	228.05
356.68	228.17
357.06	228.22
357.44	228.26
357.82	228.33
358.20	228.38
358.58	228.46
358.97	228.53
359.35	228.65
359.73	228.70
360.11	228.77
360.49	228.82
360.87	228.85
361.25	228.93
361.63	229.02
362.01	229.05
362.39	229.05
362.77	229.08
363.15	229.11
363.53	229.17
363.91	229.24
364.29	229.25
364.67	229.18
365.05	229.20
365.43	229.24
365.81	229.28
366.19	229.37
366.57	229.40
366.95	229.40
367.33	229.34
367.71	229.35
368.09	229.38
368.47	229.38
368.85	229.36
369.23	229.38
369.61	229.33
369.99	229.33
370.37	229.33
370.75	229.36
371.13	229.33
371.51	229.30
371.89	229.25
372.27	229.25
372.65	229.23
373.03	229.18
373.41	229.12
373.78	229.06
374.16	228.92
374.54	228.83
374.92	228.75
375.30	228.71
375.68	228.63
376.06	228.57
376.44	228.51
376.82	228.47
377.19	228.34
377.57	228.29
377.95	228.16
378.33	228.08
378.71	227.93
379.09	227.84
379.47	227.78
379.84	227.70
380.22	227.62
380.60	227.51
380.98	227.45
381.36	227.40
381.73	227.32
382.11	227.31
382.49	227.26
382.87	227.18
383.25	227.10
383.62	227.16
384.00	227.08
384.38	227.00
384.76	226.93
385.13	226.95
385.51	226.89
385.89	226.89
386.27	226.86
386.64	226.83
387.02	226.77
387.40	226.69
387.78	226.66
388.15	226.64
388.53	226.59
388.91	226.54
389.29	226.50
389.66	226.49
390.04	226.41
390.42	226.37
390.79	226.38
391.17	226.37
391.55	226.23
391.92	226.18
392.30	226.21
392.68	226.17
393.05	226.13
393.43	226.11
393.81	226.10
394.18	226.10
394.56	226.13
394.94	226.15
395.31	226.18
395.69	226.22
396.06	226.24
396.44	226.28
396.82	226.31
397.19	226.38
397.57	226.41
397.95	226.46
398.32	226.52
398.70	226.54
399.07	226.62
399.45	226.67
399.82	226.76
400.20	226.82
400.58	226.92
400.95	226.96
401.33	227.08
401.70	227.21
402.08	227.25
402.45	227.32
402.83	227.44
403.20	227.56
403.58	227.66
403.95	227.77
404.33	227.90
404.71	228.04
405.08	228.21
405.46	228.35
405.83	228.48
406.21	228.62
406.58	228.78
406.96	228.92
407.33	229.10
407.70	229.32
408.08	229.58
408.45	229.78
408.83	230.02
409.20	230.22
409.58	230.40
409.95	230.69
410.33	231.01
410.70	231.29
411.08	231.57
411.45	231.90
411.82	232.23
412.20	232.60
412.57	233.02
412.95	233.31
413.32	233.71
413.69	234.14
414.07	234.61
414.44	235.10
414.82	235.64
415.19	236.24
415.56	236.81
415.94	237.37
416.31	238.03
416.68	238.68
417.06	239.41
417.43	240.12
417.81	240.90
418.18	241.69
418.55	242.52
418.93	243.38
419.30	244.25
419.67	245.17
420.04	246.13
420.42	247.15
420.79	248.34
421.16	249.49
421.54	250.70
421.91	251.92
422.28	253.20
422.66	254.50
423.03	255.78
423.40	257.08
423.77	258.51
424.15	259.94
424.52	261.45
424.89	263.08
425.26	264.63
425.64	266.10
426.01	267.66
426.38	269.33
426.75	271.04
427.13	272.77
427.50	274.61
427.87	276.49
428.24	278.32
428.61	280.09
428.99	282.07
429.36	284.14
429.73	286.20
430.10	288.22
430.47	290.29
430.85	292.39
431.22	294.64
431.59	297.00
431.96	299.23
432.33	301.70
432.70	304.09
433.08	306.90
433.45	309.51
433.82	312.11
434.19	314.99
434.56	317.78
434.93	320.44
435.30	323.06
435.68	325.93
436.05	328.76
436.42	331.55
436.79	334.07
437.16	336.78
437.53	339.57
437.90	342.36
438.27	345.11
438.64	347.97
439.01	350.57
439.38	352.80
439.75	354.99
440.13	357.48
440.50	359.81
440.87	361.61
441.24	363.60
441.61	365.73
441.98	367.21
442.35	369.03
442.72	370.88
443.09	372.66
443.46	373.72
443.83	374.30
444.20	374.80
444.57	375.61
444.94	375.92
445.31	376.25
445.68	376.60
446.05	376.65
446.42	376.25
446.79	375.79
447.16	375.32
447.53	374.97
447.90	373.77
448.27	372.59
448.64	371.02
449.01	369.85
449.37	367.92
449.74	366.03
450.11	363.75
450.48	361.25
450.85	358.73
451.22	356.55
451.59	354.54
451.96	352.58
452.33	349.93
452.70	347.58
453.07	344.76
453.43	341.88
453.80	339.12
454.17	336.44
454.54	333.94
454.91	331.24
455.28	328.60
455.65	326.16
456.02	323.71
456.38	321.60
456.75	318.94
457.12	316.65
457.49	314.44
457.86	312.28
458.23	310.45
458.59	308.42
458.96	306.34
459.33	304.51
459.70	302.64
460.07	301.18
460.43	299.47
460.80	297.90
461.17	296.45
461.54	294.96
461.91	293.56
462.27	292.14
462.64	290.91
463.01	289.56
463.38	288.29
463.74	286.97
464.11	285.84
464.48	284.84
464.85	283.80
465.21	282.95
465.58	282.04
465.95	280.98
466.32	280.07
466.68	279.16
467.05	278.23
467.42	277.35
467.78	276.40
468.15	275.53
468.52	274.86
468.88	274.04
469.25	273.27
469.62	272.65
469.98	271.95
470.35	271.33
470.72	270.70
471.08	270.00
471.45	269.43
471.82	268.83
472.18	268.21
472.55	267.77
472.92	267.27
473.28	266.81
473.65	266.32
474.02	265.89
474.38	265.55
474.75	265.23
475.11	264.92
475.48	264.65
475.85	264.41
476.21	264.19
476.58	263.98
476.94	263.82
477.31	263.66
477.67	263.50
478.04	263.39
478.41	263.31
478.77	263.34
479.14	263.28
479.50	263.31
479.87	263.40
480.23	263.44
480.60	263.46
480.96	263.54
481.33	263.76
481.69	263.95
482.06	264.08
482.42	264.28
482.79	264.53
483.15	264.87
483.52	265.23
483.88	265.52
484.25	265.93
484.61	266.38
484.98	266.80
485.34	267.38
485.71	267.95
486.07	268.56
486.44	269.14
486.80	269.84
487.17	270.54
487.53	271.31
487.90	272.13
488.26	273.05
488.62	274.02
488.99	274.98
489.35	276.01
489.72	277.08
490.08	278.28
490.44	279.51
490.81	280.80
491.17	282.13
491.54	283.63
491.90	285.12
492.26	286.74
492.63	288.47
492.99	290.22
493.36	292.10
493.72	294.12
494.08	296.20
494.45	298.46
494.81	300.81
495.17	303.25
495.54	305.82
495.90	308.52
496.26	311.32
496.63	314.25
496.99	317.34
497.35	320.65
497.72	324.04
498.08	327.50
498.44	331.17
498.80	335.10
499.17	339.12
499.53	343.33
499.89	347.71
500.26	352.18
500.62	356.86
500.98	361.82
501.34	366.89
501.71	372.22
502.07	377.59
502.43	383.24
502.79	389.03
503.16	395.12
503.52	401.37
503.88	407.80
504.24	414.49
504.60	421.36
504.97	428.47
505.33	435.76
505.69	443.51
506.05	451.29
506.41	459.21
506.78	467.37
507.14	475.83
507.50	484.52
507.86	493.55
508.22	502.79
508.59	512.02
508.95	521.67
509.31	531.49
509.67	541.58
510.03	551.88
510.39	562.46
510.75	573.29
511.12	584.24
511.48	595.58
511.84	607.03
512.20	618.62
512.56	630.63
512.92	642.85
513.28	655.19
513.64	667.68
514.00	680.35
514.37	693.26
514.73	706.28
515.09	719.40
515.45	732.74
515.81	746.31
516.17	760.25
516.53	774.31
516.89	788.43
517.25	802.72
517.61	817.17
517.97	831.67
518.33	846.13
518.69	860.88
519.05	875.83
519.41	890.97
519.77	906.48
520.13	921.95
520.49	937.35
520.85	952.84
521.21	968.63
521.57	984.87
521.93	1000.67
522.29	1017.11
522.65	1033.28
523.01	1049.54
523.37	1065.55
523.73	1081.65
524.09	1097.75
524.45	1114.22
524.81	1130.81
525.17	1147.63
525.53	1164.55
525.89	1181.31
526.25	1198.22
526.61	1214.64
526.97	1231.54
527.33	1248.00
527.68	1264.51
528.04	1281.03
528.40	1297.64
528.76	1314.63
529.12	1331.23
529.48	1348.15
529.84	1364.15
530.20	1380.87
530.56	1397.84
530.91	1415.18
531.27	1432.04
531.63	1448.52
531.99	1465.05
532.35	1480.98
532.71	1496.82
533.07	1513.06
533.42	1529.00
533.78	1545.04
534.14	1561.33
534.50	1576.61
534.86	1592.54
535.21	1607.87
535.57	1623.90
535.93	1639.28
536.29	1654.09
536.65	1669.15
537.00	1683.90
537.36	1699.13
537.72	1713.60
538.08	1728.00
538.44	1741.89
538.79	1755.74
539.15	1769.44
539.51	1783.13
539.87	1797.48
540.22	1811.20
540.58	1824.92
540.94	1838.44
541.29	1851.27
541.65	1863.96
542.01	1877.17
542.37	1889.47
542.72	1901.85
543.08	1913.48
543.44	1925.91
543.79	1937.07
544.15	1948.15
544.51	1959.64
544.87	1970.68
545.22	1981.43
545.58	1991.65
545.94	2001.36
546.29	2011.30
546.65	2021.11
547.01	2030.52
547.36	2039.29
547.72	2047.77
548.07	2055.58
548.43	2063.62
548.79	2071.68
549.14	2079.10
549.50	2086.47
549.86	2094.17
550.21	2101.43
550.57	2108.56
550.92	2115.17
551.28	2122.31
551.64	2129.38
551.99	2136.15
552.35	2142.28
552.70	2148.48
553.06	2154.45
553.41	2160.79
553.77	2166.85
554.13	2172.89
554.48	2178.90
554.84	2184.26
555.19	2189.60
555.55	2194.83
555.90	2199.30
556.26	2204.15
556.61	2208.96
556.97	2213.16
557.32	2217.28
557.68	2221.41
558.03	2225.91
558.39	2229.56
558.74	2234.23
559.10	2238.09
559.45	2241.63
559.81	2246.06
560.16	2249.86
560.52	2253.19
560.87	2256.68
561.23	2259.30
561.58	2262.36
561.94	2264.76
562.29	2267.22
562.64	2269.86
563.00	2272.46
563.35	2275.97
563.71	2279.06
564.06	2282.34
564.42	2285.15
564.77	2287.63
565.12	2289.85
565.48	2291.63
565.83	2293.60
566.19	2294.83
566.54	2295.76
566.89	2296.79
567.25	2297.20
567.60	2298.61
567.96	2300.23
568.31	2301.00
568.66	2302.08
569.02	2302.64
569.37	2303.11
569.72	2303.94
570.08	2303.87
570.43	2303.94
570.78	2303.35
571.14	2301.85
571.49	2300.45
571.84	2300.15
572.20	2298.86
572.55	2297.85
572.90	2296.32
573.26	2294.88
573.61	2293.09
573.96	2291.40
574.31	2288.57
574.67	2285.62
575.02	2281.99
575.37	2278.52
575.72	2274.81
576.08	2271.43
576.43	2268.07
576.78	2264.24
577.13	2261.13
577.49	2258.28
577.84	2254.65
578.19	2250.83
578.54	2247.12
578.90	2242.78
579.25	2237.19
579.60	2232.30
579.95	2227.23
580.30	2222.03
580.66	2216.73
581.01	2211.90
581.36	2206.62
581.71	2202.31
582.06	2197.66
582.42	2193.00
582.77	2187.80
583.12	2183.09
583.47	2178.22
583.82	2173.09
584.17	2167.88
584.53	2162.30
584.88	2156.51
585.23	2150.70
585.58	2145.26
585.93	2139.81
586.28	2135.18
586.63	2130.04
586.98	2125.01
587.34	2120.26
587.69	2115.43
588.04	2110.11
588.39	2104.39
588.74	2098.08
589.09	2091.80
589.44	2085.14
589.79	2079.28
590.14	2073.63
590.49	2066.96
590.84	2060.72
591.19	2054.72
591.54	2048.38
591.89	2040.97
592.25	2034.12
592.60	2027.01
592.95	2019.31
593.30	2012.06
593.65	2004.30
594.00	1997.35
594.35	1990.01
594.70	1981.89
595.05	1974.69
595.40	1967.48
595.75	1959.98
596.10	1953.67
596.45	1947.02
596.80	1940.80
597.15	1934.14
597.50	1926.99
597.85	1920.74
598.19	1914.05
598.54	1906.86
598.89	1900.14
599.24	1894.19
599.59	1887.48
599.94	1881.31
600.29	1875.08
600.64	1868.36
600.99	1860.97
601.34	1853.96
601.69	1847.01
602.04	1840.16
602.39	1832.77
602.74	1825.97
603.08	1819.08
603.43	1812.28
603.78	1804.98
604.13	1797.81
604.48	1790.42
604.83	1783.51
605.18	1776.36
605.53	1768.26
605.87	1760.25
606.22	1752.86
606.57	1744.89
606.92	1737.71
607.27	1730.43
607.62	1723.49
607.96	1716.06
608.31	1709.36
608.66	1701.78
609.01	1694.24
609.36	1686.62
609.70	1678.58
610.05	1670.42
610.40	1662.71
610.75	1654.54
611.10	1646.84
611.44	1638.35
611.79	1630.25
612.14	1621.58
612.49	1612.49
612.83	1604.17
613.18	1596.19
613.53	1588.05
613.88	1579.48
614.22	1571.11
614.57	1562.45
614.92	1554.36
615.27	1546.98
615.61	1538.64
615.96	1530.68
616.31	1523.12
616.65	1515.87
617.00	1508.25
617.35	1500.65
617.70	1492.38
618.04	1483.85
618.39	1475.66
618.74	1468.16
619.08	1459.98
619.43	1452.39
619.78	1445.51
620.12	1438.32
620.47	1430.71
620.82	1422.65
621.16	1415.32
621.51	1407.77
621.85	1400.20
622.20	1391.64
622.55	1383.20
622.89	1375.33
623.24	1367.70
623.59	1360.28
623.93	1352.75
624.28	1345.56
624.62	1337.99
624.97	1330.83
625.32	1324.21
625.66	1317.18
626.01	1309.87
626.35	1302.27
626.70	1294.59
627.04	1286.76
627.39	1278.88
627.73	1271.48
628.08	1264.52
628.43	1257.17
628.77	1249.76
629.12	1242.21
629.46	1235.13
629.81	1227.84
630.15	1220.63
630.50	1213.25
630.84	1205.02
631.19	1197.10
631.53	1189.58
631.88	1182.05
632.22	1174.40
632.57	1166.99
632.91	1159.47
633.26	1152.09
633.60	1144.86
633.95	1137.67
634.29	1130.75
634.64	1124.12
634.98	1116.74
635.32	1109.57
635.67	1103.04
636.01	1096.45
636.36	1089.62
636.70	1083.07
637.05	1076.44
637.39	1070.09
637.73	1063.52
638.08	1057.67
638.42	1051.61
638.77	1045.22
639.11	1038.58
639.45	1032.27
639.80	1025.58
640.14	1019.04
640.49	1012.55
640.83	1006.38
641.17	1000.13
641.52	993.69
641.86	987.38
642.20	981.55
642.55	975.34
642.89	968.77
643.23	962.21
643.58	956.43
643.92	950.19
644.26	944.08
644.61	937.96
644.95	931.88
645.29	925.35
645.64	918.60
645.98	912.20
646.32	906.48
646.66	900.40
647.01	894.56
647.35	888.94
647.69	883.12
648.04	877.53
648.38	871.79
648.72	865.83
649.06	859.71
649.41	853.83
649.75	847.79
650.09	841.90
650.43	836.14
650.78	829.98
651.12	824.13
651.46	818.44
651.80	812.76
652.14	807.44
652.49	801.97
652.83	796.86
653.17	791.16
653.51	785.35
653.85	780.03
654.20	774.43
654.54	768.38
654.88	762.62
655.22	756.71
655.56	750.97
655.90	745.58
656.25	740.33
656.59	734.95
656.93	729.95
657.27	724.81
657.61	719.35
657.95	714.21
658.29	709.14
658.64	703.95
658.98	698.59
659.32	693.10
659.66	687.91
660.00	682.58
660.34	677.73
660.68	672.90
661.02	667.76
661.36	663.04
661.70	658.54
662.05	654.16
662.39	649.79
662.73	645.35
663.07	640.93
663.41	636.49
663.75	632.07
664.09	627.47
664.43	623.01
664.77	618.88
665.11	614.61
665.45	610.42
665.79	606.32
666.13	602.17
666.47	598.11
666.81	593.98
667.15	589.82
667.49	585.83
667.83	582.01
668.17	578.06
668.51	573.97
668.85	569.92
669.19	566.12
669.53	562.29
669.87	558.45
670.21	554.72
670.55	551.09
670.89	547.63
671.23	544.22
671.57	540.79
671.91	537.22
672.25	533.76
672.58	530.21
672.92	526.75
673.26	523.58
673.60	520.45
673.94	517.32
674.28	514.46
674.62	511.57
674.96	508.36
675.30	505.49
675.64	502.50
675.97	499.77
676.31	496.91
676.65	493.99
676.99	491.23
677.33	488.38
677.67	485.57
678.01	482.53
678.34	479.55
678.68	476.68
679.02	473.91
679.36	471.13
679.70	468.45
680.04	465.69
680.37	462.83
680.71	460.04
681.05	457.42
681.39	454.72
681.73	452.10
682.06	449.63
682.40	447.06
682.74	444.58
683.08	442.00
683.42	439.37
683.75	436.84
684.09	434.39
684.43	431.95
684.77	429.47
685.10	427.13
685.44	424.84
685.78	422.51
686.12	420.24
686.45	418.00
686.79	415.72
687.13	413.55
687.46	411.42
687.80	409.26
688.14	407.02
688.48	404.97
688.81	402.71
689.15	400.59
689.49	398.45
689.82	396.41
690.16	394.40
690.50	392.50
690.83	390.59
691.17	388.57
691.51	386.70
691.84	384.89
692.18	382.96
692.52	380.99
692.85	379.11
693.19	377.20
693.52	375.44
693.86	373.62
694.20	371.88
694.53	370.10
694.87	368.26
695.21	366.49
695.54	364.67
695.88	362.96
696.21	361.24
696.55	359.59
696.88	357.92
697.22	356.29
697.56	354.62
697.89	352.98
698.23	351.40
698.56	349.80
698.90	348.22
699.23	346.59
699.57	345.01
699.90	343.51
700.24	342.01
700.58	340.40
700.91	338.90
701.25	337.43
701.58	336.02
701.92	334.68
702.25	333.26
702.59	331.88
702.92	330.53
703.26	329.22
703.59	327.94
703.93	326.72
704.26	325.43
704.60	324.12
704.93	322.82
705.26	321.56
705.60	320.33
705.93	319.14
706.27	318.05
706.60	316.96
706.94	315.85
707.27	314.69
707.61	313.66
707.94	312.63
708.27	311.52
708.61	310.47
708.94	309.45
709.28	308.48
709.61	307.54
709.94	306.59
710.28	305.52
710.61	304.57
710.95	303.50
711.28	302.62
711.61	301.65
711.95	300.71
712.28	299.74
712.61	298.79
712.95	297.85
713.28	297.01
713.61	296.11
713.95	295.20
714.28	294.39
714.61	293.51
714.95	292.66
715.28	291.82
715.61	290.93
715.95	290.04
716.28	289.21
716.61	288.35
716.95	287.53
717.28	286.82
717.61	286.05
717.94	285.28
718.28	284.45
718.61	283.78
718.94	283.10
719.27	282.44
719.61	281.81
719.94	281.13
720.27	280.40
720.60	279.75
720.94	279.11
721.27	278.51
721.60	277.93
721.93	277.31
722.27	276.76
722.60	276.21
722.93	275.69
723.26	275.18
723.59	274.61
723.93	274.06
724.26	273.52
724.59	272.94
724.92	272.44
725.25	271.95
725.59	271.40
725.92	270.88
726.25	270.39
726.58	269.89
726.91	269.39
727.24	268.94
727.57	268.46
727.91	267.96
728.24	267.46
728.57	267.00
728.90	266.60
729.23	266.10
729.56	265.67
729.89	265.18
730.22	264.67
730.55	264.24
730.89	263.81
731.22	263.37
731.55	262.95
731.88	262.51
732.21	262.09
732.54	261.71
732.87	261.30
733.20	260.89
733.53	260.48
733.86	260.12
734.19	259.72
734.52	259.37
734.85	259.08
735.18	258.66
735.51	258.31
735.84	257.94
736.17	257.59
736.50	257.19
736.83	257.00
737.16	256.69
737.49	256.34
737.82	255.97
738.15	255.65
738.48	255.30
738.81	254.99
739.14	254.68
739.47	254.34
739.80	254.03
740.13	253.74
740.46	253.46
740.79	253.16
741.12	252.88
741.45	252.52
741.78	252.17
742.11	251.93
742.44	251.57
742.77	251.25
743.10	250.95
743.43	250.65
743.75	250.22
744.08	250.09
744.41	249.80
744.74	249.54
745.07	249.26
745.40	249.02
745.73	248.77
746.06	248.47
746.39	248.21
746.71	247.95
747.04	247.65
747.37	247.35
747.70	247.08
748.03	246.78
748.36	246.58
748.68	246.36
749.01	246.13
749.34	245.95
749.67	245.72
750.00	245.51
750.33	245.36
750.65	245.15
750.98	244.81
751.31	244.60
751.64	244.37
751.97	244.19
752.29	244.00
752.62	243.74
752.95	243.51
753.28	243.30
753.60	243.10
753.93	242.94
754.26	242.73
754.59	242.52
754.91	242.32
755.24	242.11
755.57	241.90
755.90	241.69
756.22	241.46
756.55	241.27
756.88	241.07
757.20	240.84
757.53	240.66
757.86	240.44
758.19	240.30
758.51	240.12
758.84	239.92
759.17	239.72
759.49	239.60
759.82	239.53
760.15	239.40
760.47	239.23
760.80	239.07
761.13	238.93
761.45	238.80
761.78	238.69
762.11	238.55
762.43	238.39
762.76	238.28
763.08	238.19
763.41	238.05
763.74	237.95
764.06	237.81
764.39	237.68
764.71	237.55
765.04	237.42
765.37	237.33
765.69	237.19
766.02	237.10
766.34	236.98
766.67	236.81
767.00	236.71
767.32	236.66
767.65	236.62
767.97	236.53
768.30	236.40
768.62	236.27
768.95	236.16
769.27	236.08
769.60	235.94
769.92	235.82
770.25	235.71
770.57	235.63
770.90	235.53
771.22	235.43
771.55	235.35
771.87	235.26
772.20	235.15
772.52	235.15
772.85	235.17
773.17	235.06
773.50	234.98
773.82	234.86
774.15	234.70
774.47	234.56
774.80	234.45
775.12	234.37
775.45	234.29
775.77	234.25
776.09	234.13
776.42	234.05
776.74	233.94
777.07	233.86
777.39	233.74
777.72	233.64
778.04	233.57
778.36	233.50
778.69	233.42
779.01	233.37
779.33	233.18
779.66	233.00
779.98	232.92
780.31	232.83
780.63	232.78
780.95	232.74
781.28	232.66
781.60	232.61
781.92	232.54
782.25	232.47
782.57	232.38
782.89	232.34
783.22	232.29
783.54	232.25
783.86	232.20
784.19	232.13
784.51	232.13
784.83	232.04
785.16	231.97
785.48	231.91
785.80	231.84
786.12	231.80
786.45	231.73
786.77	231.69
787.09	231.64
