SpectraSuite Data File
++++++++++++++++++++++++++++++++++++
Date: Fri Feb 01 15:20:05 EST 2013
User: group
Dark Spectrum Present: No
Reference Spectrum Present: No
Number of Sampled Component Spectra: 1
Spectrometers: USB2E7196
Integration Time (usec): 35000 (USB2E7196)
Spectra Averaged: 100 (USB2E7196)
Boxcar Smoothing: 10 (USB2E7196)
Correct for Electrical Dark: No (USB2E7196)
Strobe/Lamp Enabled: No (USB2E7196)
Correct for Detector Non-linearity: No (USB2E7196)
Correct for Stray Light: No (USB2E7196)
Number of Pixels in Processed Spectrum: 2048
>>>>>Begin Processed Spectral Data<<<<<
339.09	0.00
339.48	215.38
339.86	216.84
340.24	217.56
340.63	218.95
341.01	222.60
341.39	222.56
341.78	223.16
342.16	224.55
342.54	225.25
342.93	213.48
343.31	224.28
343.69	224.84
344.07	225.31
344.46	225.78
344.84	226.16
345.22	226.40
345.60	226.64
345.99	226.85
346.37	226.97
346.75	227.09
347.13	227.13
347.52	227.19
347.90	227.32
348.28	227.34
348.66	227.35
349.05	227.37
349.43	227.44
349.81	227.50
350.19	227.58
350.57	227.66
350.96	227.77
351.34	227.87
351.72	227.92
352.10	228.00
352.48	228.07
352.87	228.14
353.25	228.20
353.63	228.25
354.01	228.35
354.39	228.44
354.77	228.49
355.15	228.59
355.54	228.66
355.92	228.69
356.30	228.76
356.68	228.92
357.06	228.98
357.44	229.02
357.82	229.08
358.20	229.15
358.58	229.22
358.97	229.27
359.35	229.30
359.73	229.40
360.11	229.47
360.49	229.52
360.87	229.55
361.25	229.61
361.63	229.66
362.01	229.69
362.39	229.71
362.77	229.77
363.15	229.80
363.53	229.81
363.91	229.84
364.29	229.84
364.67	229.73
365.05	229.75
365.43	229.77
365.81	229.79
366.19	229.82
366.57	229.82
366.95	229.78
367.33	229.73
367.71	229.69
368.09	229.65
368.47	229.62
368.85	229.59
369.23	229.56
369.61	229.52
369.99	229.53
370.37	229.47
370.75	229.47
371.13	229.45
371.51	229.39
371.89	229.33
372.27	229.27
372.65	229.25
373.03	229.18
373.41	229.13
373.78	229.03
374.16	228.91
374.54	228.81
374.92	228.74
375.30	228.72
375.68	228.61
376.06	228.56
376.44	228.49
376.82	228.44
377.19	228.33
377.57	228.24
377.95	228.11
378.33	228.04
378.71	227.91
379.09	227.82
379.47	227.77
379.84	227.68
380.22	227.62
380.60	227.51
380.98	227.41
381.36	227.31
381.73	227.23
382.11	227.18
382.49	227.14
382.87	227.06
383.25	226.97
383.62	227.03
384.00	226.93
384.38	226.85
384.76	226.81
385.13	226.80
385.51	226.76
385.89	226.69
386.27	226.63
386.64	226.58
387.02	226.53
387.40	226.47
387.78	226.45
388.15	226.39
388.53	226.35
388.91	226.34
389.29	226.30
389.66	226.30
390.04	226.28
390.42	226.25
390.79	226.25
391.17	226.24
391.55	226.13
391.92	226.17
392.30	226.18
392.68	226.18
393.05	226.19
393.43	226.18
393.81	226.20
394.18	226.23
394.56	226.24
394.94	226.28
395.31	226.31
395.69	226.36
396.06	226.42
396.44	226.46
396.82	226.49
397.19	226.61
397.57	226.67
397.95	226.75
398.32	226.79
398.70	226.87
399.07	226.95
399.45	227.03
399.82	227.10
400.20	227.17
400.58	227.26
400.95	227.30
401.33	227.42
401.70	227.60
402.08	227.70
402.45	227.82
402.83	227.95
403.20	228.09
403.58	228.17
403.95	228.33
404.33	228.50
404.71	228.66
405.08	228.85
405.46	229.01
405.83	229.12
406.21	229.30
406.58	229.46
406.96	229.66
407.33	229.86
407.70	230.03
408.08	230.29
408.45	230.52
408.83	230.77
409.20	230.98
409.58	231.16
409.95	231.44
410.33	231.72
410.70	231.96
411.08	232.24
411.45	232.58
411.82	232.87
412.20	233.17
412.57	233.57
412.95	233.87
413.32	234.27
413.69	234.71
414.07	235.14
414.44	235.63
414.82	236.10
415.19	236.65
415.56	237.20
415.94	237.74
416.31	238.38
416.68	239.03
417.06	239.76
417.43	240.44
417.81	241.20
418.18	241.98
418.55	242.80
418.93	243.69
419.30	244.58
419.67	245.51
420.04	246.50
420.42	247.49
420.79	248.63
421.16	249.75
421.54	250.95
421.91	252.15
422.28	253.38
422.66	254.67
423.03	255.99
423.40	257.29
423.77	258.72
424.15	260.15
424.52	261.62
424.89	263.18
425.26	264.74
425.64	266.15
426.01	267.74
426.38	269.42
426.75	271.05
427.13	272.74
427.50	274.53
427.87	276.43
428.24	278.29
428.61	280.02
428.99	281.98
429.36	284.05
429.73	286.13
430.10	288.19
430.47	290.27
430.85	292.38
431.22	294.67
431.59	297.03
431.96	299.26
432.33	301.73
432.70	304.13
433.08	306.95
433.45	309.63
433.82	312.26
434.19	315.16
434.56	317.97
434.93	320.66
435.30	323.31
435.68	326.17
436.05	329.02
436.42	331.86
436.79	334.40
437.16	337.09
437.53	339.92
437.90	342.71
438.27	345.49
438.64	348.32
439.01	350.94
439.38	353.16
439.75	355.35
440.13	357.88
440.50	360.26
440.87	362.12
441.24	364.07
441.61	366.21
441.98	367.67
442.35	369.47
442.72	371.33
443.09	373.18
443.46	374.19
443.83	374.79
444.20	375.32
444.57	376.16
444.94	376.46
445.31	376.80
445.68	377.19
446.05	377.22
446.42	376.87
446.79	376.39
447.16	375.98
447.53	375.67
447.90	374.48
448.27	373.31
448.64	371.73
449.01	370.58
449.37	368.60
449.74	366.73
450.11	364.52
450.48	362.07
450.85	359.51
451.22	357.38
451.59	355.34
451.96	353.37
452.33	350.71
452.70	348.34
453.07	345.52
453.43	342.60
453.80	339.85
454.17	337.15
454.54	334.66
454.91	331.97
455.28	329.28
455.65	326.79
456.02	324.33
456.38	322.18
456.75	319.51
457.12	317.25
457.49	315.05
457.86	312.84
458.23	310.97
458.59	308.92
458.96	306.85
459.33	304.99
459.70	303.09
460.07	301.63
460.43	299.93
460.80	298.26
461.17	296.81
461.54	295.33
461.91	293.90
462.27	292.46
462.64	291.17
463.01	289.84
463.38	288.56
463.74	287.18
464.11	286.00
464.48	284.99
464.85	283.90
465.21	282.99
465.58	282.11
465.95	281.03
466.32	280.12
466.68	279.18
467.05	278.30
467.42	277.42
467.78	276.48
468.15	275.62
468.52	275.00
468.88	274.12
469.25	273.34
469.62	272.70
469.98	271.99
470.35	271.33
470.72	270.70
471.08	270.03
471.45	269.48
471.82	268.93
472.18	268.31
472.55	267.88
472.92	267.34
473.28	266.83
473.65	266.33
474.02	265.88
474.38	265.49
474.75	265.15
475.11	264.78
475.48	264.51
475.85	264.25
476.21	263.96
476.58	263.76
476.94	263.58
477.31	263.40
477.67	263.25
478.04	263.14
478.41	263.07
478.77	263.07
479.14	262.96
479.50	262.96
479.87	263.04
480.23	263.08
480.60	263.15
480.96	263.23
481.33	263.43
481.69	263.61
482.06	263.77
482.42	263.92
482.79	264.21
483.15	264.52
483.52	264.92
483.88	265.28
484.25	265.70
484.61	266.10
484.98	266.51
485.34	267.05
485.71	267.65
486.07	268.24
486.44	268.80
486.80	269.52
487.17	270.26
487.53	271.05
487.90	271.88
488.26	272.81
488.62	273.80
488.99	274.78
489.35	275.76
489.72	276.91
490.08	278.14
490.44	279.35
490.81	280.67
491.17	282.01
491.54	283.54
491.90	285.07
492.26	286.75
492.63	288.52
492.99	290.29
493.36	292.16
493.72	294.24
494.08	296.37
494.45	298.60
494.81	300.95
495.17	303.37
495.54	305.98
495.90	308.70
496.26	311.52
496.63	314.50
496.99	317.64
497.35	320.92
497.72	324.33
498.08	327.87
498.44	331.53
498.80	335.41
499.17	339.36
499.53	343.49
499.89	347.88
500.26	352.37
500.62	357.06
500.98	362.04
501.34	367.10
501.71	372.42
502.07	377.85
502.43	383.47
502.79	389.30
503.16	395.37
503.52	401.59
503.88	408.00
504.24	414.68
504.60	421.58
504.97	428.70
505.33	436.03
505.69	443.71
506.05	451.44
506.41	459.30
506.78	467.49
507.14	475.99
507.50	484.69
507.86	493.71
508.22	502.91
508.59	512.06
508.95	521.61
509.31	531.44
509.67	541.54
510.03	551.84
510.39	562.44
510.75	573.26
511.12	584.25
511.48	595.58
511.84	606.91
512.20	618.49
512.56	630.40
512.92	642.58
513.28	654.94
513.64	667.51
514.00	680.27
514.37	693.27
514.73	706.37
515.09	719.44
515.45	732.72
515.81	746.30
516.17	760.39
516.53	774.50
516.89	788.58
517.25	802.80
517.61	817.35
517.97	831.78
518.33	846.18
518.69	860.94
519.05	875.98
519.41	891.31
519.77	906.85
520.13	922.37
520.49	937.84
520.85	953.30
521.21	969.01
521.57	985.29
521.93	1001.11
522.29	1017.51
522.65	1033.72
523.01	1050.08
523.37	1066.08
523.73	1082.30
524.09	1098.45
524.45	1114.95
524.81	1131.72
525.17	1148.44
525.53	1165.50
525.89	1182.51
526.25	1199.42
526.61	1215.84
526.97	1232.62
527.33	1249.21
527.68	1265.89
528.04	1282.36
528.40	1299.03
528.76	1316.19
529.12	1332.93
529.48	1349.78
529.84	1365.85
530.20	1382.66
530.56	1399.68
530.91	1417.16
531.27	1433.94
531.63	1450.51
531.99	1467.11
532.35	1482.97
532.71	1498.83
533.07	1515.08
533.42	1530.91
533.78	1547.07
534.14	1563.40
534.50	1578.66
534.86	1594.62
535.21	1609.85
535.57	1625.97
535.93	1641.55
536.29	1656.38
536.65	1671.46
537.00	1686.27
537.36	1701.63
537.72	1716.14
538.08	1730.63
538.44	1744.57
538.79	1758.54
539.15	1772.38
539.51	1786.15
539.87	1800.68
540.22	1814.66
540.58	1828.56
540.94	1842.21
541.29	1855.22
541.65	1867.94
542.01	1881.51
542.37	1893.80
542.72	1906.22
543.08	1918.03
543.44	1930.47
543.79	1941.94
544.15	1953.03
544.51	1964.78
544.87	1975.94
545.22	1986.69
545.58	1997.07
545.94	2007.02
546.29	2016.88
546.65	2026.64
547.01	2035.95
547.36	2044.72
547.72	2053.07
548.07	2060.89
548.43	2068.94
548.79	2076.87
549.14	2084.49
549.50	2091.82
549.86	2099.69
550.21	2107.15
550.57	2114.44
550.92	2121.10
551.28	2128.02
551.64	2134.95
551.99	2141.49
552.35	2147.55
552.70	2153.91
553.06	2159.87
553.41	2166.09
553.77	2172.28
554.13	2178.39
554.48	2184.54
554.84	2189.86
555.19	2195.33
555.55	2200.43
555.90	2204.95
556.26	2209.85
556.61	2214.55
556.97	2218.76
557.32	2222.68
557.68	2226.78
558.03	2230.97
558.39	2234.60
558.74	2239.26
559.10	2243.19
559.45	2246.75
559.81	2251.19
560.16	2254.87
560.52	2258.00
560.87	2261.36
561.23	2263.91
561.58	2267.01
561.94	2269.49
562.29	2272.08
562.64	2274.64
563.00	2277.38
563.35	2280.84
563.71	2283.85
564.06	2287.13
564.42	2289.86
564.77	2292.44
565.12	2294.52
565.48	2296.26
565.83	2298.04
566.19	2299.24
566.54	2300.21
566.89	2301.35
567.25	2301.70
567.60	2303.08
567.96	2304.74
568.31	2305.50
568.66	2306.49
569.02	2306.92
569.37	2307.30
569.72	2307.97
570.08	2307.99
570.43	2307.80
570.78	2307.04
571.14	2305.51
571.49	2304.11
571.84	2303.75
572.20	2302.37
572.55	2301.34
572.90	2299.88
573.26	2298.31
573.61	2296.55
573.96	2294.55
574.31	2291.36
574.67	2288.24
575.02	2284.50
575.37	2280.90
575.72	2276.99
576.08	2273.70
576.43	2270.11
576.78	2266.26
577.13	2263.08
577.49	2259.92
577.84	2256.33
578.19	2252.64
578.54	2248.89
578.90	2244.31
579.25	2238.70
579.60	2233.76
579.95	2228.79
580.30	2223.50
580.66	2218.42
581.01	2213.41
581.36	2208.44
581.71	2204.31
582.06	2199.87
582.42	2195.40
582.77	2190.08
583.12	2185.46
583.47	2180.48
583.82	2175.44
584.17	2170.09
584.53	2164.42
584.88	2158.76
585.23	2152.87
585.58	2147.29
585.93	2141.76
586.28	2137.14
586.63	2132.04
586.98	2126.90
587.34	2122.01
587.69	2117.10
588.04	2111.79
588.39	2106.01
588.74	2099.44
589.09	2093.13
589.44	2086.13
589.79	2079.90
590.14	2074.24
590.49	2067.52
590.84	2061.30
591.19	2055.30
591.54	2048.74
591.89	2041.22
592.25	2034.25
592.60	2027.07
592.95	2019.32
593.30	2011.90
593.65	2004.20
594.00	1997.15
594.35	1989.76
594.70	1981.62
595.05	1974.25
595.40	1966.89
595.75	1959.29
596.10	1953.01
596.45	1946.26
596.80	1940.08
597.15	1933.43
597.50	1926.31
597.85	1920.09
598.19	1913.16
598.54	1905.88
598.89	1899.34
599.24	1893.50
599.59	1886.81
599.94	1880.59
600.29	1874.28
600.64	1867.64
600.99	1860.10
601.34	1853.12
601.69	1846.19
602.04	1839.23
602.39	1831.94
602.74	1824.94
603.08	1818.28
603.43	1811.56
603.78	1804.17
604.13	1797.13
604.48	1789.85
604.83	1783.00
605.18	1775.75
605.53	1767.67
605.87	1759.80
606.22	1752.49
606.57	1744.56
606.92	1737.23
607.27	1729.87
607.62	1722.88
607.96	1715.53
608.31	1708.89
608.66	1701.21
609.01	1693.52
609.36	1685.92
609.70	1677.88
610.05	1669.86
610.40	1662.08
610.75	1653.80
611.10	1646.14
611.44	1637.64
611.79	1629.57
612.14	1620.91
612.49	1611.96
612.83	1603.69
613.18	1595.56
613.53	1587.50
613.88	1578.90
614.22	1570.71
614.57	1562.17
614.92	1554.21
615.27	1546.64
615.61	1538.19
615.96	1530.31
616.31	1522.75
616.65	1515.38
617.00	1507.75
617.35	1500.10
617.70	1491.60
618.04	1483.03
618.39	1474.75
618.74	1467.09
619.08	1458.72
619.43	1451.12
619.78	1444.15
620.12	1436.95
620.47	1429.36
620.82	1421.12
621.16	1413.64
621.51	1405.95
621.85	1398.40
622.20	1389.81
622.55	1381.55
622.89	1373.84
623.24	1366.10
623.59	1358.79
623.93	1351.40
624.28	1344.11
624.62	1336.56
624.97	1329.55
625.32	1322.83
625.66	1315.81
626.01	1308.53
626.35	1301.11
626.70	1293.32
627.04	1285.46
627.39	1277.78
627.73	1270.26
628.08	1263.29
628.43	1255.94
628.77	1248.53
629.12	1240.97
629.46	1233.74
629.81	1226.23
630.15	1219.05
630.50	1211.66
630.84	1203.42
631.19	1195.54
631.53	1188.23
631.88	1180.68
632.22	1173.18
632.57	1165.81
632.91	1158.39
633.26	1151.02
633.60	1143.77
633.95	1136.78
634.29	1129.90
634.64	1123.20
634.98	1115.94
635.32	1108.97
635.67	1102.54
636.01	1096.00
636.36	1089.15
636.70	1082.71
637.05	1076.21
637.39	1069.74
637.73	1063.29
638.08	1057.44
638.42	1051.32
638.77	1044.80
639.11	1038.22
639.45	1031.82
639.80	1025.15
640.14	1018.70
640.49	1012.17
640.83	1005.87
641.17	999.53
641.52	993.12
641.86	986.70
642.20	980.96
642.55	974.55
642.89	967.92
643.23	961.40
643.58	955.59
643.92	949.34
644.26	943.24
644.61	937.15
644.95	931.07
645.29	924.51
645.64	917.84
645.98	911.54
646.32	905.78
646.66	899.68
647.01	893.89
647.35	888.16
647.69	882.42
648.04	876.86
648.38	871.10
648.72	865.06
649.06	858.99
649.41	853.00
649.75	847.02
650.09	841.12
650.43	835.28
650.78	829.20
651.12	823.30
651.46	817.54
651.80	811.78
652.14	806.35
652.49	800.96
652.83	795.82
653.17	790.04
653.51	784.21
653.85	778.83
654.20	773.18
654.54	767.24
654.88	761.49
655.22	755.59
655.56	749.94
655.90	744.51
656.25	739.24
656.59	733.89
656.93	728.79
657.27	723.70
657.61	718.23
657.95	713.15
658.29	708.08
658.64	702.90
658.98	697.60
659.32	692.13
659.66	686.90
660.00	681.56
660.34	676.72
660.68	671.84
661.02	666.84
661.36	662.23
661.70	657.71
662.05	653.36
662.39	649.07
662.73	644.65
663.07	640.30
663.41	635.89
663.75	631.38
664.09	626.89
664.43	622.47
664.77	618.41
665.11	614.14
665.45	610.05
665.79	606.01
666.13	601.89
666.47	597.89
666.81	593.76
667.15	589.62
667.49	585.71
667.83	581.98
668.17	578.01
668.51	573.93
668.85	569.89
669.19	566.03
669.53	562.16
669.87	558.27
670.21	554.56
670.55	550.92
670.89	547.56
671.23	544.10
671.57	540.61
671.91	537.03
672.25	533.62
672.58	530.12
672.92	526.77
673.26	523.63
673.60	520.50
673.94	517.33
674.28	514.48
674.62	511.54
674.96	508.38
675.30	505.46
675.64	502.48
675.97	499.81
676.31	496.94
676.65	494.02
676.99	491.28
677.33	488.46
677.67	485.60
678.01	482.52
678.34	479.56
678.68	476.76
679.02	473.98
679.36	471.20
679.70	468.47
680.04	465.69
680.37	462.82
680.71	460.01
681.05	457.41
681.39	454.69
681.73	452.10
682.06	449.64
682.40	447.14
682.74	444.71
683.08	442.09
683.42	439.54
683.75	437.10
684.09	434.57
684.43	432.09
684.77	429.68
685.10	427.35
685.44	425.05
685.78	422.78
686.12	420.53
686.45	418.23
686.79	415.94
687.13	413.75
687.46	411.64
687.80	409.54
688.14	407.34
688.48	405.31
688.81	402.99
689.15	400.79
689.49	398.63
689.82	396.50
690.16	394.42
690.50	392.43
690.83	390.45
691.17	388.45
691.51	386.55
691.84	384.70
692.18	382.79
692.52	380.81
692.85	378.86
693.19	376.99
693.52	375.15
693.86	373.39
694.20	371.59
694.53	369.74
694.87	367.88
695.21	366.14
695.54	364.30
695.88	362.55
696.21	360.83
696.55	359.18
696.88	357.49
697.22	355.86
697.56	354.26
697.89	352.58
698.23	351.02
698.56	349.42
698.90	347.79
699.23	346.13
699.57	344.55
699.90	343.00
700.24	341.48
700.58	339.90
700.91	338.35
701.25	336.93
701.58	335.60
701.92	334.27
702.25	332.86
702.59	331.50
702.92	330.24
703.26	328.91
703.59	327.65
703.93	326.49
704.26	325.30
704.60	324.01
704.93	322.78
705.26	321.52
705.60	320.36
705.93	319.22
706.27	318.20
706.60	317.16
706.94	316.08
707.27	314.97
707.61	313.97
707.94	312.93
708.27	311.82
708.61	310.72
708.94	309.72
709.28	308.77
709.61	307.83
709.94	306.90
710.28	305.92
710.61	304.90
710.95	303.81
711.28	302.91
711.61	301.97
711.95	301.07
712.28	300.13
712.61	299.15
712.95	298.23
713.28	297.41
713.61	296.50
713.95	295.65
714.28	294.78
714.61	293.91
714.95	293.12
715.28	292.32
715.61	291.44
715.95	290.56
716.28	289.70
716.61	288.85
716.95	288.02
717.28	287.27
717.61	286.51
717.94	285.79
718.28	284.97
718.61	284.26
718.94	283.56
719.27	282.89
719.61	282.24
719.94	281.63
720.27	280.89
720.60	280.25
720.94	279.61
721.27	279.05
721.60	278.47
721.93	277.84
722.27	277.28
722.60	276.75
722.93	276.18
723.26	275.66
723.59	275.09
723.93	274.54
724.26	274.01
724.59	273.45
724.92	272.91
725.25	272.38
725.59	271.84
725.92	271.34
726.25	270.82
726.58	270.30
726.91	269.74
727.24	269.26
727.57	268.83
727.91	268.34
728.24	267.87
728.57	267.42
728.90	266.98
729.23	266.46
729.56	266.02
729.89	265.57
730.22	265.04
730.55	264.59
730.89	264.15
731.22	263.74
731.55	263.32
731.88	262.90
732.21	262.46
732.54	262.04
732.87	261.64
733.20	261.28
733.53	260.89
733.86	260.54
734.19	260.12
734.52	259.70
734.85	259.38
735.18	258.91
735.51	258.51
735.84	258.12
736.17	257.78
736.50	257.39
736.83	257.16
737.16	256.83
737.49	256.53
737.82	256.18
738.15	255.80
738.48	255.44
738.81	255.10
739.14	254.79
739.47	254.47
739.80	254.17
740.13	253.85
740.46	253.52
740.79	253.18
741.12	252.91
741.45	252.58
741.78	252.22
742.11	251.98
742.44	251.68
742.77	251.39
743.10	251.08
743.43	250.78
743.75	250.38
744.08	250.26
744.41	249.96
744.74	249.72
745.07	249.43
745.40	249.21
745.73	248.98
746.06	248.72
746.39	248.45
746.71	248.19
747.04	247.92
747.37	247.63
747.70	247.43
748.03	247.17
748.36	246.98
748.68	246.75
749.01	246.49
749.34	246.24
749.67	246.05
750.00	245.84
750.33	245.69
750.65	245.47
750.98	245.11
751.31	244.90
751.64	244.67
751.97	244.53
752.29	244.32
752.62	244.06
752.95	243.86
753.28	243.66
753.60	243.44
753.93	243.25
754.26	243.10
754.59	242.85
754.91	242.63
755.24	242.42
755.57	242.25
755.90	242.06
756.22	241.86
756.55	241.64
756.88	241.46
757.20	241.21
757.53	241.01
757.86	240.86
758.19	240.72
758.51	240.57
758.84	240.34
759.17	240.18
759.49	240.05
759.82	239.92
760.15	239.76
760.47	239.59
760.80	239.44
761.13	239.26
761.45	239.12
761.78	238.98
762.11	238.83
762.43	238.67
762.76	238.51
763.08	238.41
763.41	238.26
763.74	238.12
764.06	237.97
764.39	237.83
764.71	237.65
765.04	237.50
765.37	237.32
765.69	237.18
766.02	237.04
766.34	236.89
766.67	236.74
767.00	236.65
767.32	236.56
767.65	236.49
767.97	236.41
768.30	236.29
768.62	236.17
768.95	236.05
769.27	235.95
769.60	235.90
769.92	235.78
770.25	235.68
770.57	235.56
770.90	235.45
771.22	235.37
771.55	235.31
771.87	235.18
772.20	235.07
772.52	235.07
772.85	235.08
773.17	235.01
773.50	234.93
773.82	234.79
774.15	234.65
774.47	234.51
774.80	234.42
775.12	234.33
775.45	234.24
775.77	234.16
776.09	234.07
776.42	233.98
776.74	233.90
777.07	233.80
777.39	233.71
777.72	233.64
778.04	233.58
778.36	233.52
778.69	233.47
779.01	233.46
779.33	233.32
779.66	233.15
779.98	233.06
780.31	233.01
780.63	233.01
780.95	232.99
781.28	232.97
781.60	232.89
781.92	232.81
782.25	232.78
782.57	232.71
782.89	232.67
783.22	232.60
783.54	232.53
783.86	232.50
784.19	232.43
784.51	232.41
784.83	232.36
785.16	232.28
785.48	232.22
785.80	232.16
786.12	232.13
786.45	232.06
786.77	232.02
787.09	231.95
