SpectraSuite Data File
++++++++++++++++++++++++++++++++++++
Date: Fri Feb 01 18:16:00 EST 2013
User: group
Dark Spectrum Present: No
Reference Spectrum Present: No
Number of Sampled Component Spectra: 1
Spectrometers: USB2E7196
Integration Time (usec): 35000 (USB2E7196)
Spectra Averaged: 100 (USB2E7196)
Boxcar Smoothing: 10 (USB2E7196)
Correct for Electrical Dark: No (USB2E7196)
Strobe/Lamp Enabled: No (USB2E7196)
Correct for Detector Non-linearity: No (USB2E7196)
Correct for Stray Light: No (USB2E7196)
Number of Pixels in Processed Spectrum: 2048
>>>>>Begin Processed Spectral Data<<<<<
339.09	0.00
339.48	213.41
339.86	214.34
340.24	215.83
340.63	217.48
341.01	220.24
341.39	220.60
341.78	220.89
342.16	222.26
342.54	222.84
342.93	211.69
343.31	222.39
343.69	222.92
344.07	223.42
344.46	223.84
344.84	224.24
345.22	224.49
345.60	224.72
345.99	224.95
346.37	225.09
346.75	225.23
347.13	225.29
347.52	225.33
347.90	225.42
348.28	225.44
348.66	225.48
349.05	225.49
349.43	225.48
349.81	225.53
350.19	225.58
350.57	225.65
350.96	225.71
351.34	225.78
351.72	225.87
352.10	225.93
352.48	226.02
352.87	226.04
353.25	226.10
353.63	226.16
354.01	226.23
354.39	226.31
354.77	226.36
355.15	226.45
355.54	226.50
355.92	226.53
356.30	226.62
356.68	226.74
357.06	226.79
357.44	226.85
357.82	226.92
358.20	226.96
358.58	227.02
358.97	227.09
359.35	227.18
359.73	227.21
360.11	227.29
360.49	227.34
360.87	227.38
361.25	227.43
361.63	227.50
362.01	227.54
362.39	227.56
362.77	227.60
363.15	227.60
363.53	227.61
363.91	227.62
364.29	227.65
364.67	227.58
365.05	227.60
365.43	227.60
365.81	227.62
366.19	227.67
366.57	227.69
366.95	227.66
367.33	227.60
367.71	227.63
368.09	227.60
368.47	227.62
368.85	227.62
369.23	227.58
369.61	227.53
369.99	227.50
370.37	227.48
370.75	227.49
371.13	227.45
371.51	227.40
371.89	227.38
372.27	227.33
372.65	227.29
373.03	227.23
373.41	227.18
373.78	227.12
374.16	227.03
374.54	226.96
374.92	226.91
375.30	226.87
375.68	226.78
376.06	226.74
376.44	226.63
376.82	226.59
377.19	226.53
377.57	226.49
377.95	226.39
378.33	226.33
378.71	226.22
379.09	226.17
379.47	226.13
379.84	226.04
380.22	225.99
380.60	225.96
380.98	225.90
381.36	225.86
381.73	225.79
382.11	225.74
382.49	225.68
382.87	225.63
383.25	225.61
383.62	225.70
384.00	225.63
384.38	225.60
384.76	225.58
385.13	225.62
385.51	225.53
385.89	225.51
386.27	225.45
386.64	225.45
387.02	225.44
387.40	225.38
387.78	225.37
388.15	225.33
388.53	225.27
388.91	225.26
389.29	225.22
389.66	225.23
390.04	225.20
390.42	225.19
390.79	225.17
391.17	225.12
391.55	224.99
391.92	224.97
392.30	224.94
392.68	224.91
393.05	224.88
393.43	224.90
393.81	224.92
394.18	224.95
394.56	224.98
394.94	224.97
395.31	225.02
395.69	225.07
396.06	225.06
396.44	225.12
396.82	225.12
397.19	225.19
397.57	225.23
397.95	225.29
398.32	225.32
398.70	225.38
399.07	225.45
399.45	225.52
399.82	225.59
400.20	225.68
400.58	225.75
400.95	225.78
401.33	225.88
401.70	225.98
402.08	226.04
402.45	226.11
402.83	226.24
403.20	226.36
403.58	226.45
403.95	226.60
404.33	226.72
404.71	226.85
405.08	227.03
405.46	227.13
405.83	227.30
406.21	227.47
406.58	227.66
406.96	227.82
407.33	228.01
407.70	228.26
408.08	228.55
408.45	228.82
408.83	229.11
409.20	229.39
409.58	229.67
409.95	230.00
410.33	230.34
410.70	230.68
411.08	231.01
411.45	231.47
411.82	231.88
412.20	232.33
412.57	232.91
412.95	233.32
413.32	233.88
413.69	234.44
414.07	235.05
414.44	235.69
414.82	236.38
415.19	237.15
415.56	237.90
415.94	238.67
416.31	239.54
416.68	240.41
417.06	241.38
417.43	242.30
417.81	243.37
418.18	244.46
418.55	245.65
418.93	246.91
419.30	248.14
419.67	249.50
420.04	250.87
420.42	252.24
420.79	253.91
421.16	255.54
421.54	257.18
421.91	258.92
422.28	260.69
422.66	262.56
423.03	264.36
423.40	266.24
423.77	268.23
424.15	270.24
424.52	272.36
424.89	274.64
425.26	276.86
425.64	278.87
426.01	281.12
426.38	283.44
426.75	285.80
427.13	288.24
427.50	290.75
427.87	293.41
428.24	296.09
428.61	298.62
428.99	301.38
429.36	304.37
429.73	307.26
430.10	310.11
430.47	313.03
430.85	316.13
431.22	319.28
431.59	322.61
431.96	325.82
432.33	329.33
432.70	332.67
433.08	336.66
433.45	340.40
433.82	344.06
434.19	348.07
434.56	352.03
434.93	355.77
435.30	359.50
435.68	363.57
436.05	367.56
436.42	371.45
436.79	374.98
437.16	378.85
437.53	382.87
437.90	386.84
438.27	390.71
438.64	394.64
439.01	398.32
439.38	401.51
439.75	404.54
440.13	408.08
440.50	411.43
440.87	414.05
441.24	416.81
441.61	419.89
441.98	422.10
442.35	424.64
442.72	427.27
443.09	429.78
443.46	431.20
443.83	432.03
444.20	432.78
444.57	433.99
444.94	434.38
445.31	434.86
445.68	435.32
446.05	435.42
446.42	434.93
446.79	434.32
447.16	433.74
447.53	433.37
447.90	431.72
448.27	430.04
448.64	427.80
449.01	426.24
449.37	423.48
449.74	420.78
450.11	417.58
450.48	414.02
450.85	410.47
451.22	407.43
451.59	404.55
451.96	401.80
452.33	398.14
452.70	394.80
453.07	390.77
453.43	386.74
453.80	382.82
454.17	379.00
454.54	375.39
454.91	371.54
455.28	367.67
455.65	364.19
456.02	360.70
456.38	357.66
456.75	353.89
457.12	350.68
457.49	347.50
457.86	344.46
458.23	341.89
458.59	339.02
458.96	336.09
459.33	333.46
459.70	330.81
460.07	328.64
460.43	326.13
460.80	323.81
461.17	321.73
461.54	319.58
461.91	317.55
462.27	315.52
462.64	313.72
463.01	311.79
463.38	309.87
463.74	307.94
464.11	306.23
464.48	304.70
464.85	303.12
465.21	301.87
465.58	300.52
465.95	298.97
466.32	297.64
466.68	296.35
467.05	295.09
467.42	293.82
467.78	292.49
468.15	291.31
468.52	290.37
468.88	289.17
469.25	288.09
469.62	287.21
469.98	286.19
470.35	285.27
470.72	284.45
471.08	283.50
471.45	282.71
471.82	281.96
472.18	281.15
472.55	280.52
472.92	279.76
473.28	279.11
473.65	278.43
474.02	277.82
474.38	277.24
474.75	276.75
475.11	276.25
475.48	275.84
475.85	275.44
476.21	275.07
476.58	274.74
476.94	274.50
477.31	274.16
477.67	273.92
478.04	273.75
478.41	273.56
478.77	273.52
479.14	273.37
479.50	273.31
479.87	273.29
480.23	273.29
480.60	273.29
480.96	273.27
481.33	273.42
481.69	273.52
482.06	273.68
482.42	273.81
482.79	273.98
483.15	274.26
483.52	274.66
483.88	274.96
484.25	275.31
484.61	275.66
484.98	276.11
485.34	276.65
485.71	277.17
486.07	277.75
486.44	278.34
486.80	279.05
487.17	279.76
487.53	280.60
487.90	281.46
488.26	282.47
488.62	283.53
488.99	284.55
489.35	285.66
489.72	286.85
490.08	288.12
490.44	289.44
490.81	290.86
491.17	292.27
491.54	293.83
491.90	295.49
492.26	297.28
492.63	299.12
492.99	301.00
493.36	303.03
493.72	305.29
494.08	307.52
494.45	309.94
494.81	312.50
495.17	315.10
495.54	317.86
495.90	320.71
496.26	323.72
496.63	326.88
496.99	330.20
497.35	333.66
497.72	337.34
498.08	341.15
498.44	345.05
498.80	349.27
499.17	353.63
499.53	358.07
499.89	362.78
500.26	367.65
500.62	372.63
500.98	377.94
501.34	383.36
501.71	389.09
502.07	394.92
502.43	400.96
502.79	407.22
503.16	413.74
503.52	420.47
503.88	427.38
504.24	434.52
504.60	441.91
504.97	449.58
505.33	457.47
505.69	465.75
506.05	474.15
506.41	482.61
506.78	491.45
507.14	500.60
507.50	510.03
507.86	519.77
508.22	529.71
508.59	539.75
508.95	550.07
509.31	560.70
509.67	571.59
510.03	582.73
510.39	594.23
510.75	605.95
511.12	617.83
511.48	630.09
511.84	642.59
512.20	655.14
512.56	668.18
512.92	681.46
513.28	694.88
513.64	708.48
514.00	722.34
514.37	736.51
514.73	750.81
515.09	765.04
515.45	779.60
515.81	794.55
516.17	809.86
516.53	825.50
516.89	841.13
517.25	856.79
517.61	872.67
517.97	888.59
518.33	904.45
518.69	920.76
519.05	937.25
519.41	953.92
519.77	971.16
520.13	988.23
520.49	1005.30
520.85	1022.37
521.21	1039.83
521.57	1057.92
521.93	1075.39
522.29	1093.61
522.65	1111.68
523.01	1129.77
523.37	1147.72
523.73	1165.92
524.09	1183.84
524.45	1201.99
524.81	1220.60
525.17	1239.46
525.53	1258.35
525.89	1277.29
526.25	1296.27
526.61	1314.80
526.97	1333.88
527.33	1352.43
527.68	1371.03
528.04	1389.70
528.40	1408.51
528.76	1427.87
529.12	1446.67
529.48	1465.93
529.84	1484.13
530.20	1503.21
530.56	1522.56
530.91	1542.35
531.27	1561.33
531.63	1580.19
531.99	1599.12
532.35	1617.52
532.71	1635.71
533.07	1654.41
533.42	1672.78
533.78	1691.38
534.14	1710.25
534.50	1727.96
534.86	1746.40
535.21	1764.30
535.57	1782.70
535.93	1800.84
536.29	1818.14
536.65	1835.82
537.00	1853.00
537.36	1871.04
537.72	1888.05
538.08	1905.08
538.44	1921.33
538.79	1937.80
539.15	1953.97
539.51	1970.36
539.87	1987.35
540.22	2003.79
540.58	2020.24
540.94	2036.24
541.29	2051.73
541.65	2067.04
542.01	2082.92
542.37	2097.81
542.72	2112.88
543.08	2127.30
543.44	2142.32
543.79	2156.05
544.15	2169.45
544.51	2183.77
544.87	2197.24
545.22	2210.65
545.58	2223.51
545.94	2235.88
546.29	2248.31
546.65	2260.84
547.01	2272.75
547.36	2283.83
547.72	2294.68
548.07	2304.93
548.43	2315.34
548.79	2325.71
549.14	2335.51
549.50	2345.14
549.86	2355.17
550.21	2364.63
550.57	2374.11
550.92	2382.90
551.28	2392.32
551.64	2401.92
551.99	2410.56
552.35	2418.94
552.70	2427.21
553.06	2435.26
553.41	2443.73
553.77	2451.80
554.13	2459.86
554.48	2468.12
554.84	2475.83
555.19	2483.13
555.55	2490.36
555.90	2496.84
556.26	2503.71
556.61	2510.39
556.97	2516.64
557.32	2522.62
557.68	2528.66
558.03	2534.80
558.39	2540.30
558.74	2546.80
559.10	2552.40
559.45	2557.92
559.81	2563.93
560.16	2569.56
560.52	2574.48
560.87	2579.47
561.23	2583.71
561.58	2588.26
561.94	2592.26
562.29	2596.13
562.64	2600.44
563.00	2604.49
563.35	2609.71
563.71	2614.23
564.06	2618.90
564.42	2623.27
564.77	2627.25
565.12	2631.09
565.48	2634.27
565.83	2637.37
566.19	2639.94
566.54	2641.87
566.89	2644.24
567.25	2646.09
567.60	2648.51
567.96	2651.41
568.31	2653.42
568.66	2655.77
569.02	2657.44
569.37	2658.52
569.72	2660.35
570.08	2661.42
570.43	2662.26
570.78	2662.41
571.14	2661.68
571.49	2660.87
571.84	2661.26
572.20	2660.75
572.55	2660.20
572.90	2659.12
573.26	2658.44
573.61	2657.15
573.96	2655.97
574.31	2653.16
574.67	2650.32
575.02	2646.71
575.37	2643.48
575.72	2639.72
576.08	2636.32
576.43	2632.88
576.78	2629.49
577.13	2626.25
577.49	2623.12
577.84	2619.82
578.19	2615.93
578.54	2612.14
578.90	2607.91
579.25	2601.91
579.60	2596.63
579.95	2591.31
580.30	2585.98
580.66	2580.38
581.01	2574.90
581.36	2569.45
581.71	2565.05
582.06	2560.31
582.42	2555.58
582.77	2549.88
583.12	2544.99
583.47	2539.98
583.82	2534.68
584.17	2528.82
584.53	2522.78
584.88	2516.50
585.23	2510.07
585.58	2504.05
585.93	2498.02
586.28	2492.62
586.63	2486.98
586.98	2481.29
587.34	2475.99
587.69	2470.52
588.04	2464.67
588.39	2458.41
588.74	2450.97
589.09	2443.90
589.44	2436.11
589.79	2429.06
590.14	2422.60
590.49	2415.05
590.84	2407.61
591.19	2400.68
591.54	2393.29
591.89	2384.95
592.25	2377.24
592.60	2368.81
592.95	2360.17
593.30	2351.65
593.65	2342.90
594.00	2334.78
594.35	2326.41
594.70	2316.99
595.05	2308.73
595.40	2300.08
595.75	2291.25
596.10	2284.20
596.45	2276.51
596.80	2269.44
597.15	2262.02
597.50	2253.81
597.85	2246.15
598.19	2238.44
598.54	2230.23
598.89	2222.34
599.24	2215.38
599.59	2207.66
599.94	2200.29
600.29	2192.63
600.64	2184.75
600.99	2176.02
601.34	2167.93
601.69	2159.78
602.04	2151.79
602.39	2143.06
602.74	2134.96
603.08	2127.00
603.43	2118.85
603.78	2109.91
604.13	2101.16
604.48	2092.34
604.83	2084.10
605.18	2075.86
605.53	2066.36
605.87	2056.73
606.22	2048.07
606.57	2038.36
606.92	2029.31
607.27	2020.82
607.62	2012.58
607.96	2003.91
608.31	1995.99
608.66	1986.85
609.01	1977.76
609.36	1968.75
609.70	1959.15
610.05	1949.49
610.40	1940.35
610.75	1930.49
611.10	1921.34
611.44	1911.24
611.79	1901.66
612.14	1891.18
612.49	1880.26
612.83	1870.10
613.18	1860.33
613.53	1850.62
613.88	1840.47
614.22	1830.53
614.57	1820.22
614.92	1810.61
615.27	1801.70
615.61	1791.68
615.96	1782.09
616.31	1772.81
616.65	1763.82
617.00	1754.62
617.35	1745.40
617.70	1735.33
618.04	1725.05
618.39	1715.11
618.74	1705.94
619.08	1695.93
619.43	1686.80
619.78	1678.36
620.12	1669.89
620.47	1660.81
620.82	1650.99
621.16	1641.95
621.51	1632.78
621.85	1623.41
622.20	1613.06
622.55	1602.79
622.89	1593.21
623.24	1583.82
623.59	1574.82
623.93	1565.71
624.28	1557.02
624.62	1547.98
624.97	1539.26
625.32	1531.00
625.66	1522.56
626.01	1514.07
626.35	1505.06
626.70	1495.80
627.04	1486.47
627.39	1476.91
627.73	1467.87
628.08	1459.52
628.43	1451.00
628.77	1442.15
629.12	1433.09
629.46	1424.59
629.81	1415.57
630.15	1406.94
630.50	1397.99
630.84	1388.20
631.19	1378.57
631.53	1369.46
631.88	1360.36
632.22	1351.25
632.57	1342.51
632.91	1333.44
633.26	1324.42
633.60	1315.53
633.95	1306.89
634.29	1298.30
634.64	1290.26
634.98	1281.43
635.32	1272.81
635.67	1264.71
636.01	1256.72
636.36	1248.60
636.70	1240.56
637.05	1232.75
637.39	1224.91
637.73	1217.21
638.08	1210.06
638.42	1202.93
638.77	1195.17
639.11	1187.25
639.45	1179.61
639.80	1171.59
640.14	1163.93
640.49	1156.12
640.83	1148.61
641.17	1141.10
641.52	1133.67
641.86	1125.99
642.20	1119.04
642.55	1111.48
642.89	1103.80
643.23	1095.96
643.58	1089.13
643.92	1081.88
644.26	1074.71
644.61	1067.57
644.95	1060.46
645.29	1052.66
645.64	1044.72
645.98	1037.27
646.32	1030.29
646.66	1023.09
647.01	1016.29
647.35	1009.47
647.69	1002.53
648.04	995.97
648.38	989.20
648.72	982.09
649.06	974.93
649.41	967.97
649.75	960.92
650.09	953.84
650.43	947.00
650.78	939.55
651.12	932.55
651.46	925.70
651.80	918.88
652.14	912.40
652.49	906.09
652.83	899.91
653.17	893.23
653.51	886.50
653.85	880.12
654.20	873.50
654.54	866.42
654.88	859.60
655.22	852.62
655.56	845.81
655.90	839.34
656.25	833.18
656.59	826.87
656.93	820.78
657.27	814.70
657.61	808.30
657.95	802.36
658.29	796.29
658.64	790.07
658.98	783.81
659.32	777.40
659.66	771.23
660.00	764.88
660.34	759.05
660.68	753.18
661.02	747.23
661.36	741.64
661.70	736.32
662.05	731.19
662.39	726.07
662.73	720.77
663.07	715.61
663.41	710.30
663.75	704.97
664.09	699.63
664.43	694.42
664.77	689.56
665.11	684.59
665.45	679.64
665.79	674.87
666.13	670.03
666.47	665.22
666.81	660.38
667.15	655.65
667.49	650.99
667.83	646.55
668.17	641.90
668.51	637.06
668.85	632.29
669.19	627.62
669.53	623.17
669.87	618.68
670.21	614.30
670.55	610.00
670.89	605.91
671.23	601.86
671.57	597.67
671.91	593.49
672.25	589.26
672.58	585.12
672.92	581.07
673.26	577.29
673.60	573.50
673.94	569.69
674.28	566.23
674.62	562.76
674.96	559.10
675.30	555.66
675.64	552.23
675.97	548.95
676.31	545.72
676.65	542.19
676.99	538.95
677.33	535.60
677.67	532.26
678.01	528.71
678.34	525.23
678.68	521.83
679.02	518.50
679.36	515.27
679.70	512.05
680.04	508.82
680.37	505.40
680.71	502.15
681.05	499.16
681.39	495.92
681.73	492.74
682.06	489.77
682.40	486.79
682.74	483.83
683.08	480.80
683.42	477.72
683.75	474.79
684.09	471.80
684.43	468.85
684.77	466.00
685.10	463.23
685.44	460.48
685.78	457.79
686.12	455.15
686.45	452.42
686.79	449.74
687.13	447.12
687.46	444.55
687.80	442.00
688.14	439.33
688.48	436.89
688.81	434.25
689.15	431.65
689.49	429.08
689.82	426.56
690.16	424.07
690.50	421.71
690.83	419.43
691.17	417.07
691.51	414.85
691.84	412.63
692.18	410.39
692.52	408.09
692.85	405.80
693.19	403.56
693.52	401.38
693.86	399.21
694.20	397.03
694.53	394.92
694.87	392.73
695.21	390.62
695.54	388.46
695.88	386.40
696.21	384.37
696.55	382.36
696.88	380.39
697.22	378.43
697.56	376.47
697.89	374.50
698.23	372.59
698.56	370.66
698.90	368.76
699.23	366.80
699.57	364.97
699.90	363.15
700.24	361.34
700.58	359.54
700.91	357.80
701.25	356.13
701.58	354.49
701.92	352.87
702.25	351.26
702.59	349.65
702.92	348.11
703.26	346.57
703.59	345.06
703.93	343.64
704.26	342.22
704.60	340.73
704.93	339.23
705.26	337.76
705.60	336.36
705.93	335.00
706.27	333.79
706.60	332.51
706.94	331.27
707.27	329.90
707.61	328.64
707.94	327.40
708.27	326.11
708.61	324.85
708.94	323.66
709.28	322.49
709.61	321.32
709.94	320.19
710.28	318.97
710.61	317.80
710.95	316.50
711.28	315.35
711.61	314.17
711.95	313.06
712.28	311.96
712.61	310.83
712.95	309.71
713.28	308.65
713.61	307.56
713.95	306.49
714.28	305.53
714.61	304.47
714.95	303.49
715.28	302.46
715.61	301.42
715.95	300.38
716.28	299.35
716.61	298.35
716.95	297.35
717.28	296.48
717.61	295.62
717.94	294.76
718.28	293.86
718.61	293.05
718.94	292.22
719.27	291.44
719.61	290.68
719.94	289.92
720.27	289.03
720.60	288.23
720.94	287.42
721.27	286.71
721.60	286.07
721.93	285.33
722.27	284.67
722.60	284.03
722.93	283.36
723.26	282.72
723.59	282.07
723.93	281.42
724.26	280.76
724.59	280.03
724.92	279.43
725.25	278.80
725.59	278.19
725.92	277.60
726.25	276.97
726.58	276.34
726.91	275.71
727.24	275.13
727.57	274.59
727.91	274.02
728.24	273.44
728.57	272.84
728.90	272.30
729.23	271.73
729.56	271.15
729.89	270.58
730.22	269.99
730.55	269.43
730.89	268.90
731.22	268.39
731.55	267.91
731.88	267.35
732.21	266.87
732.54	266.33
732.87	265.81
733.20	265.31
733.53	264.84
733.86	264.41
734.19	263.96
734.52	263.50
734.85	263.12
735.18	262.61
735.51	262.15
735.84	261.72
736.17	261.31
736.50	260.87
736.83	260.59
737.16	260.20
737.49	259.84
737.82	259.41
738.15	258.99
738.48	258.58
738.81	258.19
739.14	257.80
739.47	257.41
739.80	257.03
740.13	256.69
740.46	256.30
740.79	255.89
741.12	255.51
741.45	255.16
741.78	254.74
742.11	254.40
742.44	254.03
742.77	253.70
743.10	253.34
743.43	253.01
743.75	252.60
744.08	252.38
744.41	252.07
744.74	251.75
745.07	251.37
745.40	251.07
745.73	250.79
746.06	250.43
746.39	250.14
746.71	249.80
747.04	249.47
747.37	249.16
747.70	248.88
748.03	248.59
748.36	248.32
748.68	248.05
749.01	247.77
749.34	247.45
749.67	247.15
750.00	246.87
750.33	246.66
750.65	246.37
750.98	245.98
751.31	245.70
751.64	245.44
751.97	245.29
752.29	245.02
752.62	244.73
752.95	244.49
753.28	244.22
753.60	244.05
753.93	243.84
754.26	243.63
754.59	243.38
754.91	243.11
755.24	242.89
755.57	242.67
755.90	242.45
756.22	242.27
756.55	242.04
756.88	241.80
757.20	241.52
757.53	241.32
757.86	241.16
758.19	240.98
758.51	240.79
758.84	240.54
759.17	240.36
759.49	240.14
759.82	240.02
760.15	239.88
760.47	239.68
760.80	239.49
761.13	239.35
761.45	239.17
761.78	239.00
762.11	238.81
762.43	238.64
762.76	238.49
763.08	238.30
763.41	238.13
763.74	238.00
764.06	237.84
764.39	237.65
764.71	237.46
765.04	237.28
765.37	237.14
765.69	236.99
766.02	236.78
766.34	236.67
766.67	236.49
767.00	236.36
767.32	236.27
767.65	236.17
767.97	235.99
768.30	235.85
768.62	235.73
768.95	235.60
769.27	235.44
769.60	235.30
769.92	235.20
770.25	235.08
770.57	234.95
770.90	234.83
771.22	234.72
771.55	234.60
771.87	234.47
772.20	234.39
772.52	234.36
772.85	234.40
773.17	234.28
773.50	234.15
773.82	234.03
774.15	233.85
774.47	233.70
774.80	233.57
775.12	233.48
775.45	233.43
775.77	233.31
776.09	233.23
776.42	233.15
776.74	233.09
777.07	232.98
777.39	232.89
777.72	232.81
778.04	232.71
778.36	232.63
778.69	232.55
779.01	232.49
779.33	232.34
779.66	232.18
779.98	232.10
780.31	232.07
780.63	232.02
780.95	231.98
781.28	231.89
781.60	231.83
781.92	231.76
782.25	231.65
782.57	231.57
782.89	231.49
783.22	231.42
783.54	231.32
783.86	231.28
784.19	231.19
784.51	231.14
784.83	231.09
785.16	231.03
785.48	231.00
785.80	230.88
786.12	230.83
786.45	230.78
