SpectraSuite Data File
++++++++++++++++++++++++++++++++++++
Date: Fri Feb 01 15:31:20 EST 2013
User: group
Dark Spectrum Present: No
Reference Spectrum Present: No
Number of Sampled Component Spectra: 1
Spectrometers: USB2E7196
Integration Time (usec): 35000 (USB2E7196)
Spectra Averaged: 100 (USB2E7196)
Boxcar Smoothing: 10 (USB2E7196)
Correct for Electrical Dark: No (USB2E7196)
Strobe/Lamp Enabled: No (USB2E7196)
Correct for Detector Non-linearity: No (USB2E7196)
Correct for Stray Light: No (USB2E7196)
Number of Pixels in Processed Spectrum: 2048
>>>>>Begin Processed Spectral Data<<<<<
339.09	0.00
339.48	215.08
339.86	216.87
340.24	217.98
340.63	219.35
341.01	222.72
341.39	221.98
341.78	222.83
342.16	225.05
342.54	225.10
342.93	213.65
343.31	224.46
343.69	225.00
344.07	225.48
344.46	225.91
344.84	226.31
345.22	226.53
345.60	226.79
345.99	227.02
346.37	227.16
346.75	227.30
347.13	227.33
347.52	227.37
347.90	227.44
348.28	227.49
348.66	227.56
349.05	227.56
349.43	227.59
349.81	227.62
350.19	227.67
350.57	227.73
350.96	227.78
351.34	227.89
351.72	227.99
352.10	228.07
352.48	228.15
352.87	228.18
353.25	228.23
353.63	228.30
354.01	228.36
354.39	228.39
354.77	228.44
355.15	228.55
355.54	228.62
355.92	228.64
356.30	228.67
356.68	228.79
357.06	228.83
357.44	228.89
357.82	228.96
358.20	229.01
358.58	229.06
358.97	229.13
359.35	229.15
359.73	229.22
360.11	229.25
360.49	229.30
360.87	229.33
361.25	229.43
361.63	229.47
362.01	229.52
362.39	229.54
362.77	229.56
363.15	229.54
363.53	229.55
363.91	229.57
364.29	229.61
364.67	229.53
365.05	229.56
365.43	229.57
365.81	229.57
366.19	229.62
366.57	229.64
366.95	229.64
367.33	229.59
367.71	229.56
368.09	229.54
368.47	229.48
368.85	229.43
369.23	229.41
369.61	229.35
369.99	229.31
370.37	229.31
370.75	229.32
371.13	229.27
371.51	229.21
371.89	229.13
372.27	229.05
372.65	229.01
373.03	228.95
373.41	228.86
373.78	228.79
374.16	228.69
374.54	228.60
374.92	228.50
375.30	228.49
375.68	228.44
376.06	228.37
376.44	228.33
376.82	228.28
377.19	228.17
377.57	228.09
377.95	228.01
378.33	227.91
378.71	227.79
379.09	227.71
379.47	227.64
379.84	227.57
380.22	227.48
380.60	227.39
380.98	227.31
381.36	227.25
381.73	227.16
382.11	227.08
382.49	227.01
382.87	226.92
383.25	226.83
383.62	226.86
384.00	226.78
384.38	226.73
384.76	226.69
385.13	226.68
385.51	226.62
385.89	226.56
386.27	226.51
386.64	226.49
387.02	226.46
387.40	226.43
387.78	226.43
388.15	226.44
388.53	226.42
388.91	226.39
389.29	226.37
389.66	226.37
390.04	226.37
390.42	226.38
390.79	226.39
391.17	226.39
391.55	226.30
391.92	226.31
392.30	226.32
392.68	226.30
393.05	226.32
393.43	226.32
393.81	226.38
394.18	226.39
394.56	226.42
394.94	226.49
395.31	226.49
395.69	226.57
396.06	226.62
396.44	226.69
396.82	226.76
397.19	226.85
397.57	226.88
397.95	226.97
398.32	227.00
398.70	227.09
399.07	227.16
399.45	227.21
399.82	227.29
400.20	227.33
400.58	227.43
400.95	227.47
401.33	227.58
401.70	227.73
402.08	227.84
402.45	227.92
402.83	228.01
403.20	228.13
403.58	228.20
403.95	228.31
404.33	228.45
404.71	228.55
405.08	228.74
405.46	228.89
405.83	229.04
406.21	229.19
406.58	229.34
406.96	229.50
407.33	229.69
407.70	229.88
408.08	230.16
408.45	230.39
408.83	230.63
409.20	230.88
409.58	231.05
409.95	231.31
410.33	231.58
410.70	231.83
411.08	232.14
411.45	232.47
411.82	232.78
412.20	233.11
412.57	233.53
412.95	233.77
413.32	234.21
413.69	234.59
414.07	235.01
414.44	235.48
414.82	235.97
415.19	236.49
415.56	237.06
415.94	237.60
416.31	238.20
416.68	238.83
417.06	239.49
417.43	240.17
417.81	240.89
418.18	241.67
418.55	242.48
418.93	243.36
419.30	244.23
419.67	245.15
420.04	246.13
420.42	247.11
420.79	248.34
421.16	249.44
421.54	250.63
421.91	251.83
422.28	253.06
422.66	254.36
423.03	255.66
423.40	256.98
423.77	258.36
424.15	259.81
424.52	261.31
424.89	262.94
425.26	264.48
425.64	265.97
426.01	267.54
426.38	269.22
426.75	270.85
427.13	272.58
427.50	274.37
427.87	276.22
428.24	278.10
428.61	279.82
428.99	281.77
429.36	283.86
429.73	285.98
430.10	287.99
430.47	290.08
430.85	292.19
431.22	294.49
431.59	296.92
431.96	299.15
432.33	301.65
432.70	304.02
433.08	306.84
433.45	309.51
433.82	312.12
434.19	315.01
434.56	317.87
434.93	320.56
435.30	323.21
435.68	326.13
436.05	328.95
436.42	331.78
436.79	334.32
437.16	337.06
437.53	339.90
437.90	342.77
438.27	345.51
438.64	348.45
439.01	351.06
439.38	353.31
439.75	355.48
440.13	357.96
440.50	360.30
440.87	362.17
441.24	364.10
441.61	366.27
441.98	367.79
442.35	369.60
442.72	371.43
443.09	373.25
443.46	374.26
443.83	374.87
444.20	375.34
444.57	376.19
444.94	376.46
445.31	376.82
445.68	377.15
446.05	377.26
446.42	376.81
446.79	376.32
447.16	375.86
447.53	375.55
447.90	374.37
448.27	373.23
448.64	371.59
449.01	370.47
449.37	368.49
449.74	366.57
450.11	364.30
450.48	361.84
450.85	359.30
451.22	357.10
451.59	355.04
451.96	353.13
452.33	350.51
452.70	348.17
453.07	345.31
453.43	342.43
453.80	339.63
454.17	336.94
454.54	334.40
454.91	331.65
455.28	328.95
455.65	326.51
456.02	324.03
456.38	321.91
456.75	319.24
457.12	316.99
457.49	314.80
457.86	312.61
458.23	310.73
458.59	308.67
458.96	306.59
459.33	304.77
459.70	302.86
460.07	301.35
460.43	299.61
460.80	297.97
461.17	296.50
461.54	294.97
461.91	293.53
462.27	292.08
462.64	290.85
463.01	289.49
463.38	288.14
463.74	286.79
464.11	285.63
464.48	284.59
464.85	283.47
465.21	282.59
465.58	281.65
465.95	280.53
466.32	279.58
466.68	278.67
467.05	277.73
467.42	276.84
467.78	275.91
468.15	275.04
468.52	274.39
468.88	273.50
469.25	272.73
469.62	272.07
469.98	271.38
470.35	270.72
470.72	270.16
471.08	269.49
471.45	268.92
471.82	268.34
472.18	267.70
472.55	267.25
472.92	266.69
473.28	266.22
473.65	265.80
474.02	265.36
474.38	265.00
474.75	264.71
475.11	264.38
475.48	264.08
475.85	263.84
476.21	263.61
476.58	263.41
476.94	263.27
477.31	263.12
477.67	263.00
478.04	262.88
478.41	262.82
478.77	262.89
479.14	262.81
479.50	262.83
479.87	262.90
480.23	263.00
480.60	263.13
480.96	263.25
481.33	263.46
481.69	263.67
482.06	263.85
482.42	264.05
482.79	264.26
483.15	264.60
483.52	264.98
483.88	265.29
484.25	265.72
484.61	266.17
484.98	266.65
485.34	267.18
485.71	267.82
486.07	268.40
486.44	268.93
486.80	269.65
487.17	270.39
487.53	271.24
487.90	272.09
488.26	273.04
488.62	274.02
488.99	275.00
489.35	276.06
489.72	277.21
490.08	278.44
490.44	279.74
490.81	281.10
491.17	282.49
491.54	284.02
491.90	285.55
492.26	287.19
492.63	288.93
492.99	290.74
493.36	292.63
493.72	294.65
494.08	296.82
494.45	299.06
494.81	301.42
495.17	303.85
495.54	306.38
495.90	309.04
496.26	311.87
496.63	314.83
496.99	317.92
497.35	321.24
497.72	324.64
498.08	328.17
498.44	331.79
498.80	335.69
499.17	339.75
499.53	343.92
499.89	348.33
500.26	352.80
500.62	357.44
500.98	362.40
501.34	367.49
501.71	372.80
502.07	378.26
502.43	383.86
502.79	389.69
503.16	395.76
503.52	402.04
503.88	408.39
504.24	415.02
504.60	421.98
504.97	429.07
505.33	436.39
505.69	444.08
506.05	451.85
506.41	459.75
506.78	467.90
507.14	476.34
507.50	484.99
507.86	494.03
508.22	503.26
508.59	512.37
508.95	521.98
509.31	531.78
509.67	541.82
510.03	552.12
510.39	562.66
510.75	573.47
511.12	584.40
511.48	595.72
511.84	607.17
512.20	618.68
512.56	630.70
512.92	642.86
513.28	655.17
513.64	667.68
514.00	680.34
514.37	693.20
514.73	706.27
515.09	719.30
515.45	732.59
515.81	746.22
516.17	760.35
516.53	774.44
516.89	788.65
517.25	802.87
517.61	817.36
517.97	831.95
518.33	846.49
518.69	861.30
519.05	876.38
519.41	891.52
519.77	907.08
520.13	922.53
520.49	937.96
520.85	953.42
521.21	969.13
521.57	985.47
521.93	1001.34
522.29	1017.83
522.65	1034.18
523.01	1050.43
523.37	1066.49
523.73	1082.69
524.09	1098.80
524.45	1115.22
524.81	1131.89
525.17	1148.79
525.53	1165.66
525.89	1182.54
526.25	1199.39
526.61	1215.75
526.97	1232.61
527.33	1249.16
527.68	1265.74
528.04	1282.32
528.40	1299.06
528.76	1316.28
529.12	1332.93
529.48	1349.80
529.84	1365.88
530.20	1382.67
530.56	1399.82
530.91	1417.25
531.27	1434.09
531.63	1450.62
531.99	1467.25
532.35	1483.34
532.71	1499.15
533.07	1515.53
533.42	1531.45
533.78	1547.56
534.14	1563.94
534.50	1579.30
534.86	1595.18
535.21	1610.42
535.57	1626.24
535.93	1641.70
536.29	1656.43
536.65	1671.54
537.00	1686.57
537.36	1701.94
537.72	1716.42
538.08	1730.92
538.44	1744.88
538.79	1758.75
539.15	1772.54
539.51	1786.40
539.87	1800.81
540.22	1814.71
540.58	1828.47
540.94	1842.03
541.29	1855.03
541.65	1867.81
542.01	1881.27
542.37	1893.60
542.72	1906.11
543.08	1918.04
543.44	1930.45
543.79	1941.81
544.15	1952.79
544.51	1964.18
544.87	1975.20
545.22	1985.93
545.58	1996.07
545.94	2005.84
546.29	2015.80
546.65	2025.69
547.01	2034.86
547.36	2043.55
547.72	2052.03
548.07	2059.89
548.43	2067.98
548.79	2075.99
549.14	2083.51
549.50	2090.85
549.86	2098.74
550.21	2106.07
550.57	2113.37
550.92	2119.97
551.28	2126.94
551.64	2134.20
551.99	2140.80
552.35	2146.91
552.70	2153.16
553.06	2159.12
553.41	2165.47
553.77	2171.50
554.13	2177.63
554.48	2183.76
554.84	2189.21
555.19	2194.57
555.55	2199.66
555.90	2204.02
556.26	2208.82
556.61	2213.61
556.97	2217.69
557.32	2221.67
557.68	2225.69
558.03	2230.00
558.39	2233.73
558.74	2238.46
559.10	2242.14
559.45	2245.71
559.81	2250.18
560.16	2254.10
560.52	2257.32
560.87	2260.77
561.23	2263.44
561.58	2266.31
561.94	2268.76
562.29	2271.21
562.64	2273.84
563.00	2276.53
563.35	2280.12
563.71	2283.37
564.06	2286.47
564.42	2289.29
564.77	2291.77
565.12	2293.98
565.48	2295.71
565.83	2297.49
566.19	2298.73
566.54	2299.74
566.89	2300.99
567.25	2301.28
567.60	2302.50
567.96	2304.22
568.31	2305.08
568.66	2306.10
569.02	2306.67
569.37	2306.97
569.72	2307.62
570.08	2307.61
570.43	2307.67
570.78	2306.84
571.14	2305.30
571.49	2304.16
571.84	2303.81
572.20	2302.52
572.55	2301.59
572.90	2299.95
573.26	2298.62
573.61	2296.83
573.96	2294.91
574.31	2291.79
574.67	2288.80
575.02	2285.20
575.37	2281.79
575.72	2277.80
576.08	2274.50
576.43	2271.20
576.78	2267.50
577.13	2264.44
577.49	2261.46
577.84	2257.76
578.19	2254.11
578.54	2250.31
578.90	2245.80
579.25	2240.24
579.60	2235.29
579.95	2230.26
580.30	2225.24
580.66	2219.99
581.01	2215.03
581.36	2210.05
581.71	2205.82
582.06	2201.44
582.42	2196.77
582.77	2191.42
583.12	2186.76
583.47	2181.88
583.82	2176.62
584.17	2171.19
584.53	2165.62
584.88	2159.76
585.23	2153.94
585.58	2148.45
585.93	2142.94
586.28	2138.13
586.63	2133.07
586.98	2127.83
587.34	2123.03
587.69	2118.09
588.04	2112.82
588.39	2107.02
588.74	2100.52
589.09	2094.29
589.44	2087.43
589.79	2081.46
590.14	2075.86
590.49	2069.25
590.84	2062.77
591.19	2056.90
591.54	2050.49
591.89	2042.99
592.25	2036.12
592.60	2028.78
592.95	2021.09
593.30	2013.67
593.65	2005.95
594.00	1998.83
594.35	1991.62
594.70	1983.49
595.05	1976.07
595.40	1968.56
595.75	1961.05
596.10	1954.74
596.45	1947.99
596.80	1941.58
597.15	1934.78
597.50	1927.51
597.85	1921.01
598.19	1914.46
598.54	1907.14
598.89	1900.62
599.24	1894.71
599.59	1887.98
599.94	1881.86
600.29	1875.54
600.64	1868.86
600.99	1861.35
601.34	1854.30
601.69	1847.21
602.04	1840.24
602.39	1832.93
602.74	1826.11
603.08	1819.34
603.43	1812.61
603.78	1805.21
604.13	1798.06
604.48	1790.70
604.83	1783.89
605.18	1776.77
605.53	1768.55
605.87	1760.48
606.22	1752.99
606.57	1745.01
606.92	1737.73
607.27	1730.47
607.62	1723.42
607.96	1716.07
608.31	1709.52
608.66	1701.96
609.01	1694.51
609.36	1686.97
609.70	1678.92
610.05	1670.81
610.40	1663.00
610.75	1654.66
611.10	1647.09
611.44	1638.68
611.79	1630.75
612.14	1621.98
612.49	1612.97
612.83	1604.59
613.18	1596.56
613.53	1588.64
613.88	1580.11
614.22	1571.78
614.57	1563.18
614.92	1555.12
615.27	1547.67
615.61	1539.24
615.96	1531.31
616.31	1523.64
616.65	1516.29
617.00	1508.80
617.35	1501.20
617.70	1492.89
618.04	1484.30
618.39	1476.00
618.74	1468.35
619.08	1460.08
619.43	1452.58
619.78	1445.63
620.12	1438.51
620.47	1430.94
620.82	1422.72
621.16	1415.37
621.51	1407.77
621.85	1400.14
622.20	1391.59
622.55	1383.15
622.89	1375.30
623.24	1367.63
623.59	1360.30
623.93	1352.77
624.28	1345.55
624.62	1337.99
624.97	1330.85
625.32	1324.23
625.66	1317.23
626.01	1309.96
626.35	1302.39
626.70	1294.61
627.04	1286.93
627.39	1279.17
627.73	1271.77
628.08	1264.75
628.43	1257.26
628.77	1249.92
629.12	1242.38
629.46	1235.23
629.81	1227.80
630.15	1220.60
630.50	1213.14
630.84	1204.97
631.19	1197.13
631.53	1189.53
631.88	1182.08
632.22	1174.55
632.57	1167.22
632.91	1159.71
633.26	1152.35
633.60	1145.05
633.95	1137.92
634.29	1130.89
634.64	1124.20
634.98	1116.78
635.32	1109.67
635.67	1103.20
636.01	1096.46
636.36	1089.57
636.70	1083.15
637.05	1076.68
637.39	1070.23
637.73	1063.78
638.08	1057.95
638.42	1051.93
638.77	1045.53
639.11	1038.81
639.45	1032.28
639.80	1025.56
640.14	1019.06
640.49	1012.53
640.83	1006.32
641.17	1000.08
641.52	993.75
641.86	987.27
642.20	981.49
642.55	975.28
642.89	968.74
643.23	962.33
643.58	956.61
643.92	950.34
644.26	944.26
644.61	938.20
644.95	932.17
645.29	925.36
645.64	918.51
645.98	912.18
646.32	906.44
646.66	900.49
647.01	894.69
647.35	888.98
647.69	883.20
648.04	877.65
648.38	871.85
648.72	865.73
649.06	859.74
649.41	853.87
649.75	847.82
650.09	841.85
650.43	836.00
650.78	829.84
651.12	823.97
651.46	818.20
651.80	812.50
652.14	807.03
652.49	801.74
652.83	796.54
653.17	790.84
653.51	785.10
653.85	779.69
654.20	774.00
654.54	768.06
654.88	762.22
655.22	756.26
655.56	750.61
655.90	745.14
656.25	739.84
656.59	734.45
656.93	729.37
657.27	724.21
657.61	718.77
657.95	713.65
658.29	708.48
658.64	703.28
658.98	697.91
659.32	692.44
659.66	687.24
660.00	682.04
660.34	677.08
660.68	672.21
661.02	667.21
661.36	662.55
661.70	658.04
662.05	653.74
662.39	649.47
662.73	645.05
663.07	640.76
663.41	636.31
663.75	631.83
664.09	627.22
664.43	622.92
664.77	618.88
665.11	614.67
665.45	610.55
665.79	606.49
666.13	602.41
666.47	598.43
666.81	594.28
667.15	590.14
667.49	586.29
667.83	582.44
668.17	578.55
668.51	574.44
668.85	570.42
669.19	566.57
669.53	562.70
669.87	558.73
670.21	554.98
670.55	551.34
670.89	547.94
671.23	544.47
671.57	540.89
671.91	537.26
672.25	533.78
672.58	530.32
672.92	526.85
673.26	523.76
673.60	520.55
673.94	517.48
674.28	514.59
674.62	511.65
674.96	508.54
675.30	505.54
675.64	502.67
675.97	499.94
676.31	497.12
676.65	494.26
676.99	491.60
677.33	488.79
677.67	485.99
678.01	482.89
678.34	479.94
678.68	477.16
679.02	474.39
679.36	471.66
679.70	468.97
680.04	466.24
680.37	463.26
680.71	460.45
681.05	457.84
681.39	455.09
681.73	452.42
682.06	449.93
682.40	447.43
682.74	444.90
683.08	442.29
683.42	439.63
683.75	437.12
684.09	434.59
684.43	432.12
684.77	429.69
685.10	427.37
685.44	425.09
685.78	422.72
686.12	420.52
686.45	418.21
686.79	415.90
687.13	413.76
687.46	411.65
687.80	409.55
688.14	407.32
688.48	405.29
688.81	403.04
689.15	400.84
689.49	398.75
689.82	396.66
690.16	394.60
690.50	392.64
690.83	390.66
691.17	388.62
691.51	386.68
691.84	384.80
692.18	382.83
692.52	380.88
692.85	379.00
693.19	377.06
693.52	375.26
693.86	373.44
694.20	371.59
694.53	369.79
694.87	367.90
695.21	366.13
695.54	364.30
695.88	362.59
696.21	360.88
696.55	359.13
696.88	357.43
697.22	355.84
697.56	354.22
697.89	352.56
698.23	351.02
698.56	349.42
698.90	347.81
699.23	346.20
699.57	344.62
699.90	343.08
700.24	341.57
700.58	339.96
700.91	338.45
701.25	337.04
701.58	335.65
701.92	334.33
702.25	332.91
702.59	331.54
702.92	330.23
703.26	328.92
703.59	327.62
703.93	326.47
704.26	325.20
704.60	323.93
704.93	322.67
705.26	321.40
705.60	320.23
705.93	319.07
706.27	318.05
706.60	317.00
706.94	315.91
707.27	314.79
707.61	313.78
707.94	312.78
708.27	311.69
708.61	310.65
708.94	309.62
709.28	308.66
709.61	307.72
709.94	306.76
710.28	305.74
710.61	304.80
710.95	303.73
711.28	302.80
711.61	301.88
711.95	300.96
712.28	299.99
712.61	299.01
712.95	298.08
713.28	297.20
713.61	296.31
713.95	295.42
714.28	294.57
714.61	293.71
714.95	292.85
715.28	291.95
715.61	291.06
715.95	290.23
716.28	289.40
716.61	288.55
716.95	287.77
717.28	287.03
717.61	286.25
717.94	285.51
718.28	284.74
718.61	284.03
718.94	283.34
719.27	282.67
719.61	282.07
719.94	281.45
720.27	280.74
720.60	280.05
720.94	279.45
721.27	278.90
721.60	278.34
721.93	277.78
722.27	277.28
722.60	276.75
722.93	276.18
723.26	275.65
723.59	275.11
723.93	274.55
724.26	274.02
724.59	273.49
724.92	272.97
725.25	272.46
725.59	271.91
725.92	271.38
726.25	270.88
726.58	270.36
726.91	269.84
727.24	269.40
727.57	268.98
727.91	268.45
728.24	267.94
728.57	267.45
728.90	266.95
729.23	266.47
729.56	266.06
729.89	265.61
730.22	265.10
730.55	264.64
730.89	264.17
731.22	263.71
731.55	263.28
731.88	262.87
732.21	262.47
732.54	262.05
732.87	261.65
733.20	261.29
733.53	260.89
733.86	260.55
734.19	260.14
734.52	259.74
734.85	259.48
735.18	259.05
735.51	258.68
735.84	258.32
736.17	257.94
736.50	257.53
736.83	257.32
737.16	256.98
737.49	256.67
737.82	256.32
738.15	256.02
738.48	255.67
738.81	255.32
739.14	254.99
739.47	254.65
739.80	254.29
740.13	254.00
740.46	253.67
740.79	253.29
741.12	252.98
741.45	252.66
741.78	252.30
742.11	252.07
742.44	251.75
742.77	251.46
743.10	251.17
743.43	250.82
743.75	250.41
744.08	250.29
744.41	250.00
744.74	249.75
745.07	249.42
745.40	249.16
745.73	248.94
746.06	248.62
746.39	248.38
746.71	248.14
747.04	247.87
747.37	247.60
747.70	247.35
748.03	247.07
748.36	246.83
748.68	246.57
749.01	246.27
749.34	246.03
749.67	245.81
750.00	245.55
750.33	245.43
750.65	245.17
750.98	244.81
751.31	244.58
751.64	244.36
751.97	244.22
752.29	243.98
752.62	243.75
752.95	243.55
753.28	243.34
753.60	243.14
753.93	242.94
754.26	242.77
754.59	242.57
754.91	242.38
755.24	242.17
755.57	241.98
755.90	241.81
756.22	241.61
756.55	241.41
756.88	241.24
757.20	240.98
757.53	240.82
757.86	240.67
758.19	240.53
758.51	240.41
758.84	240.15
759.17	240.03
759.49	239.86
759.82	239.75
760.15	239.61
760.47	239.47
760.80	239.27
761.13	239.14
761.45	238.99
761.78	238.86
762.11	238.71
762.43	238.59
762.76	238.49
763.08	238.39
763.41	238.30
763.74	238.22
764.06	238.11
764.39	237.98
764.71	237.84
765.04	237.69
765.37	237.52
765.69	237.43
766.02	237.30
766.34	237.18
766.67	237.04
767.00	236.96
767.32	236.90
767.65	236.90
767.97	236.77
768.30	236.69
768.62	236.58
768.95	236.48
769.27	236.40
769.60	236.27
769.92	236.14
770.25	235.99
770.57	235.84
770.90	235.72
771.22	235.62
771.55	235.51
771.87	235.45
772.20	235.37
772.52	235.37
772.85	235.39
773.17	235.32
773.50	235.19
773.82	235.06
774.15	234.91
774.47	234.76
774.80	234.68
775.12	234.58
775.45	234.50
775.77	234.43
776.09	234.32
776.42	234.25
776.74	234.17
777.07	234.08
777.39	234.03
777.72	233.96
778.04	233.92
778.36	233.84
778.69	233.76
779.01	233.67
779.33	233.46
779.66	233.29
779.98	233.24
780.31	233.20
780.63	233.18
780.95	233.15
781.28	233.02
781.60	232.92
781.92	232.82
782.25	232.74
782.57	232.69
782.89	232.60
783.22	232.52
783.54	232.46
783.86	232.39
784.19	232.31
784.51	232.27
784.83	232.15
785.16	232.11
785.48	232.05
785.80	232.00
786.12	231.99
786.45	231.94
786.77	231.86
787.09	231.77
