SpectraSuite Data File
++++++++++++++++++++++++++++++++++++
Date: Fri Feb 01 17:14:06 EST 2013
User: group
Dark Spectrum Present: No
Reference Spectrum Present: No
Number of Sampled Component Spectra: 1
Spectrometers: USB2E7196
Integration Time (usec): 35000 (USB2E7196)
Spectra Averaged: 100 (USB2E7196)
Boxcar Smoothing: 10 (USB2E7196)
Correct for Electrical Dark: No (USB2E7196)
Strobe/Lamp Enabled: No (USB2E7196)
Correct for Detector Non-linearity: No (USB2E7196)
Correct for Stray Light: No (USB2E7196)
Number of Pixels in Processed Spectrum: 2048
>>>>>Begin Processed Spectral Data<<<<<
339.09	0.00
339.48	213.71
339.86	214.07
340.24	216.72
340.63	217.56
341.01	220.48
341.39	220.04
341.78	221.84
342.16	222.09
342.54	223.15
342.93	211.63
343.31	222.34
343.69	222.86
344.07	223.34
344.46	223.73
344.84	224.11
345.22	224.32
345.60	224.59
345.99	224.75
346.37	224.89
346.75	224.98
347.13	225.08
347.52	225.13
347.90	225.22
348.28	225.24
348.66	225.26
349.05	225.24
349.43	225.29
349.81	225.32
350.19	225.35
350.57	225.37
350.96	225.42
351.34	225.48
351.72	225.57
352.10	225.65
352.48	225.74
352.87	225.76
353.25	225.84
353.63	225.91
354.01	226.00
354.39	226.06
354.77	226.13
355.15	226.21
355.54	226.28
355.92	226.32
356.30	226.38
356.68	226.57
357.06	226.63
357.44	226.69
357.82	226.74
358.20	226.81
358.58	226.90
358.97	227.00
359.35	227.09
359.73	227.16
360.11	227.25
360.49	227.29
360.87	227.38
361.25	227.44
361.63	227.52
362.01	227.56
362.39	227.60
362.77	227.66
363.15	227.72
363.53	227.74
363.91	227.80
364.29	227.84
364.67	227.76
365.05	227.81
365.43	227.81
365.81	227.88
366.19	227.91
366.57	227.95
366.95	227.93
367.33	227.90
367.71	227.88
368.09	227.88
368.47	227.87
368.85	227.84
369.23	227.83
369.61	227.73
369.99	227.74
370.37	227.75
370.75	227.78
371.13	227.73
371.51	227.70
371.89	227.66
372.27	227.64
372.65	227.60
373.03	227.56
373.41	227.51
373.78	227.41
374.16	227.35
374.54	227.27
374.92	227.19
375.30	227.13
375.68	227.08
376.06	227.02
376.44	226.96
376.82	226.90
377.19	226.81
377.57	226.79
377.95	226.67
378.33	226.61
378.71	226.47
379.09	226.43
379.47	226.35
379.84	226.27
380.22	226.17
380.60	226.09
380.98	226.03
381.36	225.98
381.73	225.91
382.11	225.88
382.49	225.79
382.87	225.74
383.25	225.68
383.62	225.72
384.00	225.60
384.38	225.56
384.76	225.56
385.13	225.55
385.51	225.50
385.89	225.43
386.27	225.37
386.64	225.33
387.02	225.23
387.40	225.20
387.78	225.17
388.15	225.17
388.53	225.13
388.91	225.06
389.29	225.04
389.66	225.07
390.04	225.01
390.42	225.01
390.79	224.97
391.17	224.97
391.55	224.86
391.92	224.86
392.30	224.87
392.68	224.85
393.05	224.85
393.43	224.83
393.81	224.87
394.18	224.87
394.56	224.90
394.94	224.98
395.31	225.00
395.69	225.05
396.06	225.05
396.44	225.09
396.82	225.15
397.19	225.19
397.57	225.20
397.95	225.29
398.32	225.30
398.70	225.41
399.07	225.45
399.45	225.50
399.82	225.60
400.20	225.63
400.58	225.66
400.95	225.68
401.33	225.78
401.70	225.93
402.08	226.01
402.45	226.11
402.83	226.18
403.20	226.27
403.58	226.33
403.95	226.44
404.33	226.55
404.71	226.68
405.08	226.87
405.46	227.00
405.83	227.10
406.21	227.26
406.58	227.38
406.96	227.55
407.33	227.73
407.70	227.92
408.08	228.17
408.45	228.41
408.83	228.63
409.20	228.83
409.58	229.01
409.95	229.27
410.33	229.54
410.70	229.82
411.08	230.11
411.45	230.44
411.82	230.77
412.20	231.12
412.57	231.53
412.95	231.80
413.32	232.24
413.69	232.66
414.07	233.12
414.44	233.61
414.82	234.11
415.19	234.68
415.56	235.22
415.94	235.80
416.31	236.46
416.68	237.12
417.06	237.87
417.43	238.57
417.81	239.41
418.18	240.20
418.55	241.03
418.93	241.95
419.30	242.89
419.67	243.84
420.04	244.81
420.42	245.80
420.79	247.04
421.16	248.21
421.54	249.44
421.91	250.66
422.28	251.93
422.66	253.31
423.03	254.61
423.40	255.97
423.77	257.37
424.15	258.82
424.52	260.36
424.89	262.00
425.26	263.57
425.64	264.99
426.01	266.60
426.38	268.32
426.75	270.00
427.13	271.71
427.50	273.55
427.87	275.49
428.24	277.40
428.61	279.14
428.99	281.07
429.36	283.22
429.73	285.28
430.10	287.33
430.47	289.40
430.85	291.56
431.22	293.80
431.59	296.21
431.96	298.48
432.33	300.98
432.70	303.37
433.08	306.22
433.45	308.90
433.82	311.50
434.19	314.43
434.56	317.29
434.93	320.00
435.30	322.69
435.68	325.65
436.05	328.54
436.42	331.40
436.79	333.97
437.16	336.72
437.53	339.63
437.90	342.47
438.27	345.28
438.64	348.14
439.01	350.78
439.38	353.07
439.75	355.25
440.13	357.80
440.50	360.17
440.87	362.06
441.24	364.09
441.61	366.30
441.98	367.76
442.35	369.59
442.72	371.51
443.09	373.34
443.46	374.31
443.83	374.91
444.20	375.48
444.57	376.35
444.94	376.62
445.31	376.94
445.68	377.34
446.05	377.41
446.42	377.05
446.79	376.69
447.16	376.27
447.53	375.94
447.90	374.75
448.27	373.60
448.64	371.97
449.01	370.78
449.37	368.79
449.74	366.88
450.11	364.64
450.48	362.11
450.85	359.52
451.22	357.31
451.59	355.24
451.96	353.19
452.33	350.53
452.70	348.12
453.07	345.29
453.43	342.35
453.80	339.54
454.17	336.81
454.54	334.19
454.91	331.44
455.28	328.76
455.65	326.22
456.02	323.72
456.38	321.54
456.75	318.85
457.12	316.56
457.49	314.32
457.86	312.08
458.23	310.17
458.59	308.11
458.96	306.02
459.33	304.15
459.70	302.28
460.07	300.76
460.43	299.00
460.80	297.32
461.17	295.82
461.54	294.30
461.91	292.84
462.27	291.38
462.64	290.03
463.01	288.64
463.38	287.33
463.74	285.95
464.11	284.76
464.48	283.71
464.85	282.59
465.21	281.74
465.58	280.80
465.95	279.71
466.32	278.79
466.68	277.86
467.05	276.95
467.42	276.02
467.78	275.05
468.15	274.20
468.52	273.53
468.88	272.67
469.25	271.87
469.62	271.22
469.98	270.54
470.35	269.96
470.72	269.35
471.08	268.72
471.45	268.19
471.82	267.66
472.18	267.04
472.55	266.61
472.92	266.04
473.28	265.60
473.65	265.18
474.02	264.74
474.38	264.40
474.75	264.09
475.11	263.79
475.48	263.58
475.85	263.35
476.21	263.14
476.58	262.99
476.94	262.88
477.31	262.75
477.67	262.59
478.04	262.48
478.41	262.40
478.77	262.40
479.14	262.32
479.50	262.34
479.87	262.40
480.23	262.48
480.60	262.53
480.96	262.63
481.33	262.82
481.69	262.98
482.06	263.15
482.42	263.35
482.79	263.53
483.15	263.82
483.52	264.16
483.88	264.50
484.25	264.83
484.61	265.23
484.98	265.67
485.34	266.19
485.71	266.76
486.07	267.38
486.44	267.93
486.80	268.60
487.17	269.31
487.53	270.13
487.90	270.95
488.26	271.89
488.62	272.85
488.99	273.79
489.35	274.85
489.72	275.98
490.08	277.14
490.44	278.49
490.81	279.82
491.17	281.22
491.54	282.71
491.90	284.28
492.26	285.95
492.63	287.67
492.99	289.49
493.36	291.37
493.72	293.45
494.08	295.57
494.45	297.80
494.81	300.14
495.17	302.57
495.54	305.14
495.90	307.86
496.26	310.63
496.63	313.59
496.99	316.69
497.35	319.88
497.72	323.32
498.08	326.77
498.44	330.39
498.80	334.28
499.17	338.31
499.53	342.46
499.89	346.78
500.26	351.28
500.62	355.87
500.98	360.80
501.34	365.85
501.71	371.11
502.07	376.55
502.43	382.15
502.79	387.88
503.16	393.90
503.52	400.10
503.88	406.44
504.24	413.05
504.60	419.88
504.97	426.99
505.33	434.18
505.69	441.86
506.05	449.57
506.41	457.32
506.78	465.37
507.14	473.70
507.50	482.31
507.86	491.21
508.22	500.37
508.59	509.43
508.95	518.92
509.31	528.62
509.67	538.59
510.03	548.83
510.39	559.34
510.75	570.00
511.12	580.74
511.48	591.91
511.84	603.13
512.20	614.48
512.56	626.30
512.92	638.33
513.28	650.47
513.64	662.70
514.00	675.28
514.37	688.10
514.73	700.98
515.09	713.86
515.45	726.97
515.81	740.34
516.17	754.23
516.53	768.11
516.89	782.13
517.25	796.06
517.61	810.23
517.97	824.41
518.33	838.56
518.69	853.15
519.05	867.85
519.41	882.87
519.77	898.11
520.13	913.25
520.49	928.44
520.85	943.58
521.21	959.06
521.57	974.96
521.93	990.38
522.29	1006.43
522.65	1022.42
523.01	1038.28
523.37	1054.07
523.73	1069.85
524.09	1085.67
524.45	1101.56
524.81	1117.92
525.17	1134.32
525.53	1151.01
525.89	1167.58
526.25	1184.11
526.61	1200.18
526.97	1216.67
527.33	1232.90
527.68	1249.11
528.04	1265.31
528.40	1281.51
528.76	1298.29
529.12	1314.66
529.48	1331.29
529.84	1347.04
530.20	1363.27
530.56	1379.89
530.91	1396.85
531.27	1413.40
531.63	1429.53
531.99	1445.85
532.35	1461.62
532.71	1477.28
533.07	1493.13
533.42	1508.81
533.78	1524.64
534.14	1540.59
534.50	1555.50
534.86	1571.12
535.21	1586.11
535.57	1601.58
535.93	1616.81
536.29	1631.19
536.65	1645.90
537.00	1660.29
537.36	1675.28
537.72	1689.51
538.08	1703.62
538.44	1717.16
538.79	1730.72
539.15	1744.00
539.51	1757.47
539.87	1771.45
540.22	1784.87
540.58	1798.27
540.94	1811.17
541.29	1823.64
541.65	1836.02
542.01	1849.09
542.37	1861.21
542.72	1873.41
543.08	1885.17
543.44	1897.38
543.79	1908.62
544.15	1919.44
544.51	1930.98
544.87	1941.83
545.22	1952.80
545.58	1963.10
545.94	1972.91
546.29	1982.88
546.65	1992.93
547.01	2002.27
547.36	2011.02
547.72	2019.65
548.07	2027.93
548.43	2036.18
548.79	2044.26
549.14	2052.05
549.50	2059.24
549.86	2066.76
550.21	2074.23
550.57	2081.56
550.92	2088.37
551.28	2095.58
551.64	2102.84
551.99	2109.45
552.35	2115.80
552.70	2122.02
553.06	2128.22
553.41	2134.84
553.77	2140.77
554.13	2146.88
554.48	2153.12
554.84	2159.05
555.19	2164.34
555.55	2169.54
555.90	2174.40
556.26	2179.66
556.61	2184.66
556.97	2189.63
557.32	2194.21
557.68	2198.62
558.03	2203.04
558.39	2206.74
558.74	2211.47
559.10	2215.48
559.45	2219.37
559.81	2223.85
560.16	2227.71
560.52	2231.15
560.87	2234.67
561.23	2237.72
561.58	2240.82
561.94	2243.62
562.29	2245.94
562.64	2249.15
563.00	2251.94
563.35	2255.68
563.71	2259.00
564.06	2262.07
564.42	2265.04
564.77	2267.91
565.12	2270.56
565.48	2272.79
565.83	2275.11
566.19	2276.90
566.54	2278.06
566.89	2279.63
567.25	2280.61
567.60	2282.29
567.96	2284.32
568.31	2285.48
568.66	2286.89
569.02	2287.80
569.37	2288.46
569.72	2289.62
570.08	2290.04
570.43	2290.33
570.78	2289.99
571.14	2288.75
571.49	2287.82
571.84	2287.57
572.20	2286.64
572.55	2285.73
572.90	2284.35
573.26	2283.40
573.61	2281.70
573.96	2280.42
574.31	2277.72
574.67	2274.98
575.02	2271.45
575.37	2268.37
575.72	2264.95
576.08	2261.62
576.43	2258.44
576.78	2255.13
577.13	2252.04
577.49	2248.88
577.84	2245.69
578.19	2242.04
578.54	2238.72
578.90	2235.11
579.25	2230.02
579.60	2225.33
579.95	2220.67
580.30	2215.94
580.66	2210.86
581.01	2206.18
581.36	2201.30
581.71	2197.49
582.06	2193.46
582.42	2189.60
582.77	2184.43
583.12	2180.06
583.47	2175.91
583.82	2171.31
584.17	2166.26
584.53	2161.17
584.88	2155.86
585.23	2150.48
585.58	2145.40
585.93	2140.01
586.28	2135.13
586.63	2130.33
586.98	2125.46
587.34	2120.72
587.69	2115.85
588.04	2110.93
588.39	2105.51
588.74	2099.18
589.09	2092.92
589.44	2086.31
589.79	2080.18
590.14	2074.69
590.49	2068.18
590.84	2061.81
591.19	2056.02
591.54	2049.65
591.89	2042.61
592.25	2036.29
592.60	2029.07
592.95	2021.71
593.30	2014.56
593.65	2007.05
594.00	2000.06
594.35	1992.98
594.70	1985.01
595.05	1978.18
595.40	1970.90
595.75	1963.65
596.10	1957.78
596.45	1951.53
596.80	1945.55
597.15	1939.11
597.50	1932.55
597.85	1926.24
598.19	1919.76
598.54	1912.89
598.89	1906.35
599.24	1900.43
599.59	1893.90
599.94	1887.71
600.29	1881.43
600.64	1874.83
600.99	1867.65
601.34	1860.95
601.69	1853.99
602.04	1847.52
602.39	1840.21
602.74	1833.47
603.08	1826.84
603.43	1820.10
603.78	1812.66
604.13	1805.27
604.48	1798.09
604.83	1791.19
605.18	1784.38
605.53	1776.52
605.87	1768.32
606.22	1761.04
606.57	1752.95
606.92	1745.13
607.27	1738.06
607.62	1731.24
607.96	1724.12
608.31	1717.76
608.66	1710.25
609.01	1702.71
609.36	1695.16
609.70	1687.15
610.05	1679.21
610.40	1671.50
610.75	1663.17
611.10	1655.47
611.44	1646.97
611.79	1638.88
612.14	1630.07
612.49	1620.82
612.83	1612.27
613.18	1604.22
613.53	1596.05
613.88	1587.67
614.22	1579.57
614.57	1570.81
614.92	1562.72
615.27	1555.30
615.61	1546.89
615.96	1538.80
616.31	1531.10
616.65	1523.60
617.00	1516.02
617.35	1508.17
617.70	1499.86
618.04	1491.42
618.39	1483.02
618.74	1475.50
619.08	1467.30
619.43	1459.60
619.78	1452.56
620.12	1445.42
620.47	1437.86
620.82	1429.59
621.16	1421.94
621.51	1414.20
621.85	1406.61
622.20	1398.07
622.55	1389.55
622.89	1381.58
623.24	1373.77
623.59	1366.25
623.93	1358.63
624.28	1351.43
624.62	1343.97
624.97	1336.67
625.32	1329.62
625.66	1322.63
626.01	1315.44
626.35	1307.99
626.70	1300.20
627.04	1292.55
627.39	1284.72
627.73	1277.24
628.08	1270.47
628.43	1263.34
628.77	1256.04
629.12	1248.46
629.46	1241.18
629.81	1233.63
630.15	1226.25
630.50	1218.84
630.84	1210.73
631.19	1202.70
631.53	1195.00
631.88	1187.37
632.22	1179.70
632.57	1172.47
632.91	1164.84
633.26	1157.40
633.60	1149.83
633.95	1142.58
634.29	1135.39
634.64	1128.58
634.98	1121.25
635.32	1113.97
635.67	1107.08
636.01	1100.36
636.36	1093.58
636.70	1087.05
637.05	1080.47
637.39	1074.08
637.73	1067.59
638.08	1061.64
638.42	1055.72
638.77	1049.23
639.11	1042.61
639.45	1036.21
639.80	1029.55
640.14	1023.22
640.49	1016.61
640.83	1010.36
641.17	1004.21
641.52	997.91
641.86	991.44
642.20	985.49
642.55	979.03
642.89	972.67
643.23	966.08
643.58	960.26
643.92	954.14
644.26	948.17
644.61	941.96
644.95	935.83
645.29	929.21
645.64	922.36
645.98	916.06
646.32	909.95
646.66	903.86
647.01	897.93
647.35	892.09
647.69	886.25
648.04	880.71
648.38	874.89
648.72	868.93
649.06	862.87
649.41	856.89
649.75	851.09
650.09	845.12
650.43	839.31
650.78	833.12
651.12	826.97
651.46	821.12
651.80	815.49
652.14	810.08
652.49	804.70
652.83	799.46
653.17	793.84
653.51	788.31
653.85	782.90
654.20	777.29
654.54	771.35
654.88	765.51
655.22	759.48
655.56	753.65
655.90	748.15
656.25	742.89
656.59	737.47
656.93	732.29
657.27	727.16
657.61	721.62
657.95	716.49
658.29	711.44
658.64	706.10
658.98	700.72
659.32	695.19
659.66	689.95
660.00	684.74
660.34	679.72
660.68	674.72
661.02	669.63
661.36	664.94
661.70	660.41
662.05	656.10
662.39	651.83
662.73	647.43
663.07	643.01
663.41	638.56
663.75	634.12
664.09	629.57
664.43	625.14
664.77	621.16
665.11	616.82
665.45	612.62
665.79	608.60
666.13	604.43
666.47	600.33
666.81	596.21
667.15	592.05
667.49	588.08
667.83	584.19
668.17	580.28
668.51	576.15
668.85	572.04
669.19	568.13
669.53	564.30
669.87	560.40
670.21	556.64
670.55	552.99
670.89	549.55
671.23	546.11
671.57	542.59
671.91	539.06
672.25	535.60
672.58	532.13
672.92	528.68
673.26	525.46
673.60	522.32
673.94	519.20
674.28	516.23
674.62	513.32
674.96	510.30
675.30	507.40
675.64	504.48
675.97	501.72
676.31	498.83
676.65	495.89
676.99	493.20
677.33	490.34
677.67	487.49
678.01	484.45
678.34	481.50
678.68	478.57
679.02	475.70
679.36	472.90
679.70	470.10
680.04	467.34
680.37	464.54
680.71	461.71
681.05	459.04
681.39	456.31
681.73	453.59
682.06	450.99
682.40	448.45
682.74	445.90
683.08	443.34
683.42	440.72
683.75	438.20
684.09	435.57
684.43	433.09
684.77	430.61
685.10	428.25
685.44	425.87
685.78	423.55
686.12	421.28
686.45	418.94
686.79	416.67
687.13	414.50
687.46	412.26
687.80	410.10
688.14	407.85
688.48	405.79
688.81	403.52
689.15	401.40
689.49	399.15
689.82	397.06
690.16	394.95
690.50	393.02
690.83	391.04
691.17	389.01
691.51	387.08
691.84	385.21
692.18	383.28
692.52	381.37
692.85	379.41
693.19	377.51
693.52	375.71
693.86	373.85
694.20	371.98
694.53	370.19
694.87	368.32
695.21	366.54
695.54	364.67
695.88	362.92
696.21	361.16
696.55	359.46
696.88	357.71
697.22	356.03
697.56	354.25
697.89	352.61
698.23	350.99
698.56	349.33
698.90	347.73
699.23	346.08
699.57	344.48
699.90	342.91
700.24	341.31
700.58	339.78
700.91	338.32
701.25	336.84
701.58	335.50
701.92	334.13
702.25	332.78
702.59	331.38
702.92	330.06
703.26	328.73
703.59	327.52
703.93	326.36
704.26	325.11
704.60	323.90
704.93	322.61
705.26	321.43
705.60	320.24
705.93	319.06
706.27	318.01
706.60	316.92
706.94	315.84
707.27	314.75
707.61	313.62
707.94	312.56
708.27	311.48
708.61	310.35
708.94	309.34
709.28	308.31
709.61	307.35
709.94	306.37
710.28	305.32
710.61	304.26
710.95	303.14
711.28	302.22
711.61	301.25
711.95	300.34
712.28	299.34
712.61	298.37
712.95	297.44
713.28	296.49
713.61	295.63
713.95	294.78
714.28	293.89
714.61	293.01
714.95	292.13
715.28	291.26
715.61	290.38
715.95	289.49
716.28	288.57
716.61	287.76
716.95	286.94
717.28	286.20
717.61	285.44
717.94	284.69
718.28	283.87
718.61	283.13
718.94	282.39
719.27	281.72
719.61	281.07
719.94	280.36
720.27	279.66
720.60	278.94
720.94	278.28
721.27	277.69
721.60	277.10
721.93	276.52
722.27	275.94
722.60	275.38
722.93	274.81
723.26	274.34
723.59	273.76
723.93	273.22
724.26	272.64
724.59	272.06
724.92	271.52
725.25	270.97
725.59	270.45
725.92	269.94
726.25	269.44
726.58	268.92
726.91	268.43
727.24	268.00
727.57	267.55
727.91	267.02
728.24	266.54
728.57	266.09
728.90	265.61
729.23	265.12
729.56	264.69
729.89	264.20
730.22	263.68
730.55	263.25
730.89	262.77
731.22	262.36
731.55	261.93
731.88	261.52
732.21	261.08
732.54	260.67
732.87	260.23
733.20	259.84
733.53	259.43
733.86	259.07
734.19	258.65
734.52	258.24
734.85	257.93
735.18	257.50
735.51	257.13
735.84	256.76
736.17	256.42
736.50	255.98
736.83	255.79
737.16	255.44
737.49	255.07
737.82	254.73
738.15	254.38
738.48	254.06
738.81	253.74
739.14	253.44
739.47	253.13
739.80	252.83
740.13	252.50
740.46	252.16
740.79	251.83
741.12	251.49
741.45	251.20
741.78	250.87
742.11	250.59
742.44	250.24
742.77	249.96
743.10	249.66
743.43	249.44
743.75	249.06
744.08	248.92
744.41	248.66
744.74	248.40
745.07	248.13
745.40	247.90
745.73	247.64
746.06	247.38
746.39	247.09
746.71	246.82
747.04	246.55
747.37	246.31
747.70	246.04
748.03	245.85
748.36	245.60
748.68	245.34
749.01	245.09
749.34	244.91
749.67	244.68
750.00	244.45
750.33	244.25
750.65	244.03
750.98	243.69
751.31	243.45
751.64	243.26
751.97	243.08
752.29	242.83
752.62	242.59
752.95	242.37
753.28	242.18
753.60	242.00
753.93	241.82
754.26	241.63
754.59	241.42
754.91	241.17
755.24	241.00
755.57	240.79
755.90	240.61
756.22	240.38
756.55	240.17
756.88	239.94
757.20	239.72
757.53	239.48
757.86	239.30
758.19	239.15
758.51	238.96
758.84	238.75
759.17	238.60
759.49	238.40
759.82	238.31
760.15	238.14
760.47	237.95
760.80	237.80
761.13	237.67
761.45	237.53
761.78	237.41
762.11	237.22
762.43	237.07
762.76	236.91
763.08	236.79
763.41	236.64
763.74	236.53
764.06	236.34
764.39	236.20
764.71	236.04
765.04	235.88
765.37	235.73
765.69	235.56
766.02	235.38
766.34	235.30
766.67	235.11
767.00	234.97
767.32	234.89
767.65	234.77
767.97	234.60
768.30	234.49
768.62	234.35
768.95	234.20
769.27	234.10
769.60	234.01
769.92	233.85
770.25	233.74
770.57	233.60
770.90	233.49
771.22	233.40
771.55	233.30
771.87	233.20
772.20	233.08
772.52	233.07
772.85	233.12
773.17	232.96
773.50	232.89
773.82	232.79
774.15	232.65
774.47	232.54
774.80	232.46
775.12	232.37
775.45	232.29
775.77	232.25
776.09	232.17
776.42	232.10
776.74	232.07
777.07	231.98
777.39	231.91
777.72	231.86
778.04	231.80
778.36	231.73
778.69	231.63
779.01	231.57
779.33	231.44
779.66	231.26
779.98	231.22
780.31	231.14
780.63	231.09
780.95	231.06
781.28	230.97
781.60	230.89
781.92	230.80
782.25	230.73
782.57	230.67
782.89	230.59
783.22	230.52
783.54	230.44
783.86	230.40
784.19	230.35
784.51	230.32
784.83	230.25
785.16	230.21
785.48	230.22
785.80	230.17
786.12	230.14
786.45	230.10
786.77	230.04
787.09	229.97
