SpectraSuite Data File
++++++++++++++++++++++++++++++++++++
Date: Fri Feb 01 16:15:05 EST 2013
User: group
Dark Spectrum Present: No
Reference Spectrum Present: No
Number of Sampled Component Spectra: 1
Spectrometers: USB2E7196
Integration Time (usec): 35000 (USB2E7196)
Spectra Averaged: 100 (USB2E7196)
Boxcar Smoothing: 10 (USB2E7196)
Correct for Electrical Dark: No (USB2E7196)
Strobe/Lamp Enabled: No (USB2E7196)
Correct for Detector Non-linearity: No (USB2E7196)
Correct for Stray Light: No (USB2E7196)
Number of Pixels in Processed Spectrum: 2048
>>>>>Begin Processed Spectral Data<<<<<
339.09	0.00
339.48	214.23
339.86	216.26
340.24	217.62
340.63	218.72
341.01	221.65
341.39	221.56
341.78	222.49
342.16	223.97
342.54	224.33
342.93	212.81
343.31	223.54
343.69	224.09
344.07	224.53
344.46	224.93
344.84	225.30
345.22	225.56
345.60	225.80
345.99	225.98
346.37	226.12
346.75	226.22
347.13	226.29
347.52	226.35
347.90	226.37
348.28	226.39
348.66	226.43
349.05	226.44
349.43	226.49
349.81	226.53
350.19	226.57
350.57	226.62
350.96	226.70
351.34	226.80
351.72	226.90
352.10	227.02
352.48	227.10
352.87	227.15
353.25	227.18
353.63	227.22
354.01	227.30
354.39	227.36
354.77	227.40
355.15	227.49
355.54	227.53
355.92	227.58
356.30	227.64
356.68	227.75
357.06	227.79
357.44	227.86
357.82	227.92
358.20	227.98
358.58	228.07
358.97	228.12
359.35	228.20
359.73	228.26
360.11	228.27
360.49	228.31
360.87	228.39
361.25	228.44
361.63	228.53
362.01	228.53
362.39	228.55
362.77	228.63
363.15	228.65
363.53	228.71
363.91	228.75
364.29	228.81
364.67	228.73
365.05	228.78
365.43	228.82
365.81	228.84
366.19	228.89
366.57	228.90
366.95	228.91
367.33	228.88
367.71	228.84
368.09	228.83
368.47	228.83
368.85	228.75
369.23	228.76
369.61	228.69
369.99	228.72
370.37	228.69
370.75	228.69
371.13	228.63
371.51	228.56
371.89	228.49
372.27	228.44
372.65	228.44
373.03	228.38
373.41	228.28
373.78	228.18
374.16	228.07
374.54	228.01
374.92	227.92
375.30	227.86
375.68	227.78
376.06	227.75
376.44	227.68
376.82	227.64
377.19	227.57
377.57	227.50
377.95	227.40
378.33	227.35
378.71	227.20
379.09	227.15
379.47	227.07
379.84	227.04
380.22	226.97
380.60	226.85
380.98	226.78
381.36	226.72
381.73	226.68
382.11	226.62
382.49	226.53
382.87	226.45
383.25	226.39
383.62	226.44
384.00	226.32
384.38	226.31
384.76	226.26
385.13	226.25
385.51	226.19
385.89	226.14
386.27	226.09
386.64	226.08
387.02	226.05
387.40	226.02
387.78	225.98
388.15	225.92
388.53	225.92
388.91	225.85
389.29	225.83
389.66	225.80
390.04	225.77
390.42	225.78
390.79	225.77
391.17	225.77
391.55	225.66
391.92	225.70
392.30	225.68
392.68	225.64
393.05	225.63
393.43	225.69
393.81	225.69
394.18	225.66
394.56	225.68
394.94	225.74
395.31	225.75
395.69	225.82
396.06	225.87
396.44	225.89
396.82	225.97
397.19	226.06
397.57	226.11
397.95	226.18
398.32	226.20
398.70	226.28
399.07	226.35
399.45	226.43
399.82	226.49
400.20	226.52
400.58	226.64
400.95	226.67
401.33	226.76
401.70	226.92
402.08	227.07
402.45	227.15
402.83	227.23
403.20	227.36
403.58	227.44
403.95	227.57
404.33	227.68
404.71	227.80
405.08	227.96
405.46	228.08
405.83	228.25
406.21	228.42
406.58	228.57
406.96	228.74
407.33	228.92
407.70	229.07
408.08	229.35
408.45	229.56
408.83	229.78
409.20	229.95
409.58	230.13
409.95	230.36
410.33	230.58
410.70	230.85
411.08	231.15
411.45	231.41
411.82	231.73
412.20	232.11
412.57	232.51
412.95	232.85
413.32	233.26
413.69	233.67
414.07	234.12
414.44	234.59
414.82	235.06
415.19	235.60
415.56	236.18
415.94	236.72
416.31	237.37
416.68	238.03
417.06	238.76
417.43	239.43
417.81	240.20
418.18	241.02
418.55	241.85
418.93	242.72
419.30	243.62
419.67	244.53
420.04	245.47
420.42	246.49
420.79	247.61
421.16	248.78
421.54	249.95
421.91	251.14
422.28	252.36
422.66	253.66
423.03	254.94
423.40	256.28
423.77	257.66
424.15	259.05
424.52	260.49
424.89	262.07
425.26	263.61
425.64	265.06
426.01	266.63
426.38	268.26
426.75	269.87
427.13	271.63
427.50	273.45
427.87	275.32
428.24	277.15
428.61	278.94
428.99	280.84
429.36	282.90
429.73	284.98
430.10	287.02
430.47	289.08
430.85	291.22
431.22	293.42
431.59	295.79
431.96	298.00
432.33	300.49
432.70	302.82
433.08	305.64
433.45	308.22
433.82	310.83
434.19	313.73
434.56	316.58
434.93	319.17
435.30	321.77
435.68	324.65
436.05	327.45
436.42	330.20
436.79	332.70
437.16	335.39
437.53	338.17
437.90	340.93
438.27	343.66
438.64	346.42
439.01	349.05
439.38	351.24
439.75	353.43
440.13	355.94
440.50	358.30
440.87	360.13
441.24	362.10
441.61	364.24
441.98	365.69
442.35	367.42
442.72	369.25
443.09	371.06
443.46	372.01
443.83	372.63
444.20	373.09
444.57	373.94
444.94	374.26
445.31	374.62
445.68	375.03
446.05	375.10
446.42	374.74
446.79	374.31
447.16	373.93
447.53	373.58
447.90	372.40
448.27	371.25
448.64	369.69
449.01	368.59
449.37	366.65
449.74	364.80
450.11	362.60
450.48	360.15
450.85	357.62
451.22	355.54
451.59	353.49
451.96	351.58
452.33	348.99
452.70	346.57
453.07	343.75
453.43	340.81
453.80	338.05
454.17	335.38
454.54	332.84
454.91	330.10
455.28	327.44
455.65	324.98
456.02	322.53
456.38	320.36
456.75	317.66
457.12	315.37
457.49	313.11
457.86	310.99
458.23	309.17
458.59	307.14
458.96	305.05
459.33	303.22
459.70	301.38
460.07	299.87
460.43	298.19
460.80	296.59
461.17	295.21
461.54	293.71
461.91	292.33
462.27	290.88
462.64	289.66
463.01	288.33
463.38	287.03
463.74	285.66
464.11	284.51
464.48	283.53
464.85	282.48
465.21	281.63
465.58	280.68
465.95	279.59
466.32	278.68
466.68	277.75
467.05	276.87
467.42	275.97
467.78	275.08
468.15	274.24
468.52	273.56
468.88	272.71
469.25	271.97
469.62	271.34
469.98	270.70
470.35	270.06
470.72	269.49
471.08	268.85
471.45	268.33
471.82	267.81
472.18	267.17
472.55	266.75
472.92	266.24
473.28	265.79
473.65	265.37
474.02	264.95
474.38	264.65
474.75	264.33
475.11	263.99
475.48	263.71
475.85	263.50
476.21	263.29
476.58	263.10
476.94	262.98
477.31	262.81
477.67	262.66
478.04	262.54
478.41	262.52
478.77	262.55
479.14	262.45
479.50	262.45
479.87	262.57
480.23	262.62
480.60	262.71
480.96	262.81
481.33	263.02
481.69	263.21
482.06	263.39
482.42	263.59
482.79	263.85
483.15	264.20
483.52	264.56
483.88	264.89
484.25	265.30
484.61	265.71
484.98	266.20
485.34	266.79
485.71	267.41
486.07	267.98
486.44	268.55
486.80	269.32
487.17	270.04
487.53	270.84
487.90	271.71
488.26	272.63
488.62	273.64
488.99	274.56
489.35	275.60
489.72	276.74
490.08	277.98
490.44	279.25
490.81	280.55
491.17	281.90
491.54	283.39
491.90	284.92
492.26	286.55
492.63	288.23
492.99	289.99
493.36	291.88
493.72	293.90
494.08	296.06
494.45	298.33
494.81	300.71
495.17	303.17
495.54	305.73
495.90	308.44
496.26	311.22
496.63	314.23
496.99	317.37
497.35	320.58
497.72	323.95
498.08	327.49
498.44	331.12
498.80	335.06
499.17	339.10
499.53	343.32
499.89	347.73
500.26	352.27
500.62	356.94
500.98	361.89
501.34	366.98
501.71	372.31
502.07	377.71
502.43	383.33
502.79	389.09
503.16	395.21
503.52	401.50
503.88	407.92
504.24	414.53
504.60	421.44
504.97	428.56
505.33	435.91
505.69	443.61
506.05	451.42
506.41	459.30
506.78	467.45
507.14	475.84
507.50	484.58
507.86	493.59
508.22	502.82
508.59	512.03
508.95	521.59
509.31	531.43
509.67	541.58
510.03	551.91
510.39	562.47
510.75	573.18
511.12	584.10
511.48	595.36
511.84	606.86
512.20	618.40
512.56	630.44
512.92	642.61
513.28	654.89
513.64	667.40
514.00	680.16
514.37	693.14
514.73	706.22
515.09	719.14
515.45	732.45
515.81	746.00
516.17	760.05
516.53	774.18
516.89	788.36
517.25	802.46
517.61	816.80
517.97	831.33
518.33	845.80
518.69	860.52
519.05	875.50
519.41	890.63
519.77	906.06
520.13	921.48
520.49	936.85
520.85	952.26
521.21	967.96
521.57	984.06
521.93	999.75
522.29	1016.13
522.65	1032.36
523.01	1048.40
523.37	1064.39
523.73	1080.45
524.09	1096.51
524.45	1112.66
524.81	1129.29
525.17	1146.10
525.53	1162.96
525.89	1179.71
526.25	1196.56
526.61	1212.87
526.97	1229.57
527.33	1245.95
527.68	1262.41
528.04	1278.77
528.40	1295.28
528.76	1312.08
529.12	1328.64
529.48	1345.50
529.84	1361.36
530.20	1377.91
530.56	1394.91
530.91	1412.26
531.27	1428.94
531.63	1445.42
531.99	1462.03
532.35	1477.93
532.71	1493.73
533.07	1509.85
533.42	1525.63
533.78	1541.55
534.14	1557.75
534.50	1572.94
534.86	1588.82
535.21	1604.06
535.57	1619.97
535.93	1635.42
536.29	1650.29
536.65	1665.22
537.00	1679.89
537.36	1695.18
537.72	1709.60
538.08	1724.06
538.44	1737.75
538.79	1751.60
539.15	1765.00
539.51	1778.61
539.87	1792.96
540.22	1806.57
540.58	1820.13
540.94	1833.35
541.29	1846.13
541.65	1858.78
542.01	1871.91
542.37	1884.20
542.72	1896.50
543.08	1908.25
543.44	1920.70
543.79	1931.84
544.15	1942.75
544.51	1954.34
544.87	1965.22
545.22	1976.08
545.58	1986.20
545.94	1995.90
546.29	2005.73
546.65	2015.73
547.01	2024.90
547.36	2033.54
547.72	2042.01
548.07	2049.89
548.43	2058.13
548.79	2066.21
549.14	2073.71
549.50	2081.12
549.86	2088.81
550.21	2096.08
550.57	2103.23
550.92	2109.69
551.28	2116.73
551.64	2124.02
551.99	2130.50
552.35	2136.69
552.70	2142.77
553.06	2148.68
553.41	2154.90
553.77	2160.96
554.13	2166.99
554.48	2173.12
554.84	2178.56
555.19	2183.66
555.55	2188.93
555.90	2193.29
556.26	2198.17
556.61	2202.87
556.97	2207.32
557.32	2211.24
557.68	2215.38
558.03	2219.58
558.39	2223.19
558.74	2227.75
559.10	2231.54
559.45	2235.16
559.81	2239.41
560.16	2243.31
560.52	2246.75
560.87	2250.23
561.23	2252.73
561.58	2255.57
561.94	2258.18
562.29	2260.34
562.64	2263.22
563.00	2265.68
563.35	2269.39
563.71	2272.38
564.06	2275.56
564.42	2278.32
564.77	2280.98
565.12	2283.25
565.48	2285.23
565.83	2287.26
566.19	2288.64
566.54	2289.28
566.89	2290.42
567.25	2291.15
567.60	2292.33
567.96	2293.89
568.31	2294.79
568.66	2296.03
569.02	2296.62
569.37	2296.96
569.72	2298.08
570.08	2298.38
570.43	2298.61
570.78	2297.76
571.14	2296.36
571.49	2295.22
571.84	2294.97
572.20	2293.84
572.55	2292.78
572.90	2291.09
573.26	2289.54
573.61	2287.81
573.96	2286.29
574.31	2283.26
574.67	2280.20
575.02	2276.76
575.37	2273.36
575.72	2269.64
576.08	2266.16
576.43	2262.84
576.78	2259.26
577.13	2255.96
577.49	2252.65
577.84	2249.18
578.19	2245.68
578.54	2242.11
578.90	2237.91
579.25	2232.24
579.60	2227.36
579.95	2222.34
580.30	2217.37
580.66	2212.41
581.01	2207.42
581.36	2202.59
581.71	2198.56
582.06	2194.22
582.42	2189.75
582.77	2184.68
583.12	2180.17
583.47	2175.63
583.82	2170.80
584.17	2165.56
584.53	2160.08
584.88	2154.41
585.23	2148.69
585.58	2143.28
585.93	2137.83
586.28	2132.96
586.63	2127.95
586.98	2122.84
587.34	2118.18
587.69	2113.43
588.04	2108.16
588.39	2102.60
588.74	2096.20
589.09	2090.15
589.44	2083.35
589.79	2077.26
590.14	2071.66
590.49	2065.11
590.84	2058.68
591.19	2052.53
591.54	2046.11
591.89	2038.89
592.25	2032.33
592.60	2025.01
592.95	2017.49
593.30	2010.11
593.65	2002.50
594.00	1995.44
594.35	1988.25
594.70	1980.15
595.05	1973.05
595.40	1965.80
595.75	1958.44
596.10	1952.12
596.45	1945.40
596.80	1939.30
597.15	1932.75
597.50	1925.63
597.85	1919.17
598.19	1912.59
598.54	1905.56
598.89	1898.97
599.24	1893.12
599.59	1886.39
599.94	1880.34
600.29	1874.05
600.64	1867.47
600.99	1860.16
601.34	1853.33
601.69	1846.47
602.04	1839.71
602.39	1832.35
602.74	1825.55
603.08	1818.70
603.43	1812.12
603.78	1804.75
604.13	1797.48
604.48	1790.21
604.83	1783.27
605.18	1776.33
605.53	1768.47
605.87	1760.53
606.22	1753.21
606.57	1745.18
606.92	1737.89
607.27	1730.75
607.62	1723.81
607.96	1716.65
608.31	1710.10
608.66	1702.63
609.01	1695.08
609.36	1687.61
609.70	1679.60
610.05	1671.47
610.40	1663.92
610.75	1655.48
611.10	1647.89
611.44	1639.49
611.79	1631.52
612.14	1622.87
612.49	1613.75
612.83	1605.27
613.18	1597.18
613.53	1589.13
613.88	1580.64
614.22	1572.42
614.57	1563.81
614.92	1555.74
615.27	1548.18
615.61	1539.85
615.96	1531.80
616.31	1524.03
616.65	1516.59
617.00	1509.11
617.35	1501.36
617.70	1493.05
618.04	1484.60
618.39	1476.31
618.74	1468.81
619.08	1460.47
619.43	1452.97
619.78	1446.06
620.12	1438.98
620.47	1431.54
620.82	1423.38
621.16	1415.96
621.51	1408.30
621.85	1400.64
622.20	1392.19
622.55	1383.74
622.89	1375.81
623.24	1368.12
623.59	1360.75
623.93	1353.14
624.28	1345.86
624.62	1338.48
624.97	1331.34
625.32	1324.62
625.66	1317.66
626.01	1310.46
626.35	1303.06
626.70	1295.25
627.04	1287.55
627.39	1279.69
627.73	1272.16
628.08	1265.25
628.43	1257.99
628.77	1250.61
629.12	1243.05
629.46	1235.91
629.81	1228.52
630.15	1221.30
630.50	1213.95
630.84	1205.88
631.19	1198.03
631.53	1190.44
631.88	1182.83
632.22	1175.19
632.57	1167.81
632.91	1160.23
633.26	1152.72
633.60	1145.37
633.95	1138.35
634.29	1131.34
634.64	1124.55
634.98	1117.32
635.32	1110.20
635.67	1103.45
636.01	1096.79
636.36	1089.96
636.70	1083.34
637.05	1076.90
637.39	1070.49
637.73	1063.90
638.08	1057.99
638.42	1052.08
638.77	1045.65
639.11	1039.13
639.45	1032.76
639.80	1026.14
640.14	1019.73
640.49	1013.33
640.83	1006.93
641.17	1000.64
641.52	994.18
641.86	987.81
642.20	981.73
642.55	975.29
642.89	968.88
643.23	962.34
643.58	956.57
643.92	950.36
644.26	944.12
644.61	938.00
644.95	932.04
645.29	925.45
645.64	918.73
645.98	912.33
646.32	906.45
646.66	900.34
647.01	894.60
647.35	888.81
647.69	882.91
648.04	877.41
648.38	871.59
648.72	865.70
649.06	859.70
649.41	853.94
649.75	848.00
650.09	842.12
650.43	836.38
650.78	830.24
651.12	824.36
651.46	818.76
651.80	813.08
652.14	807.61
652.49	802.20
652.83	796.97
653.17	791.31
653.51	785.62
653.85	780.14
654.20	774.46
654.54	768.47
654.88	762.65
655.22	756.74
655.56	751.17
655.90	745.65
656.25	740.42
656.59	735.10
656.93	730.02
657.27	724.82
657.61	719.35
657.95	714.26
658.29	709.14
658.64	703.87
658.98	698.55
659.32	693.15
659.66	687.98
660.00	682.68
660.34	677.76
660.68	672.89
661.02	667.90
661.36	663.15
661.70	658.66
662.05	654.33
662.39	650.06
662.73	645.49
663.07	641.14
663.41	636.69
663.75	632.10
664.09	627.54
664.43	623.16
664.77	619.03
665.11	614.81
665.45	610.68
665.79	606.64
666.13	602.47
666.47	598.35
666.81	594.13
667.15	590.07
667.49	586.17
667.83	582.31
668.17	578.37
668.51	574.30
668.85	570.29
669.19	566.50
669.53	562.59
669.87	558.72
670.21	555.03
670.55	551.34
670.89	547.93
671.23	544.43
671.57	540.98
671.91	537.45
672.25	533.90
672.58	530.39
672.92	526.93
673.26	523.76
673.60	520.63
673.94	517.54
674.28	514.56
674.62	511.60
674.96	508.44
675.30	505.62
675.64	502.73
675.97	499.88
676.31	497.03
676.65	494.13
676.99	491.38
677.33	488.50
677.67	485.67
678.01	482.68
678.34	479.78
678.68	476.89
679.02	474.16
679.36	471.38
679.70	468.66
680.04	465.91
680.37	463.05
680.71	460.26
681.05	457.67
681.39	454.95
681.73	452.36
682.06	449.88
682.40	447.26
682.74	444.74
683.08	442.21
683.42	439.58
683.75	437.08
684.09	434.58
684.43	432.11
684.77	429.65
685.10	427.28
685.44	425.02
685.78	422.70
686.12	420.41
686.45	418.13
686.79	415.87
687.13	413.64
687.46	411.47
687.80	409.29
688.14	407.03
688.48	404.99
688.81	402.72
689.15	400.52
689.49	398.43
689.82	396.35
690.16	394.33
690.50	392.38
690.83	390.49
691.17	388.44
691.51	386.55
691.84	384.74
692.18	382.82
692.52	380.80
692.85	378.89
693.19	376.96
693.52	375.10
693.86	373.24
694.20	371.48
694.53	369.69
694.87	367.83
695.21	366.08
695.54	364.22
695.88	362.46
696.21	360.78
696.55	359.05
696.88	357.27
697.22	355.58
697.56	353.93
697.89	352.22
698.23	350.69
698.56	349.04
698.90	347.42
699.23	345.75
699.57	344.14
699.90	342.54
700.24	340.99
700.58	339.50
700.91	338.00
701.25	336.55
701.58	335.14
701.92	333.77
702.25	332.35
702.59	331.03
702.92	329.72
703.26	328.41
703.59	327.11
703.93	325.99
704.26	324.73
704.60	323.41
704.93	322.15
705.26	320.87
705.60	319.69
705.93	318.54
706.27	317.51
706.60	316.50
706.94	315.49
707.27	314.37
707.61	313.31
707.94	312.26
708.27	311.17
708.61	310.16
708.94	309.12
709.28	308.17
709.61	307.17
709.94	306.19
710.28	305.19
710.61	304.21
710.95	303.11
711.28	302.25
711.61	301.35
711.95	300.46
712.28	299.57
712.61	298.62
712.95	297.69
713.28	296.81
713.61	295.94
713.95	295.04
714.28	294.21
714.61	293.35
714.95	292.54
715.28	291.69
715.61	290.80
715.95	289.98
716.28	289.12
716.61	288.30
716.95	287.51
717.28	286.75
717.61	286.00
717.94	285.29
718.28	284.48
718.61	283.74
718.94	283.01
719.27	282.31
719.61	281.65
719.94	281.00
720.27	280.28
720.60	279.60
720.94	278.94
721.27	278.36
721.60	277.77
721.93	277.17
722.27	276.60
722.60	276.06
722.93	275.50
723.26	274.98
723.59	274.41
723.93	273.86
724.26	273.29
724.59	272.72
724.92	272.19
725.25	271.65
725.59	271.16
725.92	270.67
726.25	270.14
726.58	269.63
726.91	269.12
727.24	268.68
727.57	268.22
727.91	267.73
728.24	267.28
728.57	266.82
728.90	266.35
729.23	265.85
729.56	265.40
729.89	264.93
730.22	264.42
730.55	263.97
730.89	263.50
731.22	263.07
731.55	262.65
731.88	262.22
732.21	261.78
732.54	261.30
732.87	260.86
733.20	260.45
733.53	260.07
733.86	259.72
734.19	259.29
734.52	258.88
734.85	258.57
735.18	258.10
735.51	257.73
735.84	257.35
736.17	256.97
736.50	256.58
736.83	256.36
737.16	256.05
737.49	255.70
737.82	255.36
738.15	255.04
738.48	254.69
738.81	254.36
739.14	254.05
739.47	253.75
739.80	253.44
740.13	253.11
740.46	252.79
740.79	252.44
741.12	252.15
741.45	251.86
741.78	251.49
742.11	251.24
742.44	250.92
742.77	250.64
743.10	250.38
743.43	250.07
743.75	249.67
744.08	249.48
744.41	249.19
744.74	248.95
745.07	248.65
745.40	248.41
745.73	248.20
746.06	247.91
746.39	247.64
746.71	247.37
747.04	247.10
747.37	246.81
747.70	246.60
748.03	246.33
748.36	246.09
748.68	245.83
749.01	245.56
749.34	245.32
749.67	245.05
750.00	244.80
750.33	244.65
750.65	244.43
750.98	244.12
751.31	243.91
751.64	243.72
751.97	243.56
752.29	243.33
752.62	243.06
752.95	242.82
753.28	242.65
753.60	242.45
753.93	242.30
754.26	242.13
754.59	241.84
754.91	241.66
755.24	241.45
755.57	241.32
755.90	241.15
756.22	240.96
756.55	240.80
756.88	240.64
757.20	240.37
757.53	240.19
757.86	239.99
758.19	239.84
758.51	239.63
758.84	239.41
759.17	239.24
759.49	239.09
759.82	239.04
760.15	238.88
760.47	238.72
760.80	238.53
761.13	238.45
761.45	238.33
761.78	238.20
762.11	238.06
762.43	237.90
762.76	237.75
763.08	237.64
763.41	237.50
763.74	237.35
764.06	237.23
764.39	237.11
764.71	237.00
765.04	236.88
765.37	236.75
765.69	236.64
766.02	236.51
766.34	236.37
766.67	236.19
767.00	236.10
767.32	236.05
767.65	236.01
767.97	235.85
768.30	235.77
768.62	235.64
768.95	235.51
769.27	235.39
769.60	235.27
769.92	235.16
770.25	235.05
770.57	234.94
770.90	234.89
771.22	234.78
771.55	234.66
771.87	234.59
772.20	234.50
772.52	234.51
772.85	234.52
773.17	234.43
773.50	234.34
773.82	234.22
774.15	234.05
774.47	233.90
774.80	233.81
775.12	233.70
775.45	233.59
775.77	233.49
776.09	233.39
776.42	233.34
776.74	233.28
777.07	233.17
777.39	233.10
777.72	232.96
778.04	232.90
778.36	232.83
778.69	232.75
779.01	232.67
779.33	232.47
779.66	232.26
779.98	232.22
780.31	232.15
780.63	232.10
780.95	232.03
781.28	231.95
781.60	231.87
781.92	231.81
782.25	231.75
782.57	231.71
782.89	231.63
783.22	231.59
783.54	231.51
783.86	231.49
784.19	231.41
784.51	231.40
784.83	231.35
785.16	231.29
785.48	231.21
785.80	231.14
786.12	231.08
786.45	231.08
786.77	230.98
787.09	230.96
