SpectraSuite Data File
++++++++++++++++++++++++++++++++++++
Date: Fri Feb 01 14:58:29 EST 2013
User: group
Dark Spectrum Present: No
Reference Spectrum Present: No
Number of Sampled Component Spectra: 1
Spectrometers: USB2E7196
Integration Time (usec): 35000 (USB2E7196)
Spectra Averaged: 100 (USB2E7196)
Boxcar Smoothing: 10 (USB2E7196)
Correct for Electrical Dark: No (USB2E7196)
Strobe/Lamp Enabled: No (USB2E7196)
Correct for Detector Non-linearity: No (USB2E7196)
Correct for Stray Light: No (USB2E7196)
Number of Pixels in Processed Spectrum: 2048
>>>>>Begin Processed Spectral Data<<<<<
339.09	0.00
339.48	215.34
339.86	217.07
340.24	218.24
340.63	219.69
341.01	222.45
341.39	222.22
341.78	223.73
342.16	224.41
342.54	224.84
342.93	213.55
343.31	224.34
343.69	224.88
344.07	225.32
344.46	225.73
344.84	226.09
345.22	226.33
345.60	226.57
345.99	226.75
346.37	226.90
346.75	227.04
347.13	227.11
347.52	227.17
347.90	227.26
348.28	227.32
348.66	227.36
349.05	227.36
349.43	227.41
349.81	227.46
350.19	227.50
350.57	227.55
350.96	227.65
351.34	227.72
351.72	227.78
352.10	227.88
352.48	227.95
352.87	228.02
353.25	228.08
353.63	228.17
354.01	228.22
354.39	228.28
354.77	228.32
355.15	228.47
355.54	228.54
355.92	228.56
356.30	228.62
356.68	228.75
357.06	228.84
357.44	228.89
357.82	228.94
358.20	229.02
358.58	229.06
358.97	229.09
359.35	229.19
359.73	229.27
360.11	229.34
360.49	229.40
360.87	229.42
361.25	229.50
361.63	229.53
362.01	229.58
362.39	229.60
362.77	229.66
363.15	229.64
363.53	229.64
363.91	229.66
364.29	229.68
364.67	229.63
365.05	229.62
365.43	229.62
365.81	229.63
366.19	229.66
366.57	229.70
366.95	229.69
367.33	229.63
367.71	229.61
368.09	229.60
368.47	229.55
368.85	229.53
369.23	229.54
369.61	229.50
369.99	229.52
370.37	229.53
370.75	229.53
371.13	229.45
371.51	229.40
371.89	229.40
372.27	229.36
372.65	229.29
373.03	229.25
373.41	229.19
373.78	229.13
374.16	229.02
374.54	228.92
374.92	228.86
375.30	228.81
375.68	228.70
376.06	228.60
376.44	228.53
376.82	228.47
377.19	228.34
377.57	228.26
377.95	228.15
378.33	228.02
378.71	227.88
379.09	227.83
379.47	227.79
379.84	227.67
380.22	227.58
380.60	227.49
380.98	227.39
381.36	227.31
381.73	227.23
382.11	227.18
382.49	227.13
382.87	227.02
383.25	226.96
383.62	227.01
384.00	226.95
384.38	226.89
384.76	226.84
385.13	226.83
385.51	226.76
385.89	226.66
386.27	226.63
386.64	226.61
387.02	226.54
387.40	226.48
387.78	226.44
388.15	226.39
388.53	226.36
388.91	226.33
389.29	226.32
389.66	226.30
390.04	226.28
390.42	226.28
390.79	226.32
391.17	226.28
391.55	226.17
391.92	226.17
392.30	226.20
392.68	226.16
393.05	226.13
393.43	226.14
393.81	226.20
394.18	226.20
394.56	226.20
394.94	226.24
395.31	226.26
395.69	226.32
396.06	226.41
396.44	226.44
396.82	226.49
397.19	226.58
397.57	226.67
397.95	226.73
398.32	226.75
398.70	226.78
399.07	226.86
399.45	226.94
399.82	227.01
400.20	227.06
400.58	227.16
400.95	227.26
401.33	227.37
401.70	227.52
402.08	227.63
402.45	227.74
402.83	227.88
403.20	228.03
403.58	228.12
403.95	228.25
404.33	228.39
404.71	228.55
405.08	228.71
405.46	228.87
405.83	229.06
406.21	229.20
406.58	229.38
406.96	229.58
407.33	229.80
407.70	230.02
408.08	230.34
408.45	230.55
408.83	230.80
409.20	231.02
409.58	231.21
409.95	231.49
410.33	231.78
410.70	232.01
411.08	232.29
411.45	232.60
411.82	232.90
412.20	233.26
412.57	233.65
412.95	233.95
413.32	234.34
413.69	234.72
414.07	235.18
414.44	235.65
414.82	236.15
415.19	236.67
415.56	237.21
415.94	237.73
416.31	238.40
416.68	239.03
417.06	239.72
417.43	240.37
417.81	241.14
418.18	241.93
418.55	242.81
418.93	243.68
419.30	244.59
419.67	245.55
420.04	246.47
420.42	247.47
420.79	248.64
421.16	249.82
421.54	251.03
421.91	252.22
422.28	253.47
422.66	254.79
423.03	256.09
423.40	257.42
423.77	258.81
424.15	260.22
424.52	261.69
424.89	263.30
425.26	264.86
425.64	266.28
426.01	267.84
426.38	269.46
426.75	271.17
427.13	272.89
427.50	274.66
427.87	276.58
428.24	278.41
428.61	280.15
428.99	282.05
429.36	284.14
429.73	286.21
430.10	288.23
430.47	290.30
430.85	292.42
431.22	294.62
431.59	297.03
431.96	299.25
432.33	301.72
432.70	304.09
433.08	306.91
433.45	309.53
433.82	312.15
434.19	315.04
434.56	317.82
434.93	320.49
435.30	323.12
435.68	326.02
436.05	328.88
436.42	331.64
436.79	334.17
437.16	336.90
437.53	339.73
437.90	342.61
438.27	345.32
438.64	348.14
439.01	350.81
439.38	353.05
439.75	355.23
440.13	357.75
440.50	360.09
440.87	361.99
441.24	363.98
441.61	366.15
441.98	367.66
442.35	369.50
442.72	371.37
443.09	373.19
443.46	374.19
443.83	374.80
444.20	375.41
444.57	376.26
444.94	376.53
445.31	376.90
445.68	377.23
446.05	377.33
446.42	376.96
446.79	376.49
447.16	376.05
447.53	375.76
447.90	374.60
448.27	373.49
448.64	371.84
449.01	370.71
449.37	368.77
449.74	366.87
450.11	364.60
450.48	362.11
450.85	359.53
451.22	357.36
451.59	355.33
451.96	353.39
452.33	350.78
452.70	348.44
453.07	345.59
453.43	342.65
453.80	339.90
454.17	337.25
454.54	334.72
454.91	332.02
455.28	329.33
455.65	326.81
456.02	324.35
456.38	322.25
456.75	319.60
457.12	317.32
457.49	315.10
457.86	312.94
458.23	311.09
458.59	309.10
458.96	307.02
459.33	305.16
459.70	303.29
460.07	301.82
460.43	300.05
460.80	298.40
461.17	296.99
461.54	295.48
461.91	294.02
462.27	292.56
462.64	291.29
463.01	289.92
463.38	288.64
463.74	287.22
464.11	286.03
464.48	284.96
464.85	283.87
465.21	282.95
465.58	282.01
465.95	280.91
466.32	279.97
466.68	279.05
467.05	278.17
467.42	277.22
467.78	276.25
468.15	275.37
468.52	274.72
468.88	273.78
469.25	272.98
469.62	272.33
469.98	271.65
470.35	271.02
470.72	270.41
471.08	269.73
471.45	269.21
471.82	268.65
472.18	268.03
472.55	267.51
472.92	266.95
473.28	266.45
473.65	265.97
474.02	265.50
474.38	265.09
474.75	264.70
475.11	264.34
475.48	264.03
475.85	263.81
476.21	263.58
476.58	263.42
476.94	263.24
477.31	263.09
477.67	262.88
478.04	262.73
478.41	262.65
478.77	262.69
479.14	262.58
479.50	262.59
479.87	262.66
480.23	262.75
480.60	262.84
480.96	262.95
481.33	263.15
481.69	263.33
482.06	263.50
482.42	263.70
482.79	263.95
483.15	264.28
483.52	264.63
483.88	264.94
484.25	265.32
484.61	265.72
484.98	266.12
485.34	266.67
485.71	267.26
486.07	267.84
486.44	268.41
486.80	269.11
487.17	269.83
487.53	270.63
487.90	271.48
488.26	272.41
488.62	273.38
488.99	274.35
489.35	275.39
489.72	276.55
490.08	277.73
490.44	278.97
490.81	280.29
491.17	281.64
491.54	283.09
491.90	284.63
492.26	286.28
492.63	288.05
492.99	289.84
493.36	291.69
493.72	293.74
494.08	295.82
494.45	298.06
494.81	300.39
495.17	302.81
495.54	305.36
495.90	307.99
496.26	310.75
496.63	313.71
496.99	316.80
497.35	320.04
497.72	323.43
498.08	326.95
498.44	330.62
498.80	334.54
499.17	338.59
499.53	342.75
499.89	347.08
500.26	351.60
500.62	356.24
500.98	361.23
501.34	366.26
501.71	371.58
502.07	377.03
502.43	382.60
502.79	388.43
503.16	394.49
503.52	400.78
503.88	407.19
504.24	413.77
504.60	420.63
504.97	427.77
505.33	435.07
505.69	442.71
506.05	450.41
506.41	458.23
506.78	466.35
507.14	474.82
507.50	483.60
507.86	492.55
508.22	501.74
508.59	510.91
508.95	520.46
509.31	530.21
509.67	540.28
510.03	550.58
510.39	561.13
510.75	571.91
511.12	582.81
511.48	594.11
511.84	605.50
512.20	617.08
512.56	628.95
512.92	641.13
513.28	653.48
513.64	665.98
514.00	678.65
514.37	691.59
514.73	704.62
515.09	717.66
515.45	730.98
515.81	744.60
516.17	758.58
516.53	772.74
516.89	787.01
517.25	801.17
517.61	815.60
517.97	830.02
518.33	844.52
518.69	859.41
519.05	874.48
519.41	889.76
519.77	905.29
520.13	920.83
520.49	936.24
520.85	951.70
521.21	967.63
521.57	983.89
521.93	999.82
522.29	1016.25
522.65	1032.49
523.01	1048.64
523.37	1064.71
523.73	1081.04
524.09	1097.20
524.45	1113.54
524.81	1130.36
525.17	1147.30
525.53	1164.29
525.89	1181.18
526.25	1198.02
526.61	1214.41
526.97	1231.21
527.33	1247.73
527.68	1264.35
528.04	1280.98
528.40	1297.64
528.76	1314.59
529.12	1331.32
529.48	1348.21
529.84	1364.25
530.20	1380.99
530.56	1398.21
530.91	1415.60
531.27	1432.25
531.63	1448.73
531.99	1465.28
532.35	1481.25
532.71	1497.11
533.07	1513.49
533.42	1529.40
533.78	1545.35
534.14	1561.70
534.50	1577.12
534.86	1593.11
535.21	1608.33
535.57	1624.29
535.93	1640.00
536.29	1654.87
536.65	1670.08
537.00	1684.90
537.36	1700.30
537.72	1714.85
538.08	1729.34
538.44	1743.36
538.79	1757.53
539.15	1771.49
539.51	1785.58
539.87	1800.12
540.22	1814.04
540.58	1827.89
540.94	1841.34
541.29	1854.60
541.65	1867.36
542.01	1880.71
542.37	1893.00
542.72	1905.64
543.08	1917.47
543.44	1929.85
543.79	1941.20
544.15	1952.30
544.51	1963.95
544.87	1975.07
545.22	1986.01
545.58	1996.33
545.94	2006.10
546.29	2015.83
546.65	2025.63
547.01	2034.72
547.36	2043.42
547.72	2051.89
548.07	2059.68
548.43	2068.01
548.79	2075.92
549.14	2083.50
549.50	2090.86
549.86	2098.73
550.21	2106.05
550.57	2113.39
550.92	2120.01
551.28	2127.12
551.64	2134.09
551.99	2140.74
552.35	2146.73
552.70	2152.79
553.06	2158.72
553.41	2165.08
553.77	2171.10
554.13	2177.19
554.48	2183.31
554.84	2188.57
555.19	2193.94
555.55	2199.01
555.90	2203.33
556.26	2208.09
556.61	2212.86
556.97	2216.98
557.32	2221.05
557.68	2225.01
558.03	2229.16
558.39	2232.81
558.74	2237.35
559.10	2241.06
559.45	2244.52
559.81	2248.85
560.16	2252.73
560.52	2255.86
560.87	2259.14
561.23	2261.83
561.58	2264.66
561.94	2267.21
562.29	2269.63
562.64	2272.09
563.00	2274.74
563.35	2278.37
563.71	2281.52
564.06	2284.59
564.42	2287.28
564.77	2289.51
565.12	2291.71
565.48	2293.39
565.83	2294.97
566.19	2296.08
566.54	2297.04
566.89	2298.13
567.25	2298.62
567.60	2299.77
567.96	2301.27
568.31	2302.00
568.66	2302.87
569.02	2303.26
569.37	2303.30
569.72	2303.81
570.08	2303.73
570.43	2303.49
570.78	2302.39
571.14	2300.69
571.49	2299.15
571.84	2298.79
572.20	2297.55
572.55	2296.27
572.90	2294.60
573.26	2293.07
573.61	2291.28
573.96	2289.23
574.31	2285.93
574.67	2282.55
575.02	2278.63
575.37	2274.90
575.72	2270.80
576.08	2267.45
576.43	2264.00
576.78	2260.17
577.13	2257.21
577.49	2253.97
577.84	2250.49
578.19	2246.82
578.54	2243.01
578.90	2238.57
579.25	2232.81
579.60	2227.72
579.95	2222.61
580.30	2217.42
580.66	2212.17
581.01	2206.96
581.36	2201.92
581.71	2197.49
582.06	2193.06
582.42	2188.66
582.77	2183.54
583.12	2178.94
583.47	2174.04
583.82	2168.74
584.17	2163.46
584.53	2157.54
584.88	2151.81
585.23	2145.65
585.58	2140.14
585.93	2134.50
586.28	2129.70
586.63	2124.56
586.98	2119.40
587.34	2114.66
587.69	2109.67
588.04	2104.34
588.39	2098.72
588.74	2092.15
589.09	2086.14
589.44	2079.34
589.79	2073.17
590.14	2067.23
590.49	2060.62
590.84	2054.09
591.19	2048.00
591.54	2041.40
591.89	2033.92
592.25	2027.08
592.60	2019.95
592.95	2012.08
593.30	2004.66
593.65	1996.86
594.00	1989.77
594.35	1982.32
594.70	1974.25
595.05	1966.96
595.40	1959.61
595.75	1951.88
596.10	1945.47
596.45	1938.34
596.80	1931.89
597.15	1924.98
597.50	1918.03
597.85	1911.62
598.19	1904.90
598.54	1897.68
598.89	1891.00
599.24	1885.00
599.59	1878.21
599.94	1871.91
600.29	1865.45
600.64	1858.80
600.99	1851.42
601.34	1844.51
601.69	1837.63
602.04	1830.52
602.39	1823.06
602.74	1816.19
603.08	1809.47
603.43	1802.85
603.78	1795.73
604.13	1788.55
604.48	1781.39
604.83	1774.38
605.18	1767.17
605.53	1759.15
605.87	1751.17
606.22	1743.84
606.57	1735.99
606.92	1728.71
607.27	1721.46
607.62	1714.65
607.96	1707.35
608.31	1700.59
608.66	1692.92
609.01	1685.41
609.36	1677.82
609.70	1669.95
610.05	1661.89
610.40	1654.23
610.75	1645.92
611.10	1638.25
611.44	1630.03
611.79	1622.00
612.14	1613.28
612.49	1604.21
612.83	1595.89
613.18	1587.81
613.53	1579.86
613.88	1571.35
614.22	1563.07
614.57	1554.68
614.92	1546.62
615.27	1539.11
615.61	1530.85
615.96	1522.98
616.31	1515.36
616.65	1508.20
617.00	1500.58
617.35	1492.95
617.70	1484.68
618.04	1476.04
618.39	1467.97
618.74	1460.31
619.08	1452.11
619.43	1444.70
619.78	1437.86
620.12	1430.66
620.47	1423.28
620.82	1415.17
621.16	1407.91
621.51	1400.32
621.85	1392.67
622.20	1384.23
622.55	1376.00
622.89	1368.26
623.24	1360.69
623.59	1353.41
623.93	1345.97
624.28	1338.80
624.62	1331.27
624.97	1324.13
625.32	1317.51
625.66	1310.51
626.01	1303.29
626.35	1295.83
626.70	1288.06
627.04	1280.37
627.39	1272.76
627.73	1265.32
628.08	1258.32
628.43	1251.02
628.77	1243.66
629.12	1236.07
629.46	1229.05
629.81	1221.68
630.15	1214.50
630.50	1207.09
630.84	1198.96
631.19	1190.99
631.53	1183.51
631.88	1176.02
632.22	1168.38
632.57	1161.14
632.91	1153.68
633.26	1146.37
633.60	1139.07
633.95	1132.09
634.29	1125.04
634.64	1118.35
634.98	1111.05
635.32	1104.14
635.67	1097.66
636.01	1091.13
636.36	1084.42
636.70	1077.90
637.05	1071.40
637.39	1065.04
637.73	1058.59
638.08	1052.66
638.42	1046.71
638.77	1040.35
639.11	1033.77
639.45	1027.53
639.80	1020.94
640.14	1014.46
640.49	1007.99
640.83	1001.80
641.17	995.66
641.52	989.39
641.86	983.06
642.20	977.33
642.55	970.90
642.89	964.38
643.23	957.91
643.58	952.16
643.92	945.87
644.26	939.79
644.61	933.84
644.95	927.91
645.29	921.29
645.64	914.60
645.98	908.32
646.32	902.50
646.66	896.48
647.01	890.72
647.35	885.12
647.69	879.34
648.04	873.79
648.38	867.95
648.72	862.06
649.06	855.99
649.41	850.09
649.75	844.19
650.09	838.31
650.43	832.49
650.78	826.40
651.12	820.55
651.46	814.86
651.80	808.98
652.14	803.51
652.49	798.24
652.83	793.08
653.17	787.37
653.51	781.70
653.85	776.36
654.20	770.73
654.54	764.67
654.88	759.00
655.22	753.18
655.56	747.52
655.90	742.03
656.25	736.72
656.59	731.39
656.93	726.35
657.27	721.16
657.61	715.76
657.95	710.62
658.29	705.57
658.64	700.39
658.98	695.18
659.32	689.74
659.66	684.56
660.00	679.29
660.34	674.36
660.68	669.51
661.02	664.43
661.36	659.75
661.70	655.40
662.05	651.00
662.39	646.68
662.73	642.23
663.07	637.87
663.41	633.49
663.75	629.01
664.09	624.47
664.43	620.13
664.77	616.05
665.11	611.83
665.45	607.80
665.79	603.76
666.13	599.65
666.47	595.57
666.81	591.40
667.15	587.32
667.49	583.49
667.83	579.72
668.17	575.83
668.51	571.80
668.85	567.77
669.19	563.93
669.53	560.17
669.87	556.40
670.21	552.79
670.55	549.26
670.89	545.89
671.23	542.51
671.57	539.07
671.91	535.59
672.25	532.21
672.58	528.74
672.92	525.33
673.26	522.21
673.60	519.13
673.94	516.13
674.28	513.28
674.62	510.38
674.96	507.27
675.30	504.41
675.64	501.52
675.97	498.79
676.31	496.01
676.65	493.06
676.99	490.37
677.33	487.54
677.67	484.71
678.01	481.66
678.34	478.64
678.68	475.78
679.02	472.96
679.36	470.22
679.70	467.47
680.04	464.80
680.37	461.92
680.71	459.18
681.05	456.52
681.39	453.83
681.73	451.17
682.06	448.72
682.40	446.23
682.74	443.75
683.08	441.19
683.42	438.61
683.75	436.09
684.09	433.55
684.43	431.08
684.77	428.65
685.10	426.36
685.44	424.13
685.78	421.87
686.12	419.66
686.45	417.35
686.79	415.10
687.13	412.88
687.46	410.75
687.80	408.58
688.14	406.40
688.48	404.31
688.81	402.01
689.15	399.87
689.49	397.67
689.82	395.59
690.16	393.54
690.50	391.56
690.83	389.64
691.17	387.66
691.51	385.76
691.84	383.90
692.18	381.97
692.52	380.01
692.85	378.06
693.19	376.18
693.52	374.41
693.86	372.60
694.20	370.80
694.53	369.01
694.87	367.20
695.21	365.38
695.54	363.62
695.88	361.96
696.21	360.25
696.55	358.62
696.88	356.90
697.22	355.27
697.56	353.68
697.89	352.00
698.23	350.44
698.56	348.81
698.90	347.21
699.23	345.55
699.57	344.01
699.90	342.53
700.24	341.00
700.58	339.47
700.91	337.98
701.25	336.50
701.58	335.13
701.92	333.80
702.25	332.46
702.59	331.07
702.92	329.77
703.26	328.44
703.59	327.17
703.93	325.99
704.26	324.75
704.60	323.41
704.93	322.19
705.26	320.95
705.60	319.86
705.93	318.70
706.27	317.71
706.60	316.67
706.94	315.60
707.27	314.50
707.61	313.43
707.94	312.44
708.27	311.39
708.61	310.34
708.94	309.30
709.28	308.33
709.61	307.40
709.94	306.44
710.28	305.43
710.61	304.46
710.95	303.42
711.28	302.49
711.61	301.61
711.95	300.70
712.28	299.76
712.61	298.77
712.95	297.85
713.28	297.00
713.61	296.10
713.95	295.21
714.28	294.40
714.61	293.55
714.95	292.71
715.28	291.90
715.61	291.04
715.95	290.24
716.28	289.41
716.61	288.56
716.95	287.79
717.28	287.08
717.61	286.31
717.94	285.59
718.28	284.82
718.61	284.09
718.94	283.46
719.27	282.80
719.61	282.13
719.94	281.52
720.27	280.79
720.60	280.12
720.94	279.47
721.27	278.88
721.60	278.28
721.93	277.71
722.27	277.16
722.60	276.61
722.93	276.02
723.26	275.49
723.59	274.97
723.93	274.41
724.26	273.82
724.59	273.29
724.92	272.77
725.25	272.29
725.59	271.77
725.92	271.22
726.25	270.70
726.58	270.23
726.91	269.73
727.24	269.21
727.57	268.77
727.91	268.27
728.24	267.79
728.57	267.33
728.90	266.88
729.23	266.34
729.56	265.92
729.89	265.45
730.22	264.95
730.55	264.43
730.89	263.99
731.22	263.58
731.55	263.11
731.88	262.70
732.21	262.24
732.54	261.80
732.87	261.35
733.20	260.98
733.53	260.56
733.86	260.14
734.19	259.78
734.52	259.38
734.85	259.08
735.18	258.65
735.51	258.29
735.84	257.89
736.17	257.57
736.50	257.14
736.83	256.90
737.16	256.57
737.49	256.28
737.82	255.94
738.15	255.61
738.48	255.29
738.81	254.94
739.14	254.65
739.47	254.31
739.80	254.05
740.13	253.75
740.46	253.46
740.79	253.16
741.12	252.85
741.45	252.55
741.78	252.20
742.11	251.93
742.44	251.60
742.77	251.31
743.10	251.04
743.43	250.73
743.75	250.36
744.08	250.24
744.41	249.95
744.74	249.65
745.07	249.37
745.40	249.13
745.73	248.90
746.06	248.63
746.39	248.38
746.71	248.09
747.04	247.82
747.37	247.56
747.70	247.32
748.03	247.07
748.36	246.85
748.68	246.62
749.01	246.35
749.34	246.12
749.67	245.90
750.00	245.65
750.33	245.51
750.65	245.31
750.98	244.99
751.31	244.77
751.64	244.58
751.97	244.39
752.29	244.18
752.62	243.93
752.95	243.75
753.28	243.56
753.60	243.41
753.93	243.23
754.26	243.03
754.59	242.80
754.91	242.61
755.24	242.42
755.57	242.21
755.90	242.05
756.22	241.84
756.55	241.67
756.88	241.47
757.20	241.27
757.53	241.07
757.86	240.87
758.19	240.74
758.51	240.58
758.84	240.42
759.17	240.24
759.49	240.13
759.82	240.01
760.15	239.87
760.47	239.69
760.80	239.54
761.13	239.44
761.45	239.29
761.78	239.16
762.11	239.00
762.43	238.89
762.76	238.75
763.08	238.66
763.41	238.50
763.74	238.37
764.06	238.24
764.39	238.09
764.71	237.94
765.04	237.79
765.37	237.65
765.69	237.50
766.02	237.40
766.34	237.23
766.67	237.07
767.00	236.92
767.32	236.84
767.65	236.77
767.97	236.62
768.30	236.53
768.62	236.40
768.95	236.29
769.27	236.14
769.60	236.06
769.92	235.93
770.25	235.84
770.57	235.76
770.90	235.64
771.22	235.53
771.55	235.45
771.87	235.35
772.20	235.26
772.52	235.26
772.85	235.28
773.17	235.21
773.50	235.12
773.82	235.03
774.15	234.87
774.47	234.70
774.80	234.61
775.12	234.51
775.45	234.42
775.77	234.31
776.09	234.21
776.42	234.12
776.74	234.04
777.07	233.95
777.39	233.85
777.72	233.77
778.04	233.73
778.36	233.67
778.69	233.59
779.01	233.51
779.33	233.34
779.66	233.16
779.98	233.07
780.31	232.98
780.63	232.94
780.95	232.92
781.28	232.87
781.60	232.78
781.92	232.69
782.25	232.60
782.57	232.56
782.89	232.50
783.22	232.43
783.54	232.37
783.86	232.27
784.19	232.22
784.51	232.19
784.83	232.11
785.16	232.03
785.48	231.99
785.80	231.93
786.12	231.89
786.45	231.82
786.77	231.77
787.09	231.72
