SpectraSuite Data File
++++++++++++++++++++++++++++++++++++
Date: Fri Feb 01 15:17:25 EST 2013
User: group
Dark Spectrum Present: No
Reference Spectrum Present: No
Number of Sampled Component Spectra: 1
Spectrometers: USB2E7196
Integration Time (usec): 35000 (USB2E7196)
Spectra Averaged: 100 (USB2E7196)
Boxcar Smoothing: 10 (USB2E7196)
Correct for Electrical Dark: No (USB2E7196)
Strobe/Lamp Enabled: No (USB2E7196)
Correct for Detector Non-linearity: No (USB2E7196)
Correct for Stray Light: No (USB2E7196)
Number of Pixels in Processed Spectrum: 2048
>>>>>Begin Processed Spectral Data<<<<<
339.09	0.00
339.48	214.94
339.86	216.49
340.24	217.84
340.63	219.27
341.01	222.18
341.39	222.09
341.78	223.13
342.16	224.87
342.54	224.36
342.93	213.34
343.31	224.14
343.69	224.69
344.07	225.15
344.46	225.55
344.84	225.93
345.22	226.19
345.60	226.43
345.99	226.61
346.37	226.72
346.75	226.87
347.13	226.93
347.52	227.00
347.90	227.09
348.28	227.10
348.66	227.15
349.05	227.10
349.43	227.18
349.81	227.21
350.19	227.26
350.57	227.32
350.96	227.40
351.34	227.45
351.72	227.53
352.10	227.60
352.48	227.70
352.87	227.77
353.25	227.79
353.63	227.85
354.01	227.93
354.39	228.03
354.77	228.08
355.15	228.18
355.54	228.25
355.92	228.28
356.30	228.34
356.68	228.47
357.06	228.56
357.44	228.60
357.82	228.70
358.20	228.76
358.58	228.81
358.97	228.89
359.35	228.98
359.73	229.07
360.11	229.15
360.49	229.22
360.87	229.22
361.25	229.30
361.63	229.39
362.01	229.40
362.39	229.42
362.77	229.46
363.15	229.47
363.53	229.48
363.91	229.51
364.29	229.53
364.67	229.48
365.05	229.51
365.43	229.51
365.81	229.47
366.19	229.52
366.57	229.53
366.95	229.53
367.33	229.49
367.71	229.45
368.09	229.44
368.47	229.40
368.85	229.39
369.23	229.36
369.61	229.28
369.99	229.32
370.37	229.28
370.75	229.26
371.13	229.18
371.51	229.13
371.89	229.06
372.27	229.04
372.65	228.94
373.03	228.89
373.41	228.84
373.78	228.79
374.16	228.66
374.54	228.59
374.92	228.51
375.30	228.46
375.68	228.38
376.06	228.28
376.44	228.22
376.82	228.17
377.19	228.13
377.57	228.05
377.95	227.95
378.33	227.88
378.71	227.76
379.09	227.75
379.47	227.65
379.84	227.60
380.22	227.53
380.60	227.45
380.98	227.33
381.36	227.24
381.73	227.17
382.11	227.11
382.49	227.06
382.87	226.99
383.25	226.93
383.62	226.99
384.00	226.93
384.38	226.89
384.76	226.82
385.13	226.79
385.51	226.75
385.89	226.70
386.27	226.63
386.64	226.60
387.02	226.52
387.40	226.49
387.78	226.47
388.15	226.43
388.53	226.41
388.91	226.42
389.29	226.39
389.66	226.36
390.04	226.30
390.42	226.28
390.79	226.22
391.17	226.20
391.55	226.04
391.92	226.06
392.30	226.03
392.68	226.03
393.05	226.02
393.43	226.02
393.81	225.98
394.18	226.00
394.56	226.05
394.94	226.06
395.31	226.13
395.69	226.16
396.06	226.23
396.44	226.25
396.82	226.28
397.19	226.37
397.57	226.41
397.95	226.47
398.32	226.52
398.70	226.64
399.07	226.69
399.45	226.78
399.82	226.83
400.20	226.90
400.58	226.97
400.95	227.03
401.33	227.13
401.70	227.31
402.08	227.44
402.45	227.50
402.83	227.65
403.20	227.71
403.58	227.81
403.95	227.95
404.33	228.13
404.71	228.28
405.08	228.46
405.46	228.61
405.83	228.77
406.21	228.95
406.58	229.08
406.96	229.29
407.33	229.50
407.70	229.71
408.08	230.00
408.45	230.22
408.83	230.45
409.20	230.66
409.58	230.86
409.95	231.09
410.33	231.38
410.70	231.63
411.08	231.96
411.45	232.28
411.82	232.57
412.20	232.90
412.57	233.32
412.95	233.59
413.32	234.01
413.69	234.45
414.07	234.85
414.44	235.31
414.82	235.82
415.19	236.37
415.56	236.93
415.94	237.46
416.31	238.15
416.68	238.77
417.06	239.52
417.43	240.20
417.81	240.97
418.18	241.75
418.55	242.62
418.93	243.50
419.30	244.42
419.67	245.35
420.04	246.33
420.42	247.30
420.79	248.52
421.16	249.72
421.54	250.91
421.91	252.13
422.28	253.42
422.66	254.70
423.03	255.98
423.40	257.29
423.77	258.70
424.15	260.10
424.52	261.59
424.89	263.20
425.26	264.78
425.64	266.22
426.01	267.82
426.38	269.45
426.75	271.12
427.13	272.82
427.50	274.61
427.87	276.47
428.24	278.32
428.61	280.04
428.99	281.91
429.36	284.01
429.73	286.08
430.10	288.06
430.47	290.13
430.85	292.27
431.22	294.53
431.59	296.95
431.96	299.18
432.33	301.66
432.70	304.06
433.08	306.85
433.45	309.49
433.82	312.12
434.19	315.00
434.56	317.82
434.93	320.47
435.30	323.10
435.68	326.01
436.05	328.86
436.42	331.63
436.79	334.19
437.16	336.85
437.53	339.72
437.90	342.58
438.27	345.34
438.64	348.16
439.01	350.79
439.38	353.00
439.75	355.20
440.13	357.75
440.50	360.09
440.87	361.93
441.24	363.92
441.61	366.08
441.98	367.59
442.35	369.44
442.72	371.29
443.09	373.09
443.46	374.06
443.83	374.68
444.20	375.19
444.57	376.08
444.94	376.37
445.31	376.66
445.68	377.01
446.05	377.04
446.42	376.66
446.79	376.20
447.16	375.77
447.53	375.42
447.90	374.19
448.27	373.00
448.64	371.42
449.01	370.27
449.37	368.29
449.74	366.37
450.11	364.11
450.48	361.66
450.85	359.14
451.22	357.06
451.59	355.00
451.96	353.05
452.33	350.37
452.70	348.02
453.07	345.19
453.43	342.28
453.80	339.53
454.17	336.87
454.54	334.32
454.91	331.59
455.28	328.92
455.65	326.44
456.02	323.99
456.38	321.86
456.75	319.14
457.12	316.88
457.49	314.67
457.86	312.45
458.23	310.54
458.59	308.50
458.96	306.34
459.33	304.49
459.70	302.64
460.07	301.18
460.43	299.49
460.80	297.90
461.17	296.44
461.54	294.96
461.91	293.49
462.27	292.08
462.64	290.82
463.01	289.44
463.38	288.15
463.74	286.77
464.11	285.57
464.48	284.59
464.85	283.50
465.21	282.63
465.58	281.73
465.95	280.68
466.32	279.78
466.68	278.89
467.05	277.96
467.42	277.07
467.78	276.13
468.15	275.22
468.52	274.56
468.88	273.70
469.25	272.90
469.62	272.33
469.98	271.64
470.35	270.97
470.72	270.41
471.08	269.72
471.45	269.18
471.82	268.65
472.18	268.04
472.55	267.57
472.92	267.02
473.28	266.56
473.65	266.12
474.02	265.70
474.38	265.32
474.75	265.03
475.11	264.73
475.48	264.43
475.85	264.21
476.21	263.95
476.58	263.79
476.94	263.64
477.31	263.43
477.67	263.29
478.04	263.22
478.41	263.14
478.77	263.21
479.14	263.16
479.50	263.13
479.87	263.22
480.23	263.29
480.60	263.35
480.96	263.44
481.33	263.63
481.69	263.79
482.06	263.98
482.42	264.18
482.79	264.40
483.15	264.76
483.52	265.14
483.88	265.50
484.25	265.89
484.61	266.33
484.98	266.80
485.34	267.36
485.71	267.96
486.07	268.56
486.44	269.13
486.80	269.80
487.17	270.55
487.53	271.33
487.90	272.21
488.26	273.17
488.62	274.13
488.99	275.09
489.35	276.13
489.72	277.27
490.08	278.44
490.44	279.67
490.81	280.95
491.17	282.27
491.54	283.72
491.90	285.25
492.26	286.90
492.63	288.60
492.99	290.31
493.36	292.17
493.72	294.22
494.08	296.32
494.45	298.56
494.81	300.93
495.17	303.36
495.54	305.91
495.90	308.58
496.26	311.36
496.63	314.29
496.99	317.41
497.35	320.63
497.72	324.03
498.08	327.56
498.44	331.21
498.80	335.13
499.17	339.19
499.53	343.30
499.89	347.62
500.26	352.13
500.62	356.87
500.98	361.82
501.34	366.88
501.71	372.24
502.07	377.70
502.43	383.31
502.79	389.12
503.16	395.15
503.52	401.40
503.88	407.79
504.24	414.49
504.60	421.39
504.97	428.52
505.33	435.84
505.69	443.51
506.05	451.32
506.41	459.17
506.78	467.34
507.14	475.83
507.50	484.57
507.86	493.58
508.22	502.71
508.59	511.86
508.95	521.39
509.31	531.11
509.67	541.23
510.03	551.53
510.39	562.08
510.75	572.99
511.12	583.90
511.48	595.27
511.84	606.68
512.20	618.13
512.56	630.07
512.92	642.26
513.28	654.62
513.64	667.15
514.00	679.94
514.37	692.81
514.73	705.87
515.09	718.89
515.45	732.17
515.81	745.82
516.17	759.80
516.53	773.97
516.89	788.16
517.25	802.37
517.61	816.83
517.97	831.35
518.33	845.79
518.69	860.70
519.05	875.62
519.41	890.82
519.77	906.41
520.13	922.01
520.49	937.40
520.85	952.86
521.21	968.52
521.57	984.84
521.93	1000.71
522.29	1017.13
522.65	1033.42
523.01	1049.70
523.37	1065.79
523.73	1082.09
524.09	1098.19
524.45	1114.59
524.81	1131.28
525.17	1148.16
525.53	1165.10
525.89	1181.99
526.25	1198.72
526.61	1215.19
526.97	1232.04
527.33	1248.65
527.68	1265.19
528.04	1281.87
528.40	1298.60
528.76	1315.79
529.12	1332.39
529.48	1349.27
529.84	1365.43
530.20	1382.18
530.56	1399.31
530.91	1416.74
531.27	1433.65
531.63	1450.14
531.99	1466.71
532.35	1482.72
532.71	1498.65
533.07	1514.91
533.42	1530.84
533.78	1546.99
534.14	1563.25
534.50	1578.67
534.86	1594.57
535.21	1609.88
535.57	1625.83
535.93	1641.38
536.29	1656.19
536.65	1671.44
537.00	1686.35
537.36	1701.60
537.72	1716.17
538.08	1730.68
538.44	1744.62
538.79	1758.59
539.15	1772.47
539.51	1786.37
539.87	1800.87
540.22	1814.71
540.58	1828.69
540.94	1842.19
541.29	1855.21
541.65	1868.04
542.01	1881.29
542.37	1893.76
542.72	1906.17
543.08	1918.04
543.44	1930.47
543.79	1941.81
544.15	1952.67
544.51	1964.33
544.87	1975.43
545.22	1986.26
545.58	1996.54
545.94	2006.29
546.29	2016.15
546.65	2026.03
547.01	2035.32
547.36	2043.99
547.72	2052.46
548.07	2060.26
548.43	2068.40
548.79	2076.48
549.14	2084.01
549.50	2091.38
549.86	2098.95
550.21	2106.33
550.57	2113.43
550.92	2119.96
551.28	2127.14
551.64	2134.28
551.99	2140.79
552.35	2146.88
552.70	2153.02
553.06	2158.90
553.41	2165.31
553.77	2171.33
554.13	2177.46
554.48	2183.63
554.84	2189.04
555.19	2194.36
555.55	2199.43
555.90	2203.87
556.26	2208.66
556.61	2213.36
556.97	2217.42
557.32	2221.63
557.68	2225.83
558.03	2230.16
558.39	2233.96
558.74	2238.39
559.10	2242.23
559.45	2245.87
559.81	2250.22
560.16	2253.96
560.52	2257.18
560.87	2260.54
561.23	2263.09
561.58	2266.06
561.94	2268.55
562.29	2271.09
562.64	2273.75
563.00	2276.40
563.35	2280.01
563.71	2283.02
564.06	2286.40
564.42	2289.41
564.77	2291.82
565.12	2293.92
565.48	2295.59
565.83	2297.29
566.19	2298.63
566.54	2299.56
566.89	2300.60
567.25	2301.12
567.60	2302.61
567.96	2304.23
568.31	2305.06
568.66	2306.17
569.02	2306.61
569.37	2306.79
569.72	2307.59
570.08	2307.62
570.43	2307.48
570.78	2306.73
571.14	2305.26
571.49	2303.68
571.84	2303.33
572.20	2302.03
572.55	2300.91
572.90	2299.42
573.26	2298.03
573.61	2296.25
573.96	2294.37
574.31	2291.38
574.67	2288.27
575.02	2284.46
575.37	2280.83
575.72	2276.89
576.08	2273.56
576.43	2270.12
576.78	2266.42
577.13	2263.04
577.49	2259.96
577.84	2256.43
578.19	2252.74
578.54	2249.01
578.90	2244.67
579.25	2239.03
579.60	2234.03
579.95	2228.95
580.30	2223.81
580.66	2218.51
581.01	2213.44
581.36	2208.29
581.71	2203.99
582.06	2199.45
582.42	2194.86
582.77	2189.62
583.12	2184.79
583.47	2179.83
583.82	2174.74
584.17	2169.36
584.53	2163.68
584.88	2157.74
585.23	2151.83
585.58	2146.05
585.93	2140.54
586.28	2135.86
586.63	2130.70
586.98	2125.59
587.34	2120.82
587.69	2115.92
588.04	2110.48
588.39	2104.70
588.74	2098.25
589.09	2092.00
589.44	2085.08
589.79	2078.90
590.14	2073.25
590.49	2066.78
590.84	2060.34
591.19	2054.25
591.54	2047.71
591.89	2040.22
592.25	2033.39
592.60	2026.14
592.95	2018.52
593.30	2011.08
593.65	2003.32
594.00	1996.15
594.35	1988.83
594.70	1980.70
595.05	1973.34
595.40	1966.05
595.75	1958.49
596.10	1952.06
596.45	1945.21
596.80	1939.13
597.15	1932.51
597.50	1925.36
597.85	1918.88
598.19	1912.22
598.54	1904.97
598.89	1898.28
599.24	1892.35
599.59	1885.50
599.94	1879.24
600.29	1872.90
600.64	1866.24
600.99	1858.73
601.34	1851.77
601.69	1844.82
602.04	1837.75
602.39	1830.36
602.74	1823.69
603.08	1817.02
603.43	1810.48
603.78	1803.28
604.13	1796.01
604.48	1788.76
604.83	1781.90
605.18	1774.87
605.53	1766.70
605.87	1758.66
606.22	1751.52
606.57	1743.57
606.92	1736.44
607.27	1729.38
607.62	1722.41
607.96	1715.15
608.31	1708.43
608.66	1700.69
609.01	1692.97
609.36	1685.55
609.70	1677.57
610.05	1669.32
610.40	1661.46
610.75	1653.02
611.10	1645.23
611.44	1636.71
611.79	1628.70
612.14	1619.99
612.49	1610.85
612.83	1602.60
613.18	1594.57
613.53	1586.30
613.88	1577.88
614.22	1569.62
614.57	1560.97
614.92	1553.01
615.27	1545.43
615.61	1537.08
615.96	1529.25
616.31	1521.69
616.65	1514.24
617.00	1506.67
617.35	1499.04
617.70	1490.70
618.04	1482.12
618.39	1473.88
618.74	1466.44
619.08	1458.07
619.43	1450.53
619.78	1443.63
620.12	1436.48
620.47	1428.89
620.82	1420.84
621.16	1413.41
621.51	1405.64
621.85	1398.04
622.20	1389.43
622.55	1381.15
622.89	1373.43
623.24	1365.82
623.59	1358.33
623.93	1350.92
624.28	1343.68
624.62	1336.16
624.97	1329.09
625.32	1322.47
625.66	1315.55
626.01	1308.26
626.35	1300.74
626.70	1292.85
627.04	1285.04
627.39	1277.23
627.73	1269.81
628.08	1262.87
628.43	1255.47
628.77	1248.08
629.12	1240.44
629.46	1233.32
629.81	1225.73
630.15	1218.49
630.50	1211.08
630.84	1202.93
631.19	1195.08
631.53	1187.50
631.88	1179.98
632.22	1172.34
632.57	1165.00
632.91	1157.42
633.26	1149.93
633.60	1142.71
633.95	1135.78
634.29	1128.84
634.64	1122.11
634.98	1114.76
635.32	1107.63
635.67	1101.18
636.01	1094.59
636.36	1087.84
636.70	1081.33
637.05	1074.90
637.39	1068.48
637.73	1062.04
638.08	1056.26
638.42	1050.20
638.77	1043.83
639.11	1037.30
639.45	1030.98
639.80	1024.31
640.14	1017.92
640.49	1011.48
640.83	1005.17
641.17	998.97
641.52	992.61
641.86	986.24
642.20	980.52
642.55	974.24
642.89	967.72
643.23	961.21
643.58	955.50
643.92	949.23
644.26	943.11
644.61	937.16
644.95	931.13
645.29	924.53
645.64	917.80
645.98	911.48
646.32	905.57
646.66	899.48
647.01	893.72
647.35	888.01
647.69	882.22
648.04	876.74
648.38	870.93
648.72	864.90
649.06	858.89
649.41	852.88
649.75	846.87
650.09	840.92
650.43	835.13
650.78	828.94
651.12	823.02
651.46	817.37
651.80	811.48
652.14	806.01
652.49	800.67
652.83	795.52
653.17	789.88
653.51	784.15
653.85	778.73
654.20	773.04
654.54	767.09
654.88	761.33
655.22	755.45
655.56	749.71
655.90	744.37
656.25	739.07
656.59	733.77
656.93	728.63
657.27	723.47
657.61	718.03
657.95	712.96
658.29	707.90
658.64	702.69
658.98	697.42
659.32	691.97
659.66	686.78
660.00	681.47
660.34	676.55
660.68	671.70
661.02	666.65
661.36	662.00
661.70	657.46
662.05	653.09
662.39	648.76
662.73	644.36
663.07	639.97
663.41	635.54
663.75	631.00
664.09	626.48
664.43	622.12
664.77	618.04
665.11	613.79
665.45	609.71
665.79	605.62
666.13	601.50
666.47	597.40
666.81	593.19
667.15	589.09
667.49	585.18
667.83	581.34
668.17	577.45
668.51	573.33
668.85	569.36
669.19	565.50
669.53	561.57
669.87	557.69
670.21	553.98
670.55	550.38
670.89	546.98
671.23	543.60
671.57	540.05
671.91	536.58
672.25	533.10
672.58	529.57
672.92	526.19
673.26	523.09
673.60	520.01
673.94	516.90
674.28	514.00
674.62	511.03
674.96	507.94
675.30	505.03
675.64	502.13
675.97	499.35
676.31	496.59
676.65	493.73
676.99	490.97
677.33	488.10
677.67	485.21
678.01	482.17
678.34	479.20
678.68	476.34
679.02	473.52
679.36	470.79
679.70	468.10
680.04	465.35
680.37	462.45
680.71	459.66
681.05	457.07
681.39	454.37
681.73	451.83
682.06	449.37
682.40	446.87
682.74	444.35
683.08	441.79
683.42	439.17
683.75	436.70
684.09	434.20
684.43	431.75
684.77	429.33
685.10	427.03
685.44	424.72
685.78	422.50
686.12	420.30
686.45	418.00
686.79	415.72
687.13	413.54
687.46	411.45
687.80	409.34
688.14	407.16
688.48	405.10
688.81	402.76
689.15	400.61
689.49	398.49
689.82	396.47
690.16	394.42
690.50	392.44
690.83	390.50
691.17	388.54
691.51	386.68
691.84	384.93
692.18	382.99
692.52	381.02
692.85	379.09
693.19	377.15
693.52	375.36
693.86	373.53
694.20	371.71
694.53	369.86
694.87	368.04
695.21	366.26
695.54	364.48
695.88	362.76
696.21	361.00
696.55	359.27
696.88	357.57
697.22	355.94
697.56	354.34
697.89	352.66
698.23	351.08
698.56	349.44
698.90	347.75
699.23	346.06
699.57	344.48
699.90	342.93
700.24	341.42
700.58	339.85
700.91	338.32
701.25	336.86
701.58	335.47
701.92	334.04
702.25	332.67
702.59	331.24
702.92	329.98
703.26	328.69
703.59	327.43
703.93	326.25
704.26	325.00
704.60	323.69
704.93	322.43
705.26	321.16
705.60	320.00
705.93	318.88
706.27	317.86
706.60	316.81
706.94	315.72
707.27	314.58
707.61	313.54
707.94	312.54
708.27	311.47
708.61	310.39
708.94	309.40
709.28	308.40
709.61	307.49
709.94	306.49
710.28	305.48
710.61	304.49
710.95	303.41
711.28	302.47
711.61	301.54
711.95	300.64
712.28	299.67
712.61	298.64
712.95	297.71
713.28	296.82
713.61	295.96
713.95	295.10
714.28	294.29
714.61	293.44
714.95	292.64
715.28	291.78
715.61	290.94
715.95	290.09
716.28	289.24
716.61	288.38
716.95	287.57
717.28	286.84
717.61	286.09
717.94	285.36
718.28	284.57
718.61	283.88
718.94	283.19
719.27	282.59
719.61	281.99
719.94	281.34
720.27	280.68
720.60	280.02
720.94	279.38
721.27	278.76
721.60	278.19
721.93	277.57
722.27	277.07
722.60	276.54
722.93	276.01
723.26	275.53
723.59	274.98
723.93	274.49
724.26	273.94
724.59	273.41
724.92	272.92
725.25	272.43
725.59	271.89
725.92	271.40
726.25	270.88
726.58	270.38
726.91	269.87
727.24	269.41
727.57	268.95
727.91	268.47
728.24	268.03
728.57	267.55
728.90	267.12
729.23	266.63
729.56	266.19
729.89	265.72
730.22	265.24
730.55	264.80
730.89	264.33
731.22	263.92
731.55	263.50
731.88	263.03
732.21	262.62
732.54	262.19
732.87	261.79
733.20	261.41
733.53	261.04
733.86	260.68
734.19	260.29
734.52	259.93
734.85	259.62
735.18	259.18
735.51	258.83
735.84	258.44
736.17	258.05
736.50	257.63
736.83	257.40
737.16	257.04
737.49	256.71
737.82	256.38
738.15	256.01
738.48	255.66
738.81	255.34
739.14	255.02
739.47	254.69
739.80	254.37
740.13	254.07
740.46	253.71
740.79	253.38
741.12	253.07
741.45	252.72
741.78	252.35
742.11	252.06
742.44	251.68
742.77	251.39
743.10	251.09
743.43	250.83
743.75	250.42
744.08	250.29
744.41	249.97
744.74	249.67
745.07	249.39
745.40	249.16
745.73	248.93
746.06	248.64
746.39	248.39
746.71	248.09
747.04	247.80
747.37	247.54
747.70	247.29
748.03	247.00
748.36	246.77
748.68	246.51
749.01	246.25
749.34	246.06
749.67	245.79
750.00	245.57
750.33	245.39
750.65	245.19
750.98	244.83
751.31	244.61
751.64	244.41
751.97	244.22
752.29	243.99
752.62	243.71
752.95	243.53
753.28	243.30
753.60	243.08
753.93	242.93
754.26	242.77
754.59	242.56
754.91	242.38
755.24	242.18
755.57	241.99
755.90	241.82
756.22	241.64
756.55	241.48
756.88	241.29
757.20	241.06
757.53	240.84
757.86	240.68
758.19	240.52
758.51	240.36
758.84	240.14
759.17	239.96
759.49	239.82
759.82	239.69
760.15	239.54
760.47	239.41
760.80	239.22
761.13	239.09
761.45	238.93
761.78	238.81
762.11	238.67
762.43	238.54
762.76	238.41
763.08	238.30
763.41	238.18
763.74	238.06
764.06	237.93
764.39	237.78
764.71	237.66
765.04	237.53
765.37	237.42
765.69	237.31
766.02	237.22
766.34	237.08
766.67	236.93
767.00	236.82
767.32	236.78
767.65	236.72
767.97	236.60
768.30	236.51
768.62	236.38
768.95	236.28
769.27	236.20
769.60	236.10
769.92	235.95
770.25	235.80
770.57	235.66
770.90	235.56
771.22	235.49
771.55	235.38
771.87	235.32
772.20	235.19
772.52	235.19
772.85	235.19
773.17	235.13
773.50	235.02
773.82	234.94
774.15	234.80
774.47	234.65
774.80	234.58
775.12	234.53
775.45	234.45
775.77	234.39
776.09	234.28
776.42	234.18
776.74	234.17
777.07	234.12
777.39	234.05
777.72	233.98
778.04	233.93
778.36	233.84
778.69	233.76
779.01	233.72
779.33	233.56
779.66	233.37
779.98	233.29
780.31	233.25
780.63	233.21
780.95	233.19
781.28	233.11
781.60	233.00
781.92	232.91
782.25	232.83
782.57	232.74
782.89	232.69
783.22	232.61
783.54	232.51
783.86	232.47
784.19	232.44
784.51	232.39
784.83	232.33
785.16	232.28
785.48	232.20
785.80	232.15
786.12	232.11
786.45	232.07
786.77	232.00
787.09	231.93
