SpectraSuite Data File
++++++++++++++++++++++++++++++++++++
Date: Fri Feb 01 15:48:06 EST 2013
User: group
Dark Spectrum Present: No
Reference Spectrum Present: No
Number of Sampled Component Spectra: 1
Spectrometers: USB2E7196
Integration Time (usec): 35000 (USB2E7196)
Spectra Averaged: 100 (USB2E7196)
Boxcar Smoothing: 10 (USB2E7196)
Correct for Electrical Dark: No (USB2E7196)
Strobe/Lamp Enabled: No (USB2E7196)
Correct for Detector Non-linearity: No (USB2E7196)
Correct for Stray Light: No (USB2E7196)
Number of Pixels in Processed Spectrum: 2048
>>>>>Begin Processed Spectral Data<<<<<
339.09	0.00
339.48	215.40
339.86	216.38
340.24	217.86
340.63	218.74
341.01	221.62
341.39	221.17
341.78	222.89
342.16	224.08
342.54	224.81
342.93	212.99
343.31	223.72
343.69	224.22
344.07	224.67
344.46	225.09
344.84	225.48
345.22	225.69
345.60	225.94
345.99	226.10
346.37	226.22
346.75	226.28
347.13	226.37
347.52	226.43
347.90	226.52
348.28	226.53
348.66	226.54
349.05	226.51
349.43	226.49
349.81	226.54
350.19	226.58
350.57	226.64
350.96	226.74
351.34	226.87
351.72	226.96
352.10	227.03
352.48	227.10
352.87	227.14
353.25	227.21
353.63	227.28
354.01	227.39
354.39	227.47
354.77	227.58
355.15	227.68
355.54	227.73
355.92	227.77
356.30	227.88
356.68	228.04
357.06	228.11
357.44	228.17
357.82	228.23
358.20	228.29
358.58	228.33
358.97	228.39
359.35	228.45
359.73	228.53
360.11	228.58
360.49	228.65
360.87	228.71
361.25	228.76
361.63	228.82
362.01	228.86
362.39	228.90
362.77	228.91
363.15	228.93
363.53	228.97
363.91	228.99
364.29	228.98
364.67	228.91
365.05	228.95
365.43	228.99
365.81	229.00
366.19	229.05
366.57	229.13
366.95	229.13
367.33	229.11
367.71	229.08
368.09	229.13
368.47	229.08
368.85	229.05
369.23	229.08
369.61	229.05
369.99	229.05
370.37	229.02
370.75	229.03
371.13	228.99
371.51	228.95
371.89	228.94
372.27	228.89
372.65	228.86
373.03	228.81
373.41	228.75
373.78	228.70
374.16	228.60
374.54	228.49
374.92	228.42
375.30	228.34
375.68	228.30
376.06	228.23
376.44	228.17
376.82	228.10
377.19	228.05
377.57	227.97
377.95	227.85
378.33	227.78
378.71	227.65
379.09	227.59
379.47	227.53
379.84	227.41
380.22	227.34
380.60	227.25
380.98	227.19
381.36	227.12
381.73	227.04
382.11	227.00
382.49	226.94
382.87	226.86
383.25	226.81
383.62	226.85
384.00	226.73
384.38	226.70
384.76	226.64
385.13	226.57
385.51	226.55
385.89	226.49
386.27	226.45
386.64	226.44
387.02	226.40
387.40	226.36
387.78	226.37
388.15	226.36
388.53	226.29
388.91	226.26
389.29	226.23
389.66	226.23
390.04	226.17
390.42	226.16
390.79	226.16
391.17	226.15
391.55	226.02
391.92	226.02
392.30	226.02
392.68	226.03
393.05	226.04
393.43	226.04
393.81	226.07
394.18	226.06
394.56	226.05
394.94	226.06
395.31	226.10
395.69	226.13
396.06	226.14
396.44	226.22
396.82	226.23
397.19	226.34
397.57	226.38
397.95	226.43
398.32	226.46
398.70	226.56
399.07	226.61
399.45	226.68
399.82	226.74
400.20	226.80
400.58	226.86
400.95	226.88
401.33	226.96
401.70	227.10
402.08	227.21
402.45	227.32
402.83	227.45
403.20	227.55
403.58	227.63
403.95	227.77
404.33	227.90
404.71	228.03
405.08	228.19
405.46	228.31
405.83	228.50
406.21	228.64
406.58	228.79
406.96	228.97
407.33	229.12
407.70	229.33
408.08	229.57
408.45	229.80
408.83	230.02
409.20	230.27
409.58	230.44
409.95	230.73
410.33	231.00
410.70	231.22
411.08	231.50
411.45	231.82
411.82	232.12
412.20	232.46
412.57	232.88
412.95	233.16
413.32	233.52
413.69	233.89
414.07	234.32
414.44	234.76
414.82	235.23
415.19	235.80
415.56	236.35
415.94	236.89
416.31	237.51
416.68	238.17
417.06	238.89
417.43	239.57
417.81	240.32
418.18	241.09
418.55	241.95
418.93	242.81
419.30	243.71
419.67	244.65
420.04	245.63
420.42	246.62
420.79	247.83
421.16	249.05
421.54	250.24
421.91	251.44
422.28	252.69
422.66	253.99
423.03	255.31
423.40	256.60
423.77	258.01
424.15	259.45
424.52	260.92
424.89	262.53
425.26	264.11
425.64	265.54
426.01	267.16
426.38	268.81
426.75	270.49
427.13	272.24
427.50	274.03
427.87	275.92
428.24	277.77
428.61	279.48
428.99	281.37
429.36	283.52
429.73	285.61
430.10	287.61
430.47	289.69
430.85	291.79
431.22	294.06
431.59	296.44
431.96	298.66
432.33	301.16
432.70	303.54
433.08	306.35
433.45	309.01
433.82	311.62
434.19	314.53
434.56	317.35
434.93	319.98
435.30	322.63
435.68	325.49
436.05	328.32
436.42	331.16
436.79	333.70
437.16	336.39
437.53	339.20
437.90	342.11
438.27	344.86
438.64	347.68
439.01	350.29
439.38	352.54
439.75	354.76
440.13	357.27
440.50	359.56
440.87	361.35
441.24	363.29
441.61	365.41
441.98	366.93
442.35	368.76
442.72	370.63
443.09	372.39
443.46	373.40
443.83	373.99
444.20	374.49
444.57	375.28
444.94	375.54
445.31	375.87
445.68	376.17
446.05	376.22
446.42	375.86
446.79	375.44
447.16	375.01
447.53	374.64
447.90	373.44
448.27	372.28
448.64	370.71
449.01	369.57
449.37	367.58
449.74	365.62
450.11	363.34
450.48	360.81
450.85	358.29
451.22	356.11
451.59	354.07
451.96	352.12
452.33	349.57
452.70	347.23
453.07	344.42
453.43	341.46
453.80	338.70
454.17	336.03
454.54	333.49
454.91	330.76
455.28	328.09
455.65	325.61
456.02	323.18
456.38	321.04
456.75	318.36
457.12	316.11
457.49	313.90
457.86	311.74
458.23	309.92
458.59	307.90
458.96	305.85
459.33	303.98
459.70	302.08
460.07	300.54
460.43	298.83
460.80	297.21
461.17	295.84
461.54	294.34
461.91	292.93
462.27	291.44
462.64	290.18
463.01	288.84
463.38	287.51
463.74	286.18
464.11	285.02
464.48	284.07
464.85	283.01
465.21	282.15
465.58	281.22
465.95	280.12
466.32	279.21
466.68	278.29
467.05	277.45
467.42	276.60
467.78	275.70
468.15	274.82
468.52	274.20
468.88	273.29
469.25	272.54
469.62	271.89
469.98	271.27
470.35	270.65
470.72	270.07
471.08	269.44
471.45	268.87
471.82	268.33
472.18	267.71
472.55	267.23
472.92	266.68
473.28	266.25
473.65	265.81
474.02	265.34
474.38	265.00
474.75	264.67
475.11	264.28
475.48	263.99
475.85	263.75
476.21	263.51
476.58	263.35
476.94	263.23
477.31	263.07
477.67	262.93
478.04	262.84
478.41	262.78
478.77	262.82
479.14	262.78
479.50	262.82
479.87	262.91
480.23	263.00
480.60	263.09
480.96	263.18
481.33	263.41
481.69	263.63
482.06	263.81
482.42	264.02
482.79	264.29
483.15	264.65
483.52	265.03
483.88	265.37
484.25	265.75
484.61	266.17
484.98	266.64
485.34	267.19
485.71	267.74
486.07	268.33
486.44	268.94
486.80	269.64
487.17	270.34
487.53	271.10
487.90	271.98
488.26	272.94
488.62	273.94
488.99	274.90
489.35	275.97
489.72	277.10
490.08	278.31
490.44	279.57
490.81	280.87
491.17	282.22
491.54	283.68
491.90	285.25
492.26	286.88
492.63	288.63
492.99	290.39
493.36	292.30
493.72	294.35
494.08	296.45
494.45	298.70
494.81	301.06
495.17	303.51
495.54	306.07
495.90	308.72
496.26	311.52
496.63	314.49
496.99	317.57
497.35	320.86
497.72	324.25
498.08	327.73
498.44	331.42
498.80	335.36
499.17	339.43
499.53	343.59
499.89	347.95
500.26	352.46
500.62	357.17
500.98	362.13
501.34	367.25
501.71	372.58
502.07	378.00
502.43	383.59
502.79	389.41
503.16	395.45
503.52	401.80
503.88	408.19
504.24	414.87
504.60	421.83
504.97	428.93
505.33	436.24
505.69	443.98
506.05	451.77
506.41	459.65
506.78	467.79
507.14	476.21
507.50	484.90
507.86	493.89
508.22	503.06
508.59	512.22
508.95	521.78
509.31	531.53
509.67	541.68
510.03	552.03
510.39	562.61
510.75	573.40
511.12	584.30
511.48	595.58
511.84	606.97
512.20	618.44
512.56	630.40
512.92	642.65
513.28	655.00
513.64	667.50
514.00	680.24
514.37	693.19
514.73	706.28
515.09	719.35
515.45	732.63
515.81	746.17
516.17	760.22
516.53	774.31
516.89	788.59
517.25	802.79
517.61	817.18
517.97	831.63
518.33	846.09
518.69	860.86
519.05	875.90
519.41	891.12
519.77	906.65
520.13	922.08
520.49	937.39
520.85	952.86
521.21	968.67
521.57	984.79
521.93	1000.51
522.29	1016.91
522.65	1033.14
523.01	1049.35
523.37	1065.41
523.73	1081.65
524.09	1097.79
524.45	1114.11
524.81	1130.62
525.17	1147.43
525.53	1164.23
525.89	1181.14
526.25	1198.01
526.61	1214.25
526.97	1230.96
527.33	1247.45
527.68	1264.04
528.04	1280.54
528.40	1297.04
528.76	1313.93
529.12	1330.63
529.48	1347.57
529.84	1363.53
530.20	1380.11
530.56	1397.19
530.91	1414.61
531.27	1431.30
531.63	1447.72
531.99	1464.16
532.35	1480.01
532.71	1495.91
533.07	1512.15
533.42	1528.05
533.78	1544.05
534.14	1560.45
534.50	1575.80
534.86	1591.63
535.21	1606.81
535.57	1622.74
535.93	1638.17
536.29	1653.06
536.65	1668.07
537.00	1682.75
537.36	1698.13
537.72	1712.65
538.08	1726.99
538.44	1740.63
538.79	1754.38
539.15	1768.11
539.51	1781.97
539.87	1796.47
540.22	1810.27
540.58	1824.15
540.94	1837.50
541.29	1850.36
541.65	1862.93
542.01	1876.11
542.37	1888.45
542.72	1900.95
543.08	1912.84
543.44	1925.40
543.79	1936.54
544.15	1947.54
544.51	1959.19
544.87	1970.12
545.22	1981.03
545.58	1991.34
545.94	2001.27
546.29	2011.19
546.65	2020.97
547.01	2030.13
547.36	2038.81
547.72	2047.16
548.07	2055.04
548.43	2063.14
548.79	2071.18
549.14	2078.81
549.50	2086.26
549.86	2093.88
550.21	2101.26
550.57	2108.33
550.92	2114.86
551.28	2121.85
551.64	2128.96
551.99	2135.57
552.35	2141.75
552.70	2147.87
553.06	2153.75
553.41	2160.06
553.77	2166.25
554.13	2172.31
554.48	2178.70
554.84	2184.12
555.19	2189.42
555.55	2194.47
555.90	2198.95
556.26	2203.75
556.61	2208.60
556.97	2212.72
557.32	2216.97
557.68	2220.98
558.03	2225.11
558.39	2228.84
558.74	2233.59
559.10	2237.44
559.45	2241.05
559.81	2245.37
560.16	2249.21
560.52	2252.37
560.87	2255.87
561.23	2258.40
561.58	2261.36
561.94	2263.70
562.29	2266.16
562.64	2268.84
563.00	2271.47
563.35	2275.05
563.71	2278.27
564.06	2281.40
564.42	2284.21
564.77	2286.68
565.12	2288.92
565.48	2290.89
565.83	2292.67
566.19	2293.91
566.54	2294.88
566.89	2295.98
567.25	2296.48
567.60	2297.78
567.96	2299.51
568.31	2300.43
568.66	2301.53
569.02	2302.18
569.37	2302.41
569.72	2303.21
570.08	2303.31
570.43	2303.38
570.78	2302.67
571.14	2301.16
571.49	2299.69
571.84	2299.38
572.20	2298.20
572.55	2297.28
572.90	2295.83
573.26	2294.57
573.61	2292.96
573.96	2291.03
574.31	2288.08
574.67	2285.17
575.02	2281.52
575.37	2278.16
575.72	2274.16
576.08	2270.93
576.43	2267.53
576.78	2263.91
577.13	2260.77
577.49	2257.78
577.84	2254.13
578.19	2250.48
578.54	2246.82
578.90	2242.70
579.25	2237.09
579.60	2232.09
579.95	2226.95
580.30	2221.88
580.66	2216.67
581.01	2211.64
581.36	2206.82
581.71	2202.54
582.06	2197.82
582.42	2193.29
582.77	2188.04
583.12	2183.54
583.47	2178.65
583.82	2173.70
584.17	2168.32
584.53	2162.89
584.88	2157.23
585.23	2151.51
585.58	2145.97
585.93	2140.42
586.28	2135.70
586.63	2130.85
586.98	2125.76
587.34	2121.10
587.69	2116.20
588.04	2110.76
588.39	2105.08
588.74	2098.68
589.09	2092.64
589.44	2085.97
589.79	2080.12
590.14	2074.58
590.49	2068.08
590.84	2061.82
591.19	2055.75
591.54	2049.34
591.89	2041.81
592.25	2034.90
592.60	2027.65
592.95	2020.01
593.30	2012.58
593.65	2004.98
594.00	1997.90
594.35	1990.61
594.70	1982.51
595.05	1975.22
595.40	1968.04
595.75	1960.46
596.10	1954.17
596.45	1947.23
596.80	1941.16
597.15	1934.39
597.50	1927.22
597.85	1920.67
598.19	1913.90
598.54	1906.66
598.89	1899.99
599.24	1894.10
599.59	1887.45
599.94	1881.33
600.29	1875.03
600.64	1868.65
600.99	1861.09
601.34	1854.25
601.69	1847.39
602.04	1840.50
602.39	1833.21
602.74	1826.32
603.08	1819.79
603.43	1813.02
603.78	1805.75
604.13	1798.48
604.48	1791.10
604.83	1784.10
605.18	1777.04
605.53	1769.03
605.87	1761.12
606.22	1753.91
606.57	1745.98
606.92	1738.74
607.27	1731.46
607.62	1724.44
607.96	1717.11
608.31	1710.45
608.66	1702.66
609.01	1695.02
609.36	1687.35
609.70	1679.29
610.05	1671.31
610.40	1663.46
610.75	1655.06
611.10	1647.38
611.44	1638.92
611.79	1631.05
612.14	1622.44
612.49	1613.28
612.83	1605.00
613.18	1596.92
613.53	1588.89
613.88	1580.38
614.22	1571.95
614.57	1563.35
614.92	1555.41
615.27	1547.75
615.61	1539.45
615.96	1531.49
616.31	1523.95
616.65	1516.56
617.00	1508.97
617.35	1501.28
617.70	1492.84
618.04	1484.43
618.39	1476.27
618.74	1468.68
619.08	1460.45
619.43	1452.94
619.78	1446.03
620.12	1438.72
620.47	1431.15
620.82	1423.00
621.16	1415.65
621.51	1408.10
621.85	1400.60
622.20	1392.07
622.55	1383.79
622.89	1375.93
623.24	1368.34
623.59	1360.85
623.93	1353.47
624.28	1346.27
624.62	1338.66
624.97	1331.60
625.32	1324.86
625.66	1317.85
626.01	1310.70
626.35	1303.17
626.70	1295.34
627.04	1287.63
627.39	1279.93
627.73	1272.46
628.08	1265.47
628.43	1258.05
628.77	1250.66
629.12	1243.05
629.46	1235.86
629.81	1228.32
630.15	1221.07
630.50	1213.68
630.84	1205.58
631.19	1197.57
631.53	1190.11
631.88	1182.55
632.22	1174.88
632.57	1167.52
632.91	1159.95
633.26	1152.46
633.60	1145.09
633.95	1138.07
634.29	1131.16
634.64	1124.47
634.98	1117.15
635.32	1110.05
635.67	1103.46
636.01	1096.91
636.36	1089.99
636.70	1083.53
637.05	1077.06
637.39	1070.66
637.73	1064.11
638.08	1058.20
638.42	1052.23
638.77	1045.81
639.11	1039.23
639.45	1032.88
639.80	1026.23
640.14	1019.78
640.49	1013.30
640.83	1006.99
641.17	1000.64
641.52	994.25
641.86	987.84
642.20	982.01
642.55	975.67
642.89	969.19
643.23	962.56
643.58	956.83
643.92	950.56
644.26	944.44
644.61	938.39
644.95	932.31
645.29	925.68
645.64	918.92
645.98	912.55
646.32	906.71
646.66	900.74
647.01	894.89
647.35	889.17
647.69	883.31
648.04	877.80
648.38	872.05
648.72	866.01
649.06	859.93
649.41	854.02
649.75	848.05
650.09	842.13
650.43	836.40
650.78	830.30
651.12	824.38
651.46	818.59
651.80	812.82
652.14	807.50
652.49	802.14
652.83	797.02
653.17	791.25
653.51	785.52
653.85	779.99
654.20	774.39
654.54	768.39
654.88	762.65
655.22	756.80
655.56	751.02
655.90	745.47
656.25	740.18
656.59	734.73
656.93	729.65
657.27	724.46
657.61	719.01
657.95	713.85
658.29	708.73
658.64	703.52
658.98	698.20
659.32	692.69
659.66	687.51
660.00	682.11
660.34	677.20
660.68	672.30
661.02	667.29
661.36	662.56
661.70	658.07
662.05	653.69
662.39	649.32
662.73	644.95
663.07	640.64
663.41	636.24
663.75	631.81
664.09	627.24
664.43	622.89
664.77	618.71
665.11	614.51
665.45	610.37
665.79	606.32
666.13	602.22
666.47	598.19
666.81	594.01
667.15	589.92
667.49	586.03
667.83	582.27
668.17	578.33
668.51	574.22
668.85	570.21
669.19	566.40
669.53	562.50
669.87	558.58
670.21	554.93
670.55	551.25
670.89	547.83
671.23	544.41
671.57	540.89
671.91	537.40
672.25	533.90
672.58	530.42
672.92	527.03
673.26	523.88
673.60	520.68
673.94	517.52
674.28	514.62
674.62	511.63
674.96	508.49
675.30	505.58
675.64	502.65
675.97	499.91
676.31	497.03
676.65	494.12
676.99	491.44
677.33	488.57
677.67	485.73
678.01	482.68
678.34	479.67
678.68	476.82
679.02	473.99
679.36	471.25
679.70	468.58
680.04	465.79
680.37	462.92
680.71	460.16
681.05	457.63
681.39	454.92
681.73	452.29
682.06	449.77
682.40	447.23
682.74	444.73
683.08	442.15
683.42	439.57
683.75	437.09
684.09	434.53
684.43	432.06
684.77	429.63
685.10	427.27
685.44	424.97
685.78	422.64
686.12	420.35
686.45	418.06
686.79	415.73
687.13	413.55
687.46	411.39
687.80	409.25
688.14	406.99
688.48	404.90
688.81	402.66
689.15	400.49
689.49	398.36
689.82	396.29
690.16	394.20
690.50	392.28
690.83	390.32
691.17	388.34
691.51	386.46
691.84	384.65
692.18	382.74
692.52	380.80
692.85	378.88
693.19	377.05
693.52	375.20
693.86	373.38
694.20	371.62
694.53	369.81
694.87	367.93
695.21	366.21
695.54	364.40
695.88	362.70
696.21	360.99
696.55	359.31
696.88	357.65
697.22	356.00
697.56	354.37
697.89	352.75
698.23	351.15
698.56	349.47
698.90	347.85
699.23	346.20
699.57	344.63
699.90	343.07
700.24	341.53
700.58	340.02
700.91	338.51
701.25	337.06
701.58	335.67
701.92	334.33
702.25	332.87
702.59	331.49
702.92	330.14
703.26	328.89
703.59	327.61
703.93	326.40
704.26	325.21
704.60	323.93
704.93	322.64
705.26	321.40
705.60	320.26
705.93	319.12
706.27	318.10
706.60	317.07
706.94	315.98
707.27	314.86
707.61	313.80
707.94	312.78
708.27	311.66
708.61	310.58
708.94	309.59
709.28	308.66
709.61	307.73
709.94	306.81
710.28	305.74
710.61	304.80
710.95	303.75
711.28	302.80
711.61	301.79
711.95	300.85
712.28	299.91
712.61	298.88
712.95	297.94
713.28	297.08
713.61	296.16
713.95	295.29
714.28	294.46
714.61	293.62
714.95	292.80
715.28	291.97
715.61	291.11
715.95	290.23
716.28	289.37
716.61	288.56
716.95	287.76
717.28	287.00
717.61	286.20
717.94	285.46
718.28	284.68
718.61	283.98
718.94	283.30
719.27	282.65
719.61	282.03
719.94	281.38
720.27	280.63
720.60	279.98
720.94	279.35
721.27	278.75
721.60	278.11
721.93	277.50
722.27	276.95
722.60	276.41
722.93	275.85
723.26	275.32
723.59	274.76
723.93	274.17
724.26	273.62
724.59	273.04
724.92	272.50
725.25	272.00
725.59	271.48
725.92	270.97
726.25	270.46
726.58	269.97
726.91	269.46
727.24	269.01
727.57	268.52
727.91	268.04
728.24	267.54
728.57	267.11
728.90	266.65
729.23	266.15
729.56	265.74
729.89	265.30
730.22	264.76
730.55	264.27
730.89	263.86
731.22	263.43
731.55	263.06
731.88	262.66
732.21	262.21
732.54	261.78
732.87	261.36
733.20	260.97
733.53	260.58
733.86	260.20
734.19	259.78
734.52	259.41
734.85	259.09
735.18	258.71
735.51	258.33
735.84	257.97
736.17	257.61
736.50	257.20
736.83	256.97
737.16	256.67
737.49	256.35
737.82	255.99
738.15	255.64
738.48	255.27
738.81	254.92
739.14	254.59
739.47	254.27
739.80	253.96
740.13	253.65
740.46	253.30
740.79	252.95
741.12	252.63
741.45	252.29
741.78	251.93
742.11	251.62
742.44	251.30
742.77	251.01
743.10	250.71
743.43	250.42
743.75	249.98
744.08	249.82
744.41	249.53
744.74	249.29
745.07	248.99
745.40	248.75
745.73	248.51
746.06	248.24
746.39	247.97
746.71	247.72
747.04	247.44
747.37	247.20
747.70	246.97
748.03	246.72
748.36	246.50
748.68	246.29
749.01	246.04
749.34	245.79
749.67	245.56
750.00	245.34
750.33	245.17
750.65	244.97
750.98	244.66
751.31	244.45
751.64	244.18
751.97	244.05
752.29	243.81
752.62	243.57
752.95	243.35
753.28	243.15
753.60	242.91
753.93	242.72
754.26	242.54
754.59	242.37
754.91	242.15
755.24	241.92
755.57	241.70
755.90	241.52
756.22	241.31
756.55	241.11
756.88	240.90
757.20	240.66
757.53	240.46
757.86	240.29
758.19	240.12
758.51	239.98
758.84	239.74
759.17	239.57
759.49	239.42
759.82	239.28
760.15	239.13
760.47	239.01
760.80	238.85
761.13	238.68
761.45	238.49
761.78	238.37
762.11	238.26
762.43	238.14
762.76	238.02
763.08	237.91
763.41	237.78
763.74	237.67
764.06	237.52
764.39	237.38
764.71	237.21
765.04	237.08
765.37	236.92
765.69	236.81
766.02	236.69
766.34	236.55
766.67	236.43
767.00	236.32
767.32	236.25
767.65	236.21
767.97	236.09
768.30	236.02
768.62	235.91
768.95	235.78
769.27	235.63
769.60	235.52
769.92	235.41
770.25	235.29
770.57	235.18
770.90	235.06
771.22	234.97
771.55	234.90
771.87	234.81
772.20	234.73
772.52	234.69
772.85	234.72
773.17	234.60
773.50	234.51
773.82	234.43
774.15	234.30
774.47	234.14
774.80	234.08
775.12	233.97
775.45	233.88
775.77	233.79
776.09	233.71
776.42	233.65
776.74	233.60
777.07	233.53
777.39	233.45
777.72	233.37
778.04	233.30
778.36	233.21
778.69	233.17
779.01	233.11
779.33	232.98
779.66	232.76
779.98	232.70
780.31	232.61
780.63	232.58
780.95	232.50
781.28	232.47
781.60	232.39
781.92	232.34
782.25	232.29
782.57	232.25
782.89	232.21
783.22	232.14
783.54	232.04
783.86	231.98
784.19	231.90
784.51	231.87
784.83	231.84
785.16	231.79
785.48	231.71
785.80	231.66
786.12	231.63
786.45	231.62
786.77	231.61
787.09	231.55
