SpectraSuite Data File
++++++++++++++++++++++++++++++++++++
Date: Fri Feb 01 15:13:06 EST 2013
User: group
Dark Spectrum Present: No
Reference Spectrum Present: No
Number of Sampled Component Spectra: 1
Spectrometers: USB2E7196
Integration Time (usec): 35000 (USB2E7196)
Spectra Averaged: 100 (USB2E7196)
Boxcar Smoothing: 10 (USB2E7196)
Correct for Electrical Dark: No (USB2E7196)
Strobe/Lamp Enabled: No (USB2E7196)
Correct for Detector Non-linearity: No (USB2E7196)
Correct for Stray Light: No (USB2E7196)
Number of Pixels in Processed Spectrum: 2048
>>>>>Begin Processed Spectral Data<<<<<
339.09	0.00
339.48	215.53
339.86	216.92
340.24	217.96
340.63	219.86
341.01	222.10
341.39	221.58
341.78	223.00
342.16	224.22
342.54	225.25
342.93	213.50
343.31	224.27
343.69	224.79
344.07	225.28
344.46	225.70
344.84	226.03
345.22	226.25
345.60	226.53
345.99	226.74
346.37	226.89
346.75	226.98
347.13	227.04
347.52	227.09
347.90	227.16
348.28	227.18
348.66	227.23
349.05	227.21
349.43	227.27
349.81	227.33
350.19	227.36
350.57	227.41
350.96	227.47
351.34	227.57
351.72	227.64
352.10	227.71
352.48	227.80
352.87	227.87
353.25	227.93
353.63	227.99
354.01	228.02
354.39	228.11
354.77	228.22
355.15	228.30
355.54	228.37
355.92	228.41
356.30	228.48
356.68	228.62
357.06	228.68
357.44	228.72
357.82	228.77
358.20	228.86
358.58	228.93
358.97	229.01
359.35	229.05
359.73	229.14
360.11	229.20
360.49	229.26
360.87	229.33
361.25	229.38
361.63	229.45
362.01	229.54
362.39	229.56
362.77	229.59
363.15	229.60
363.53	229.62
363.91	229.66
364.29	229.71
364.67	229.60
365.05	229.65
365.43	229.67
365.81	229.67
366.19	229.72
366.57	229.76
366.95	229.74
367.33	229.73
367.71	229.71
368.09	229.69
368.47	229.66
368.85	229.63
369.23	229.65
369.61	229.59
369.99	229.55
370.37	229.53
370.75	229.53
371.13	229.46
371.51	229.44
371.89	229.35
372.27	229.30
372.65	229.30
373.03	229.24
373.41	229.16
373.78	229.11
374.16	228.99
374.54	228.87
374.92	228.82
375.30	228.76
375.68	228.66
376.06	228.61
376.44	228.50
376.82	228.45
377.19	228.38
377.57	228.28
377.95	228.21
378.33	228.11
378.71	227.99
379.09	227.95
379.47	227.87
379.84	227.82
380.22	227.68
380.60	227.57
380.98	227.48
381.36	227.42
381.73	227.34
382.11	227.29
382.49	227.20
382.87	227.11
383.25	227.08
383.62	227.15
384.00	227.06
384.38	227.00
384.76	226.95
385.13	226.91
385.51	226.89
385.89	226.83
386.27	226.78
386.64	226.73
387.02	226.67
387.40	226.59
387.78	226.52
388.15	226.54
388.53	226.51
388.91	226.50
389.29	226.46
389.66	226.43
390.04	226.39
390.42	226.42
390.79	226.38
391.17	226.36
391.55	226.24
391.92	226.24
392.30	226.26
392.68	226.22
393.05	226.23
393.43	226.22
393.81	226.21
394.18	226.23
394.56	226.24
394.94	226.29
395.31	226.32
395.69	226.43
396.06	226.47
396.44	226.53
396.82	226.57
397.19	226.70
397.57	226.74
397.95	226.85
398.32	226.86
398.70	226.96
399.07	227.06
399.45	227.11
399.82	227.21
400.20	227.28
400.58	227.40
400.95	227.43
401.33	227.55
401.70	227.75
402.08	227.85
402.45	227.97
402.83	228.09
403.20	228.20
403.58	228.28
403.95	228.41
404.33	228.53
404.71	228.66
405.08	228.82
405.46	228.95
405.83	229.12
406.21	229.27
406.58	229.43
406.96	229.58
407.33	229.80
407.70	229.99
408.08	230.25
408.45	230.47
408.83	230.73
409.20	230.94
409.58	231.11
409.95	231.37
410.33	231.64
410.70	231.88
411.08	232.21
411.45	232.53
411.82	232.83
412.20	233.18
412.57	233.61
412.95	233.89
413.32	234.31
413.69	234.66
414.07	235.13
414.44	235.61
414.82	236.11
415.19	236.62
415.56	237.17
415.94	237.71
416.31	238.35
416.68	238.96
417.06	239.67
417.43	240.37
417.81	241.14
418.18	241.91
418.55	242.77
418.93	243.63
419.30	244.51
419.67	245.41
420.04	246.35
420.42	247.32
420.79	248.53
421.16	249.71
421.54	250.90
421.91	252.11
422.28	253.31
422.66	254.63
423.03	255.93
423.40	257.23
423.77	258.60
424.15	260.03
424.52	261.50
424.89	263.13
425.26	264.64
425.64	266.06
426.01	267.67
426.38	269.30
426.75	270.93
427.13	272.63
427.50	274.45
427.87	276.34
428.24	278.20
428.61	279.95
428.99	281.85
429.36	283.98
429.73	286.07
430.10	288.12
430.47	290.13
430.85	292.25
431.22	294.46
431.59	296.91
431.96	299.13
432.33	301.64
432.70	304.03
433.08	306.88
433.45	309.55
433.82	312.19
434.19	315.12
434.56	317.99
434.93	320.68
435.30	323.35
435.68	326.24
436.05	329.11
436.42	331.88
436.79	334.39
437.16	337.08
437.53	339.84
437.90	342.66
438.27	345.43
438.64	348.27
439.01	350.95
439.38	353.16
439.75	355.32
440.13	357.83
440.50	360.15
440.87	361.99
441.24	363.92
441.61	366.02
441.98	367.52
442.35	369.33
442.72	371.19
443.09	372.99
443.46	374.00
443.83	374.57
444.20	375.10
444.57	375.99
444.94	376.28
445.31	376.67
445.68	377.04
446.05	377.13
446.42	376.73
446.79	376.28
447.16	375.87
447.53	375.62
447.90	374.46
448.27	373.31
448.64	371.69
449.01	370.60
449.37	368.62
449.74	366.72
450.11	364.43
450.48	361.95
450.85	359.38
451.22	357.27
451.59	355.28
451.96	353.34
452.33	350.72
452.70	348.39
453.07	345.57
453.43	342.65
453.80	339.88
454.17	337.23
454.54	334.72
454.91	331.96
455.28	329.25
455.65	326.74
456.02	324.30
456.38	322.18
456.75	319.48
457.12	317.25
457.49	315.01
457.86	312.88
458.23	311.03
458.59	309.00
458.96	306.86
459.33	304.97
459.70	303.09
460.07	301.58
460.43	299.86
460.80	298.23
461.17	296.80
461.54	295.29
461.91	293.88
462.27	292.37
462.64	291.10
463.01	289.75
463.38	288.46
463.74	287.08
464.11	285.92
464.48	284.91
464.85	283.80
465.21	282.95
465.58	282.02
465.95	280.87
466.32	279.97
466.68	279.06
467.05	278.13
467.42	277.24
467.78	276.26
468.15	275.38
468.52	274.69
468.88	273.81
469.25	273.05
469.62	272.38
469.98	271.73
470.35	271.11
470.72	270.51
471.08	269.86
471.45	269.29
471.82	268.72
472.18	268.13
472.55	267.66
472.92	267.10
473.28	266.61
473.65	266.18
474.02	265.73
474.38	265.35
474.75	265.05
475.11	264.64
475.48	264.40
475.85	264.16
476.21	263.93
476.58	263.75
476.94	263.57
477.31	263.38
477.67	263.20
478.04	263.07
478.41	262.98
478.77	262.99
479.14	262.93
479.50	262.97
479.87	263.02
480.23	263.10
480.60	263.16
480.96	263.25
481.33	263.46
481.69	263.62
482.06	263.79
482.42	263.96
482.79	264.26
483.15	264.54
483.52	264.88
483.88	265.23
484.25	265.60
484.61	266.07
484.98	266.49
485.34	267.06
485.71	267.61
486.07	268.19
486.44	268.77
486.80	269.43
487.17	270.12
487.53	270.92
487.90	271.75
488.26	272.69
488.62	273.68
488.99	274.65
489.35	275.70
489.72	276.85
490.08	278.08
490.44	279.31
490.81	280.63
491.17	281.99
491.54	283.47
491.90	285.00
492.26	286.63
492.63	288.40
492.99	290.15
493.36	292.11
493.72	294.17
494.08	296.26
494.45	298.52
494.81	300.88
495.17	303.28
495.54	305.85
495.90	308.53
496.26	311.33
496.63	314.29
496.99	317.39
497.35	320.65
497.72	324.01
498.08	327.50
498.44	331.18
498.80	335.11
499.17	339.14
499.53	343.31
499.89	347.65
500.26	352.12
500.62	356.77
500.98	361.68
501.34	366.73
501.71	372.10
502.07	377.54
502.43	383.14
502.79	388.95
503.16	395.02
503.52	401.23
503.88	407.56
504.24	414.23
504.60	421.08
504.97	428.18
505.33	435.46
505.69	443.17
506.05	450.99
506.41	458.86
506.78	467.01
507.14	475.44
507.50	484.13
507.86	493.14
508.22	502.35
508.59	511.53
508.95	521.12
509.31	530.87
509.67	540.95
510.03	551.27
510.39	561.81
510.75	572.66
511.12	583.55
511.48	594.99
511.84	606.47
512.20	618.06
512.56	629.99
512.92	642.19
513.28	654.50
513.64	666.89
514.00	679.59
514.37	692.52
514.73	705.69
515.09	718.88
515.45	732.18
515.81	745.80
516.17	759.83
516.53	773.93
516.89	788.12
517.25	802.32
517.61	816.66
517.97	831.15
518.33	845.55
518.69	860.47
519.05	875.46
519.41	890.52
519.77	906.05
520.13	921.61
520.49	937.02
520.85	952.63
521.21	968.41
521.57	984.74
521.93	1000.61
522.29	1016.92
522.65	1033.11
523.01	1049.37
523.37	1065.48
523.73	1081.73
524.09	1097.93
524.45	1114.33
524.81	1131.04
525.17	1148.12
525.53	1165.17
525.89	1182.10
526.25	1198.96
526.61	1215.38
526.97	1232.31
527.33	1248.94
527.68	1265.60
528.04	1282.16
528.40	1298.84
528.76	1316.03
529.12	1332.67
529.48	1349.55
529.84	1365.67
530.20	1382.44
530.56	1399.66
530.91	1417.13
531.27	1433.93
531.63	1450.37
531.99	1467.03
532.35	1483.06
532.71	1498.91
533.07	1515.14
533.42	1531.09
533.78	1547.14
534.14	1563.46
534.50	1578.87
534.86	1594.86
535.21	1610.10
535.57	1626.22
535.93	1641.78
536.29	1656.58
536.65	1671.71
537.00	1686.66
537.36	1702.04
537.72	1716.70
538.08	1731.15
538.44	1745.02
538.79	1759.02
539.15	1772.87
539.51	1786.76
539.87	1801.22
540.22	1815.10
540.58	1829.09
540.94	1842.57
541.29	1855.72
541.65	1868.61
542.01	1881.89
542.37	1894.03
542.72	1906.57
543.08	1918.24
543.44	1930.57
543.79	1941.95
544.15	1952.98
544.51	1964.56
544.87	1975.55
545.22	1986.36
545.58	1996.52
545.94	2006.26
546.29	2016.25
546.65	2026.18
547.01	2035.37
547.36	2044.11
547.72	2052.60
548.07	2060.38
548.43	2068.75
548.79	2076.72
549.14	2084.22
549.50	2091.60
549.86	2099.45
550.21	2106.73
550.57	2114.04
550.92	2120.87
551.28	2127.91
551.64	2135.06
551.99	2141.65
552.35	2147.89
552.70	2153.92
553.06	2160.00
553.41	2166.42
553.77	2172.43
554.13	2178.45
554.48	2184.65
554.84	2190.18
555.19	2195.54
555.55	2200.54
555.90	2204.78
556.26	2209.58
556.61	2214.32
556.97	2218.44
557.32	2222.53
557.68	2226.61
558.03	2230.95
558.39	2234.56
558.74	2239.10
559.10	2242.89
559.45	2246.51
559.81	2250.89
560.16	2254.84
560.52	2258.01
560.87	2261.52
561.23	2264.09
561.58	2267.14
561.94	2269.52
562.29	2271.78
562.64	2274.32
563.00	2277.14
563.35	2280.58
563.71	2283.83
564.06	2286.95
564.42	2289.87
564.77	2292.20
565.12	2294.39
565.48	2296.13
565.83	2297.89
566.19	2299.13
566.54	2300.08
566.89	2301.22
567.25	2301.59
567.60	2302.77
567.96	2304.35
568.31	2304.89
568.66	2306.01
569.02	2306.42
569.37	2306.80
569.72	2307.51
570.08	2307.52
570.43	2307.25
570.78	2306.64
571.14	2304.89
571.49	2303.44
571.84	2302.99
572.20	2301.80
572.55	2300.84
572.90	2299.31
573.26	2297.88
573.61	2296.18
573.96	2294.14
574.31	2290.92
574.67	2287.87
575.02	2284.13
575.37	2280.56
575.72	2276.63
576.08	2273.17
576.43	2269.67
576.78	2265.76
577.13	2262.66
577.49	2259.59
577.84	2256.15
578.19	2252.37
578.54	2248.61
578.90	2244.19
579.25	2238.65
579.60	2233.66
579.95	2228.52
580.30	2223.32
580.66	2217.93
581.01	2212.92
581.36	2208.07
581.71	2203.87
582.06	2199.32
582.42	2194.65
582.77	2189.42
583.12	2184.73
583.47	2179.83
583.82	2174.66
584.17	2169.54
584.53	2163.89
584.88	2158.07
585.23	2152.20
585.58	2146.63
585.93	2141.17
586.28	2136.48
586.63	2131.23
586.98	2126.11
587.34	2121.31
587.69	2116.39
588.04	2111.05
588.39	2105.11
588.74	2098.46
589.09	2092.10
589.44	2085.13
589.79	2079.21
590.14	2073.50
590.49	2067.09
590.84	2060.61
591.19	2054.59
591.54	2047.90
591.89	2040.35
592.25	2033.59
592.60	2026.17
592.95	2018.49
593.30	2011.00
593.65	2003.28
594.00	1996.35
594.35	1989.03
594.70	1981.00
595.05	1973.61
595.40	1966.18
595.75	1958.71
596.10	1952.36
596.45	1945.62
596.80	1939.50
597.15	1932.69
597.50	1925.43
597.85	1918.87
598.19	1912.16
598.54	1905.05
598.89	1898.33
599.24	1892.38
599.59	1885.54
599.94	1879.32
600.29	1873.02
600.64	1866.48
600.99	1858.88
601.34	1851.86
601.69	1844.76
602.04	1837.65
602.39	1830.28
602.74	1823.49
603.08	1816.80
603.43	1810.16
603.78	1802.87
604.13	1795.51
604.48	1788.29
604.83	1781.53
605.18	1774.35
605.53	1766.24
605.87	1758.13
606.22	1750.87
606.57	1742.96
606.92	1735.74
607.27	1728.59
607.62	1721.61
607.96	1714.14
608.31	1707.43
608.66	1699.69
609.01	1692.20
609.36	1684.75
609.70	1676.79
610.05	1668.69
610.40	1660.90
610.75	1652.56
611.10	1644.87
611.44	1636.64
611.79	1628.55
612.14	1619.90
612.49	1610.84
612.83	1602.55
613.18	1594.40
613.53	1586.37
613.88	1577.81
614.22	1569.42
614.57	1560.90
614.92	1552.80
615.27	1545.34
615.61	1537.06
615.96	1529.08
616.31	1521.50
616.65	1514.02
617.00	1506.38
617.35	1498.79
617.70	1490.46
618.04	1481.94
618.39	1473.67
618.74	1465.97
619.08	1457.66
619.43	1449.92
619.78	1443.10
620.12	1435.93
620.47	1428.53
620.82	1420.33
621.16	1412.96
621.51	1405.38
621.85	1397.66
622.20	1389.15
622.55	1380.83
622.89	1372.98
623.24	1365.48
623.59	1358.07
623.93	1350.65
624.28	1343.44
624.62	1335.81
624.97	1328.65
625.32	1321.90
625.66	1314.88
626.01	1307.71
626.35	1300.25
626.70	1292.71
627.04	1284.89
627.39	1277.09
627.73	1269.60
628.08	1262.68
628.43	1255.23
628.77	1247.78
629.12	1240.24
629.46	1233.06
629.81	1225.58
630.15	1218.44
630.50	1211.03
630.84	1202.90
631.19	1194.98
631.53	1187.50
631.88	1180.01
632.22	1172.30
632.57	1165.03
632.91	1157.54
633.26	1150.18
633.60	1142.86
633.95	1135.74
634.29	1128.75
634.64	1122.13
634.98	1114.85
635.32	1107.70
635.67	1101.38
636.01	1094.87
636.36	1088.06
636.70	1081.57
637.05	1075.08
637.39	1068.60
637.73	1062.03
638.08	1056.19
638.42	1050.13
638.77	1043.73
639.11	1037.14
639.45	1030.88
639.80	1024.11
640.14	1017.61
640.49	1010.99
640.83	1004.74
641.17	998.49
641.52	992.20
641.86	985.88
642.20	980.11
642.55	973.82
642.89	967.21
643.23	960.60
643.58	954.85
643.92	948.64
644.26	942.46
644.61	936.50
644.95	930.46
645.29	923.79
645.64	917.12
645.98	910.80
646.32	905.01
646.66	899.00
647.01	893.28
647.35	887.62
647.69	881.84
648.04	876.36
648.38	870.54
648.72	864.53
649.06	858.35
649.41	852.36
649.75	846.33
650.09	840.39
650.43	834.66
650.78	828.55
651.12	822.63
651.46	816.96
651.80	811.12
652.14	805.81
652.49	800.45
652.83	795.24
653.17	789.53
653.51	783.82
653.85	778.40
654.20	772.72
654.54	766.78
654.88	761.05
655.22	755.10
655.56	749.47
655.90	744.07
656.25	738.81
656.59	733.46
656.93	728.42
657.27	723.26
657.61	717.80
657.95	712.75
658.29	707.64
658.64	702.45
658.98	697.23
659.32	691.74
659.66	686.46
660.00	681.16
660.34	676.26
660.68	671.32
661.02	666.31
661.36	661.63
661.70	657.15
662.05	652.77
662.39	648.48
662.73	644.05
663.07	639.66
663.41	635.21
663.75	630.65
664.09	626.11
664.43	621.75
664.77	617.65
665.11	613.39
665.45	609.32
665.79	605.23
666.13	601.13
666.47	597.02
666.81	592.88
667.15	588.78
667.49	584.87
667.83	581.09
668.17	577.11
668.51	573.04
668.85	568.99
669.19	565.20
669.53	561.31
669.87	557.37
670.21	553.67
670.55	550.03
670.89	546.73
671.23	543.33
671.57	539.78
671.91	536.21
672.25	532.71
672.58	529.20
672.92	525.90
673.26	522.78
673.60	519.69
673.94	516.64
674.28	513.82
674.62	510.85
674.96	507.76
675.30	504.90
675.64	502.04
675.97	499.31
676.31	496.42
676.65	493.52
676.99	490.86
677.33	488.06
677.67	485.28
678.01	482.21
678.34	479.27
678.68	476.43
679.02	473.68
679.36	470.95
679.70	468.22
680.04	465.39
680.37	462.50
680.71	459.71
681.05	457.13
681.39	454.36
681.73	451.72
682.06	449.21
682.40	446.69
682.74	444.21
683.08	441.66
683.42	439.09
683.75	436.67
684.09	434.17
684.43	431.68
684.77	429.24
685.10	426.97
685.44	424.66
685.78	422.42
686.12	420.18
686.45	417.88
686.79	415.62
687.13	413.48
687.46	411.34
687.80	409.22
688.14	407.03
688.48	404.98
688.81	402.74
689.15	400.60
689.49	398.48
689.82	396.33
690.16	394.26
690.50	392.39
690.83	390.42
691.17	388.45
691.51	386.58
691.84	384.72
692.18	382.77
692.52	380.77
692.85	378.88
693.19	376.97
693.52	375.18
693.86	373.36
694.20	371.56
694.53	369.76
694.87	367.92
695.21	366.13
695.54	364.29
695.88	362.59
696.21	360.89
696.55	359.14
696.88	357.47
697.22	355.82
697.56	354.15
697.89	352.53
698.23	350.88
698.56	349.25
698.90	347.68
699.23	346.05
699.57	344.54
699.90	343.00
700.24	341.49
700.58	339.94
700.91	338.44
701.25	336.99
701.58	335.64
701.92	334.31
702.25	332.90
702.59	331.55
702.92	330.25
703.26	328.94
703.59	327.70
703.93	326.53
704.26	325.28
704.60	324.01
704.93	322.70
705.26	321.49
705.60	320.34
705.93	319.20
706.27	318.15
706.60	317.07
706.94	315.98
707.27	314.85
707.61	313.83
707.94	312.81
708.27	311.74
708.61	310.63
708.94	309.62
709.28	308.68
709.61	307.72
709.94	306.77
710.28	305.75
710.61	304.79
710.95	303.73
711.28	302.80
711.61	301.85
711.95	300.93
712.28	299.98
712.61	298.98
712.95	298.04
713.28	297.18
713.61	296.32
713.95	295.42
714.28	294.63
714.61	293.74
714.95	292.88
715.28	292.04
715.61	291.20
715.95	290.34
716.28	289.52
716.61	288.71
716.95	287.87
717.28	287.13
717.61	286.38
717.94	285.68
718.28	284.91
718.61	284.21
718.94	283.54
719.27	282.88
719.61	282.29
719.94	281.61
720.27	280.92
720.60	280.27
720.94	279.66
721.27	279.04
721.60	278.50
721.93	277.91
722.27	277.38
722.60	276.81
722.93	276.21
723.26	275.63
723.59	275.07
723.93	274.55
724.26	274.03
724.59	273.46
724.92	272.93
725.25	272.45
725.59	271.92
725.92	271.41
726.25	270.91
726.58	270.41
726.91	269.94
727.24	269.43
727.57	268.94
727.91	268.43
728.24	267.98
728.57	267.47
728.90	267.07
729.23	266.54
729.56	266.13
729.89	265.70
730.22	265.23
730.55	264.80
730.89	264.38
731.22	263.90
731.55	263.45
731.88	263.02
732.21	262.61
732.54	262.12
732.87	261.68
733.20	261.27
733.53	260.89
733.86	260.51
734.19	260.10
734.52	259.71
734.85	259.40
735.18	258.98
735.51	258.62
735.84	258.20
736.17	257.87
736.50	257.45
736.83	257.18
737.16	256.84
737.49	256.46
737.82	256.12
738.15	255.79
738.48	255.47
738.81	255.12
739.14	254.75
739.47	254.48
739.80	254.22
740.13	253.89
740.46	253.54
740.79	253.23
741.12	252.96
741.45	252.67
741.78	252.28
742.11	252.02
742.44	251.70
742.77	251.41
743.10	251.08
743.43	250.78
743.75	250.41
744.08	250.26
744.41	249.99
744.74	249.68
745.07	249.42
745.40	249.17
745.73	248.93
746.06	248.67
746.39	248.39
746.71	248.07
747.04	247.83
747.37	247.57
747.70	247.32
748.03	247.07
748.36	246.84
748.68	246.64
749.01	246.39
749.34	246.15
749.67	245.93
750.00	245.74
750.33	245.59
750.65	245.40
750.98	245.06
751.31	244.84
751.64	244.68
751.97	244.53
752.29	244.30
752.62	244.08
752.95	243.89
753.28	243.70
753.60	243.52
753.93	243.34
754.26	243.16
754.59	242.93
754.91	242.71
755.24	242.48
755.57	242.29
755.90	242.12
756.22	241.95
756.55	241.78
756.88	241.59
757.20	241.38
757.53	241.18
757.86	240.98
758.19	240.85
758.51	240.65
758.84	240.44
759.17	240.27
759.49	240.11
759.82	239.97
760.15	239.84
760.47	239.68
760.80	239.47
761.13	239.34
761.45	239.20
761.78	239.05
762.11	238.91
762.43	238.75
762.76	238.61
763.08	238.48
763.41	238.32
763.74	238.18
764.06	237.98
764.39	237.81
764.71	237.70
765.04	237.57
765.37	237.44
765.69	237.32
766.02	237.22
766.34	237.09
766.67	236.95
767.00	236.81
767.32	236.75
767.65	236.74
767.97	236.62
768.30	236.51
768.62	236.42
768.95	236.31
769.27	236.20
769.60	236.12
769.92	236.01
770.25	235.89
770.57	235.78
770.90	235.70
771.22	235.61
771.55	235.53
771.87	235.42
772.20	235.33
772.52	235.29
772.85	235.29
773.17	235.19
773.50	235.10
773.82	234.99
774.15	234.84
774.47	234.68
774.80	234.58
775.12	234.49
775.45	234.40
775.77	234.34
776.09	234.26
776.42	234.13
776.74	234.02
777.07	233.90
777.39	233.86
777.72	233.79
778.04	233.72
778.36	233.63
778.69	233.57
779.01	233.50
779.33	233.36
779.66	233.16
779.98	233.10
780.31	233.01
780.63	232.99
780.95	232.95
781.28	232.92
781.60	232.83
781.92	232.77
782.25	232.73
782.57	232.65
782.89	232.61
783.22	232.56
783.54	232.50
783.86	232.48
784.19	232.41
784.51	232.39
784.83	232.32
785.16	232.27
785.48	232.21
785.80	232.13
786.12	232.08
786.45	232.04
786.77	232.00
787.09	231.96
