SpectraSuite Data File
++++++++++++++++++++++++++++++++++++
Date: Fri Feb 01 15:44:32 EST 2013
User: group
Dark Spectrum Present: No
Reference Spectrum Present: No
Number of Sampled Component Spectra: 1
Spectrometers: USB2E7196
Integration Time (usec): 35000 (USB2E7196)
Spectra Averaged: 100 (USB2E7196)
Boxcar Smoothing: 10 (USB2E7196)
Correct for Electrical Dark: No (USB2E7196)
Strobe/Lamp Enabled: No (USB2E7196)
Correct for Detector Non-linearity: No (USB2E7196)
Correct for Stray Light: No (USB2E7196)
Number of Pixels in Processed Spectrum: 2048
>>>>>Begin Processed Spectral Data<<<<<
339.09	0.00
339.48	214.48
339.86	216.22
340.24	218.22
340.63	218.71
341.01	221.98
341.39	221.96
341.78	222.96
342.16	224.31
342.54	224.46
342.93	213.30
343.31	224.08
343.69	224.64
344.07	225.11
344.46	225.55
344.84	225.96
345.22	226.21
345.60	226.47
345.99	226.67
346.37	226.80
346.75	226.98
347.13	227.08
347.52	227.16
347.90	227.26
348.28	227.28
348.66	227.32
349.05	227.32
349.43	227.33
349.81	227.38
350.19	227.43
350.57	227.51
350.96	227.56
351.34	227.65
351.72	227.74
352.10	227.86
352.48	227.91
352.87	227.98
353.25	228.04
353.63	228.09
354.01	228.16
354.39	228.24
354.77	228.27
355.15	228.35
355.54	228.41
355.92	228.43
356.30	228.50
356.68	228.58
357.06	228.65
357.44	228.70
357.82	228.75
358.20	228.81
358.58	228.86
358.97	228.93
359.35	229.00
359.73	229.08
360.11	229.10
360.49	229.16
360.87	229.16
361.25	229.20
361.63	229.28
362.01	229.31
362.39	229.33
362.77	229.37
363.15	229.37
363.53	229.38
363.91	229.41
364.29	229.40
364.67	229.35
365.05	229.35
365.43	229.34
365.81	229.34
366.19	229.34
366.57	229.37
366.95	229.33
367.33	229.29
367.71	229.24
368.09	229.23
368.47	229.18
368.85	229.16
369.23	229.14
369.61	229.05
369.99	229.03
370.37	229.03
370.75	228.99
371.13	228.92
371.51	228.88
371.89	228.81
372.27	228.74
372.65	228.71
373.03	228.63
373.41	228.60
373.78	228.55
374.16	228.46
374.54	228.40
374.92	228.35
375.30	228.29
375.68	228.20
376.06	228.15
376.44	228.07
376.82	228.03
377.19	227.95
377.57	227.91
377.95	227.78
378.33	227.67
378.71	227.56
379.09	227.51
379.47	227.43
379.84	227.33
380.22	227.30
380.60	227.19
380.98	227.14
381.36	227.05
381.73	226.95
382.11	226.90
382.49	226.79
382.87	226.69
383.25	226.65
383.62	226.72
384.00	226.66
384.38	226.61
384.76	226.56
385.13	226.56
385.51	226.49
385.89	226.47
386.27	226.45
386.64	226.42
387.02	226.40
387.40	226.38
387.78	226.39
388.15	226.33
388.53	226.31
388.91	226.29
389.29	226.28
389.66	226.31
390.04	226.29
390.42	226.34
390.79	226.33
391.17	226.30
391.55	226.20
391.92	226.19
392.30	226.22
392.68	226.21
393.05	226.22
393.43	226.23
393.81	226.27
394.18	226.26
394.56	226.32
394.94	226.33
395.31	226.33
395.69	226.39
396.06	226.44
396.44	226.47
396.82	226.51
397.19	226.62
397.57	226.67
397.95	226.76
398.32	226.77
398.70	226.87
399.07	226.98
399.45	227.01
399.82	227.07
400.20	227.14
400.58	227.22
400.95	227.25
401.33	227.39
401.70	227.53
402.08	227.64
402.45	227.73
402.83	227.87
403.20	228.00
403.58	228.07
403.95	228.22
404.33	228.35
404.71	228.49
405.08	228.66
405.46	228.77
405.83	228.90
406.21	229.04
406.58	229.20
406.96	229.34
407.33	229.54
407.70	229.72
408.08	230.00
408.45	230.22
408.83	230.44
409.20	230.64
409.58	230.82
409.95	231.07
410.33	231.33
410.70	231.56
411.08	231.84
411.45	232.17
411.82	232.47
412.20	232.83
412.57	233.24
412.95	233.53
413.32	233.95
413.69	234.35
414.07	234.81
414.44	235.26
414.82	235.77
415.19	236.28
415.56	236.87
415.94	237.37
416.31	237.98
416.68	238.61
417.06	239.33
417.43	239.98
417.81	240.76
418.18	241.52
418.55	242.33
418.93	243.19
419.30	244.03
419.67	244.96
420.04	245.93
420.42	246.91
420.79	248.08
421.16	249.23
421.54	250.43
421.91	251.64
422.28	252.90
422.66	254.19
423.03	255.53
423.40	256.82
423.77	258.23
424.15	259.66
424.52	261.12
424.89	262.70
425.26	264.27
425.64	265.71
426.01	267.27
426.38	268.93
426.75	270.63
427.13	272.36
427.50	274.16
427.87	276.03
428.24	277.87
428.61	279.60
428.99	281.54
429.36	283.63
429.73	285.65
430.10	287.68
430.47	289.74
430.85	291.83
431.22	294.12
431.59	296.47
431.96	298.73
432.33	301.24
432.70	303.61
433.08	306.43
433.45	309.08
433.82	311.74
434.19	314.65
434.56	317.50
434.93	320.20
435.30	322.80
435.68	325.69
436.05	328.53
436.42	331.34
436.79	333.85
437.16	336.58
437.53	339.46
437.90	342.23
438.27	345.00
438.64	347.83
439.01	350.42
439.38	352.70
439.75	354.87
440.13	357.37
440.50	359.80
440.87	361.64
441.24	363.58
441.61	365.69
441.98	367.19
442.35	368.97
442.72	370.80
443.09	372.62
443.46	373.64
443.83	374.25
444.20	374.75
444.57	375.61
444.94	375.86
445.31	376.20
445.68	376.57
446.05	376.65
446.42	376.27
446.79	375.83
447.16	375.33
447.53	375.04
447.90	373.91
448.27	372.70
448.64	371.13
449.01	369.99
449.37	368.03
449.74	366.12
450.11	363.86
450.48	361.36
450.85	358.87
451.22	356.71
451.59	354.64
451.96	352.68
452.33	350.04
452.70	347.73
453.07	344.85
453.43	341.97
453.80	339.21
454.17	336.53
454.54	334.02
454.91	331.34
455.28	328.63
455.65	326.09
456.02	323.61
456.38	321.43
456.75	318.73
457.12	316.50
457.49	314.30
457.86	312.14
458.23	310.29
458.59	308.24
458.96	306.16
459.33	304.34
459.70	302.47
460.07	300.97
460.43	299.18
460.80	297.59
461.17	296.12
461.54	294.60
461.91	293.16
462.27	291.68
462.64	290.41
463.01	289.07
463.38	287.75
463.74	286.35
464.11	285.21
464.48	284.20
464.85	283.09
465.21	282.21
465.58	281.25
465.95	280.17
466.32	279.22
466.68	278.29
467.05	277.37
467.42	276.52
467.78	275.59
468.15	274.74
468.52	274.07
468.88	273.25
469.25	272.49
469.62	271.88
469.98	271.21
470.35	270.57
470.72	269.95
471.08	269.32
471.45	268.82
471.82	268.26
472.18	267.68
472.55	267.22
472.92	266.67
473.28	266.18
473.65	265.76
474.02	265.34
474.38	264.99
474.75	264.68
475.11	264.33
475.48	264.08
475.85	263.86
476.21	263.66
476.58	263.46
476.94	263.32
477.31	263.18
477.67	263.05
478.04	262.96
478.41	262.94
478.77	263.00
479.14	262.95
479.50	262.95
479.87	263.03
480.23	263.15
480.60	263.25
480.96	263.41
481.33	263.60
481.69	263.79
482.06	264.01
482.42	264.24
482.79	264.49
483.15	264.76
483.52	265.12
483.88	265.42
484.25	265.82
484.61	266.24
484.98	266.69
485.34	267.27
485.71	267.88
486.07	268.48
486.44	269.05
486.80	269.77
487.17	270.52
487.53	271.33
487.90	272.17
488.26	273.11
488.62	274.09
488.99	275.08
489.35	276.13
489.72	277.28
490.08	278.46
490.44	279.74
490.81	281.13
491.17	282.49
491.54	284.01
491.90	285.56
492.26	287.22
492.63	288.96
492.99	290.70
493.36	292.62
493.72	294.67
494.08	296.79
494.45	299.02
494.81	301.40
495.17	303.87
495.54	306.49
495.90	309.16
496.26	311.95
496.63	314.90
496.99	318.04
497.35	321.25
497.72	324.68
498.08	328.17
498.44	331.87
498.80	335.83
499.17	339.83
499.53	344.00
499.89	348.36
500.26	352.86
500.62	357.56
500.98	362.43
501.34	367.49
501.71	372.80
502.07	378.27
502.43	383.89
502.79	389.71
503.16	395.75
503.52	402.04
503.88	408.41
504.24	415.03
504.60	421.86
504.97	429.05
505.33	436.35
505.69	444.07
506.05	451.79
506.41	459.64
506.78	467.82
507.14	476.22
507.50	484.92
507.86	494.00
508.22	503.18
508.59	512.38
508.95	522.00
509.31	531.83
509.67	541.90
510.03	552.21
510.39	562.73
510.75	573.57
511.12	584.50
511.48	595.83
511.84	607.32
512.20	618.86
512.56	630.77
512.92	643.01
513.28	655.36
513.64	667.88
514.00	680.57
514.37	693.53
514.73	706.61
515.09	719.70
515.45	732.96
515.81	746.52
516.17	760.58
516.53	774.66
516.89	788.86
517.25	803.08
517.61	817.48
517.97	831.91
518.33	846.31
518.69	861.10
519.05	876.15
519.41	891.31
519.77	906.89
520.13	922.36
520.49	937.67
520.85	953.07
521.21	968.81
521.57	985.03
521.93	1000.83
522.29	1017.33
522.65	1033.53
523.01	1049.68
523.37	1065.71
523.73	1081.91
524.09	1097.91
524.45	1114.09
524.81	1130.66
525.17	1147.47
525.53	1164.45
525.89	1181.32
526.25	1198.15
526.61	1214.47
526.97	1231.31
527.33	1247.74
527.68	1264.34
528.04	1280.89
528.40	1297.46
528.76	1314.50
529.12	1331.17
529.48	1348.01
529.84	1364.02
530.20	1380.65
530.56	1397.73
530.91	1415.09
531.27	1431.80
531.63	1448.38
531.99	1465.10
532.35	1481.13
532.71	1497.00
533.07	1513.18
533.42	1529.03
533.78	1544.96
534.14	1561.21
534.50	1576.44
534.86	1592.28
535.21	1607.28
535.57	1623.19
535.93	1638.74
536.29	1653.48
536.65	1668.52
537.00	1683.31
537.36	1698.55
537.72	1712.99
538.08	1727.39
538.44	1741.34
538.79	1755.26
539.15	1769.01
539.51	1782.70
539.87	1797.03
540.22	1810.74
540.58	1824.53
540.94	1837.90
541.29	1851.01
541.65	1863.65
542.01	1876.88
542.37	1889.11
542.72	1901.81
543.08	1913.54
543.44	1925.91
543.79	1937.33
544.15	1948.27
544.51	1959.85
544.87	1970.89
545.22	1981.79
545.58	1992.00
545.94	2001.64
546.29	2011.52
546.65	2021.34
547.01	2030.58
547.36	2039.19
547.72	2047.60
548.07	2055.41
548.43	2063.66
548.79	2071.68
549.14	2079.21
549.50	2086.73
549.86	2094.55
550.21	2101.85
550.57	2109.04
550.92	2115.50
551.28	2122.35
551.64	2129.49
551.99	2135.77
552.35	2141.88
552.70	2148.05
553.06	2154.01
553.41	2160.44
553.77	2166.38
554.13	2172.36
554.48	2178.51
554.84	2184.00
555.19	2189.40
555.55	2194.75
555.90	2199.19
556.26	2203.92
556.61	2208.90
556.97	2213.01
557.32	2217.14
557.68	2221.15
558.03	2225.36
558.39	2229.08
558.74	2233.78
559.10	2237.62
559.45	2241.40
559.81	2245.79
560.16	2249.59
560.52	2252.80
560.87	2256.20
561.23	2258.93
561.58	2261.93
561.94	2264.41
562.29	2266.90
562.64	2269.64
563.00	2272.07
563.35	2275.61
563.71	2278.72
564.06	2281.77
564.42	2284.66
564.77	2287.17
565.12	2289.52
565.48	2291.46
565.83	2293.47
566.19	2294.62
566.54	2295.61
566.89	2296.86
567.25	2297.33
567.60	2298.63
567.96	2300.25
568.31	2301.02
568.66	2301.94
569.02	2302.62
569.37	2302.92
569.72	2303.55
570.08	2303.74
570.43	2303.76
570.78	2303.02
571.14	2301.38
571.49	2299.99
571.84	2299.60
572.20	2298.33
572.55	2297.26
572.90	2295.84
573.26	2294.47
573.61	2292.91
573.96	2291.02
574.31	2287.96
574.67	2284.98
575.02	2281.33
575.37	2277.99
575.72	2274.13
576.08	2270.97
576.43	2267.48
576.78	2263.86
577.13	2260.85
577.49	2257.61
577.84	2254.07
578.19	2250.35
578.54	2246.79
578.90	2242.51
579.25	2236.94
579.60	2231.98
579.95	2226.94
580.30	2221.79
580.66	2216.45
581.01	2211.52
581.36	2206.70
581.71	2202.46
582.06	2197.91
582.42	2193.48
582.77	2188.30
583.12	2183.77
583.47	2178.97
583.82	2173.95
584.17	2168.70
584.53	2163.11
584.88	2157.33
585.23	2151.55
585.58	2146.14
585.93	2140.70
586.28	2135.97
586.63	2130.90
586.98	2125.91
587.34	2121.06
587.69	2116.15
588.04	2110.93
588.39	2105.19
588.74	2098.58
589.09	2092.60
589.44	2085.78
589.79	2079.67
590.14	2074.04
590.49	2067.46
590.84	2060.98
591.19	2055.05
591.54	2048.55
591.89	2041.24
592.25	2034.55
592.60	2027.34
592.95	2019.78
593.30	2012.43
593.65	2004.82
594.00	1997.88
594.35	1990.62
594.70	1982.63
595.05	1975.37
595.40	1968.13
595.75	1960.58
596.10	1954.41
596.45	1947.50
596.80	1941.30
597.15	1934.64
597.50	1927.36
597.85	1920.83
598.19	1914.22
598.54	1906.94
598.89	1900.27
599.24	1894.44
599.59	1887.66
599.94	1881.46
600.29	1875.08
600.64	1868.53
600.99	1861.03
601.34	1854.08
601.69	1847.16
602.04	1840.25
602.39	1832.85
602.74	1825.87
603.08	1819.11
603.43	1812.27
603.78	1805.03
604.13	1797.83
604.48	1790.55
604.83	1783.71
605.18	1776.64
605.53	1768.65
605.87	1760.64
606.22	1753.40
606.57	1745.28
606.92	1738.01
607.27	1730.76
607.62	1723.75
607.96	1716.26
608.31	1709.81
608.66	1702.21
609.01	1694.55
609.36	1686.98
609.70	1679.04
610.05	1671.08
610.40	1663.35
610.75	1655.04
611.10	1647.40
611.44	1639.05
611.79	1631.17
612.14	1622.56
612.49	1613.61
612.83	1605.24
613.18	1597.11
613.53	1589.06
613.88	1580.52
614.22	1572.22
614.57	1563.78
614.92	1555.70
615.27	1548.33
615.61	1539.89
615.96	1531.91
616.31	1524.31
616.65	1516.89
617.00	1509.32
617.35	1501.58
617.70	1493.35
618.04	1484.74
618.39	1476.41
618.74	1468.83
619.08	1460.45
619.43	1452.92
619.78	1445.97
620.12	1438.78
620.47	1431.26
620.82	1423.05
621.16	1415.77
621.51	1408.17
621.85	1400.42
622.20	1391.95
622.55	1383.54
622.89	1375.73
623.24	1367.96
623.59	1360.45
623.93	1353.01
624.28	1345.86
624.62	1338.38
624.97	1331.09
625.32	1324.53
625.66	1317.55
626.01	1310.30
626.35	1302.86
626.70	1294.98
627.04	1287.23
627.39	1279.45
627.73	1272.08
628.08	1265.25
628.43	1257.73
628.77	1250.25
629.12	1242.64
629.46	1235.50
629.81	1228.13
630.15	1220.71
630.50	1213.27
630.84	1205.23
631.19	1197.25
631.53	1189.60
631.88	1181.99
632.22	1174.47
632.57	1167.09
632.91	1159.57
633.26	1152.12
633.60	1144.69
633.95	1137.70
634.29	1130.69
634.64	1124.11
634.98	1116.77
635.32	1109.55
635.67	1103.09
636.01	1096.57
636.36	1089.83
636.70	1083.28
637.05	1076.60
637.39	1070.21
637.73	1063.76
638.08	1057.91
638.42	1052.01
638.77	1045.65
639.11	1039.08
639.45	1032.62
639.80	1025.90
640.14	1019.42
640.49	1012.93
640.83	1006.64
641.17	1000.37
641.52	994.01
641.86	987.43
642.20	981.61
642.55	975.33
642.89	968.76
643.23	962.22
643.58	956.51
643.92	950.29
644.26	944.26
644.61	938.28
644.95	932.30
645.29	925.62
645.64	918.79
645.98	912.42
646.32	906.68
646.66	900.70
647.01	894.99
647.35	889.26
647.69	883.45
648.04	877.89
648.38	872.06
648.72	866.00
649.06	860.00
649.41	854.08
649.75	848.05
650.09	842.16
650.43	836.30
650.78	830.10
651.12	824.19
651.46	818.48
651.80	812.74
652.14	807.30
652.49	801.93
652.83	796.82
653.17	791.08
653.51	785.33
653.85	779.90
654.20	774.25
654.54	768.37
654.88	762.61
655.22	756.87
655.56	751.24
655.90	745.80
656.25	740.61
656.59	735.22
656.93	730.12
657.27	724.95
657.61	719.54
657.95	714.44
658.29	709.38
658.64	704.20
658.98	698.93
659.32	693.43
659.66	688.24
660.00	682.88
660.34	677.98
660.68	673.00
661.02	668.02
661.36	663.28
661.70	658.72
662.05	654.41
662.39	650.03
662.73	645.52
663.07	641.20
663.41	636.69
663.75	632.21
664.09	627.69
664.43	623.28
664.77	619.20
665.11	614.99
665.45	610.82
665.79	606.67
666.13	602.48
666.47	598.45
666.81	594.27
667.15	590.20
667.49	586.35
667.83	582.65
668.17	578.67
668.51	574.57
668.85	570.51
669.19	566.64
669.53	562.74
669.87	558.90
670.21	555.20
670.55	551.58
670.89	548.14
671.23	544.74
671.57	541.20
671.91	537.64
672.25	534.13
672.58	530.61
672.92	527.24
673.26	524.12
673.60	520.99
673.94	517.83
674.28	514.94
674.62	511.94
674.96	508.72
675.30	505.79
675.64	502.92
675.97	500.16
676.31	497.25
676.65	494.35
676.99	491.69
677.33	488.79
677.67	485.91
678.01	482.87
678.34	479.90
678.68	477.05
679.02	474.28
679.36	471.51
679.70	468.77
680.04	465.95
680.37	463.05
680.71	460.23
681.05	457.72
681.39	454.95
681.73	452.26
682.06	449.76
682.40	447.22
682.74	444.64
683.08	442.10
683.42	439.61
683.75	437.12
684.09	434.50
684.43	432.01
684.77	429.57
685.10	427.24
685.44	424.94
685.78	422.67
686.12	420.41
686.45	418.08
686.79	415.82
687.13	413.68
687.46	411.51
687.80	409.38
688.14	407.13
688.48	405.11
688.81	402.89
689.15	400.73
689.49	398.60
689.82	396.56
690.16	394.50
690.50	392.51
690.83	390.51
691.17	388.58
691.51	386.70
691.84	384.90
692.18	383.00
692.52	380.98
692.85	379.10
693.19	377.24
693.52	375.46
693.86	373.64
694.20	371.85
694.53	370.04
694.87	368.18
695.21	366.40
695.54	364.57
695.88	362.85
696.21	361.16
696.55	359.52
696.88	357.82
697.22	356.17
697.56	354.55
697.89	352.89
698.23	351.28
698.56	349.69
698.90	348.05
699.23	346.42
699.57	344.88
699.90	343.31
700.24	341.75
700.58	340.20
700.91	338.71
701.25	337.28
701.58	335.96
701.92	334.59
702.25	333.19
702.59	331.80
702.92	330.52
703.26	329.21
703.59	327.92
703.93	326.73
704.26	325.44
704.60	324.08
704.93	322.82
705.26	321.57
705.60	320.42
705.93	319.23
706.27	318.20
706.60	317.14
706.94	316.07
707.27	314.94
707.61	313.88
707.94	312.85
708.27	311.76
708.61	310.64
708.94	309.65
709.28	308.68
709.61	307.75
709.94	306.78
710.28	305.76
710.61	304.77
710.95	303.72
711.28	302.84
711.61	301.92
711.95	301.03
712.28	300.09
712.61	299.07
712.95	298.16
713.28	297.24
713.61	296.33
713.95	295.46
714.28	294.60
714.61	293.71
714.95	292.86
715.28	292.00
715.61	291.12
715.95	290.27
716.28	289.41
716.61	288.55
716.95	287.72
717.28	286.97
717.61	286.20
717.94	285.45
718.28	284.63
718.61	283.95
718.94	283.22
719.27	282.59
719.61	281.97
719.94	281.33
720.27	280.61
720.60	279.96
720.94	279.29
721.27	278.72
721.60	278.16
721.93	277.55
722.27	277.02
722.60	276.49
722.93	275.89
723.26	275.40
723.59	274.85
723.93	274.30
724.26	273.75
724.59	273.21
724.92	272.68
725.25	272.18
725.59	271.66
725.92	271.15
726.25	270.62
726.58	270.09
726.91	269.60
727.24	269.15
727.57	268.70
727.91	268.22
728.24	267.74
728.57	267.26
728.90	266.84
729.23	266.34
729.56	265.90
729.89	265.44
730.22	264.93
730.55	264.44
730.89	263.98
731.22	263.50
731.55	263.05
731.88	262.66
732.21	262.25
732.54	261.80
732.87	261.38
733.20	261.00
733.53	260.61
733.86	260.26
734.19	259.84
734.52	259.42
734.85	259.13
735.18	258.72
735.51	258.35
735.84	257.94
736.17	257.60
736.50	257.20
736.83	256.99
737.16	256.65
737.49	256.39
737.82	256.08
738.15	255.77
738.48	255.44
738.81	255.10
739.14	254.74
739.47	254.43
739.80	254.12
740.13	253.81
740.46	253.49
740.79	253.16
741.12	252.84
741.45	252.55
741.78	252.17
742.11	251.89
742.44	251.55
742.77	251.27
743.10	250.94
743.43	250.64
743.75	250.22
744.08	250.06
744.41	249.75
744.74	249.44
745.07	249.18
745.40	248.94
745.73	248.69
746.06	248.41
746.39	248.17
746.71	247.89
747.04	247.60
747.37	247.33
747.70	247.07
748.03	246.85
748.36	246.61
748.68	246.35
749.01	246.10
749.34	245.92
749.67	245.66
750.00	245.45
750.33	245.29
750.65	245.07
750.98	244.76
751.31	244.54
751.64	244.33
751.97	244.13
752.29	243.88
752.62	243.66
752.95	243.41
753.28	243.19
753.60	242.98
753.93	242.79
754.26	242.58
754.59	242.36
754.91	242.12
755.24	241.93
755.57	241.75
755.90	241.56
756.22	241.30
756.55	241.10
756.88	240.89
757.20	240.68
757.53	240.50
757.86	240.28
758.19	240.13
758.51	239.98
758.84	239.80
759.17	239.65
759.49	239.48
759.82	239.42
760.15	239.31
760.47	239.16
760.80	239.00
761.13	238.90
761.45	238.73
761.78	238.58
762.11	238.42
762.43	238.28
762.76	238.16
763.08	238.03
763.41	237.97
763.74	237.85
764.06	237.69
764.39	237.55
764.71	237.44
765.04	237.30
765.37	237.16
765.69	237.03
766.02	236.91
766.34	236.77
766.67	236.61
767.00	236.49
767.32	236.44
767.65	236.40
767.97	236.29
768.30	236.21
768.62	236.12
768.95	236.01
769.27	235.88
769.60	235.76
769.92	235.66
770.25	235.52
770.57	235.44
770.90	235.37
771.22	235.27
771.55	235.18
771.87	235.10
772.20	235.02
772.52	235.00
772.85	235.06
773.17	234.99
773.50	234.91
773.82	234.79
774.15	234.66
774.47	234.52
774.80	234.42
775.12	234.33
775.45	234.25
775.77	234.19
776.09	234.18
776.42	234.10
776.74	234.03
777.07	233.94
777.39	233.85
777.72	233.75
778.04	233.69
778.36	233.62
778.69	233.54
779.01	233.48
779.33	233.34
779.66	233.12
779.98	233.01
780.31	232.94
780.63	232.95
780.95	232.91
781.28	232.82
781.60	232.76
781.92	232.66
782.25	232.60
782.57	232.52
782.89	232.41
783.22	232.37
783.54	232.35
783.86	232.31
784.19	232.25
784.51	232.22
784.83	232.18
785.16	232.12
785.48	232.04
785.80	231.98
786.12	231.92
786.45	231.91
786.77	231.93
787.09	231.86
