SpectraSuite Data File
++++++++++++++++++++++++++++++++++++
Date: Tue Jan 29 16:09:49 EST 2013
User: group
Dark Spectrum Present: No
Reference Spectrum Present: No
Number of Sampled Component Spectra: 1
Spectrometers: USB2E7196
Integration Time (usec): 65000 (USB2E7196)
Spectra Averaged: 100 (USB2E7196)
Boxcar Smoothing: 10 (USB2E7196)
Correct for Electrical Dark: No (USB2E7196)
Strobe/Lamp Enabled: No (USB2E7196)
Correct for Detector Non-linearity: No (USB2E7196)
Correct for Stray Light: No (USB2E7196)
Number of Pixels in Processed Spectrum: 2048
>>>>>Begin Processed Spectral Data<<<<<
339.09	0.00
339.48	203.37
339.86	204.05
340.24	205.28
340.63	206.85
341.01	211.52
341.39	210.19
341.78	212.22
342.16	212.80
342.54	212.89
342.93	202.11
343.31	212.33
343.69	212.87
344.07	213.37
344.46	213.82
344.84	214.22
345.22	214.38
345.60	214.63
345.99	214.82
346.37	214.96
346.75	215.08
347.13	215.16
347.52	215.26
347.90	215.35
348.28	215.36
348.66	215.40
349.05	215.37
349.43	215.45
349.81	215.51
350.19	215.56
350.57	215.64
350.96	215.74
351.34	215.82
351.72	215.89
352.10	216.00
352.48	216.04
352.87	216.12
353.25	216.16
353.63	216.21
354.01	216.22
354.39	216.29
354.77	216.36
355.15	216.46
355.54	216.46
355.92	216.46
356.30	216.53
356.68	216.73
357.06	216.81
357.44	216.86
357.82	216.90
358.20	216.98
358.58	216.99
358.97	217.07
359.35	217.17
359.73	217.26
360.11	217.31
360.49	217.42
360.87	217.46
361.25	217.54
361.63	217.66
362.01	217.72
362.39	217.76
362.77	217.82
363.15	217.83
363.53	217.89
363.91	217.95
364.29	217.95
364.67	217.78
365.05	217.84
365.43	217.85
365.81	217.90
366.19	218.03
366.57	218.12
366.95	218.09
367.33	218.01
367.71	218.02
368.09	218.02
368.47	218.00
368.85	217.96
369.23	218.00
369.61	217.87
369.99	217.91
370.37	217.88
370.75	217.94
371.13	217.86
371.51	217.83
371.89	217.80
372.27	217.82
372.65	217.84
373.03	217.80
373.41	217.76
373.78	217.71
374.16	217.52
374.54	217.42
374.92	217.35
375.30	217.33
375.68	217.25
376.06	217.22
376.44	217.15
376.82	217.15
377.19	217.09
377.57	217.08
377.95	216.98
378.33	216.95
378.71	216.77
379.09	216.79
379.47	216.73
379.84	216.68
380.22	216.61
380.60	216.51
380.98	216.45
381.36	216.42
381.73	216.37
382.11	216.39
382.49	216.37
382.87	216.33
383.25	216.29
383.62	216.48
384.00	216.44
384.38	216.41
384.76	216.41
385.13	216.45
385.51	216.39
385.89	216.34
386.27	216.31
386.64	216.33
387.02	216.29
387.40	216.27
387.78	216.26
388.15	216.24
388.53	216.22
388.91	216.17
389.29	216.14
389.66	216.13
390.04	216.08
390.42	216.12
390.79	216.14
391.17	216.16
391.55	215.92
391.92	215.91
392.30	215.92
392.68	215.88
393.05	215.87
393.43	215.88
393.81	215.91
394.18	215.86
394.56	215.87
394.94	215.93
395.31	215.94
395.69	216.02
396.06	216.06
396.44	216.09
396.82	216.10
397.19	216.21
397.57	216.22
397.95	216.28
398.32	216.25
398.70	216.29
399.07	216.33
399.45	216.36
399.82	216.39
400.20	216.45
400.58	216.49
400.95	216.49
401.33	216.59
401.70	216.78
402.08	216.89
402.45	217.00
402.83	217.10
403.20	217.21
403.58	217.26
403.95	217.39
404.33	217.54
404.71	217.68
405.08	217.93
405.46	218.11
405.83	218.31
406.21	218.50
406.58	218.74
406.96	218.97
407.33	219.22
407.70	219.51
408.08	219.95
408.45	220.29
408.83	220.65
409.20	221.02
409.58	221.29
409.95	221.74
410.33	222.17
410.70	222.59
411.08	223.12
411.45	223.69
411.82	224.23
412.20	224.91
412.57	225.75
412.95	226.28
413.32	227.06
413.69	227.84
414.07	228.74
414.44	229.65
414.82	230.65
415.19	231.78
415.56	232.93
415.94	234.06
416.31	235.41
416.68	236.75
417.06	238.26
417.43	239.74
417.81	241.42
418.18	243.16
418.55	245.02
418.93	246.96
419.30	248.99
419.67	251.16
420.04	253.35
420.42	255.63
420.79	258.39
421.16	261.10
421.54	263.88
421.91	266.72
422.28	269.70
422.66	272.87
423.03	276.04
423.40	279.34
423.77	282.85
424.15	286.41
424.52	290.10
424.89	294.13
425.26	298.08
425.64	301.83
426.01	305.93
426.38	310.24
426.75	314.65
427.13	319.17
427.50	324.01
427.87	329.09
428.24	334.08
428.61	338.89
428.99	344.24
429.36	350.06
429.73	355.82
430.10	361.51
430.47	367.40
430.85	373.45
431.22	379.85
431.59	386.68
431.96	393.25
432.33	400.52
432.70	407.55
433.08	415.79
433.45	423.59
433.82	431.36
434.19	439.96
434.56	448.35
434.93	456.44
435.30	464.37
435.68	473.14
436.05	481.77
436.42	490.33
436.79	498.14
437.16	506.64
437.53	515.48
437.90	524.30
438.27	532.86
438.64	541.76
439.01	550.10
439.38	557.40
439.75	564.47
440.13	572.59
440.50	580.28
440.87	586.50
441.24	592.89
441.61	600.00
441.98	605.17
442.35	611.32
442.72	617.44
443.09	623.36
443.46	626.95
443.83	629.42
444.20	631.59
444.57	634.65
444.94	636.00
445.31	637.37
445.68	638.71
446.05	639.30
446.42	638.53
446.79	637.51
447.16	636.50
447.53	635.76
447.90	632.51
448.27	629.28
448.64	624.77
449.01	621.61
449.37	615.91
449.74	610.43
450.11	603.72
450.48	596.50
450.85	589.22
451.22	582.99
451.59	577.07
451.96	571.38
452.33	563.81
452.70	556.95
453.07	548.84
453.43	540.57
453.80	532.62
454.17	524.96
454.54	517.69
454.91	509.81
455.28	502.14
455.65	495.02
456.02	487.86
456.38	481.78
456.75	474.17
457.12	467.84
457.49	461.59
457.86	455.68
458.23	450.55
458.59	444.90
458.96	439.11
459.33	434.00
459.70	428.88
460.07	424.75
460.43	420.09
460.80	415.71
461.17	411.88
461.54	407.88
461.91	404.02
462.27	400.10
462.64	396.73
463.01	393.06
463.38	389.50
463.74	385.89
464.11	382.75
464.48	379.98
464.85	377.00
465.21	374.63
465.58	372.07
465.95	369.04
466.32	366.53
466.68	364.07
467.05	361.64
467.42	359.18
467.78	356.64
468.15	354.18
468.52	352.34
468.88	349.90
469.25	347.72
469.62	345.96
469.98	344.09
470.35	342.41
470.72	340.82
471.08	339.14
471.45	337.72
471.82	336.26
472.18	334.66
472.55	333.51
472.92	332.22
473.28	331.05
473.65	329.95
474.02	328.89
474.38	328.05
474.75	327.31
475.11	326.55
475.48	326.00
475.85	325.53
476.21	325.09
476.58	324.80
476.94	324.63
477.31	324.33
477.67	324.09
478.04	323.96
478.41	323.93
478.77	324.07
479.14	324.03
479.50	324.20
479.87	324.54
480.23	324.86
480.60	325.12
480.96	325.45
481.33	326.04
481.69	326.62
482.06	327.13
482.42	327.63
482.79	328.23
483.15	329.01
483.52	330.00
483.88	330.85
484.25	331.78
484.61	332.77
484.98	333.84
485.34	335.16
485.71	336.56
486.07	337.94
486.44	339.28
486.80	340.91
487.17	342.57
487.53	344.34
487.90	346.23
488.26	348.26
488.62	350.38
488.99	352.46
489.35	354.58
489.72	356.94
490.08	359.37
490.44	361.92
490.81	364.64
491.17	367.40
491.54	370.36
491.90	373.38
492.26	376.68
492.63	380.11
492.99	383.57
493.36	387.19
493.72	391.12
494.08	395.15
494.45	399.36
494.81	403.68
495.17	408.14
495.54	412.80
495.90	417.56
496.26	422.45
496.63	427.66
496.99	433.02
497.35	438.57
497.72	444.44
498.08	450.33
498.44	456.38
498.80	462.73
499.17	469.25
499.53	475.92
499.89	482.69
500.26	489.63
500.62	496.71
500.98	504.09
501.34	511.51
501.71	519.25
502.07	526.98
502.43	535.00
502.79	543.13
503.16	551.45
503.52	560.06
503.88	568.77
504.24	577.60
504.60	586.63
504.97	595.83
505.33	605.03
505.69	614.82
506.05	624.66
506.41	634.42
506.78	644.39
507.14	654.65
507.50	665.03
507.86	675.62
508.22	686.31
508.59	696.92
508.95	707.92
509.31	719.14
509.67	730.51
510.03	741.89
510.39	753.59
510.75	765.46
511.12	777.32
511.48	789.30
511.84	801.48
512.20	813.72
512.56	826.25
512.92	838.94
513.28	851.52
513.64	864.06
514.00	876.80
514.37	889.65
514.73	902.61
515.09	915.50
515.45	928.26
515.81	941.17
516.17	954.38
516.53	967.47
516.89	980.33
517.25	993.43
517.61	1006.81
517.97	1020.03
518.33	1032.93
518.69	1046.29
519.05	1059.73
519.41	1073.23
519.77	1086.95
520.13	1100.14
520.49	1113.11
520.85	1126.30
521.21	1139.46
521.57	1152.92
521.93	1165.83
522.29	1179.39
522.65	1192.88
523.01	1206.33
523.37	1219.35
523.73	1232.34
524.09	1245.21
524.45	1258.47
524.81	1271.62
525.17	1284.64
525.53	1297.45
525.89	1310.39
526.25	1323.21
526.61	1335.90
526.97	1348.59
527.33	1361.20
527.68	1374.33
528.04	1387.60
528.40	1400.42
528.76	1413.45
529.12	1426.01
529.48	1439.03
529.84	1450.89
530.20	1463.34
530.56	1475.57
530.91	1488.48
531.27	1501.12
531.63	1513.70
531.99	1526.09
532.35	1538.06
532.71	1550.11
533.07	1562.68
533.42	1574.73
533.78	1586.42
534.14	1598.15
534.50	1609.18
534.86	1620.43
535.21	1631.00
535.57	1642.16
535.93	1653.25
536.29	1664.13
536.65	1675.29
537.00	1685.97
537.36	1697.15
537.72	1707.83
538.08	1718.84
538.44	1729.44
538.79	1740.20
539.15	1750.68
539.51	1761.06
539.87	1772.06
540.22	1782.56
540.58	1793.11
540.94	1803.77
541.29	1813.77
541.65	1823.30
542.01	1833.58
542.37	1843.45
542.72	1853.42
543.08	1862.84
543.44	1872.95
543.79	1881.97
544.15	1891.18
544.51	1900.88
544.87	1910.44
545.22	1919.22
545.58	1927.99
545.94	1936.61
546.29	1944.93
546.65	1953.00
547.01	1961.06
547.36	1968.47
547.72	1975.99
548.07	1983.38
548.43	1990.74
548.79	1998.33
549.14	2006.21
549.50	2014.34
549.86	2021.74
550.21	2028.88
550.57	2036.29
550.92	2042.75
551.28	2050.01
551.64	2057.04
551.99	2064.30
552.35	2071.30
552.70	2078.06
553.06	2084.50
553.41	2090.48
553.77	2096.72
554.13	2103.08
554.48	2109.86
554.84	2116.74
555.19	2123.12
555.55	2129.35
555.90	2135.60
556.26	2142.32
556.61	2148.19
556.97	2153.00
557.32	2158.85
557.68	2165.01
558.03	2170.64
558.39	2175.74
558.74	2181.64
559.10	2187.11
559.45	2192.58
559.81	2197.98
560.16	2203.46
560.52	2209.23
560.87	2215.74
561.23	2221.69
561.58	2228.19
561.94	2233.30
562.29	2238.20
562.64	2244.26
563.00	2249.95
563.35	2255.55
563.71	2261.45
564.06	2267.20
564.42	2273.15
564.77	2278.37
565.12	2283.63
565.48	2288.96
565.83	2294.60
566.19	2300.01
566.54	2305.56
566.89	2310.05
567.25	2314.59
567.60	2320.45
567.96	2325.75
568.31	2330.30
568.66	2334.49
569.02	2338.36
569.37	2342.28
569.72	2346.65
570.08	2350.24
570.43	2353.33
570.78	2356.45
571.14	2358.92
571.49	2362.07
571.84	2365.58
572.20	2368.38
572.55	2371.56
572.90	2373.83
573.26	2376.83
573.61	2379.30
573.96	2381.56
574.31	2383.84
574.67	2385.93
575.02	2386.74
575.37	2388.26
575.72	2389.12
576.08	2390.79
576.43	2391.28
576.78	2392.02
577.13	2393.84
577.49	2395.09
577.84	2396.58
578.19	2398.08
578.54	2398.97
578.90	2400.04
579.25	2400.21
579.60	2400.48
579.95	2399.96
580.30	2400.52
580.66	2400.06
581.01	2398.57
581.36	2396.42
581.71	2395.23
582.06	2394.45
582.42	2393.76
582.77	2391.96
583.12	2390.55
583.47	2389.47
583.82	2388.90
584.17	2387.88
584.53	2385.75
584.88	2383.96
585.23	2382.16
585.58	2380.03
585.93	2377.99
586.28	2375.99
586.63	2373.66
586.98	2371.54
587.34	2369.78
587.69	2367.49
588.04	2365.74
588.39	2364.59
588.74	2362.26
589.09	2359.98
589.44	2356.99
589.79	2354.87
590.14	2353.00
590.49	2350.29
590.84	2346.65
591.19	2344.02
591.54	2340.83
591.89	2337.04
592.25	2333.91
592.60	2329.85
592.95	2326.01
593.30	2322.06
593.65	2317.74
594.00	2313.44
594.35	2310.62
594.70	2306.03
595.05	2301.38
595.40	2296.01
595.75	2290.57
596.10	2287.02
596.45	2282.08
596.80	2277.57
597.15	2272.32
597.50	2266.50
597.85	2261.74
598.19	2256.74
598.54	2250.87
598.89	2245.90
599.24	2241.41
599.59	2235.39
599.94	2229.75
600.29	2223.92
600.64	2218.12
600.99	2211.46
601.34	2206.31
601.69	2199.27
602.04	2192.94
602.39	2186.51
602.74	2180.59
603.08	2174.98
603.43	2168.55
603.78	2161.85
604.13	2154.87
604.48	2147.97
604.83	2141.95
605.18	2135.77
605.53	2128.86
605.87	2121.93
606.22	2115.19
606.57	2107.52
606.92	2099.73
607.27	2092.81
607.62	2086.17
607.96	2079.22
608.31	2072.89
608.66	2065.09
609.01	2057.74
609.36	2050.69
609.70	2043.14
610.05	2035.40
610.40	2027.25
610.75	2019.07
611.10	2011.52
611.44	2002.85
611.79	1993.85
612.14	1983.86
612.49	1973.47
612.83	1964.27
613.18	1955.26
613.53	1946.00
613.88	1936.48
614.22	1927.97
614.57	1918.26
614.92	1907.79
615.27	1897.83
615.61	1887.80
615.96	1878.13
616.31	1868.64
616.65	1859.35
617.00	1849.50
617.35	1839.80
617.70	1830.14
618.04	1820.02
618.39	1809.64
618.74	1799.88
619.08	1790.50
619.43	1781.85
619.78	1773.45
620.12	1764.79
620.47	1754.90
620.82	1744.61
621.16	1734.77
621.51	1724.74
621.85	1714.87
622.20	1704.42
622.55	1693.73
622.89	1683.87
623.24	1674.15
623.59	1664.36
623.93	1654.24
624.28	1644.50
624.62	1634.44
624.97	1624.07
625.32	1614.53
625.66	1605.77
626.01	1597.00
626.35	1587.47
626.70	1577.33
627.04	1567.30
627.39	1557.13
627.73	1547.91
628.08	1538.83
628.43	1529.31
628.77	1520.12
629.12	1511.18
629.46	1503.43
629.81	1495.10
630.15	1485.43
630.50	1475.72
630.84	1465.24
631.19	1455.35
631.53	1446.04
631.88	1435.79
632.22	1425.83
632.57	1416.50
632.91	1406.32
633.26	1396.43
633.60	1386.93
633.95	1377.57
634.29	1368.18
634.64	1358.89
634.98	1349.05
635.32	1339.82
635.67	1331.22
636.01	1321.97
636.36	1312.30
636.70	1302.81
637.05	1293.48
637.39	1284.58
637.73	1275.93
638.08	1268.34
638.42	1260.06
638.77	1251.30
639.11	1243.09
639.45	1235.26
639.80	1226.58
640.14	1217.94
640.49	1209.13
640.83	1200.27
641.17	1192.28
641.52	1183.97
641.86	1175.33
642.20	1167.45
642.55	1158.82
642.89	1149.96
643.23	1141.29
643.58	1133.17
643.92	1124.03
644.26	1115.26
644.61	1106.90
644.95	1098.13
645.29	1088.86
645.64	1079.76
645.98	1071.35
646.32	1063.47
646.66	1055.02
647.01	1046.66
647.35	1038.44
647.69	1030.02
648.04	1021.79
648.38	1012.94
648.72	1004.28
649.06	995.92
649.41	987.71
649.75	979.75
650.09	971.97
650.43	964.06
650.78	955.78
651.12	948.21
651.46	940.93
651.80	933.67
652.14	926.32
652.49	918.96
652.83	911.72
653.17	904.08
653.51	896.45
653.85	889.23
654.20	882.01
654.54	874.65
654.88	867.59
655.22	860.43
655.56	853.44
655.90	846.66
656.25	840.04
656.59	833.14
656.93	826.19
657.27	819.06
657.61	812.15
657.95	806.18
658.29	800.31
658.64	794.16
658.98	787.74
659.32	781.34
659.66	775.12
660.00	768.83
660.34	762.83
660.68	756.82
661.02	750.58
661.36	744.68
661.70	739.00
662.05	733.41
662.39	727.98
662.73	722.69
663.07	717.37
663.41	711.80
663.75	706.25
664.09	700.73
664.43	695.44
664.77	690.08
665.11	684.30
665.45	678.45
665.79	672.73
666.13	667.11
666.47	661.72
666.81	656.34
667.15	651.07
667.49	645.97
667.83	640.82
668.17	635.60
668.51	630.57
668.85	625.60
669.19	620.73
669.53	615.79
669.87	610.71
670.21	606.05
670.55	601.41
670.89	597.07
671.23	592.83
671.57	588.54
671.91	584.31
672.25	580.25
672.58	576.10
672.92	572.12
673.26	568.27
673.60	564.38
673.94	560.63
674.28	557.05
674.62	553.36
674.96	549.64
675.30	546.20
675.64	542.59
675.97	539.16
676.31	535.63
676.65	532.04
676.99	528.70
677.33	524.89
677.67	521.29
678.01	517.44
678.34	513.83
678.68	510.31
679.02	506.75
679.36	503.08
679.70	499.58
680.04	496.09
680.37	492.72
680.71	489.45
681.05	486.26
681.39	483.04
681.73	479.89
682.06	476.94
682.40	473.98
682.74	470.89
683.08	467.66
683.42	464.50
683.75	461.57
684.09	458.62
684.43	455.89
684.77	453.07
685.10	450.31
685.44	447.43
685.78	444.58
686.12	441.90
686.45	439.23
686.79	436.62
687.13	434.10
687.46	431.50
687.80	428.88
688.14	426.15
688.48	423.56
688.81	420.96
689.15	418.43
689.49	415.82
689.82	413.31
690.16	410.81
690.50	408.42
690.83	405.98
691.17	403.46
691.51	401.02
691.84	398.84
692.18	396.68
692.52	394.52
692.85	392.44
693.19	390.33
693.52	388.23
693.86	386.06
694.20	383.93
694.53	381.87
694.87	379.70
695.21	377.63
695.54	375.51
695.88	373.41
696.21	371.20
696.55	369.15
696.88	367.18
697.22	365.22
697.56	363.41
697.89	361.60
698.23	359.89
698.56	358.19
698.90	356.40
699.23	354.54
699.57	352.70
699.90	350.89
700.24	349.16
700.58	347.41
700.91	345.81
701.25	344.29
701.58	342.72
701.92	341.18
702.25	339.60
702.59	338.05
702.92	336.55
703.26	334.99
703.59	333.54
703.93	332.25
704.26	330.91
704.60	329.40
704.93	327.93
705.26	326.47
705.60	325.00
705.93	323.55
706.27	322.26
706.60	321.01
706.94	319.77
707.27	318.39
707.61	317.11
707.94	315.78
708.27	314.31
708.61	312.89
708.94	311.57
709.28	310.31
709.61	309.09
709.94	307.91
710.28	306.81
710.61	305.65
710.95	304.25
711.28	303.16
711.61	302.00
711.95	300.93
712.28	299.79
712.61	298.65
712.95	297.59
713.28	296.55
713.61	295.39
713.95	294.27
714.28	293.27
714.61	292.26
714.95	291.25
715.28	290.24
715.61	289.25
715.95	288.30
716.28	287.39
716.61	286.46
716.95	285.52
717.28	284.60
717.61	283.64
717.94	282.80
718.28	281.84
718.61	280.98
718.94	280.10
719.27	279.25
719.61	278.49
719.94	277.69
720.27	276.78
720.60	275.99
720.94	275.22
721.27	274.50
721.60	273.83
721.93	273.18
722.27	272.56
722.60	271.93
722.93	271.23
723.26	270.59
723.59	269.95
723.93	269.31
724.26	268.65
724.59	268.06
724.92	267.47
725.25	266.94
725.59	266.40
725.92	265.86
726.25	265.32
726.58	264.73
726.91	264.12
727.24	263.62
727.57	263.10
727.91	262.53
728.24	262.02
728.57	261.43
728.90	260.84
729.23	260.25
729.56	259.81
729.89	259.30
730.22	258.71
730.55	258.12
730.89	257.59
731.22	257.08
731.55	256.55
731.88	256.02
732.21	255.48
732.54	254.97
732.87	254.52
733.20	254.01
733.53	253.55
733.86	253.10
734.19	252.57
734.52	252.14
734.85	251.89
735.18	251.42
735.51	251.04
735.84	250.65
736.17	250.30
736.50	249.76
736.83	249.67
737.16	249.28
737.49	248.96
737.82	248.60
738.15	248.28
738.48	247.94
738.81	247.57
739.14	247.17
739.47	246.79
739.80	246.38
740.13	246.05
740.46	245.67
740.79	245.30
741.12	244.98
741.45	244.62
741.78	244.14
742.11	243.90
742.44	243.51
742.77	243.21
743.10	242.88
743.43	242.58
743.75	242.03
744.08	241.99
744.41	241.62
744.74	241.24
745.07	240.85
745.40	240.55
745.73	240.32
746.06	239.98
746.39	239.70
746.71	239.40
747.04	239.07
747.37	238.74
747.70	238.48
748.03	238.18
748.36	237.92
748.68	237.66
749.01	237.28
749.34	237.03
749.67	236.74
750.00	236.46
750.33	236.33
750.65	236.07
750.98	235.53
751.31	235.32
751.64	235.10
751.97	235.01
752.29	234.79
752.62	234.43
752.95	234.20
753.28	233.94
753.60	233.71
753.93	233.55
754.26	233.36
754.59	233.10
754.91	232.87
755.24	232.65
755.57	232.41
755.90	232.22
756.22	231.99
756.55	231.74
756.88	231.48
757.20	231.16
757.53	230.90
757.86	230.70
758.19	230.49
758.51	230.32
758.84	229.99
759.17	229.74
759.49	229.63
759.82	229.55
760.15	229.40
760.47	229.21
760.80	228.94
761.13	228.79
761.45	228.62
761.78	228.43
762.11	228.27
762.43	228.08
762.76	227.91
763.08	227.77
763.41	227.62
763.74	227.48
764.06	227.30
764.39	227.16
764.71	227.03
765.04	226.90
765.37	226.72
765.69	226.62
766.02	226.53
766.34	226.37
766.67	226.14
767.00	226.02
767.32	225.99
767.65	226.02
767.97	225.90
768.30	225.76
768.62	225.66
768.95	225.51
769.27	225.42
769.60	225.32
769.92	225.16
770.25	225.03
770.57	224.90
770.90	224.81
771.22	224.68
771.55	224.57
771.87	224.46
772.20	224.35
772.52	224.39
772.85	224.50
773.17	224.40
773.50	224.29
773.82	224.17
774.15	223.98
774.47	223.75
774.80	223.61
775.12	223.51
775.45	223.43
775.77	223.32
776.09	223.23
776.42	223.12
776.74	223.10
777.07	222.99
777.39	222.90
777.72	222.78
778.04	222.74
778.36	222.63
778.69	222.59
779.01	222.55
779.33	222.31
779.66	221.99
779.98	221.89
780.31	221.84
780.63	221.84
780.95	221.81
781.28	221.72
781.60	221.66
781.92	221.59
782.25	221.53
782.57	221.49
782.89	221.44
783.22	221.36
783.54	221.27
783.86	221.26
784.19	221.19
784.51	221.21
784.83	221.11
785.16	221.04
785.48	220.95
785.80	220.82
786.12	220.79
