SpectraSuite Data File
++++++++++++++++++++++++++++++++++++
Date: Tue Jan 29 16:30:34 EST 2013
User: group
Dark Spectrum Present: No
Reference Spectrum Present: No
Number of Sampled Component Spectra: 1
Spectrometers: USB2E7196
Integration Time (usec): 65000 (USB2E7196)
Spectra Averaged: 100 (USB2E7196)
Boxcar Smoothing: 10 (USB2E7196)
Correct for Electrical Dark: No (USB2E7196)
Strobe/Lamp Enabled: No (USB2E7196)
Correct for Detector Non-linearity: No (USB2E7196)
Correct for Stray Light: No (USB2E7196)
Number of Pixels in Processed Spectrum: 2048
>>>>>Begin Processed Spectral Data<<<<<
339.09	0.00
339.48	202.11
339.86	203.90
340.24	204.65
340.63	206.29
341.01	210.52
341.39	209.27
341.78	210.18
342.16	211.81
342.54	212.05
342.93	201.26
343.31	211.43
343.69	211.98
344.07	212.41
344.46	212.86
344.84	213.28
345.22	213.45
345.60	213.72
345.99	213.94
346.37	214.10
346.75	214.22
347.13	214.27
347.52	214.34
347.90	214.47
348.28	214.50
348.66	214.61
349.05	214.60
349.43	214.69
349.81	214.74
350.19	214.80
350.57	214.91
350.96	214.98
351.34	215.08
351.72	215.17
352.10	215.30
352.48	215.37
352.87	215.40
353.25	215.49
353.63	215.57
354.01	215.65
354.39	215.71
354.77	215.78
355.15	215.93
355.54	215.98
355.92	215.94
356.30	216.03
356.68	216.22
357.06	216.32
357.44	216.33
357.82	216.37
358.20	216.45
358.58	216.49
358.97	216.59
359.35	216.71
359.73	216.80
360.11	216.87
360.49	216.93
360.87	216.98
361.25	217.05
361.63	217.12
362.01	217.13
362.39	217.19
362.77	217.23
363.15	217.21
363.53	217.23
363.91	217.31
364.29	217.32
364.67	217.16
365.05	217.17
365.43	217.21
365.81	217.27
366.19	217.37
366.57	217.44
366.95	217.41
367.33	217.33
367.71	217.33
368.09	217.36
368.47	217.34
368.85	217.29
369.23	217.33
369.61	217.24
369.99	217.32
370.37	217.28
370.75	217.35
371.13	217.32
371.51	217.28
371.89	217.28
372.27	217.26
372.65	217.24
373.03	217.23
373.41	217.19
373.78	217.13
374.16	216.99
374.54	216.92
374.92	216.87
375.30	216.84
375.68	216.77
376.06	216.73
376.44	216.67
376.82	216.68
377.19	216.62
377.57	216.60
377.95	216.50
378.33	216.48
378.71	216.34
379.09	216.33
379.47	216.27
379.84	216.17
380.22	216.11
380.60	216.04
380.98	215.96
381.36	215.92
381.73	215.85
382.11	215.85
382.49	215.81
382.87	215.76
383.25	215.73
383.62	215.94
384.00	215.87
384.38	215.88
384.76	215.87
385.13	215.91
385.51	215.85
385.89	215.78
386.27	215.73
386.64	215.72
387.02	215.65
387.40	215.67
387.78	215.68
388.15	215.63
388.53	215.63
388.91	215.59
389.29	215.54
389.66	215.56
390.04	215.55
390.42	215.55
390.79	215.54
391.17	215.52
391.55	215.27
391.92	215.24
392.30	215.24
392.68	215.21
393.05	215.16
393.43	215.18
393.81	215.20
394.18	215.17
394.56	215.15
394.94	215.24
395.31	215.19
395.69	215.23
396.06	215.28
396.44	215.30
396.82	215.33
397.19	215.48
397.57	215.46
397.95	215.53
398.32	215.49
398.70	215.55
399.07	215.64
399.45	215.67
399.82	215.75
400.20	215.79
400.58	215.86
400.95	215.83
401.33	215.93
401.70	216.14
402.08	216.24
402.45	216.33
402.83	216.45
403.20	216.58
403.58	216.68
403.95	216.83
404.33	216.98
404.71	217.13
405.08	217.40
405.46	217.59
405.83	217.73
406.21	217.94
406.58	218.20
406.96	218.39
407.33	218.68
407.70	218.97
408.08	219.45
408.45	219.81
408.83	220.21
409.20	220.59
409.58	220.85
409.95	221.35
410.33	221.87
410.70	222.30
411.08	222.87
411.45	223.43
411.82	224.03
412.20	224.71
412.57	225.54
412.95	226.11
413.32	226.94
413.69	227.82
414.07	228.74
414.44	229.70
414.82	230.74
415.19	231.92
415.56	233.07
415.94	234.23
416.31	235.62
416.68	237.05
417.06	238.59
417.43	240.19
417.81	241.91
418.18	243.65
418.55	245.59
418.93	247.62
419.30	249.75
419.67	251.99
420.04	254.30
420.42	256.69
420.79	259.50
421.16	262.31
421.54	265.21
421.91	268.17
422.28	271.27
422.66	274.56
423.03	277.78
423.40	281.16
423.77	284.77
424.15	288.45
424.52	292.31
424.89	296.55
425.26	300.58
425.64	304.48
426.01	308.79
426.38	313.23
426.75	317.74
427.13	322.48
427.50	327.45
427.87	332.63
428.24	337.80
428.61	342.77
428.99	348.28
429.36	354.29
429.73	360.22
430.10	366.11
430.47	372.19
430.85	378.52
431.22	385.27
431.59	392.37
431.96	399.20
432.33	406.69
432.70	413.87
433.08	422.39
433.45	430.44
433.82	438.45
434.19	447.36
434.56	456.06
434.93	464.35
435.30	472.67
435.68	481.77
436.05	490.73
436.42	499.63
436.79	507.80
437.16	516.55
437.53	525.82
437.90	535.00
438.27	543.92
438.64	553.13
439.01	561.65
439.38	569.25
439.75	576.60
440.13	585.02
440.50	593.00
440.87	599.41
441.24	606.01
441.61	613.41
441.98	618.81
442.35	625.22
442.72	631.60
443.09	637.61
443.46	641.39
443.83	644.04
444.20	646.22
444.57	649.39
444.94	650.93
445.31	652.39
445.68	653.77
446.05	654.36
446.42	653.59
446.79	652.54
447.16	651.46
447.53	650.68
447.90	647.35
448.27	644.03
448.64	639.39
449.01	636.12
449.37	630.20
449.74	624.52
450.11	617.56
450.48	610.15
450.85	602.69
451.22	596.22
451.59	590.03
451.96	584.28
452.33	576.38
452.70	569.20
453.07	560.60
453.43	551.97
453.80	543.70
454.17	535.71
454.54	528.20
454.91	519.99
455.28	511.94
455.65	504.51
456.02	497.07
456.38	490.74
456.75	482.85
457.12	476.21
457.49	469.69
457.86	463.51
458.23	458.09
458.59	452.19
458.96	446.12
459.33	440.81
459.70	435.36
460.07	431.10
460.43	426.20
460.80	421.69
461.17	417.70
461.54	413.53
461.91	409.44
462.27	405.37
462.64	401.94
463.01	398.16
463.38	394.47
463.74	390.78
464.11	387.57
464.48	384.70
464.85	381.62
465.21	379.20
465.58	376.55
465.95	373.38
466.32	370.71
466.68	368.15
467.05	365.51
467.42	363.00
467.78	360.32
468.15	357.77
468.52	355.84
468.88	353.33
469.25	351.10
469.62	349.35
469.98	347.39
470.35	345.59
470.72	343.91
471.08	342.12
471.45	340.58
471.82	339.03
472.18	337.34
472.55	336.14
472.92	334.74
473.28	333.54
473.65	332.43
474.02	331.37
474.38	330.47
474.75	329.75
475.11	328.92
475.48	328.35
475.85	327.89
476.21	327.39
476.58	327.03
476.94	326.80
477.31	326.49
477.67	326.24
478.04	326.09
478.41	326.02
478.77	326.16
479.14	326.12
479.50	326.28
479.87	326.63
480.23	327.02
480.60	327.26
480.96	327.54
481.33	328.15
481.69	328.70
482.06	329.18
482.42	329.64
482.79	330.22
483.15	331.03
483.52	331.97
483.88	332.85
484.25	333.84
484.61	334.87
484.98	335.91
485.34	337.20
485.71	338.56
486.07	340.04
486.44	341.36
486.80	342.95
487.17	344.62
487.53	346.41
487.90	348.25
488.26	350.30
488.62	352.46
488.99	354.53
489.35	356.70
489.72	359.15
490.08	361.72
490.44	364.28
490.81	366.96
491.17	369.65
491.54	372.64
491.90	375.69
492.26	378.90
492.63	382.34
492.99	385.86
493.36	389.54
493.72	393.43
494.08	397.54
494.45	401.77
494.81	406.16
495.17	410.63
495.54	415.32
495.90	420.14
496.26	425.13
496.63	430.37
496.99	435.80
497.35	441.35
497.72	447.16
498.08	453.10
498.44	459.21
498.80	465.68
499.17	472.22
499.53	478.94
499.89	485.90
500.26	492.93
500.62	500.08
500.98	507.57
501.34	515.09
501.71	522.84
502.07	530.72
502.43	538.80
502.79	547.02
503.16	555.40
503.52	564.05
503.88	572.74
504.24	581.67
504.60	590.76
504.97	600.08
505.33	609.42
505.69	619.38
506.05	629.31
506.41	639.20
506.78	649.30
507.14	659.66
507.50	670.18
507.86	680.91
508.22	691.74
508.59	702.41
508.95	713.56
509.31	724.87
509.67	736.35
510.03	747.76
510.39	759.54
510.75	771.50
511.12	783.43
511.48	795.69
511.84	808.09
512.20	820.54
512.56	833.14
512.92	846.05
513.28	858.78
513.64	871.65
514.00	884.62
514.37	897.71
514.73	910.88
515.09	923.98
515.45	936.98
515.81	950.08
516.17	963.60
516.53	976.85
516.89	990.09
517.25	1003.45
517.61	1017.08
517.97	1030.61
518.33	1043.88
518.69	1057.62
519.05	1071.43
519.41	1085.13
519.77	1099.20
520.13	1112.62
520.49	1125.82
520.85	1139.41
521.21	1152.87
521.57	1166.61
521.93	1179.79
522.29	1193.68
522.65	1207.36
523.01	1221.10
523.37	1234.33
523.73	1247.71
524.09	1261.09
524.45	1274.67
524.81	1288.25
525.17	1301.77
525.53	1315.05
525.89	1328.54
526.25	1341.68
526.61	1354.55
526.97	1367.75
527.33	1380.74
527.68	1394.43
528.04	1408.17
528.40	1421.47
528.76	1434.85
529.12	1447.87
529.48	1461.33
529.84	1473.59
530.20	1486.53
530.56	1499.34
530.91	1512.89
531.27	1525.95
531.63	1538.70
531.99	1551.54
532.35	1564.01
532.71	1576.53
533.07	1589.53
533.42	1601.76
533.78	1614.06
534.14	1626.39
534.50	1637.84
534.86	1649.53
535.21	1660.59
535.57	1672.20
535.93	1683.46
536.29	1694.69
536.65	1706.33
537.00	1717.44
537.36	1729.12
537.72	1740.25
538.08	1751.74
538.44	1762.75
538.79	1773.88
539.15	1785.00
539.51	1795.89
539.87	1807.21
540.22	1818.22
540.58	1829.25
540.94	1840.37
541.29	1850.76
541.65	1860.61
542.01	1871.21
542.37	1881.40
542.72	1891.44
543.08	1901.23
543.44	1911.88
543.79	1921.40
544.15	1930.91
544.51	1940.93
544.87	1950.78
545.22	1960.07
545.58	1969.05
545.94	1977.99
546.29	1986.60
546.65	1995.05
547.01	2003.25
547.36	2011.05
547.72	2018.76
548.07	2026.55
548.43	2034.40
548.79	2042.48
549.14	2050.64
549.50	2059.16
549.86	2067.10
550.21	2074.76
550.57	2082.50
550.92	2089.18
551.28	2096.69
551.64	2104.02
551.99	2111.59
552.35	2118.79
552.70	2125.62
553.06	2132.20
553.41	2138.50
553.77	2145.03
554.13	2151.42
554.48	2158.60
554.84	2165.66
555.19	2172.29
555.55	2178.54
555.90	2184.71
556.26	2191.54
556.61	2197.68
556.97	2202.61
557.32	2208.51
557.68	2215.05
558.03	2220.87
558.39	2226.35
558.74	2232.38
559.10	2237.89
559.45	2243.51
559.81	2249.09
560.16	2254.75
560.52	2260.87
560.87	2267.40
561.23	2273.37
561.58	2280.06
561.94	2285.26
562.29	2290.01
562.64	2296.11
563.00	2302.02
563.35	2307.78
563.71	2313.50
564.06	2319.28
564.42	2325.22
564.77	2330.27
565.12	2335.54
565.48	2340.66
565.83	2346.18
566.19	2351.54
566.54	2356.88
566.89	2361.48
567.25	2366.10
567.60	2371.80
567.96	2376.90
568.31	2381.36
568.66	2385.65
569.02	2389.59
569.37	2393.41
569.72	2397.94
570.08	2401.37
570.43	2404.29
570.78	2407.35
571.14	2409.87
571.49	2412.90
571.84	2416.49
572.20	2419.41
572.55	2422.34
572.90	2424.65
573.26	2427.53
573.61	2430.13
573.96	2432.31
574.31	2434.24
574.67	2436.23
575.02	2437.16
575.37	2438.57
575.72	2439.22
576.08	2440.73
576.43	2440.96
576.78	2441.49
577.13	2443.03
577.49	2444.03
577.84	2445.21
578.19	2446.54
578.54	2447.09
578.90	2447.75
579.25	2447.47
579.60	2447.34
579.95	2446.61
580.30	2446.76
580.66	2445.96
581.01	2444.26
581.36	2442.03
581.71	2440.64
582.06	2439.35
582.42	2438.25
582.77	2435.84
583.12	2434.33
583.47	2432.83
583.82	2432.04
584.17	2430.83
584.53	2428.64
584.88	2426.72
585.23	2424.68
585.58	2422.29
585.93	2420.27
586.28	2418.05
586.63	2415.69
586.98	2413.41
587.34	2411.37
587.69	2408.69
588.04	2406.65
588.39	2405.22
588.74	2402.65
589.09	2399.99
589.44	2396.86
589.79	2394.44
590.14	2392.56
590.49	2389.69
590.84	2385.92
591.19	2382.73
591.54	2379.24
591.89	2375.11
592.25	2371.79
592.60	2367.73
592.95	2363.51
593.30	2359.29
593.65	2354.93
594.00	2350.36
594.35	2347.32
594.70	2342.57
595.05	2338.17
595.40	2332.61
595.75	2326.77
596.10	2323.21
596.45	2318.28
596.80	2313.58
597.15	2308.34
597.50	2302.31
597.85	2297.34
598.19	2292.09
598.54	2286.38
598.89	2281.22
599.24	2276.68
599.59	2270.46
599.94	2264.48
600.29	2258.50
600.64	2252.34
600.99	2245.40
601.34	2239.87
601.69	2232.82
602.04	2226.31
602.39	2219.49
602.74	2213.39
603.08	2207.77
603.43	2201.08
603.78	2194.27
604.13	2187.17
604.48	2179.66
604.83	2173.59
605.18	2167.26
605.53	2160.17
605.87	2153.02
606.22	2146.04
606.57	2137.93
606.92	2129.92
607.27	2122.96
607.62	2116.29
607.96	2109.41
608.31	2103.03
608.66	2095.36
609.01	2087.70
609.36	2080.58
609.70	2072.99
610.05	2065.01
610.40	2056.61
610.75	2048.29
611.10	2040.48
611.44	2031.51
611.79	2022.88
612.14	2012.83
612.49	2002.01
612.83	1992.73
613.18	1983.36
613.53	1974.12
613.88	1964.62
614.22	1955.98
614.57	1945.99
614.92	1935.39
615.27	1925.07
615.61	1914.85
615.96	1904.95
616.31	1895.28
616.65	1885.80
617.00	1875.78
617.35	1866.15
617.70	1856.45
618.04	1846.28
618.39	1836.09
618.74	1826.44
619.08	1816.69
619.43	1807.95
619.78	1799.67
620.12	1790.90
620.47	1781.28
620.82	1770.85
621.16	1760.88
621.51	1750.89
621.85	1740.92
622.20	1730.50
622.55	1719.74
622.89	1709.80
623.24	1700.14
623.59	1690.27
623.93	1680.11
624.28	1670.45
624.62	1660.29
624.97	1649.85
625.32	1639.98
625.66	1630.99
626.01	1622.20
626.35	1612.72
626.70	1602.57
627.04	1592.50
627.39	1582.41
627.73	1573.13
628.08	1564.09
628.43	1554.58
628.77	1545.33
629.12	1536.50
629.46	1528.60
629.81	1520.43
630.15	1510.83
630.50	1500.90
630.84	1490.48
631.19	1480.47
631.53	1471.08
631.88	1460.85
632.22	1450.72
632.57	1441.51
632.91	1431.31
633.26	1421.32
633.60	1411.75
633.95	1402.37
634.29	1392.73
634.64	1383.36
634.98	1373.29
635.32	1363.90
635.67	1355.32
636.01	1345.94
636.36	1336.20
636.70	1326.62
637.05	1317.15
637.39	1308.13
637.73	1299.50
638.08	1291.81
638.42	1283.71
638.77	1274.88
639.11	1266.78
639.45	1259.05
639.80	1250.24
640.14	1241.51
640.49	1232.57
640.83	1223.76
641.17	1215.52
641.52	1207.53
641.86	1198.88
642.20	1190.94
642.55	1182.37
642.89	1173.41
643.23	1164.79
643.58	1156.57
643.92	1147.49
644.26	1138.69
644.61	1130.12
644.95	1121.19
645.29	1111.91
645.64	1102.60
645.98	1094.05
646.32	1085.89
646.66	1077.27
647.01	1068.89
647.35	1060.67
647.69	1052.30
648.04	1043.89
648.38	1035.05
648.72	1026.13
649.06	1017.59
649.41	1009.36
649.75	1001.34
650.09	993.45
650.43	985.32
650.78	976.87
651.12	969.14
651.46	961.69
651.80	954.48
652.14	947.07
652.49	939.46
652.83	932.04
653.17	924.24
653.51	916.60
653.85	909.35
654.20	901.99
654.54	894.46
654.88	887.18
655.22	879.97
655.56	872.80
655.90	865.92
656.25	859.17
656.59	852.18
656.93	845.10
657.27	837.89
657.61	830.88
657.95	824.76
658.29	818.73
658.64	812.52
658.98	806.03
659.32	799.49
659.66	793.26
660.00	786.85
660.34	780.70
660.68	774.50
661.02	768.06
661.36	762.06
661.70	756.19
662.05	750.50
662.39	744.86
662.73	739.53
663.07	734.11
663.41	728.44
663.75	722.73
664.09	716.98
664.43	711.53
664.77	706.10
665.11	700.23
665.45	694.24
665.79	688.32
666.13	682.55
666.47	676.99
666.81	671.44
667.15	665.96
667.49	660.71
667.83	655.44
668.17	650.15
668.51	644.94
668.85	639.98
669.19	635.05
669.53	629.97
669.87	624.71
670.21	619.91
670.55	615.16
670.89	610.64
671.23	606.29
671.57	601.84
671.91	597.53
672.25	593.32
672.58	589.15
672.92	585.11
673.26	581.12
673.60	577.25
673.94	573.39
674.28	569.81
674.62	566.03
674.96	562.20
675.30	558.66
675.64	555.04
675.97	551.33
676.31	547.65
676.65	544.07
676.99	540.60
677.33	536.69
677.67	532.99
678.01	529.11
678.34	525.38
678.68	521.82
679.02	518.16
679.36	514.43
679.70	510.71
680.04	507.09
680.37	503.60
680.71	500.16
681.05	496.93
681.39	493.59
681.73	490.34
682.06	487.33
682.40	484.23
682.74	480.94
683.08	477.76
683.42	474.45
683.75	471.40
684.09	468.30
684.43	465.47
684.77	462.51
685.10	459.52
685.44	456.56
685.78	453.60
686.12	450.82
686.45	448.05
686.79	445.40
687.13	442.83
687.46	440.19
687.80	437.52
688.14	434.67
688.48	432.02
688.81	429.30
689.15	426.63
689.49	423.94
689.82	421.39
690.16	418.71
690.50	416.29
690.83	413.72
691.17	411.19
691.51	408.67
691.84	406.33
692.18	404.12
692.52	401.93
692.85	399.72
693.19	397.56
693.52	395.38
693.86	393.07
694.20	390.78
694.53	388.61
694.87	386.35
695.21	384.19
695.54	381.98
695.88	379.80
696.21	377.59
696.55	375.42
696.88	373.34
697.22	371.35
697.56	369.41
697.89	367.56
698.23	365.79
698.56	363.95
698.90	362.16
699.23	360.28
699.57	358.33
699.90	356.45
700.24	354.56
700.58	352.75
700.91	351.07
701.25	349.52
701.58	347.87
701.92	346.22
702.25	344.61
702.59	343.01
702.92	341.46
703.26	339.85
703.59	338.36
703.93	337.09
704.26	335.64
704.60	334.08
704.93	332.53
705.26	331.01
705.60	329.51
705.93	327.95
706.27	326.56
706.60	325.30
706.94	324.05
707.27	322.65
707.61	321.26
707.94	319.86
708.27	318.32
708.61	316.88
708.94	315.50
709.28	314.17
709.61	312.85
709.94	311.63
710.28	310.42
710.61	309.22
710.95	307.75
711.28	306.66
711.61	305.45
711.95	304.26
712.28	303.04
712.61	301.84
712.95	300.79
713.28	299.75
713.61	298.55
713.95	297.38
714.28	296.35
714.61	295.29
714.95	294.30
715.28	293.29
715.61	292.25
715.95	291.31
716.28	290.32
716.61	289.41
716.95	288.36
717.28	287.41
717.61	286.41
717.94	285.51
718.28	284.46
718.61	283.58
718.94	282.70
719.27	281.81
719.61	280.98
719.94	280.11
720.27	279.13
720.60	278.28
720.94	277.48
721.27	276.71
721.60	276.02
721.93	275.24
722.27	274.58
722.60	273.89
722.93	273.16
723.26	272.46
723.59	271.72
723.93	271.10
724.26	270.43
724.59	269.77
724.92	269.19
725.25	268.62
725.59	268.01
725.92	267.45
726.25	266.87
726.58	266.30
726.91	265.69
727.24	265.15
727.57	264.59
727.91	263.96
728.24	263.34
728.57	262.73
728.90	262.19
729.23	261.57
729.56	261.11
729.89	260.53
730.22	259.97
730.55	259.41
730.89	258.89
731.22	258.37
731.55	257.85
731.88	257.25
732.21	256.70
732.54	256.18
732.87	255.65
733.20	255.14
733.53	254.69
733.86	254.23
734.19	253.71
734.52	253.29
734.85	253.01
735.18	252.55
735.51	252.19
735.84	251.77
736.17	251.36
736.50	250.82
736.83	250.67
737.16	250.31
737.49	249.92
737.82	249.51
738.15	249.12
738.48	248.75
738.81	248.40
739.14	248.00
739.47	247.64
739.80	247.27
740.13	246.94
740.46	246.53
740.79	246.14
741.12	245.75
741.45	245.36
741.78	244.88
742.11	244.62
742.44	244.24
742.77	243.91
743.10	243.55
743.43	243.24
743.75	242.68
744.08	242.61
744.41	242.26
744.74	241.88
745.07	241.52
745.40	241.24
745.73	241.00
746.06	240.72
746.39	240.42
746.71	240.07
747.04	239.72
747.37	239.39
747.70	239.15
748.03	238.88
748.36	238.61
748.68	238.34
749.01	237.97
749.34	237.65
749.67	237.37
750.00	237.13
750.33	236.96
750.65	236.71
750.98	236.17
751.31	235.95
751.64	235.73
751.97	235.62
752.29	235.30
752.62	234.92
752.95	234.67
753.28	234.40
753.60	234.16
753.93	234.00
754.26	233.78
754.59	233.48
754.91	233.19
755.24	232.94
755.57	232.68
755.90	232.48
756.22	232.22
756.55	231.95
756.88	231.70
757.20	231.33
757.53	231.10
757.86	230.89
758.19	230.68
758.51	230.47
758.84	230.11
759.17	229.91
759.49	229.74
759.82	229.64
760.15	229.43
760.47	229.25
760.80	228.98
761.13	228.77
761.45	228.57
761.78	228.41
762.11	228.22
762.43	228.03
762.76	227.81
763.08	227.66
763.41	227.48
763.74	227.32
764.06	227.19
764.39	227.02
764.71	226.84
765.04	226.61
765.37	226.47
765.69	226.35
766.02	226.20
766.34	226.06
766.67	225.82
767.00	225.72
767.32	225.70
767.65	225.65
767.97	225.53
768.30	225.41
768.62	225.28
768.95	225.14
769.27	225.03
769.60	224.95
769.92	224.78
770.25	224.63
770.57	224.47
770.90	224.35
771.22	224.19
771.55	224.07
771.87	223.98
772.20	223.86
772.52	223.89
772.85	224.05
773.17	223.95
773.50	223.82
773.82	223.68
774.15	223.44
774.47	223.27
774.80	223.14
775.12	223.03
775.45	222.94
775.77	222.86
776.09	222.77
776.42	222.66
776.74	222.67
777.07	222.57
777.39	222.49
777.72	222.37
778.04	222.31
778.36	222.22
778.69	222.15
779.01	222.08
779.33	221.83
779.66	221.47
779.98	221.38
780.31	221.26
780.63	221.28
780.95	221.26
781.28	221.15
781.60	221.09
781.92	221.00
782.25	220.93
782.57	220.86
782.89	220.78
783.22	220.72
783.54	220.56
783.86	220.56
784.19	220.50
784.51	220.51
784.83	220.44
785.16	220.38
785.48	220.31
785.80	220.25
786.12	220.24
