SpectraSuite Data File
++++++++++++++++++++++++++++++++++++
Date: Tue Jan 29 16:39:23 EST 2013
User: group
Dark Spectrum Present: No
Reference Spectrum Present: No
Number of Sampled Component Spectra: 1
Spectrometers: USB2E7196
Integration Time (usec): 65000 (USB2E7196)
Spectra Averaged: 100 (USB2E7196)
Boxcar Smoothing: 10 (USB2E7196)
Correct for Electrical Dark: No (USB2E7196)
Strobe/Lamp Enabled: No (USB2E7196)
Correct for Detector Non-linearity: No (USB2E7196)
Correct for Stray Light: No (USB2E7196)
Number of Pixels in Processed Spectrum: 2048
>>>>>Begin Processed Spectral Data<<<<<
339.09	0.00
339.48	202.29
339.86	203.21
340.24	204.52
340.63	206.04
341.01	210.40
341.39	208.96
341.78	210.11
342.16	211.92
342.54	212.14
342.93	201.03
343.31	211.17
343.69	211.71
344.07	212.17
344.46	212.62
344.84	213.01
345.22	213.19
345.60	213.46
345.99	213.65
346.37	213.79
346.75	213.89
347.13	213.97
347.52	214.07
347.90	214.17
348.28	214.22
348.66	214.29
349.05	214.26
349.43	214.34
349.81	214.41
350.19	214.46
350.57	214.56
350.96	214.63
351.34	214.76
351.72	214.84
352.10	214.96
352.48	215.02
352.87	215.09
353.25	215.18
353.63	215.23
354.01	215.28
354.39	215.36
354.77	215.40
355.15	215.55
355.54	215.58
355.92	215.55
356.30	215.62
356.68	215.84
357.06	215.93
357.44	215.94
357.82	215.97
358.20	216.01
358.58	216.05
358.97	216.12
359.35	216.21
359.73	216.32
360.11	216.37
360.49	216.45
360.87	216.51
361.25	216.57
361.63	216.65
362.01	216.75
362.39	216.72
362.77	216.80
363.15	216.84
363.53	216.87
363.91	216.94
364.29	216.97
364.67	216.78
365.05	216.80
365.43	216.88
365.81	216.94
366.19	217.06
366.57	217.17
366.95	217.19
367.33	217.15
367.71	217.16
368.09	217.20
368.47	217.21
368.85	217.17
369.23	217.19
369.61	217.13
369.99	217.16
370.37	217.22
370.75	217.30
371.13	217.21
371.51	217.18
371.89	217.19
372.27	217.17
372.65	217.19
373.03	217.14
373.41	217.09
373.78	217.04
374.16	216.90
374.54	216.79
374.92	216.73
375.30	216.67
375.68	216.57
376.06	216.53
376.44	216.45
376.82	216.42
377.19	216.38
377.57	216.34
377.95	216.25
378.33	216.15
378.71	216.00
379.09	216.00
379.47	215.98
379.84	215.89
380.22	215.82
380.60	215.73
380.98	215.68
381.36	215.64
381.73	215.58
382.11	215.60
382.49	215.60
382.87	215.55
383.25	215.51
383.62	215.70
384.00	215.64
384.38	215.62
384.76	215.65
385.13	215.68
385.51	215.62
385.89	215.55
386.27	215.56
386.64	215.57
387.02	215.55
387.40	215.50
387.78	215.52
388.15	215.48
388.53	215.45
388.91	215.45
389.29	215.42
389.66	215.42
390.04	215.35
390.42	215.36
390.79	215.34
391.17	215.35
391.55	215.13
391.92	215.12
392.30	215.12
392.68	215.07
393.05	215.07
393.43	215.11
393.81	215.13
394.18	215.09
394.56	215.10
394.94	215.13
395.31	215.12
395.69	215.19
396.06	215.24
396.44	215.28
396.82	215.27
397.19	215.42
397.57	215.43
397.95	215.48
398.32	215.44
398.70	215.48
399.07	215.53
399.45	215.55
399.82	215.58
400.20	215.62
400.58	215.70
400.95	215.66
401.33	215.75
401.70	215.99
402.08	216.10
402.45	216.17
402.83	216.28
403.20	216.43
403.58	216.51
403.95	216.66
404.33	216.82
404.71	217.00
405.08	217.24
405.46	217.41
405.83	217.62
406.21	217.83
406.58	218.09
406.96	218.31
407.33	218.58
407.70	218.89
408.08	219.32
408.45	219.68
408.83	220.11
409.20	220.47
409.58	220.70
409.95	221.16
410.33	221.65
410.70	222.08
411.08	222.67
411.45	223.21
411.82	223.79
412.20	224.47
412.57	225.29
412.95	225.84
413.32	226.65
413.69	227.51
414.07	228.40
414.44	229.33
414.82	230.37
415.19	231.55
415.56	232.79
415.94	234.00
416.31	235.39
416.68	236.76
417.06	238.36
417.43	239.94
417.81	241.67
418.18	243.46
418.55	245.41
418.93	247.39
419.30	249.53
419.67	251.77
420.04	254.04
420.42	256.45
420.79	259.29
421.16	262.12
421.54	265.03
421.91	268.02
422.28	271.18
422.66	274.49
423.03	277.75
423.40	281.08
423.77	284.70
424.15	288.36
424.52	292.23
424.89	296.43
425.26	300.53
425.64	304.42
426.01	308.71
426.38	313.19
426.75	317.72
427.13	322.46
427.50	327.43
427.87	332.68
428.24	337.91
428.61	342.94
428.99	348.45
429.36	354.52
429.73	360.42
430.10	366.26
430.47	372.37
430.85	378.73
431.22	385.44
431.59	392.54
431.96	399.36
432.33	406.85
432.70	414.11
433.08	422.67
433.45	430.73
433.82	438.83
434.19	447.75
434.56	456.57
434.93	464.95
435.30	473.29
435.68	482.39
436.05	491.33
436.42	500.25
436.79	508.39
437.16	517.12
437.53	526.47
437.90	535.72
438.27	544.64
438.64	553.86
439.01	562.43
439.38	570.01
439.75	577.42
440.13	585.84
440.50	593.80
440.87	600.20
441.24	606.88
441.61	614.21
441.98	619.67
442.35	625.93
442.72	632.28
443.09	638.38
443.46	642.16
443.83	644.74
444.20	646.94
444.57	650.12
444.94	651.61
445.31	653.04
445.68	654.50
446.05	655.19
446.42	654.44
446.79	653.56
447.16	652.55
447.53	651.74
447.90	648.44
448.27	645.17
448.64	640.49
449.01	637.13
449.37	631.21
449.74	625.46
450.11	618.60
450.48	611.19
450.85	603.65
451.22	597.18
451.59	590.98
451.96	585.13
452.33	577.24
452.70	570.17
453.07	561.69
453.43	552.93
453.80	544.59
454.17	536.53
454.54	528.91
454.91	520.66
455.28	512.68
455.65	505.25
456.02	497.73
456.38	491.41
456.75	483.57
457.12	476.96
457.49	470.45
457.86	464.21
458.23	458.77
458.59	452.80
458.96	446.75
459.33	441.49
459.70	436.07
460.07	431.81
460.43	426.89
460.80	422.29
461.17	418.31
461.54	414.08
461.91	410.06
462.27	405.91
462.64	402.51
463.01	398.70
463.38	394.94
463.74	391.19
464.11	387.93
464.48	385.09
464.85	381.99
465.21	379.56
465.58	376.92
465.95	373.81
466.32	371.23
466.68	368.60
467.05	365.98
467.42	363.43
467.78	360.75
468.15	358.14
468.52	356.23
468.88	353.72
469.25	351.48
469.62	349.69
469.98	347.77
470.35	345.87
470.72	344.16
471.08	342.39
471.45	340.90
471.82	339.39
472.18	337.69
472.55	336.47
472.92	335.10
473.28	333.90
473.65	332.70
474.02	331.55
474.38	330.66
474.75	329.92
475.11	329.12
475.48	328.51
475.85	328.05
476.21	327.52
476.58	327.16
476.94	326.95
477.31	326.62
477.67	326.36
478.04	326.27
478.41	326.22
478.77	326.38
479.14	326.32
479.50	326.42
479.87	326.74
480.23	327.04
480.60	327.26
480.96	327.56
481.33	328.15
481.69	328.71
482.06	329.24
482.42	329.68
482.79	330.27
483.15	331.06
483.52	332.00
483.88	332.88
484.25	333.82
484.61	334.83
484.98	335.84
485.34	337.14
485.71	338.51
486.07	339.96
486.44	341.26
486.80	342.96
487.17	344.63
487.53	346.46
487.90	348.31
488.26	350.36
488.62	352.52
488.99	354.59
489.35	356.74
489.72	359.08
490.08	361.63
490.44	364.20
490.81	366.90
491.17	369.63
491.54	372.59
491.90	375.66
492.26	378.89
492.63	382.34
492.99	385.81
493.36	389.46
493.72	393.31
494.08	397.30
494.45	401.43
494.81	405.80
495.17	410.21
495.54	414.94
495.90	419.73
496.26	424.62
496.63	429.86
496.99	435.27
497.35	440.87
497.72	446.69
498.08	452.63
498.44	458.74
498.80	465.20
499.17	471.70
499.53	478.37
499.89	485.24
500.26	492.23
500.62	499.37
500.98	506.78
501.34	514.26
501.71	522.14
502.07	530.01
502.43	538.04
502.79	546.15
503.16	554.54
503.52	563.15
503.88	571.86
504.24	580.78
504.60	589.93
504.97	599.21
505.33	608.54
505.69	618.34
506.05	628.24
506.41	638.06
506.78	648.17
507.14	658.45
507.50	669.00
507.86	679.71
508.22	690.54
508.59	701.26
508.95	712.35
509.31	723.55
509.67	735.02
510.03	746.46
510.39	758.30
510.75	770.12
511.12	782.04
511.48	794.28
511.84	806.55
512.20	818.89
512.56	831.60
512.92	844.43
513.28	857.15
513.64	869.97
514.00	882.94
514.37	896.01
514.73	909.24
515.09	922.28
515.45	935.18
515.81	948.20
516.17	961.67
516.53	975.01
516.89	988.21
517.25	1001.52
517.61	1015.09
517.97	1028.60
518.33	1041.84
518.69	1055.47
519.05	1069.21
519.41	1082.94
519.77	1096.90
520.13	1110.19
520.49	1123.36
520.85	1136.84
521.21	1150.26
521.57	1163.92
521.93	1176.95
522.29	1190.76
522.65	1204.49
523.01	1218.29
523.37	1231.50
523.73	1244.84
524.09	1258.14
524.45	1271.64
524.81	1285.14
525.17	1298.50
525.53	1311.70
525.89	1325.11
526.25	1338.28
526.61	1351.18
526.97	1364.42
527.33	1377.38
527.68	1391.01
528.04	1404.64
528.40	1417.91
528.76	1431.37
529.12	1444.31
529.48	1457.82
529.84	1470.11
530.20	1482.97
530.56	1495.65
530.91	1509.11
531.27	1522.09
531.63	1534.97
531.99	1547.83
532.35	1560.20
532.71	1572.81
533.07	1585.83
533.42	1598.26
533.78	1610.53
534.14	1622.79
534.50	1634.12
534.86	1645.88
535.21	1656.78
535.57	1668.37
535.93	1679.69
536.29	1690.90
536.65	1702.59
537.00	1713.73
537.36	1725.20
537.72	1736.21
538.08	1747.65
538.44	1758.63
538.79	1769.80
539.15	1780.71
539.51	1791.63
539.87	1803.00
540.22	1813.95
540.58	1825.03
540.94	1835.88
541.29	1846.32
541.65	1856.13
542.01	1866.69
542.37	1876.78
542.72	1887.18
543.08	1897.05
543.44	1907.63
543.79	1916.96
544.15	1926.38
544.51	1936.35
544.87	1946.47
545.22	1955.88
545.58	1964.85
545.94	1973.88
546.29	1982.56
546.65	1991.08
547.01	1999.45
547.36	2007.21
547.72	2015.00
548.07	2022.59
548.43	2030.50
548.79	2038.38
549.14	2046.77
549.50	2055.42
549.86	2063.38
550.21	2070.84
550.57	2078.68
550.92	2085.60
551.28	2093.20
551.64	2100.63
551.99	2108.23
552.35	2115.28
552.70	2122.13
553.06	2128.92
553.41	2135.17
553.77	2141.60
554.13	2147.98
554.48	2154.91
554.84	2162.12
555.19	2168.68
555.55	2175.20
555.90	2181.60
556.26	2188.61
556.61	2194.57
556.97	2199.25
557.32	2205.11
557.68	2211.53
558.03	2217.27
558.39	2222.63
558.74	2228.52
559.10	2234.13
559.45	2239.82
559.81	2245.56
560.16	2251.24
560.52	2257.15
560.87	2263.63
561.23	2269.57
561.58	2276.20
561.94	2281.46
562.29	2286.11
562.64	2292.24
563.00	2297.92
563.35	2303.37
563.71	2309.04
564.06	2314.65
564.42	2320.80
564.77	2325.76
565.12	2330.98
565.48	2336.10
565.83	2341.55
566.19	2346.95
566.54	2352.25
566.89	2356.79
567.25	2361.20
567.60	2366.84
567.96	2371.91
568.31	2376.35
568.66	2380.53
569.02	2384.35
569.37	2388.07
569.72	2392.47
570.08	2395.85
570.43	2398.89
570.78	2402.05
571.14	2404.49
571.49	2407.57
571.84	2411.03
572.20	2414.01
572.55	2416.90
572.90	2419.12
573.26	2421.91
573.61	2424.52
573.96	2426.61
574.31	2428.33
574.67	2430.28
575.02	2430.91
575.37	2432.35
575.72	2433.13
576.08	2434.59
576.43	2434.70
576.78	2435.02
577.13	2436.59
577.49	2437.66
577.84	2438.51
578.19	2439.56
578.54	2439.92
578.90	2440.66
579.25	2440.32
579.60	2440.24
579.95	2439.37
580.30	2439.25
580.66	2438.45
581.01	2436.45
581.36	2433.92
581.71	2432.45
582.06	2431.15
582.42	2430.17
582.77	2427.83
583.12	2425.95
583.47	2424.54
583.82	2423.86
584.17	2422.53
584.53	2420.20
584.88	2418.04
585.23	2416.13
585.58	2413.90
585.93	2411.79
586.28	2409.32
586.63	2406.74
586.98	2404.08
587.34	2402.07
587.69	2399.64
588.04	2397.34
588.39	2395.86
588.74	2393.28
589.09	2390.44
589.44	2387.21
589.79	2384.57
590.14	2382.45
590.49	2379.54
590.84	2375.49
591.19	2372.19
591.54	2368.77
591.89	2364.66
592.25	2361.26
592.60	2356.92
592.95	2352.75
593.30	2348.53
593.65	2344.11
594.00	2339.64
594.35	2336.76
594.70	2331.99
595.05	2327.40
595.40	2321.91
595.75	2315.99
596.10	2312.25
596.45	2307.45
596.80	2302.81
597.15	2297.46
597.50	2291.51
597.85	2286.53
598.19	2281.16
598.54	2275.38
598.89	2270.06
599.24	2265.48
599.59	2259.15
599.94	2253.31
600.29	2247.09
600.64	2241.07
600.99	2234.14
601.34	2228.66
601.69	2221.59
602.04	2215.10
602.39	2208.25
602.74	2202.14
603.08	2196.71
603.43	2190.15
603.78	2183.18
604.13	2175.92
604.48	2168.63
604.83	2162.39
605.18	2156.02
605.53	2149.12
605.87	2142.14
606.22	2135.45
606.57	2127.38
606.92	2119.52
607.27	2112.62
607.62	2105.99
607.96	2099.02
608.31	2092.82
608.66	2084.98
609.01	2077.31
609.36	2070.15
609.70	2062.50
610.05	2054.62
610.40	2046.20
610.75	2037.83
611.10	2030.15
611.44	2021.17
611.79	2012.50
612.14	2002.61
612.49	1992.08
612.83	1982.72
613.18	1973.38
613.53	1964.00
613.88	1954.38
614.22	1945.56
614.57	1935.69
614.92	1924.97
615.27	1914.66
615.61	1904.23
615.96	1894.47
616.31	1884.86
616.65	1875.52
617.00	1865.78
617.35	1856.10
617.70	1846.42
618.04	1836.47
618.39	1826.37
618.74	1816.84
619.08	1807.24
619.43	1798.46
619.78	1790.17
620.12	1781.58
620.47	1771.96
620.82	1761.63
621.16	1751.89
621.51	1742.18
621.85	1732.22
622.20	1722.02
622.55	1711.47
622.89	1701.64
623.24	1692.01
623.59	1682.31
623.93	1672.15
624.28	1662.45
624.62	1652.48
624.97	1642.26
625.32	1632.36
625.66	1623.39
626.01	1614.61
626.35	1605.28
626.70	1595.23
627.04	1585.29
627.39	1575.16
627.73	1565.88
628.08	1556.90
628.43	1547.49
628.77	1538.19
629.12	1529.36
629.46	1521.48
629.81	1513.22
630.15	1503.74
630.50	1494.01
630.84	1483.49
631.19	1473.59
631.53	1464.25
631.88	1454.00
632.22	1443.98
632.57	1434.73
632.91	1424.64
633.26	1414.75
633.60	1405.19
633.95	1396.04
634.29	1386.50
634.64	1377.21
634.98	1367.26
635.32	1358.12
635.67	1349.53
636.01	1340.33
636.36	1330.67
636.70	1321.22
637.05	1311.85
637.39	1302.96
637.73	1294.31
638.08	1286.71
638.42	1278.54
638.77	1269.76
639.11	1261.69
639.45	1253.94
639.80	1245.48
640.14	1236.73
640.49	1227.97
640.83	1219.07
641.17	1210.77
641.52	1202.69
641.86	1194.15
642.20	1186.33
642.55	1177.71
642.89	1168.85
643.23	1160.17
643.58	1152.08
643.92	1143.06
644.26	1134.35
644.61	1125.92
644.95	1117.10
645.29	1107.93
645.64	1098.79
645.98	1090.28
646.32	1082.22
646.66	1073.65
647.01	1065.25
647.35	1057.20
647.69	1048.88
648.04	1040.73
648.38	1031.87
648.72	1023.06
649.06	1014.55
649.41	1006.34
649.75	998.35
650.09	990.47
650.43	982.42
650.78	974.02
651.12	966.30
651.46	958.94
651.80	951.68
652.14	944.38
652.49	936.78
652.83	929.46
653.17	921.76
653.51	914.22
653.85	906.98
654.20	899.77
654.54	892.31
654.88	884.96
655.22	877.64
655.56	870.59
655.90	863.78
656.25	857.14
656.59	850.24
656.93	843.20
657.27	836.06
657.61	829.11
657.95	822.99
658.29	817.06
658.64	810.89
658.98	804.43
659.32	797.88
659.66	791.70
660.00	785.34
660.34	779.23
660.68	773.02
661.02	766.64
661.36	760.63
661.70	754.68
662.05	749.17
662.39	743.68
662.73	738.33
663.07	732.85
663.41	727.18
663.75	721.43
664.09	715.68
664.43	710.20
664.77	704.80
665.11	698.96
665.45	692.99
665.79	687.09
666.13	681.31
666.47	675.76
666.81	670.27
667.15	664.82
667.49	659.57
667.83	654.32
668.17	649.05
668.51	643.86
668.85	638.97
669.19	633.97
669.53	628.94
669.87	623.72
670.21	618.94
670.55	614.18
670.89	609.71
671.23	605.47
671.57	601.03
671.91	596.78
672.25	592.64
672.58	588.51
672.92	584.39
673.26	580.47
673.60	576.56
673.94	572.76
674.28	569.18
674.62	565.43
674.96	561.58
675.30	558.12
675.64	554.46
675.97	550.82
676.31	547.15
676.65	543.51
676.99	540.07
677.33	536.20
677.67	532.59
678.01	528.73
678.34	524.99
678.68	521.54
679.02	517.82
679.36	514.10
679.70	510.43
680.04	506.90
680.37	503.39
680.71	500.02
681.05	496.79
681.39	493.48
681.73	490.31
682.06	487.30
682.40	484.09
682.74	480.85
683.08	477.61
683.42	474.35
683.75	471.30
684.09	468.28
684.43	465.39
684.77	462.41
685.10	459.55
685.44	456.58
685.78	453.55
686.12	450.80
686.45	447.98
686.79	445.29
687.13	442.71
687.46	440.05
687.80	437.40
688.14	434.47
688.48	431.76
688.81	429.04
689.15	426.37
689.49	423.80
689.82	421.25
690.16	418.63
690.50	416.16
690.83	413.60
691.17	410.97
691.51	408.49
691.84	406.20
692.18	403.89
692.52	401.69
692.85	399.54
693.19	397.35
693.52	395.21
693.86	392.93
694.20	390.73
694.53	388.57
694.87	386.34
695.21	384.25
695.54	382.10
695.88	379.88
696.21	377.67
696.55	375.49
696.88	373.42
697.22	371.47
697.56	369.59
697.89	367.72
698.23	366.00
698.56	364.16
698.90	362.38
699.23	360.43
699.57	358.53
699.90	356.62
700.24	354.81
700.58	353.00
700.91	351.32
701.25	349.70
701.58	348.02
701.92	346.40
702.25	344.74
702.59	343.08
702.92	341.56
703.26	339.97
703.59	338.45
703.93	337.16
704.26	335.64
704.60	334.10
704.93	332.53
705.26	330.99
705.60	329.50
705.93	327.94
706.27	326.62
706.60	325.33
706.94	324.13
707.27	322.70
707.61	321.33
707.94	319.97
708.27	318.48
708.61	317.08
708.94	315.70
709.28	314.38
709.61	313.10
709.94	311.87
710.28	310.64
710.61	309.43
710.95	307.97
711.28	306.88
711.61	305.69
711.95	304.60
712.28	303.37
712.61	302.20
712.95	301.11
713.28	300.04
713.61	298.88
713.95	297.70
714.28	296.64
714.61	295.56
714.95	294.51
715.28	293.43
715.61	292.42
715.95	291.43
716.28	290.44
716.61	289.47
716.95	288.45
717.28	287.50
717.61	286.56
717.94	285.66
718.28	284.60
718.61	283.70
718.94	282.75
719.27	281.88
719.61	281.02
719.94	280.12
720.27	279.12
720.60	278.21
720.94	277.40
721.27	276.62
721.60	275.97
721.93	275.22
722.27	274.57
722.60	273.84
722.93	273.07
723.26	272.42
723.59	271.70
723.93	271.03
724.26	270.37
724.59	269.68
724.92	269.05
725.25	268.53
725.59	267.92
725.92	267.37
726.25	266.83
726.58	266.27
726.91	265.68
727.24	265.16
727.57	264.57
727.91	263.94
728.24	263.37
728.57	262.73
728.90	262.22
729.23	261.62
729.56	261.18
729.89	260.63
730.22	260.02
730.55	259.45
730.89	258.90
731.22	258.34
731.55	257.84
731.88	257.35
732.21	256.74
732.54	256.19
732.87	255.71
733.20	255.16
733.53	254.64
733.86	254.17
734.19	253.68
734.52	253.30
734.85	253.01
735.18	252.55
735.51	252.17
735.84	251.71
736.17	251.32
736.50	250.77
736.83	250.61
737.16	250.26
737.49	249.92
737.82	249.54
738.15	249.20
738.48	248.76
738.81	248.30
739.14	247.88
739.47	247.51
739.80	247.06
740.13	246.75
740.46	246.36
740.79	245.94
741.12	245.56
741.45	245.17
741.78	244.71
742.11	244.44
742.44	244.04
742.77	243.70
743.10	243.32
743.43	243.00
743.75	242.42
744.08	242.32
744.41	241.94
744.74	241.59
745.07	241.18
745.40	240.90
745.73	240.71
746.06	240.40
746.39	240.10
746.71	239.77
747.04	239.40
747.37	239.10
747.70	238.86
748.03	238.57
748.36	238.33
748.68	238.02
749.01	237.65
749.34	237.37
749.67	237.09
750.00	236.84
750.33	236.70
750.65	236.47
750.98	235.96
751.31	235.69
751.64	235.46
751.97	235.36
752.29	235.09
752.62	234.73
752.95	234.47
753.28	234.20
753.60	233.95
753.93	233.76
754.26	233.55
754.59	233.26
754.91	233.04
755.24	232.78
755.57	232.53
755.90	232.30
756.22	232.09
756.55	231.86
756.88	231.59
757.20	231.26
757.53	231.02
757.86	230.80
758.19	230.63
758.51	230.45
758.84	230.12
759.17	229.90
759.49	229.72
759.82	229.66
760.15	229.50
760.47	229.33
760.80	229.07
761.13	228.91
761.45	228.71
761.78	228.48
762.11	228.25
762.43	228.06
762.76	227.87
763.08	227.70
763.41	227.52
763.74	227.38
764.06	227.19
764.39	227.00
764.71	226.83
765.04	226.65
765.37	226.44
765.69	226.28
766.02	226.17
766.34	226.00
766.67	225.80
767.00	225.70
767.32	225.68
767.65	225.68
767.97	225.52
768.30	225.40
768.62	225.29
768.95	225.21
769.27	225.08
769.60	225.02
769.92	224.83
770.25	224.66
770.57	224.48
770.90	224.35
771.22	224.24
771.55	224.16
771.87	224.05
772.20	223.96
772.52	224.05
772.85	224.14
773.17	224.04
773.50	223.91
773.82	223.75
774.15	223.51
774.47	223.31
774.80	223.19
775.12	223.10
775.45	222.98
775.77	222.87
776.09	222.81
776.42	222.67
776.74	222.68
777.07	222.58
777.39	222.50
777.72	222.42
778.04	222.35
778.36	222.22
778.69	222.17
779.01	222.08
779.33	221.82
779.66	221.51
779.98	221.41
780.31	221.32
780.63	221.35
780.95	221.33
781.28	221.25
781.60	221.16
781.92	221.06
782.25	221.02
782.57	220.97
782.89	220.87
783.22	220.79
783.54	220.67
783.86	220.63
784.19	220.56
784.51	220.56
784.83	220.46
785.16	220.42
785.48	220.32
785.80	220.27
786.12	220.22
