SpectraSuite Data File
++++++++++++++++++++++++++++++++++++
Date: Tue Jan 29 16:02:07 EST 2013
User: group
Dark Spectrum Present: No
Reference Spectrum Present: No
Number of Sampled Component Spectra: 1
Spectrometers: USB2E7196
Integration Time (usec): 65000 (USB2E7196)
Spectra Averaged: 100 (USB2E7196)
Boxcar Smoothing: 10 (USB2E7196)
Correct for Electrical Dark: No (USB2E7196)
Strobe/Lamp Enabled: No (USB2E7196)
Correct for Detector Non-linearity: No (USB2E7196)
Correct for Stray Light: No (USB2E7196)
Number of Pixels in Processed Spectrum: 2048
>>>>>Begin Processed Spectral Data<<<<<
339.09	0.00
339.48	202.56
339.86	204.09
340.24	205.80
340.63	206.61
341.01	211.27
341.39	209.44
341.78	211.02
342.16	212.26
342.54	212.66
342.93	201.82
343.31	212.02
343.69	212.56
344.07	213.02
344.46	213.46
344.84	213.89
345.22	214.06
345.60	214.33
345.99	214.52
346.37	214.66
346.75	214.77
347.13	214.84
347.52	214.89
347.90	215.05
348.28	215.06
348.66	215.18
349.05	215.18
349.43	215.25
349.81	215.31
350.19	215.39
350.57	215.49
350.96	215.57
351.34	215.66
351.72	215.79
352.10	215.94
352.48	216.00
352.87	216.01
353.25	216.12
353.63	216.20
354.01	216.32
354.39	216.41
354.77	216.51
355.15	216.64
355.54	216.76
355.92	216.72
356.30	216.82
356.68	216.97
357.06	217.07
357.44	217.14
357.82	217.26
358.20	217.37
358.58	217.43
358.97	217.52
359.35	217.65
359.73	217.74
360.11	217.78
360.49	217.86
360.87	217.95
361.25	218.02
361.63	218.17
362.01	218.19
362.39	218.25
362.77	218.32
363.15	218.31
363.53	218.31
363.91	218.38
364.29	218.44
364.67	218.26
365.05	218.27
365.43	218.31
365.81	218.31
366.19	218.40
366.57	218.47
366.95	218.45
367.33	218.39
367.71	218.40
368.09	218.45
368.47	218.44
368.85	218.42
369.23	218.45
369.61	218.34
369.99	218.42
370.37	218.42
370.75	218.48
371.13	218.44
371.51	218.41
371.89	218.41
372.27	218.37
372.65	218.40
373.03	218.39
373.41	218.33
373.78	218.28
374.16	218.14
374.54	218.08
374.92	218.02
375.30	217.99
375.68	217.87
376.06	217.84
376.44	217.76
376.82	217.75
377.19	217.68
377.57	217.61
377.95	217.47
378.33	217.40
378.71	217.26
379.09	217.28
379.47	217.23
379.84	217.13
380.22	217.05
380.60	216.96
380.98	216.89
381.36	216.84
381.73	216.77
382.11	216.76
382.49	216.67
382.87	216.60
383.25	216.58
383.62	216.80
384.00	216.72
384.38	216.73
384.76	216.71
385.13	216.76
385.51	216.75
385.89	216.71
386.27	216.66
386.64	216.64
387.02	216.57
387.40	216.53
387.78	216.55
388.15	216.55
388.53	216.55
388.91	216.51
389.29	216.47
389.66	216.49
390.04	216.45
390.42	216.48
390.79	216.47
391.17	216.46
391.55	216.22
391.92	216.19
392.30	216.21
392.68	216.14
393.05	216.09
393.43	216.06
393.81	216.05
394.18	216.05
394.56	216.04
394.94	216.07
395.31	216.06
395.69	216.10
396.06	216.11
396.44	216.14
396.82	216.16
397.19	216.25
397.57	216.25
397.95	216.31
398.32	216.29
398.70	216.34
399.07	216.40
399.45	216.43
399.82	216.49
400.20	216.49
400.58	216.56
400.95	216.54
401.33	216.68
401.70	216.88
402.08	216.96
402.45	217.02
402.83	217.18
403.20	217.28
403.58	217.33
403.95	217.49
404.33	217.61
404.71	217.73
405.08	218.03
405.46	218.17
405.83	218.35
406.21	218.53
406.58	218.77
406.96	219.00
407.33	219.25
407.70	219.54
408.08	219.99
408.45	220.33
408.83	220.71
409.20	221.04
409.58	221.32
409.95	221.79
410.33	222.25
410.70	222.66
411.08	223.21
411.45	223.75
411.82	224.30
412.20	224.98
412.57	225.79
412.95	226.26
413.32	227.07
413.69	227.87
414.07	228.77
414.44	229.69
414.82	230.63
415.19	231.75
415.56	232.88
415.94	233.99
416.31	235.35
416.68	236.71
417.06	238.23
417.43	239.71
417.81	241.36
418.18	243.06
418.55	244.92
418.93	246.88
419.30	248.95
419.67	251.04
420.04	253.27
420.42	255.58
420.79	258.35
421.16	261.08
421.54	263.91
421.91	266.79
422.28	269.78
422.66	272.96
423.03	276.11
423.40	279.35
423.77	282.84
424.15	286.34
424.52	290.01
424.89	294.02
425.26	297.95
425.64	301.68
426.01	305.82
426.38	310.09
426.75	314.46
427.13	318.98
427.50	323.83
427.87	328.80
428.24	333.77
428.61	338.63
428.99	343.92
429.36	349.70
429.73	355.40
430.10	361.07
430.47	366.92
430.85	373.00
431.22	379.48
431.59	386.35
431.96	392.93
432.33	400.14
432.70	407.12
433.08	415.36
433.45	423.13
433.82	430.88
434.19	439.43
434.56	447.87
434.93	455.94
435.30	463.95
435.68	472.72
436.05	481.42
436.42	489.92
436.79	497.78
437.16	506.22
437.53	515.09
437.90	523.91
438.27	532.52
438.64	541.45
439.01	549.69
439.38	557.04
439.75	564.14
440.13	572.33
440.50	580.03
440.87	586.22
441.24	592.64
441.61	599.69
441.98	604.90
442.35	610.99
442.72	617.02
443.09	622.82
443.46	626.46
443.83	628.79
444.20	630.86
444.57	633.91
444.94	635.23
445.31	636.67
445.68	637.95
446.05	638.57
446.42	637.79
446.79	636.85
447.16	635.69
447.53	634.88
447.90	631.60
448.27	628.42
448.64	623.89
449.01	620.63
449.37	614.96
449.74	609.52
450.11	602.80
450.48	595.72
450.85	588.51
451.22	582.29
451.59	576.46
451.96	570.88
452.33	563.24
452.70	556.44
453.07	548.23
453.43	539.97
453.80	531.97
454.17	524.27
454.54	516.98
454.91	509.19
455.28	501.56
455.65	494.43
456.02	487.23
456.38	481.24
456.75	473.76
457.12	467.44
457.49	461.20
457.86	455.30
458.23	450.10
458.59	444.43
458.96	438.64
459.33	433.54
459.70	428.43
460.07	424.40
460.43	419.71
460.80	415.33
461.17	411.50
461.54	407.46
461.91	403.56
462.27	399.61
462.64	396.32
463.01	392.68
463.38	389.18
463.74	385.61
464.11	382.45
464.48	379.67
464.85	376.67
465.21	374.34
465.58	371.81
465.95	368.85
466.32	366.32
466.68	363.86
467.05	361.38
467.42	358.93
467.78	356.34
468.15	353.94
468.52	352.14
468.88	349.77
469.25	347.62
469.62	345.90
469.98	344.07
470.35	342.28
470.72	340.62
471.08	338.89
471.45	337.47
471.82	336.01
472.18	334.41
472.55	333.32
472.92	331.96
473.28	330.81
473.65	329.70
474.02	328.59
474.38	327.72
474.75	327.01
475.11	326.21
475.48	325.69
475.85	325.23
476.21	324.74
476.58	324.43
476.94	324.25
477.31	323.99
477.67	323.78
478.04	323.70
478.41	323.67
478.77	323.84
479.14	323.77
479.50	323.90
479.87	324.24
480.23	324.60
480.60	324.86
480.96	325.19
481.33	325.82
481.69	326.51
482.06	327.06
482.42	327.57
482.79	328.19
483.15	328.97
483.52	329.95
483.88	330.87
484.25	331.81
484.61	332.86
484.98	333.94
485.34	335.24
485.71	336.63
486.07	338.05
486.44	339.34
486.80	340.97
487.17	342.61
487.53	344.43
487.90	346.27
488.26	348.33
488.62	350.44
488.99	352.47
489.35	354.58
489.72	356.96
490.08	359.48
490.44	362.08
490.81	364.79
491.17	367.44
491.54	370.44
491.90	373.44
492.26	376.70
492.63	380.10
492.99	383.54
493.36	387.20
493.72	391.10
494.08	395.15
494.45	399.41
494.81	403.80
495.17	408.23
495.54	412.93
495.90	417.69
496.26	422.58
496.63	427.76
496.99	433.11
497.35	438.69
497.72	444.44
498.08	450.35
498.44	456.41
498.80	462.84
499.17	469.34
499.53	476.04
499.89	482.90
500.26	489.86
500.62	496.96
500.98	504.31
501.34	511.83
501.71	519.65
502.07	527.39
502.43	535.39
502.79	543.51
503.16	551.81
503.52	560.40
503.88	569.11
504.24	578.10
504.60	587.10
504.97	596.28
505.33	605.55
505.69	615.41
506.05	625.26
506.41	635.12
506.78	645.15
507.14	655.37
507.50	665.81
507.86	676.49
508.22	687.24
508.59	697.88
508.95	708.90
509.31	720.07
509.67	731.49
510.03	742.94
510.39	754.64
510.75	766.48
511.12	778.35
511.48	790.39
511.84	802.50
512.20	814.87
512.56	827.42
512.92	840.20
513.28	852.69
513.64	865.32
514.00	878.03
514.37	890.82
514.73	903.80
515.09	916.62
515.45	929.36
515.81	942.25
516.17	955.48
516.53	968.50
516.89	981.43
517.25	994.38
517.61	1007.67
517.97	1020.96
518.33	1033.91
518.69	1047.27
519.05	1060.76
519.41	1074.28
519.77	1087.91
520.13	1101.02
520.49	1113.99
520.85	1127.19
521.21	1140.36
521.57	1153.80
521.93	1166.71
522.29	1180.31
522.65	1193.73
523.01	1207.14
523.37	1220.22
523.73	1233.30
524.09	1246.25
524.45	1259.52
524.81	1272.88
525.17	1286.11
525.53	1298.95
525.89	1311.99
526.25	1324.81
526.61	1337.50
526.97	1350.25
527.33	1362.89
527.68	1376.18
528.04	1389.29
528.40	1402.16
528.76	1415.18
529.12	1427.76
529.48	1440.80
529.84	1452.76
530.20	1465.28
530.56	1477.58
530.91	1490.39
531.27	1502.90
531.63	1515.46
531.99	1527.92
532.35	1539.83
532.71	1551.74
533.07	1564.30
533.42	1576.33
533.78	1588.09
534.14	1599.82
534.50	1610.81
534.86	1622.20
535.21	1632.67
535.57	1643.84
535.93	1654.91
536.29	1665.80
536.65	1677.05
537.00	1687.72
537.36	1698.78
537.72	1709.43
538.08	1720.43
538.44	1731.15
538.79	1741.87
539.15	1752.38
539.51	1762.66
539.87	1773.73
540.22	1784.28
540.58	1794.78
540.94	1805.33
541.29	1815.40
541.65	1824.84
542.01	1835.26
542.37	1845.09
542.72	1855.04
543.08	1864.62
543.44	1874.70
543.79	1883.69
544.15	1892.80
544.51	1902.54
544.87	1912.08
545.22	1920.94
545.58	1929.66
545.94	1938.16
546.29	1946.46
546.65	1954.46
547.01	1962.43
547.36	1969.82
547.72	1977.29
548.07	1984.88
548.43	1992.44
548.79	2000.08
549.14	2008.08
549.50	2016.07
549.86	2023.59
550.21	2030.83
550.57	2038.23
550.92	2044.81
551.28	2052.14
551.64	2059.26
551.99	2066.48
552.35	2073.46
552.70	2080.13
553.06	2086.52
553.41	2092.73
553.77	2099.14
554.13	2105.51
554.48	2112.42
554.84	2119.16
555.19	2125.59
555.55	2131.97
555.90	2138.04
556.26	2144.66
556.61	2150.30
556.97	2155.12
557.32	2160.92
557.68	2167.06
558.03	2172.64
558.39	2177.76
558.74	2183.61
559.10	2189.05
559.45	2194.66
559.81	2200.18
560.16	2205.83
560.52	2211.76
560.87	2218.13
561.23	2224.07
561.58	2230.58
561.94	2235.73
562.29	2240.70
562.64	2246.85
563.00	2252.29
563.35	2258.05
563.71	2263.89
564.06	2269.68
564.42	2275.64
564.77	2280.65
565.12	2286.00
565.48	2291.38
565.83	2297.05
566.19	2302.57
566.54	2308.05
566.89	2312.64
567.25	2317.24
567.60	2322.90
567.96	2328.12
568.31	2332.73
568.66	2337.09
569.02	2341.12
569.37	2344.95
569.72	2349.42
570.08	2353.03
570.43	2356.32
570.78	2359.25
571.14	2361.97
571.49	2365.36
571.84	2369.03
572.20	2372.07
572.55	2375.23
572.90	2377.40
573.26	2380.53
573.61	2383.14
573.96	2385.49
574.31	2387.64
574.67	2389.82
575.02	2390.81
575.37	2392.37
575.72	2393.39
576.08	2395.01
576.43	2395.49
576.78	2396.51
577.13	2398.39
577.49	2399.53
577.84	2400.88
578.19	2402.63
578.54	2403.48
578.90	2404.49
579.25	2404.43
579.60	2404.71
579.95	2404.35
580.30	2405.00
580.66	2404.44
581.01	2402.96
581.36	2401.11
581.71	2400.00
582.06	2399.25
582.42	2398.72
582.77	2396.91
583.12	2395.51
583.47	2394.51
583.82	2394.04
584.17	2392.91
584.53	2390.83
584.88	2389.14
585.23	2387.45
585.58	2385.36
585.93	2383.38
586.28	2381.38
586.63	2379.32
586.98	2377.24
587.34	2375.41
587.69	2373.23
588.04	2371.34
588.39	2369.98
588.74	2367.51
589.09	2365.01
589.44	2361.95
589.79	2359.68
590.14	2357.89
590.49	2355.29
590.84	2351.58
591.19	2348.93
591.54	2345.76
591.89	2341.92
592.25	2338.79
592.60	2334.80
592.95	2330.85
593.30	2326.90
593.65	2322.58
594.00	2318.39
594.35	2315.45
594.70	2310.91
595.05	2306.43
595.40	2301.08
595.75	2295.85
596.10	2292.25
596.45	2287.39
596.80	2283.00
597.15	2277.88
597.50	2272.09
597.85	2267.13
598.19	2261.98
598.54	2256.27
598.89	2251.31
599.24	2246.87
599.59	2240.97
599.94	2235.40
600.29	2229.61
600.64	2223.78
600.99	2217.38
601.34	2212.07
601.69	2205.16
602.04	2198.75
602.39	2192.33
602.74	2186.58
603.08	2180.88
603.43	2174.52
603.78	2168.02
604.13	2160.88
604.48	2153.66
604.83	2147.72
605.18	2141.44
605.53	2134.61
605.87	2127.54
606.22	2120.70
606.57	2112.82
606.92	2105.06
607.27	2098.15
607.62	2091.50
607.96	2084.57
608.31	2077.89
608.66	2070.12
609.01	2062.62
609.36	2055.62
609.70	2047.80
610.05	2039.97
610.40	2031.92
610.75	2023.72
611.10	2016.07
611.44	2007.56
611.79	1998.79
612.14	1988.72
612.49	1978.47
612.83	1969.30
613.18	1960.28
613.53	1951.14
613.88	1941.71
614.22	1933.12
614.57	1923.13
614.92	1912.71
615.27	1902.70
615.61	1892.84
615.96	1883.12
616.31	1873.65
616.65	1864.37
617.00	1854.52
617.35	1844.95
617.70	1835.22
618.04	1825.04
618.39	1814.70
618.74	1804.98
619.08	1795.52
619.43	1786.78
619.78	1778.49
620.12	1769.72
620.47	1759.78
620.82	1749.40
621.16	1739.64
621.51	1729.53
621.85	1719.67
622.20	1709.06
622.55	1698.45
622.89	1688.52
623.24	1678.75
623.59	1668.91
623.93	1658.78
624.28	1649.19
624.62	1638.87
624.97	1628.47
625.32	1618.88
625.66	1610.08
626.01	1601.08
626.35	1591.58
626.70	1581.52
627.04	1571.17
627.39	1561.17
627.73	1551.87
628.08	1542.70
628.43	1533.06
628.77	1523.87
629.12	1514.98
629.46	1507.19
629.81	1498.60
630.15	1488.96
630.50	1479.24
630.84	1468.88
631.19	1458.86
631.53	1449.31
631.88	1439.13
632.22	1429.16
632.57	1419.61
632.91	1409.35
633.26	1399.55
633.60	1389.96
633.95	1380.57
634.29	1371.35
634.64	1361.89
634.98	1352.02
635.32	1342.87
635.67	1334.32
636.01	1325.14
636.36	1315.28
636.70	1305.76
637.05	1296.51
637.39	1287.58
637.73	1278.88
638.08	1271.21
638.42	1262.89
638.77	1254.17
639.11	1245.99
639.45	1238.05
639.80	1229.39
640.14	1220.68
640.49	1211.72
640.83	1202.93
641.17	1194.91
641.52	1186.55
641.86	1177.92
642.20	1169.95
642.55	1161.24
642.89	1152.34
643.23	1143.56
643.58	1135.50
643.92	1126.44
644.26	1117.76
644.61	1109.26
644.95	1100.61
645.29	1091.31
645.64	1082.18
645.98	1073.82
646.32	1065.91
646.66	1057.43
647.01	1049.12
647.35	1040.98
647.69	1032.56
648.04	1024.27
648.38	1015.22
648.72	1006.49
649.06	998.08
649.41	989.95
649.75	981.92
650.09	974.00
650.43	965.88
650.78	957.69
651.12	950.01
651.46	942.62
651.80	935.37
652.14	927.93
652.49	920.39
652.83	913.12
653.17	905.30
653.51	897.65
653.85	890.37
654.20	883.05
654.54	875.55
654.88	868.54
655.22	861.34
655.56	854.48
655.90	847.70
656.25	841.11
656.59	834.12
656.93	827.16
657.27	820.19
657.61	813.40
657.95	807.28
658.29	801.44
658.64	795.31
658.98	788.86
659.32	782.38
659.66	776.20
660.00	769.87
660.34	763.90
660.68	757.82
661.02	751.60
661.36	745.87
661.70	740.13
662.05	734.44
662.39	728.95
662.73	723.59
663.07	718.21
663.41	712.66
663.75	707.02
664.09	701.44
664.43	696.01
664.77	690.60
665.11	684.83
665.45	678.93
665.79	673.10
666.13	667.48
666.47	661.99
666.81	656.57
667.15	651.34
667.49	646.17
667.83	640.99
668.17	635.74
668.51	630.59
668.85	625.73
669.19	620.84
669.53	615.87
669.87	610.83
670.21	606.14
670.55	601.35
670.89	597.10
671.23	592.93
671.57	588.61
671.91	584.38
672.25	580.30
672.58	576.18
672.92	572.21
673.26	568.34
673.60	564.58
673.94	560.82
674.28	557.15
674.62	553.43
674.96	549.77
675.30	546.35
675.64	542.77
675.97	539.23
676.31	535.69
676.65	532.16
676.99	528.73
677.33	524.93
677.67	521.37
678.01	517.50
678.34	513.83
678.68	510.36
679.02	506.79
679.36	503.12
679.70	499.59
680.04	496.09
680.37	492.72
680.71	489.43
681.05	486.34
681.39	483.21
681.73	480.13
682.06	477.14
682.40	474.09
682.74	470.93
683.08	467.79
683.42	464.71
683.75	461.79
684.09	458.83
684.43	456.10
684.77	453.23
685.10	450.46
685.44	447.64
685.78	444.71
686.12	442.05
686.45	439.36
686.79	436.72
687.13	434.25
687.46	431.63
687.80	428.97
688.14	426.18
688.48	423.61
688.81	421.01
689.15	418.44
689.49	415.81
689.82	413.34
690.16	410.80
690.50	408.35
690.83	405.87
691.17	403.39
691.51	400.99
691.84	398.82
692.18	396.62
692.52	394.39
692.85	392.37
693.19	390.22
693.52	388.10
693.86	385.94
694.20	383.77
694.53	381.68
694.87	379.57
695.21	377.54
695.54	375.38
695.88	373.26
696.21	371.09
696.55	369.04
696.88	367.02
697.22	365.13
697.56	363.32
697.89	361.52
698.23	359.85
698.56	358.09
698.90	356.34
699.23	354.45
699.57	352.65
699.90	350.84
700.24	349.11
700.58	347.41
700.91	345.86
701.25	344.36
701.58	342.78
701.92	341.18
702.25	339.55
702.59	337.98
702.92	336.43
703.26	334.97
703.59	333.62
703.93	332.39
704.26	330.96
704.60	329.45
704.93	327.99
705.26	326.50
705.60	325.05
705.93	323.59
706.27	322.32
706.60	321.13
706.94	319.88
707.27	318.50
707.61	317.21
707.94	315.84
708.27	314.32
708.61	312.92
708.94	311.63
709.28	310.44
709.61	309.25
709.94	308.11
710.28	306.90
710.61	305.70
710.95	304.28
711.28	303.20
711.61	302.04
711.95	301.00
712.28	299.81
712.61	298.67
712.95	297.62
713.28	296.59
713.61	295.45
713.95	294.38
714.28	293.39
714.61	292.34
714.95	291.35
715.28	290.37
715.61	289.42
715.95	288.49
716.28	287.52
716.61	286.57
716.95	285.62
717.28	284.74
717.61	283.82
717.94	282.99
718.28	281.97
718.61	281.14
718.94	280.17
719.27	279.35
719.61	278.56
719.94	277.69
720.27	276.77
720.60	275.95
720.94	275.16
721.27	274.40
721.60	273.78
721.93	273.09
722.27	272.46
722.60	271.81
722.93	271.09
723.26	270.45
723.59	269.79
723.93	269.19
724.26	268.55
724.59	267.92
724.92	267.32
725.25	266.85
725.59	266.29
725.92	265.85
726.25	265.30
726.58	264.76
726.91	264.19
727.24	263.71
727.57	263.17
727.91	262.57
728.24	262.05
728.57	261.41
728.90	260.88
729.23	260.30
729.56	259.89
729.89	259.41
730.22	258.84
730.55	258.28
730.89	257.70
731.22	257.19
731.55	256.70
731.88	256.20
732.21	255.61
732.54	255.08
732.87	254.57
733.20	254.11
733.53	253.62
733.86	253.22
734.19	252.70
734.52	252.28
734.85	252.01
735.18	251.53
735.51	251.20
735.84	250.74
736.17	250.39
736.50	249.83
736.83	249.70
737.16	249.32
737.49	248.96
737.82	248.59
738.15	248.24
738.48	247.86
738.81	247.48
739.14	247.11
739.47	246.74
739.80	246.38
740.13	246.03
740.46	245.67
740.79	245.32
741.12	245.01
741.45	244.63
741.78	244.22
742.11	243.98
742.44	243.60
742.77	243.34
743.10	242.98
743.43	242.68
743.75	242.11
744.08	242.07
744.41	241.73
744.74	241.40
745.07	241.02
745.40	240.78
745.73	240.57
746.06	240.26
746.39	239.97
746.71	239.62
747.04	239.28
747.37	238.96
747.70	238.65
748.03	238.36
748.36	238.12
748.68	237.85
749.01	237.50
749.34	237.20
749.67	236.91
750.00	236.67
750.33	236.55
750.65	236.29
750.98	235.78
751.31	235.58
751.64	235.38
751.97	235.27
752.29	234.96
752.62	234.58
752.95	234.33
753.28	234.10
753.60	233.88
753.93	233.72
754.26	233.51
754.59	233.23
754.91	232.97
755.24	232.75
755.57	232.49
755.90	232.27
756.22	232.04
756.55	231.78
756.88	231.52
757.20	231.15
757.53	230.85
757.86	230.63
758.19	230.46
758.51	230.26
758.84	229.93
759.17	229.73
759.49	229.62
759.82	229.54
760.15	229.38
760.47	229.17
760.80	228.93
761.13	228.79
761.45	228.62
761.78	228.42
762.11	228.22
762.43	228.05
762.76	227.90
763.08	227.77
763.41	227.61
763.74	227.45
764.06	227.34
764.39	227.22
764.71	227.07
765.04	226.88
765.37	226.71
765.69	226.58
766.02	226.43
766.34	226.26
766.67	226.09
767.00	225.98
767.32	225.96
767.65	225.98
767.97	225.84
768.30	225.75
768.62	225.69
768.95	225.58
769.27	225.46
769.60	225.35
769.92	225.22
770.25	225.08
770.57	224.95
770.90	224.82
771.22	224.71
771.55	224.61
771.87	224.52
772.20	224.39
772.52	224.47
772.85	224.63
773.17	224.52
773.50	224.41
773.82	224.26
774.15	224.07
774.47	223.84
774.80	223.74
775.12	223.63
775.45	223.52
775.77	223.44
776.09	223.38
776.42	223.30
776.74	223.28
777.07	223.20
777.39	223.11
777.72	223.00
778.04	222.97
778.36	222.88
778.69	222.78
779.01	222.74
779.33	222.51
779.66	222.18
779.98	222.06
780.31	221.96
780.63	221.99
780.95	221.95
781.28	221.87
781.60	221.78
781.92	221.72
782.25	221.66
782.57	221.58
782.89	221.52
783.22	221.43
783.54	221.28
783.86	221.23
784.19	221.17
784.51	221.16
784.83	221.07
785.16	221.02
785.48	220.98
785.80	220.88
786.12	220.84
