SpectraSuite Data File
++++++++++++++++++++++++++++++++++++
Date: Tue Jan 29 16:38:03 EST 2013
User: group
Dark Spectrum Present: No
Reference Spectrum Present: No
Number of Sampled Component Spectra: 1
Spectrometers: USB2E7196
Integration Time (usec): 65000 (USB2E7196)
Spectra Averaged: 100 (USB2E7196)
Boxcar Smoothing: 10 (USB2E7196)
Correct for Electrical Dark: No (USB2E7196)
Strobe/Lamp Enabled: No (USB2E7196)
Correct for Detector Non-linearity: No (USB2E7196)
Correct for Stray Light: No (USB2E7196)
Number of Pixels in Processed Spectrum: 2048
>>>>>Begin Processed Spectral Data<<<<<
339.09	0.00
339.48	202.32
339.86	203.27
340.24	204.87
340.63	205.48
341.01	210.25
341.39	208.67
341.78	210.22
342.16	211.72
342.54	211.44
342.93	201.05
343.31	211.19
343.69	211.74
344.07	212.20
344.46	212.63
344.84	213.11
345.22	213.32
345.60	213.61
345.99	213.83
346.37	213.99
346.75	214.16
347.13	214.26
347.52	214.38
347.90	214.55
348.28	214.62
348.66	214.72
349.05	214.71
349.43	214.78
349.81	214.86
350.19	214.93
350.57	215.01
350.96	215.12
351.34	215.26
351.72	215.36
352.10	215.50
352.48	215.59
352.87	215.62
353.25	215.68
353.63	215.72
354.01	215.80
354.39	215.92
354.77	215.99
355.15	216.09
355.54	216.12
355.92	216.10
356.30	216.13
356.68	216.34
357.06	216.41
357.44	216.48
357.82	216.51
358.20	216.59
358.58	216.65
358.97	216.73
359.35	216.82
359.73	216.87
360.11	216.90
360.49	216.94
360.87	216.98
361.25	217.07
361.63	217.17
362.01	217.22
362.39	217.21
362.77	217.27
363.15	217.29
363.53	217.28
363.91	217.30
364.29	217.34
364.67	217.11
365.05	217.10
365.43	217.12
365.81	217.14
366.19	217.25
366.57	217.31
366.95	217.29
367.33	217.25
367.71	217.24
368.09	217.28
368.47	217.27
368.85	217.24
369.23	217.25
369.61	217.16
369.99	217.18
370.37	217.18
370.75	217.23
371.13	217.15
371.51	217.13
371.89	217.15
372.27	217.11
372.65	217.12
373.03	217.11
373.41	217.05
373.78	217.01
374.16	216.84
374.54	216.74
374.92	216.69
375.30	216.63
375.68	216.55
376.06	216.51
376.44	216.48
376.82	216.49
377.19	216.41
377.57	216.39
377.95	216.30
378.33	216.20
378.71	216.05
379.09	216.06
379.47	216.04
379.84	215.95
380.22	215.88
380.60	215.82
380.98	215.76
381.36	215.73
381.73	215.66
382.11	215.68
382.49	215.65
382.87	215.57
383.25	215.54
383.62	215.76
384.00	215.70
384.38	215.64
384.76	215.62
385.13	215.70
385.51	215.65
385.89	215.59
386.27	215.55
386.64	215.55
387.02	215.44
387.40	215.37
387.78	215.38
388.15	215.40
388.53	215.36
388.91	215.33
389.29	215.29
389.66	215.32
390.04	215.26
390.42	215.29
390.79	215.30
391.17	215.29
391.55	215.03
391.92	215.00
392.30	215.02
392.68	214.97
393.05	214.91
393.43	214.91
393.81	214.94
394.18	214.94
394.56	214.96
394.94	215.04
395.31	215.06
395.69	215.13
396.06	215.15
396.44	215.18
396.82	215.21
397.19	215.35
397.57	215.35
397.95	215.43
398.32	215.35
398.70	215.40
399.07	215.49
399.45	215.53
399.82	215.60
400.20	215.61
400.58	215.66
400.95	215.63
401.33	215.73
401.70	215.93
402.08	216.01
402.45	216.08
402.83	216.21
403.20	216.34
403.58	216.42
403.95	216.56
404.33	216.74
404.71	216.89
405.08	217.14
405.46	217.31
405.83	217.46
406.21	217.71
406.58	217.98
406.96	218.16
407.33	218.43
407.70	218.75
408.08	219.25
408.45	219.58
408.83	219.98
409.20	220.34
409.58	220.59
409.95	221.06
410.33	221.55
410.70	221.99
411.08	222.54
411.45	223.08
411.82	223.65
412.20	224.31
412.57	225.13
412.95	225.70
413.32	226.50
413.69	227.34
414.07	228.24
414.44	229.23
414.82	230.28
415.19	231.49
415.56	232.68
415.94	233.84
416.31	235.26
416.68	236.67
417.06	238.27
417.43	239.84
417.81	241.56
418.18	243.33
418.55	245.25
418.93	247.32
419.30	249.45
419.67	251.67
420.04	253.98
420.42	256.40
420.79	259.22
421.16	262.03
421.54	264.96
421.91	267.96
422.28	271.03
422.66	274.32
423.03	277.55
423.40	280.88
423.77	284.49
424.15	288.21
424.52	292.08
424.89	296.29
425.26	300.41
425.64	304.31
426.01	308.59
426.38	313.13
426.75	317.62
427.13	322.37
427.50	327.36
427.87	332.52
428.24	337.70
428.61	342.70
428.99	348.23
429.36	354.31
429.73	360.21
430.10	366.11
430.47	372.26
430.85	378.61
431.22	385.34
431.59	392.47
431.96	399.26
432.33	406.74
432.70	413.98
433.08	422.53
433.45	430.58
433.82	438.65
434.19	447.50
434.56	456.24
434.93	464.58
435.30	472.89
435.68	482.12
436.05	491.13
436.42	500.04
436.79	508.23
437.16	517.04
437.53	526.31
437.90	535.46
438.27	544.39
438.64	553.59
439.01	562.12
439.38	569.71
439.75	577.09
440.13	585.55
440.50	593.48
440.87	599.92
441.24	606.60
441.61	613.98
441.98	619.45
442.35	625.82
442.72	632.17
443.09	638.33
443.46	642.01
443.83	644.59
444.20	646.83
444.57	649.97
444.94	651.34
445.31	652.83
445.68	654.30
446.05	654.92
446.42	654.18
446.79	653.25
447.16	652.24
447.53	651.52
447.90	648.19
448.27	644.96
448.64	640.31
449.01	636.98
449.37	631.07
449.74	625.28
450.11	618.40
450.48	611.04
450.85	603.53
451.22	597.06
451.59	590.88
451.96	585.00
452.33	577.14
452.70	570.00
453.07	561.51
453.43	552.79
453.80	544.50
454.17	536.45
454.54	528.88
454.91	520.63
455.28	512.56
455.65	505.15
456.02	497.64
456.38	491.26
456.75	483.41
457.12	476.80
457.49	470.31
457.86	464.04
458.23	458.62
458.59	452.68
458.96	446.71
459.33	441.37
459.70	436.02
460.07	431.75
460.43	426.90
460.80	422.30
461.17	418.33
461.54	414.09
461.91	410.09
462.27	406.02
462.64	402.59
463.01	398.79
463.38	395.07
463.74	391.34
464.11	388.08
464.48	385.22
464.85	382.11
465.21	379.69
465.58	377.05
465.95	373.89
466.32	371.21
466.68	368.58
467.05	365.95
467.42	363.36
467.78	360.65
468.15	358.11
468.52	356.17
468.88	353.71
469.25	351.49
469.62	349.68
469.98	347.66
470.35	345.84
470.72	344.16
471.08	342.38
471.45	340.85
471.82	339.32
472.18	337.62
472.55	336.42
472.92	334.99
473.28	333.79
473.65	332.65
474.02	331.51
474.38	330.59
474.75	329.88
475.11	329.02
475.48	328.46
475.85	327.95
476.21	327.47
476.58	327.09
476.94	326.83
477.31	326.52
477.67	326.27
478.04	326.12
478.41	326.08
478.77	326.20
479.14	326.15
479.50	326.29
479.87	326.63
480.23	326.94
480.60	327.17
480.96	327.43
481.33	328.02
481.69	328.61
482.06	329.14
482.42	329.60
482.79	330.24
483.15	331.05
483.52	332.00
483.88	332.86
484.25	333.79
484.61	334.82
484.98	335.85
485.34	337.16
485.71	338.49
486.07	339.92
486.44	341.26
486.80	342.86
487.17	344.55
487.53	346.36
487.90	348.25
488.26	350.37
488.62	352.51
488.99	354.53
489.35	356.74
489.72	359.10
490.08	361.67
490.44	364.23
490.81	366.89
491.17	369.61
491.54	372.63
491.90	375.65
492.26	378.88
492.63	382.28
492.99	385.75
493.36	389.42
493.72	393.31
494.08	397.33
494.45	401.56
494.81	405.91
495.17	410.38
495.54	415.07
495.90	419.90
496.26	424.83
496.63	430.05
496.99	435.44
497.35	441.05
497.72	446.83
498.08	452.75
498.44	458.89
498.80	465.36
499.17	471.84
499.53	478.58
499.89	485.51
500.26	492.54
500.62	499.68
500.98	507.13
501.34	514.61
501.71	522.40
502.07	530.26
502.43	538.28
502.79	546.43
503.16	554.83
503.52	563.42
503.88	572.20
504.24	581.17
504.60	590.34
504.97	599.63
505.33	608.96
505.69	618.83
506.05	628.64
506.41	638.52
506.78	648.65
507.14	658.87
507.50	669.37
507.86	680.07
508.22	690.90
508.59	701.57
508.95	712.65
509.31	723.88
509.67	735.37
510.03	746.81
510.39	758.54
510.75	770.38
511.12	782.33
511.48	794.40
511.84	806.67
512.20	818.94
512.56	831.58
512.92	844.40
513.28	857.15
513.64	870.01
514.00	882.88
514.37	895.90
514.73	909.18
515.09	922.15
515.45	935.17
515.81	948.25
516.17	961.71
516.53	975.03
516.89	988.27
517.25	1001.56
517.61	1015.16
517.97	1028.57
518.33	1041.85
518.69	1055.50
519.05	1069.37
519.41	1083.24
519.77	1097.19
520.13	1110.67
520.49	1123.88
520.85	1137.28
521.21	1150.79
521.57	1164.58
521.93	1177.76
522.29	1191.50
522.65	1205.23
523.01	1218.89
523.37	1232.23
523.73	1245.67
524.09	1258.92
524.45	1272.41
524.81	1285.86
525.17	1299.32
525.53	1312.81
525.89	1326.23
526.25	1339.44
526.61	1352.38
526.97	1365.49
527.33	1378.56
527.68	1391.98
528.04	1405.68
528.40	1418.95
528.76	1432.40
529.12	1445.35
529.48	1458.78
529.84	1471.20
530.20	1483.99
530.56	1496.72
530.91	1510.06
531.27	1523.03
531.63	1535.83
531.99	1548.74
532.35	1561.12
532.71	1573.67
533.07	1586.54
533.42	1598.93
533.78	1611.10
534.14	1623.17
534.50	1634.47
534.86	1646.26
535.21	1657.33
535.57	1668.97
535.93	1680.44
536.29	1691.63
536.65	1703.33
537.00	1714.39
537.36	1726.01
537.72	1737.29
538.08	1748.83
538.44	1759.87
538.79	1771.07
539.15	1782.11
539.51	1793.02
539.87	1804.50
540.22	1815.30
540.58	1826.39
540.94	1837.30
541.29	1847.65
541.65	1857.59
542.01	1868.30
542.37	1878.42
542.72	1888.75
543.08	1898.46
543.44	1908.91
543.79	1918.21
544.15	1927.66
544.51	1937.61
544.87	1947.45
545.22	1956.79
545.58	1965.68
545.94	1974.68
546.29	1983.27
546.65	1991.75
547.01	2000.17
547.36	2007.87
547.72	2015.89
548.07	2023.60
548.43	2031.41
548.79	2039.55
549.14	2047.81
549.50	2056.34
549.86	2064.38
550.21	2071.82
550.57	2079.75
550.92	2086.71
551.28	2094.42
551.64	2101.79
551.99	2109.39
552.35	2116.58
552.70	2123.34
553.06	2130.09
553.41	2136.42
553.77	2143.01
554.13	2149.50
554.48	2156.46
554.84	2163.62
555.19	2170.28
555.55	2176.69
555.90	2183.16
556.26	2189.96
556.61	2195.97
556.97	2200.82
557.32	2206.42
557.68	2212.78
558.03	2218.50
558.39	2223.79
558.74	2229.62
559.10	2235.05
559.45	2240.63
559.81	2246.16
560.16	2251.82
560.52	2257.76
560.87	2264.21
561.23	2270.07
561.58	2276.70
561.94	2281.89
562.29	2286.62
562.64	2292.52
563.00	2298.16
563.35	2303.67
563.71	2309.33
564.06	2315.24
564.42	2321.12
564.77	2326.18
565.12	2331.48
565.48	2336.58
565.83	2342.06
566.19	2347.43
566.54	2353.01
566.89	2357.62
567.25	2362.12
567.60	2367.79
567.96	2372.75
568.31	2377.26
568.66	2381.55
569.02	2385.31
569.37	2389.02
569.72	2393.40
570.08	2396.82
570.43	2399.98
570.78	2403.01
571.14	2405.45
571.49	2408.29
571.84	2411.79
572.20	2414.79
572.55	2417.62
572.90	2419.85
573.26	2422.54
573.61	2425.16
573.96	2427.08
574.31	2429.10
574.67	2431.03
575.02	2431.83
575.37	2433.31
575.72	2433.94
576.08	2435.33
576.43	2435.58
576.78	2435.89
577.13	2437.36
577.49	2438.43
577.84	2439.28
578.19	2440.42
578.54	2440.91
578.90	2441.52
579.25	2441.32
579.60	2441.05
579.95	2440.20
580.30	2440.06
580.66	2439.18
581.01	2437.35
581.36	2434.81
581.71	2433.27
582.06	2432.00
582.42	2430.87
582.77	2428.50
583.12	2426.64
583.47	2425.08
583.82	2424.35
584.17	2423.00
584.53	2420.76
584.88	2418.62
585.23	2416.62
585.58	2414.26
585.93	2412.17
586.28	2409.91
586.63	2407.27
586.98	2404.97
587.34	2402.95
587.69	2400.56
588.04	2398.52
588.39	2396.87
588.74	2394.42
589.09	2391.57
589.44	2388.31
589.79	2385.78
590.14	2383.72
590.49	2380.97
590.84	2377.15
591.19	2373.86
591.54	2370.53
591.89	2366.48
592.25	2363.06
592.60	2358.86
592.95	2354.73
593.30	2350.42
593.65	2345.90
594.00	2341.47
594.35	2338.38
594.70	2333.56
595.05	2328.92
595.40	2323.41
595.75	2317.61
596.10	2313.87
596.45	2308.97
596.80	2304.22
597.15	2298.91
597.50	2293.00
597.85	2287.78
598.19	2282.39
598.54	2276.68
598.89	2271.41
599.24	2266.62
599.59	2260.45
599.94	2254.39
600.29	2248.22
600.64	2242.32
600.99	2235.58
601.34	2230.03
601.69	2222.89
602.04	2216.64
602.39	2209.98
602.74	2203.71
603.08	2198.13
603.43	2191.50
603.78	2184.59
604.13	2177.64
604.48	2170.34
604.83	2164.08
605.18	2157.80
605.53	2150.88
605.87	2143.64
606.22	2136.94
606.57	2129.09
606.92	2121.12
607.27	2114.28
607.62	2107.80
607.96	2100.74
608.31	2094.26
608.66	2086.49
609.01	2078.99
609.36	2071.74
609.70	2063.90
610.05	2056.17
610.40	2047.72
610.75	2039.36
611.10	2031.67
611.44	2022.67
611.79	2013.87
612.14	2003.93
612.49	1993.34
612.83	1983.89
613.18	1974.64
613.53	1965.09
613.88	1955.47
614.22	1946.77
614.57	1936.72
614.92	1925.93
615.27	1915.68
615.61	1905.52
615.96	1895.81
616.31	1886.13
616.65	1876.74
617.00	1867.07
617.35	1857.41
617.70	1847.74
618.04	1837.70
618.39	1827.52
618.74	1817.87
619.08	1808.34
619.43	1799.63
619.78	1791.45
620.12	1782.81
620.47	1773.23
620.82	1762.98
621.16	1753.24
621.51	1743.34
621.85	1733.55
622.20	1723.33
622.55	1712.88
622.89	1702.91
623.24	1693.19
623.59	1683.42
623.93	1673.23
624.28	1663.38
624.62	1653.31
624.97	1643.24
625.32	1633.58
625.66	1624.68
626.01	1615.98
626.35	1606.51
626.70	1596.40
627.04	1586.30
627.39	1576.28
627.73	1567.00
628.08	1558.16
628.43	1548.54
628.77	1539.26
629.12	1530.45
629.46	1522.55
629.81	1514.20
630.15	1504.73
630.50	1494.99
630.84	1484.55
631.19	1474.66
631.53	1465.45
631.88	1455.31
632.22	1445.13
632.57	1435.73
632.91	1425.56
633.26	1415.62
633.60	1406.11
633.95	1396.90
634.29	1387.30
634.64	1377.92
634.98	1367.95
635.32	1358.59
635.67	1350.16
636.01	1340.94
636.36	1331.22
636.70	1321.68
637.05	1312.30
637.39	1303.35
637.73	1294.78
638.08	1287.20
638.42	1279.10
638.77	1270.30
639.11	1262.05
639.45	1254.31
639.80	1245.86
640.14	1237.05
640.49	1228.22
640.83	1219.31
641.17	1211.15
641.52	1203.12
641.86	1194.56
642.20	1186.78
642.55	1178.23
642.89	1169.30
643.23	1160.69
643.58	1152.59
643.92	1143.63
644.26	1134.91
644.61	1126.43
644.95	1117.58
645.29	1108.37
645.64	1099.14
645.98	1090.64
646.32	1082.74
646.66	1074.12
647.01	1065.72
647.35	1057.78
647.69	1049.46
648.04	1041.25
648.38	1032.37
648.72	1023.64
649.06	1015.15
649.41	1006.86
649.75	998.83
650.09	991.04
650.43	983.05
650.78	974.72
651.12	967.01
651.46	959.59
651.80	952.43
652.14	945.11
652.49	937.62
652.83	930.32
653.17	922.65
653.51	914.95
653.85	907.82
654.20	900.57
654.54	893.05
654.88	885.76
655.22	878.49
655.56	871.40
655.90	864.60
656.25	857.96
656.59	851.04
656.93	843.97
657.27	836.76
657.61	829.69
657.95	823.57
658.29	817.56
658.64	811.38
658.98	804.85
659.32	798.22
659.66	791.91
660.00	785.49
660.34	779.40
660.68	773.29
661.02	766.86
661.36	760.82
661.70	755.01
662.05	749.38
662.39	743.88
662.73	738.52
663.07	733.05
663.41	727.33
663.75	721.63
664.09	715.94
664.43	710.45
664.77	705.11
665.11	699.23
665.45	693.30
665.79	687.47
666.13	681.70
666.47	676.21
666.81	670.66
667.15	665.30
667.49	660.06
667.83	654.76
668.17	649.47
668.51	644.37
668.85	639.35
669.19	634.43
669.53	629.39
669.87	624.23
670.21	619.45
670.55	614.77
670.89	610.29
671.23	605.95
671.57	601.51
671.91	597.13
672.25	592.99
672.58	588.82
672.92	584.68
673.26	580.70
673.60	576.75
673.94	572.91
674.28	569.28
674.62	565.49
674.96	561.69
675.30	558.19
675.64	554.47
675.97	550.82
676.31	547.14
676.65	543.45
676.99	540.01
677.33	536.13
677.67	532.43
678.01	528.54
678.34	524.86
678.68	521.35
679.02	517.80
679.36	514.01
679.70	510.35
680.04	506.77
680.37	503.27
680.71	499.93
681.05	496.78
681.39	493.42
681.73	490.17
682.06	487.16
682.40	484.08
682.74	480.81
683.08	477.60
683.42	474.42
683.75	471.42
684.09	468.36
684.43	465.52
684.77	462.55
685.10	459.69
685.44	456.74
685.78	453.77
686.12	450.94
686.45	448.23
686.79	445.55
687.13	443.00
687.46	440.39
687.80	437.68
688.14	434.78
688.48	432.15
688.81	429.45
689.15	426.82
689.49	424.09
689.82	421.55
690.16	418.89
690.50	416.40
690.83	413.84
691.17	411.20
691.51	408.65
691.84	406.33
692.18	404.12
692.52	401.89
692.85	399.72
693.19	397.48
693.52	395.33
693.86	393.04
694.20	390.77
694.53	388.59
694.87	386.39
695.21	384.22
695.54	382.01
695.88	379.81
696.21	377.55
696.55	375.41
696.88	373.28
697.22	371.26
697.56	369.29
697.89	367.42
698.23	365.69
698.56	363.87
698.90	362.10
699.23	360.13
699.57	358.23
699.90	356.32
700.24	354.49
700.58	352.66
700.91	350.99
701.25	349.44
701.58	347.82
701.92	346.20
702.25	344.60
702.59	342.96
702.92	341.44
703.26	339.87
703.59	338.38
703.93	337.10
704.26	335.71
704.60	334.20
704.93	332.65
705.26	331.10
705.60	329.63
705.93	328.09
706.27	326.70
706.60	325.39
706.94	324.16
707.27	322.80
707.61	321.42
707.94	320.06
708.27	318.51
708.61	317.02
708.94	315.66
709.28	314.31
709.61	313.04
709.94	311.76
710.28	310.53
710.61	309.30
710.95	307.82
711.28	306.66
711.61	305.43
711.95	304.31
712.28	303.10
712.61	301.91
712.95	300.84
713.28	299.82
713.61	298.64
713.95	297.42
714.28	296.35
714.61	295.27
714.95	294.24
715.28	293.17
715.61	292.16
715.95	291.15
716.28	290.20
716.61	289.23
716.95	288.23
717.28	287.29
717.61	286.32
717.94	285.48
718.28	284.45
718.61	283.57
718.94	282.67
719.27	281.80
719.61	280.97
719.94	280.09
720.27	279.11
720.60	278.26
720.94	277.46
721.27	276.68
721.60	276.02
721.93	275.28
722.27	274.66
722.60	273.99
722.93	273.25
723.26	272.57
723.59	271.84
723.93	271.20
724.26	270.59
724.59	269.94
724.92	269.29
725.25	268.78
725.59	268.20
725.92	267.61
726.25	267.02
726.58	266.42
726.91	265.83
727.24	265.28
727.57	264.70
727.91	264.10
728.24	263.56
728.57	262.94
728.90	262.36
729.23	261.71
729.56	261.25
729.89	260.72
730.22	260.17
730.55	259.62
730.89	259.04
731.22	258.49
731.55	257.95
731.88	257.41
732.21	256.82
732.54	256.26
732.87	255.73
733.20	255.26
733.53	254.74
733.86	254.25
734.19	253.74
734.52	253.30
734.85	253.02
735.18	252.48
735.51	252.09
735.84	251.68
736.17	251.32
736.50	250.77
736.83	250.61
737.16	250.20
737.49	249.81
737.82	249.43
738.15	249.06
738.48	248.68
738.81	248.30
739.14	247.89
739.47	247.50
739.80	247.14
740.13	246.78
740.46	246.39
740.79	246.01
741.12	245.66
741.45	245.28
741.78	244.85
742.11	244.62
742.44	244.27
742.77	243.94
743.10	243.60
743.43	243.26
743.75	242.66
744.08	242.60
744.41	242.26
744.74	241.87
745.07	241.45
745.40	241.14
745.73	240.88
746.06	240.58
746.39	240.28
746.71	239.94
747.04	239.57
747.37	239.24
747.70	238.92
748.03	238.63
748.36	238.37
748.68	238.01
749.01	237.64
749.34	237.31
749.67	237.00
750.00	236.71
750.33	236.56
750.65	236.33
750.98	235.78
751.31	235.54
751.64	235.32
751.97	235.19
752.29	234.94
752.62	234.56
752.95	234.26
753.28	234.01
753.60	233.78
753.93	233.63
754.26	233.41
754.59	233.17
754.91	232.90
755.24	232.65
755.57	232.44
755.90	232.20
756.22	231.94
756.55	231.68
756.88	231.43
757.20	231.07
757.53	230.80
757.86	230.58
758.19	230.37
758.51	230.15
758.84	229.86
759.17	229.64
759.49	229.50
759.82	229.43
760.15	229.25
760.47	229.05
760.80	228.78
761.13	228.69
761.45	228.53
761.78	228.36
762.11	228.18
762.43	228.00
762.76	227.85
763.08	227.74
763.41	227.63
763.74	227.51
764.06	227.37
764.39	227.22
764.71	227.08
765.04	226.88
765.37	226.74
765.69	226.59
766.02	226.47
766.34	226.30
766.67	226.06
767.00	225.96
767.32	225.96
767.65	225.91
767.97	225.73
768.30	225.57
768.62	225.45
768.95	225.30
769.27	225.15
769.60	225.04
769.92	224.87
770.25	224.65
770.57	224.46
770.90	224.36
771.22	224.22
771.55	224.07
771.87	223.99
772.20	223.85
772.52	223.90
772.85	224.01
773.17	223.90
773.50	223.79
773.82	223.65
774.15	223.44
774.47	223.27
774.80	223.14
775.12	223.02
775.45	222.91
775.77	222.82
776.09	222.74
776.42	222.62
776.74	222.58
777.07	222.50
777.39	222.43
777.72	222.30
778.04	222.24
778.36	222.15
778.69	222.08
779.01	222.04
779.33	221.78
779.66	221.44
779.98	221.35
780.31	221.28
780.63	221.27
780.95	221.23
781.28	221.14
781.60	221.07
781.92	221.03
782.25	220.97
782.57	220.89
782.89	220.79
783.22	220.72
783.54	220.64
783.86	220.63
784.19	220.55
784.51	220.57
784.83	220.46
785.16	220.39
785.48	220.33
785.80	220.25
786.12	220.24
