SpectraSuite Data File
++++++++++++++++++++++++++++++++++++
Date: Tue Jan 29 16:36:09 EST 2013
User: group
Dark Spectrum Present: No
Reference Spectrum Present: No
Number of Sampled Component Spectra: 1
Spectrometers: USB2E7196
Integration Time (usec): 65000 (USB2E7196)
Spectra Averaged: 100 (USB2E7196)
Boxcar Smoothing: 10 (USB2E7196)
Correct for Electrical Dark: No (USB2E7196)
Strobe/Lamp Enabled: No (USB2E7196)
Correct for Detector Non-linearity: No (USB2E7196)
Correct for Stray Light: No (USB2E7196)
Number of Pixels in Processed Spectrum: 2048
>>>>>Begin Processed Spectral Data<<<<<
339.09	0.00
339.48	201.75
339.86	203.11
340.24	204.25
340.63	205.87
341.01	209.93
341.39	208.69
341.78	209.90
342.16	212.04
342.54	211.90
342.93	200.83
343.31	210.99
343.69	211.54
344.07	212.01
344.46	212.46
344.84	212.87
345.22	213.05
345.60	213.34
345.99	213.57
346.37	213.68
346.75	213.81
347.13	213.89
347.52	213.96
347.90	214.08
348.28	214.12
348.66	214.22
349.05	214.21
349.43	214.28
349.81	214.37
350.19	214.44
350.57	214.57
350.96	214.71
351.34	214.80
351.72	214.90
352.10	215.04
352.48	215.12
352.87	215.17
353.25	215.28
353.63	215.30
354.01	215.35
354.39	215.45
354.77	215.52
355.15	215.67
355.54	215.71
355.92	215.73
356.30	215.82
356.68	216.00
357.06	216.10
357.44	216.14
357.82	216.18
358.20	216.28
358.58	216.33
358.97	216.37
359.35	216.52
359.73	216.66
360.11	216.72
360.49	216.77
360.87	216.83
361.25	216.88
361.63	217.00
362.01	217.08
362.39	217.09
362.77	217.15
363.15	217.16
363.53	217.22
363.91	217.26
364.29	217.28
364.67	217.16
365.05	217.16
365.43	217.24
365.81	217.30
366.19	217.40
366.57	217.47
366.95	217.47
367.33	217.39
367.71	217.35
368.09	217.37
368.47	217.36
368.85	217.33
369.23	217.36
369.61	217.31
369.99	217.35
370.37	217.40
370.75	217.47
371.13	217.43
371.51	217.38
371.89	217.39
372.27	217.38
372.65	217.33
373.03	217.31
373.41	217.24
373.78	217.15
374.16	217.01
374.54	216.90
374.92	216.87
375.30	216.81
375.68	216.75
376.06	216.70
376.44	216.67
376.82	216.66
377.19	216.63
377.57	216.56
377.95	216.44
378.33	216.35
378.71	216.19
379.09	216.19
379.47	216.15
379.84	216.06
380.22	216.00
380.60	215.94
380.98	215.84
381.36	215.81
381.73	215.78
382.11	215.76
382.49	215.73
382.87	215.63
383.25	215.62
383.62	215.78
384.00	215.69
384.38	215.65
384.76	215.63
385.13	215.64
385.51	215.66
385.89	215.59
386.27	215.57
386.64	215.55
387.02	215.48
387.40	215.44
387.78	215.42
388.15	215.37
388.53	215.34
388.91	215.33
389.29	215.30
389.66	215.32
390.04	215.30
390.42	215.32
390.79	215.33
391.17	215.33
391.55	215.09
391.92	215.08
392.30	215.08
392.68	215.04
393.05	215.03
393.43	215.02
393.81	215.06
394.18	215.04
394.56	215.04
394.94	215.09
395.31	215.06
395.69	215.17
396.06	215.23
396.44	215.28
396.82	215.33
397.19	215.45
397.57	215.44
397.95	215.49
398.32	215.45
398.70	215.52
399.07	215.57
399.45	215.61
399.82	215.68
400.20	215.69
400.58	215.78
400.95	215.74
401.33	215.82
401.70	216.03
402.08	216.11
402.45	216.20
402.83	216.34
403.20	216.46
403.58	216.52
403.95	216.68
404.33	216.83
404.71	216.98
405.08	217.25
405.46	217.41
405.83	217.61
406.21	217.80
406.58	218.03
406.96	218.25
407.33	218.55
407.70	218.83
408.08	219.27
408.45	219.61
408.83	220.04
409.20	220.37
409.58	220.62
409.95	221.08
410.33	221.57
410.70	222.02
411.08	222.61
411.45	223.19
411.82	223.74
412.20	224.42
412.57	225.26
412.95	225.80
413.32	226.63
413.69	227.45
414.07	228.38
414.44	229.34
414.82	230.36
415.19	231.54
415.56	232.74
415.94	233.94
416.31	235.34
416.68	236.71
417.06	238.34
417.43	239.93
417.81	241.68
418.18	243.46
418.55	245.37
418.93	247.38
419.30	249.50
419.67	251.75
420.04	254.03
420.42	256.41
420.79	259.26
421.16	262.07
421.54	264.99
421.91	268.00
422.28	271.10
422.66	274.42
423.03	277.68
423.40	281.07
423.77	284.71
424.15	288.31
424.52	292.13
424.89	296.27
425.26	300.36
425.64	304.28
426.01	308.57
426.38	313.04
426.75	317.59
427.13	322.34
427.50	327.29
427.87	332.50
428.24	337.71
428.61	342.67
428.99	348.19
429.36	354.19
429.73	360.09
430.10	366.04
430.47	372.13
430.85	378.45
431.22	385.11
431.59	392.19
431.96	399.09
432.33	406.65
432.70	413.96
433.08	422.48
433.45	430.56
433.82	438.59
434.19	447.50
434.56	456.21
434.93	464.55
435.30	472.85
435.68	482.02
436.05	490.99
436.42	499.94
436.79	508.04
437.16	516.85
437.53	526.11
437.90	535.29
438.27	544.20
438.64	553.37
439.01	561.97
439.38	569.59
439.75	576.96
440.13	585.42
440.50	593.45
440.87	599.85
441.24	606.50
441.61	613.86
441.98	619.26
442.35	625.58
442.72	631.95
443.09	638.10
443.46	641.87
443.83	644.39
444.20	646.63
444.57	649.94
444.94	651.39
445.31	652.87
445.68	654.21
446.05	654.90
446.42	654.17
446.79	653.26
447.16	652.23
447.53	651.44
447.90	648.12
448.27	644.74
448.64	640.16
449.01	636.82
449.37	630.89
449.74	625.16
450.11	618.33
450.48	610.87
450.85	603.29
451.22	596.73
451.59	590.60
451.96	584.71
452.33	576.77
452.70	569.62
453.07	561.10
453.43	552.50
453.80	544.13
454.17	536.11
454.54	528.54
454.91	520.30
455.28	512.32
455.65	504.86
456.02	497.38
456.38	491.05
456.75	483.16
457.12	476.55
457.49	470.07
457.86	463.82
458.23	458.41
458.59	452.47
458.96	446.50
459.33	441.18
459.70	435.79
460.07	431.50
460.43	426.66
460.80	422.06
461.17	418.03
461.54	413.85
461.91	409.81
462.27	405.59
462.64	402.13
463.01	398.28
463.38	394.52
463.74	390.77
464.11	387.47
464.48	384.63
464.85	381.58
465.21	379.15
465.58	376.49
465.95	373.36
466.32	370.76
466.68	368.13
467.05	365.51
467.42	362.95
467.78	360.28
468.15	357.75
468.52	355.85
468.88	353.34
469.25	351.10
469.62	349.32
469.98	347.39
470.35	345.57
470.72	343.89
471.08	342.14
471.45	340.68
471.82	339.11
472.18	337.41
472.55	336.16
472.92	334.73
473.28	333.54
473.65	332.42
474.02	331.30
474.38	330.41
474.75	329.68
475.11	328.88
475.48	328.29
475.85	327.76
476.21	327.27
476.58	326.90
476.94	326.67
477.31	326.31
477.67	326.11
478.04	325.93
478.41	325.89
478.77	326.04
479.14	325.95
479.50	326.15
479.87	326.47
480.23	326.85
480.60	327.11
480.96	327.38
481.33	327.95
481.69	328.52
482.06	329.04
482.42	329.55
482.79	330.13
483.15	330.92
483.52	331.87
483.88	332.74
484.25	333.66
484.61	334.65
484.98	335.74
485.34	337.03
485.71	338.43
486.07	339.87
486.44	341.17
486.80	342.77
487.17	344.39
487.53	346.21
487.90	348.04
488.26	350.04
488.62	352.20
488.99	354.25
489.35	356.39
489.72	358.79
490.08	361.28
490.44	363.86
490.81	366.54
491.17	369.28
491.54	372.27
491.90	375.35
492.26	378.63
492.63	382.03
492.99	385.54
493.36	389.19
493.72	393.11
494.08	397.15
494.45	401.38
494.81	405.75
495.17	410.17
495.54	414.86
495.90	419.68
496.26	424.60
496.63	429.82
496.99	435.27
497.35	440.84
497.72	446.68
498.08	452.60
498.44	458.73
498.80	465.14
499.17	471.67
499.53	478.44
499.89	485.34
500.26	492.28
500.62	499.37
500.98	506.88
501.34	514.39
501.71	522.19
502.07	530.08
502.43	538.14
502.79	546.36
503.16	554.79
503.52	563.48
503.88	572.25
504.24	581.24
504.60	590.32
504.97	599.59
505.33	608.91
505.69	618.78
506.05	628.61
506.41	638.46
506.78	648.50
507.14	658.70
507.50	669.21
507.86	680.05
508.22	690.87
508.59	701.51
508.95	712.54
509.31	723.82
509.67	735.28
510.03	746.65
510.39	758.36
510.75	770.29
511.12	782.17
511.48	794.35
511.84	806.64
512.20	819.04
512.56	831.82
512.92	844.64
513.28	857.38
513.64	870.35
514.00	883.35
514.37	896.48
514.73	909.69
515.09	922.76
515.45	935.76
515.81	948.92
516.17	962.39
516.53	975.80
516.89	988.98
517.25	1002.23
517.61	1015.93
517.97	1029.41
518.33	1042.63
518.69	1056.36
519.05	1070.16
519.41	1083.88
519.77	1097.85
520.13	1111.09
520.49	1124.43
520.85	1137.98
521.21	1151.30
521.57	1165.11
521.93	1178.31
522.29	1192.17
522.65	1205.95
523.01	1219.61
523.37	1232.91
523.73	1246.28
524.09	1259.49
524.45	1273.08
524.81	1286.72
525.17	1300.22
525.53	1313.60
525.89	1327.02
526.25	1340.16
526.61	1353.13
526.97	1366.24
527.33	1379.37
527.68	1393.05
528.04	1406.53
528.40	1419.68
528.76	1433.08
529.12	1445.96
529.48	1459.37
529.84	1471.69
530.20	1484.42
530.56	1497.09
530.91	1510.38
531.27	1523.32
531.63	1536.14
531.99	1548.85
532.35	1561.22
532.71	1573.65
533.07	1586.57
533.42	1598.89
533.78	1611.04
534.14	1623.14
534.50	1634.60
534.86	1646.19
535.21	1657.22
535.57	1668.88
535.93	1680.23
536.29	1691.51
536.65	1703.21
537.00	1714.20
537.36	1725.72
537.72	1736.88
538.08	1748.58
538.44	1759.65
538.79	1770.89
539.15	1781.93
539.51	1792.90
539.87	1804.36
540.22	1815.36
540.58	1826.41
540.94	1837.49
541.29	1848.00
541.65	1857.98
542.01	1868.66
542.37	1878.78
542.72	1888.99
543.08	1898.82
543.44	1909.41
543.79	1918.80
544.15	1928.28
544.51	1938.29
544.87	1948.39
545.22	1957.76
545.58	1966.69
545.94	1975.76
546.29	1984.47
546.65	1992.99
547.01	2001.23
547.36	2008.89
547.72	2016.63
548.07	2024.27
548.43	2032.04
548.79	2039.96
549.14	2048.13
549.50	2056.61
549.86	2064.67
550.21	2072.10
550.57	2079.94
550.92	2086.84
551.28	2094.46
551.64	2101.67
551.99	2109.34
552.35	2116.58
552.70	2123.55
553.06	2130.14
553.41	2136.51
553.77	2142.98
554.13	2149.36
554.48	2156.49
554.84	2163.70
555.19	2170.35
555.55	2176.90
555.90	2183.31
556.26	2190.26
556.61	2196.42
556.97	2201.31
557.32	2207.07
557.68	2213.58
558.03	2219.30
558.39	2224.73
558.74	2230.64
559.10	2236.24
559.45	2241.84
559.81	2247.22
560.16	2252.74
560.52	2258.66
560.87	2265.01
561.23	2270.74
561.58	2277.41
561.94	2282.58
562.29	2287.22
562.64	2293.13
563.00	2298.79
563.35	2304.23
563.71	2309.93
564.06	2315.72
564.42	2321.64
564.77	2326.66
565.12	2331.91
565.48	2337.14
565.83	2342.70
566.19	2348.11
566.54	2353.61
566.89	2358.24
567.25	2362.81
567.60	2368.42
567.96	2373.49
568.31	2377.99
568.66	2382.53
569.02	2386.45
569.37	2390.19
569.72	2394.66
570.08	2398.37
570.43	2401.30
570.78	2404.39
571.14	2406.78
571.49	2409.78
571.84	2413.31
572.20	2416.25
572.55	2419.31
572.90	2421.40
573.26	2424.01
573.61	2426.47
573.96	2428.55
574.31	2430.46
574.67	2432.39
575.02	2433.03
575.37	2434.53
575.72	2435.12
576.08	2436.40
576.43	2436.41
576.78	2436.81
577.13	2438.22
577.49	2439.26
577.84	2440.35
578.19	2441.66
578.54	2442.39
578.90	2442.96
579.25	2442.58
579.60	2442.38
579.95	2441.33
580.30	2441.46
580.66	2440.66
581.01	2438.93
581.36	2436.37
581.71	2434.96
582.06	2433.52
582.42	2432.65
582.77	2430.18
583.12	2428.46
583.47	2427.01
583.82	2426.28
584.17	2425.01
584.53	2422.86
584.88	2420.74
585.23	2418.71
585.58	2416.31
585.93	2413.96
586.28	2411.73
586.63	2409.32
586.98	2407.18
587.34	2405.15
587.69	2402.50
588.04	2400.40
588.39	2398.86
588.74	2396.39
589.09	2393.53
589.44	2390.50
589.79	2387.89
590.14	2385.95
590.49	2383.12
590.84	2379.18
591.19	2376.17
591.54	2372.90
591.89	2368.71
592.25	2365.24
592.60	2361.14
592.95	2357.01
593.30	2352.76
593.65	2348.24
594.00	2343.84
594.35	2340.66
594.70	2335.83
595.05	2331.38
595.40	2325.92
595.75	2320.15
596.10	2316.37
596.45	2311.28
596.80	2306.46
597.15	2301.35
597.50	2295.28
597.85	2290.13
598.19	2284.76
598.54	2278.91
598.89	2273.60
599.24	2268.97
599.59	2262.84
599.94	2256.82
600.29	2250.71
600.64	2244.87
600.99	2238.00
601.34	2232.36
601.69	2225.32
602.04	2218.94
602.39	2212.21
602.74	2205.99
603.08	2200.35
603.43	2193.84
603.78	2187.15
604.13	2180.23
604.48	2172.82
604.83	2166.69
605.18	2160.55
605.53	2153.72
605.87	2146.46
606.22	2139.58
606.57	2131.67
606.92	2123.54
607.27	2116.44
607.62	2109.73
607.96	2102.63
608.31	2096.12
608.66	2088.40
609.01	2080.75
609.36	2073.64
609.70	2065.70
610.05	2057.92
610.40	2049.59
610.75	2041.14
611.10	2033.42
611.44	2024.36
611.79	2015.55
612.14	2005.68
612.49	1994.91
612.83	1985.48
613.18	1976.29
613.53	1967.01
613.88	1957.44
614.22	1948.81
614.57	1939.02
614.92	1928.43
615.27	1918.14
615.61	1907.98
615.96	1898.24
616.31	1888.57
616.65	1879.11
617.00	1869.59
617.35	1859.84
617.70	1850.17
618.04	1840.16
618.39	1829.99
618.74	1820.20
619.08	1810.59
619.43	1801.77
619.78	1793.68
620.12	1785.09
620.47	1775.39
620.82	1764.84
621.16	1755.00
621.51	1745.03
621.85	1735.10
622.20	1724.74
622.55	1714.12
622.89	1704.18
623.24	1694.44
623.59	1684.62
623.93	1674.48
624.28	1664.58
624.62	1654.49
624.97	1644.17
625.32	1634.36
625.66	1625.35
626.01	1616.70
626.35	1607.38
626.70	1597.22
627.04	1587.07
627.39	1576.90
627.73	1567.74
628.08	1559.05
628.43	1549.46
628.77	1540.31
629.12	1531.53
629.46	1523.70
629.81	1515.48
630.15	1506.02
630.50	1496.25
630.84	1485.82
631.19	1475.98
631.53	1466.76
631.88	1456.55
632.22	1446.49
632.57	1437.11
632.91	1427.01
633.26	1417.23
633.60	1407.60
633.95	1398.45
634.29	1388.97
634.64	1379.64
634.98	1369.63
635.32	1360.20
635.67	1351.75
636.01	1342.58
636.36	1332.80
636.70	1323.22
637.05	1313.80
637.39	1304.85
637.73	1296.16
638.08	1288.59
638.42	1280.38
638.77	1271.58
639.11	1263.52
639.45	1255.76
639.80	1247.23
640.14	1238.48
640.49	1229.49
640.83	1220.63
641.17	1212.35
641.52	1204.09
641.86	1195.50
642.20	1187.61
642.55	1179.02
642.89	1170.10
643.23	1161.40
643.58	1153.27
643.92	1144.26
644.26	1135.52
644.61	1127.11
644.95	1118.32
645.29	1109.11
645.64	1099.96
645.98	1091.51
646.32	1083.43
646.66	1074.88
647.01	1066.52
647.35	1058.42
647.69	1050.11
648.04	1041.73
648.38	1032.88
648.72	1024.21
649.06	1015.74
649.41	1007.50
649.75	999.58
650.09	991.68
650.43	983.61
650.78	975.23
651.12	967.44
651.46	959.98
651.80	952.73
652.14	945.41
652.49	937.85
652.83	930.43
653.17	922.58
653.51	914.97
653.85	907.68
654.20	900.41
654.54	892.96
654.88	885.71
655.22	878.59
655.56	871.51
655.90	864.61
656.25	857.94
656.59	851.06
656.93	843.95
657.27	836.76
657.61	829.70
657.95	823.56
658.29	817.64
658.64	811.46
658.98	804.93
659.32	798.34
659.66	791.97
660.00	785.59
660.34	779.55
660.68	773.38
661.02	766.99
661.36	760.97
661.70	755.10
662.05	749.46
662.39	743.94
662.73	738.50
663.07	733.12
663.41	727.44
663.75	721.67
664.09	715.94
664.43	710.50
664.77	705.15
665.11	699.34
665.45	693.48
665.79	687.71
666.13	681.96
666.47	676.40
666.81	670.98
667.15	665.59
667.49	660.32
667.83	655.06
668.17	649.79
668.51	644.68
668.85	639.73
669.19	634.80
669.53	629.74
669.87	624.70
670.21	619.89
670.55	615.15
670.89	610.69
671.23	606.35
671.57	601.96
671.91	597.65
672.25	593.43
672.58	589.20
672.92	585.07
673.26	581.15
673.60	577.25
673.94	573.40
674.28	569.77
674.62	565.97
674.96	562.15
675.30	558.61
675.64	554.85
675.97	551.19
676.31	547.49
676.65	543.80
676.99	540.26
677.33	536.38
677.67	532.73
678.01	528.81
678.34	525.13
678.68	521.56
679.02	517.89
679.36	514.15
679.70	510.50
680.04	506.92
680.37	503.40
680.71	500.02
681.05	496.79
681.39	493.43
681.73	490.23
682.06	487.19
682.40	484.03
682.74	480.81
683.08	477.53
683.42	474.31
683.75	471.29
684.09	468.16
684.43	465.35
684.77	462.36
685.10	459.49
685.44	456.54
685.78	453.56
686.12	450.78
686.45	448.02
686.79	445.24
687.13	442.65
687.46	439.95
687.80	437.24
688.14	434.36
688.48	431.71
688.81	429.01
689.15	426.37
689.49	423.77
689.82	421.23
690.16	418.63
690.50	416.12
690.83	413.57
691.17	411.08
691.51	408.56
691.84	406.27
692.18	404.01
692.52	401.74
692.85	399.59
693.19	397.38
693.52	395.24
693.86	393.01
694.20	390.80
694.53	388.62
694.87	386.44
695.21	384.29
695.54	382.10
695.88	379.87
696.21	377.60
696.55	375.41
696.88	373.35
697.22	371.39
697.56	369.48
697.89	367.60
698.23	365.77
698.56	363.89
698.90	362.08
699.23	360.13
699.57	358.22
699.90	356.32
700.24	354.51
700.58	352.70
700.91	351.01
701.25	349.43
701.58	347.85
701.92	346.16
702.25	344.50
702.59	342.84
702.92	341.31
703.26	339.76
703.59	338.24
703.93	336.91
704.26	335.43
704.60	333.92
704.93	332.39
705.26	330.87
705.60	329.41
705.93	327.86
706.27	326.48
706.60	325.15
706.94	323.93
707.27	322.53
707.61	321.19
707.94	319.82
708.27	318.23
708.61	316.74
708.94	315.37
709.28	314.10
709.61	312.87
709.94	311.60
710.28	310.35
710.61	309.17
710.95	307.73
711.28	306.62
711.61	305.38
711.95	304.23
712.28	303.05
712.61	301.84
712.95	300.79
713.28	299.77
713.61	298.64
713.95	297.44
714.28	296.39
714.61	295.30
714.95	294.31
715.28	293.26
715.61	292.24
715.95	291.29
716.28	290.31
716.61	289.32
716.95	288.32
717.28	287.39
717.61	286.41
717.94	285.49
718.28	284.46
718.61	283.55
718.94	282.62
719.27	281.77
719.61	280.95
719.94	280.03
720.27	279.03
720.60	278.18
720.94	277.36
721.27	276.61
721.60	275.92
721.93	275.17
722.27	274.63
722.60	273.98
722.93	273.24
723.26	272.56
723.59	271.88
723.93	271.23
724.26	270.54
724.59	269.90
724.92	269.26
725.25	268.67
725.59	268.09
725.92	267.58
726.25	266.99
726.58	266.40
726.91	265.83
727.24	265.30
727.57	264.75
727.91	264.12
728.24	263.52
728.57	262.90
728.90	262.32
729.23	261.63
729.56	261.17
729.89	260.62
730.22	260.05
730.55	259.49
730.89	258.98
731.22	258.42
731.55	257.90
731.88	257.36
732.21	256.84
732.54	256.27
732.87	255.76
733.20	255.28
733.53	254.77
733.86	254.29
734.19	253.80
734.52	253.34
734.85	253.06
735.18	252.56
735.51	252.20
735.84	251.75
736.17	251.37
736.50	250.80
736.83	250.65
737.16	250.23
737.49	249.85
737.82	249.43
738.15	249.11
738.48	248.70
738.81	248.33
739.14	247.89
739.47	247.53
739.80	247.12
740.13	246.75
740.46	246.35
740.79	245.95
741.12	245.59
741.45	245.20
741.78	244.74
742.11	244.47
742.44	244.08
742.77	243.81
743.10	243.42
743.43	243.10
743.75	242.51
744.08	242.46
744.41	242.09
744.74	241.73
745.07	241.35
745.40	241.05
745.73	240.81
746.06	240.49
746.39	240.17
746.71	239.81
747.04	239.43
747.37	239.11
747.70	238.82
748.03	238.51
748.36	238.28
748.68	238.00
749.01	237.63
749.34	237.33
749.67	236.98
750.00	236.71
750.33	236.57
750.65	236.30
750.98	235.75
751.31	235.49
751.64	235.23
751.97	235.12
752.29	234.87
752.62	234.53
752.95	234.28
753.28	234.01
753.60	233.76
753.93	233.62
754.26	233.42
754.59	233.12
754.91	232.88
755.24	232.58
755.57	232.34
755.90	232.14
756.22	231.86
756.55	231.62
756.88	231.40
757.20	231.04
757.53	230.81
757.86	230.62
758.19	230.43
758.51	230.20
758.84	229.89
759.17	229.66
759.49	229.47
759.82	229.33
760.15	229.19
760.47	228.99
760.80	228.69
761.13	228.51
761.45	228.33
761.78	228.15
762.11	227.98
762.43	227.77
762.76	227.56
763.08	227.45
763.41	227.30
763.74	227.12
764.06	226.98
764.39	226.81
764.71	226.62
765.04	226.44
765.37	226.31
765.69	226.14
766.02	225.98
766.34	225.85
766.67	225.67
767.00	225.56
767.32	225.52
767.65	225.51
767.97	225.36
768.30	225.26
768.62	225.15
768.95	225.00
769.27	224.88
769.60	224.77
769.92	224.58
770.25	224.43
770.57	224.27
770.90	224.13
771.22	224.02
771.55	223.93
771.87	223.79
772.20	223.67
772.52	223.75
772.85	223.90
773.17	223.78
773.50	223.66
773.82	223.53
774.15	223.37
774.47	223.14
774.80	223.04
775.12	222.95
775.45	222.84
775.77	222.77
776.09	222.69
776.42	222.63
776.74	222.59
777.07	222.48
777.39	222.41
777.72	222.29
778.04	222.23
778.36	222.11
778.69	222.05
779.01	222.00
779.33	221.76
779.66	221.44
779.98	221.37
780.31	221.24
780.63	221.25
780.95	221.21
781.28	221.18
781.60	221.08
781.92	221.01
782.25	220.95
782.57	220.89
782.89	220.82
783.22	220.72
783.54	220.64
783.86	220.60
784.19	220.49
784.51	220.48
784.83	220.39
785.16	220.31
785.48	220.25
785.80	220.15
786.12	220.07
