SpectraSuite Data File
++++++++++++++++++++++++++++++++++++
Date: Tue Jan 29 16:30:41 EST 2013
User: group
Dark Spectrum Present: No
Reference Spectrum Present: No
Number of Sampled Component Spectra: 1
Spectrometers: USB2E7196
Integration Time (usec): 65000 (USB2E7196)
Spectra Averaged: 100 (USB2E7196)
Boxcar Smoothing: 10 (USB2E7196)
Correct for Electrical Dark: No (USB2E7196)
Strobe/Lamp Enabled: No (USB2E7196)
Correct for Detector Non-linearity: No (USB2E7196)
Correct for Stray Light: No (USB2E7196)
Number of Pixels in Processed Spectrum: 2048
>>>>>Begin Processed Spectral Data<<<<<
339.09	0.00
339.48	202.33
339.86	203.78
340.24	205.03
340.63	206.71
341.01	210.89
341.39	208.96
341.78	210.24
342.16	211.80
342.54	212.39
342.93	201.35
343.31	211.54
343.69	212.08
344.07	212.56
344.46	213.03
344.84	213.42
345.22	213.56
345.60	213.83
345.99	214.05
346.37	214.17
346.75	214.29
347.13	214.36
347.52	214.47
347.90	214.57
348.28	214.59
348.66	214.67
349.05	214.64
349.43	214.68
349.81	214.74
350.19	214.83
350.57	214.89
350.96	214.97
351.34	215.05
351.72	215.14
352.10	215.24
352.48	215.29
352.87	215.32
353.25	215.40
353.63	215.47
354.01	215.53
354.39	215.62
354.77	215.67
355.15	215.82
355.54	215.82
355.92	215.79
356.30	215.86
356.68	216.05
357.06	216.15
357.44	216.19
357.82	216.26
358.20	216.34
358.58	216.34
358.97	216.41
359.35	216.48
359.73	216.58
360.11	216.61
360.49	216.68
360.87	216.76
361.25	216.84
361.63	216.95
362.01	217.00
362.39	217.04
362.77	217.11
363.15	217.14
363.53	217.20
363.91	217.28
364.29	217.32
364.67	217.13
365.05	217.13
365.43	217.13
365.81	217.17
366.19	217.23
366.57	217.34
366.95	217.34
367.33	217.29
367.71	217.28
368.09	217.32
368.47	217.29
368.85	217.27
369.23	217.32
369.61	217.24
369.99	217.31
370.37	217.31
370.75	217.39
371.13	217.31
371.51	217.27
371.89	217.29
372.27	217.25
372.65	217.25
373.03	217.21
373.41	217.18
373.78	217.11
374.16	216.99
374.54	216.90
374.92	216.85
375.30	216.85
375.68	216.77
376.06	216.73
376.44	216.67
376.82	216.64
377.19	216.51
377.57	216.46
377.95	216.35
378.33	216.29
378.71	216.14
379.09	216.10
379.47	216.11
379.84	216.01
380.22	215.97
380.60	215.87
380.98	215.85
381.36	215.84
381.73	215.82
382.11	215.81
382.49	215.77
382.87	215.71
383.25	215.67
383.62	215.84
384.00	215.79
384.38	215.76
384.76	215.75
385.13	215.80
385.51	215.72
385.89	215.65
386.27	215.62
386.64	215.58
387.02	215.56
387.40	215.48
387.78	215.46
388.15	215.46
388.53	215.45
388.91	215.42
389.29	215.36
389.66	215.36
390.04	215.34
390.42	215.36
390.79	215.35
391.17	215.33
391.55	215.12
391.92	215.10
392.30	215.13
392.68	215.09
393.05	215.06
393.43	215.12
393.81	215.10
394.18	215.06
394.56	215.10
394.94	215.14
395.31	215.12
395.69	215.17
396.06	215.21
396.44	215.25
396.82	215.27
397.19	215.38
397.57	215.38
397.95	215.42
398.32	215.36
398.70	215.42
399.07	215.50
399.45	215.53
399.82	215.59
400.20	215.59
400.58	215.67
400.95	215.68
401.33	215.76
401.70	216.01
402.08	216.14
402.45	216.21
402.83	216.37
403.20	216.49
403.58	216.58
403.95	216.70
404.33	216.85
404.71	216.97
405.08	217.24
405.46	217.43
405.83	217.58
406.21	217.80
406.58	218.06
406.96	218.29
407.33	218.58
407.70	218.89
408.08	219.38
408.45	219.73
408.83	220.14
409.20	220.49
409.58	220.78
409.95	221.26
410.33	221.77
410.70	222.18
411.08	222.74
411.45	223.32
411.82	223.91
412.20	224.59
412.57	225.43
412.95	226.01
413.32	226.82
413.69	227.67
414.07	228.60
414.44	229.56
414.82	230.55
415.19	231.73
415.56	232.87
415.94	234.03
416.31	235.45
416.68	236.83
417.06	238.43
417.43	239.94
417.81	241.68
418.18	243.45
418.55	245.37
418.93	247.39
419.30	249.53
419.67	251.75
420.04	254.02
420.42	256.41
420.79	259.22
421.16	262.01
421.54	264.95
421.91	267.94
422.28	271.10
422.66	274.42
423.03	277.68
423.40	281.07
423.77	284.68
424.15	288.31
424.52	292.17
424.89	296.36
425.26	300.45
425.64	304.32
426.01	308.58
426.38	313.04
426.75	317.61
427.13	322.31
427.50	327.26
427.87	332.47
428.24	337.68
428.61	342.63
428.99	348.15
429.36	354.14
429.73	360.06
430.10	365.88
430.47	371.93
430.85	378.20
431.22	384.83
431.59	391.98
431.96	398.80
432.33	406.24
432.70	413.44
433.08	422.01
433.45	430.04
433.82	438.07
434.19	446.98
434.56	455.64
434.93	463.94
435.30	472.23
435.68	481.37
436.05	490.33
436.42	499.28
436.79	507.39
437.16	516.21
437.53	525.42
437.90	534.54
438.27	543.49
438.64	552.67
439.01	561.31
439.38	568.84
439.75	576.21
440.13	584.70
440.50	592.63
440.87	599.06
441.24	605.71
441.61	612.99
441.98	618.34
442.35	624.72
442.72	631.05
443.09	637.10
443.46	640.81
443.83	643.32
444.20	645.54
444.57	648.70
444.94	650.04
445.31	651.40
445.68	652.79
446.05	653.40
446.42	652.66
446.79	651.76
447.16	650.70
447.53	649.95
447.90	646.62
448.27	643.40
448.64	638.74
449.01	635.43
449.37	629.57
449.74	623.92
450.11	617.02
450.48	609.66
450.85	602.27
451.22	595.84
451.59	589.66
451.96	583.90
452.33	576.03
452.70	568.98
453.07	560.61
453.43	552.02
453.80	543.77
454.17	535.79
454.54	528.08
454.91	519.91
455.28	511.86
455.65	504.49
456.02	496.93
456.38	490.58
456.75	482.74
457.12	476.19
457.49	469.72
457.86	463.49
458.23	458.13
458.59	452.17
458.96	446.13
459.33	440.88
459.70	435.46
460.07	431.21
460.43	426.32
460.80	421.76
461.17	417.78
461.54	413.54
461.91	409.54
462.27	405.46
462.64	401.99
463.01	398.26
463.38	394.52
463.74	390.86
464.11	387.62
464.48	384.74
464.85	381.63
465.21	379.19
465.58	376.58
465.95	373.39
466.32	370.78
466.68	368.16
467.05	365.55
467.42	362.95
467.78	360.26
468.15	357.78
468.52	355.88
468.88	353.37
469.25	351.20
469.62	349.38
469.98	347.47
470.35	345.64
470.72	343.95
471.08	342.13
471.45	340.61
471.82	339.06
472.18	337.35
472.55	336.18
472.92	334.77
473.28	333.57
473.65	332.43
474.02	331.26
474.38	330.43
474.75	329.68
475.11	328.85
475.48	328.32
475.85	327.79
476.21	327.28
476.58	326.97
476.94	326.65
477.31	326.38
477.67	326.12
478.04	326.00
478.41	325.92
478.77	326.09
479.14	326.04
479.50	326.17
479.87	326.51
480.23	326.81
480.60	327.04
480.96	327.31
481.33	327.93
481.69	328.53
482.06	329.05
482.42	329.56
482.79	330.17
483.15	330.95
483.52	331.91
483.88	332.74
484.25	333.64
484.61	334.68
484.98	335.73
485.34	337.04
485.71	338.41
486.07	339.82
486.44	341.13
486.80	342.81
487.17	344.49
487.53	346.33
487.90	348.18
488.26	350.23
488.62	352.41
488.99	354.41
489.35	356.60
489.72	358.98
490.08	361.44
490.44	364.00
490.81	366.71
491.17	369.44
491.54	372.51
491.90	375.59
492.26	378.88
492.63	382.27
492.99	385.78
493.36	389.43
493.72	393.36
494.08	397.43
494.45	401.60
494.81	405.98
495.17	410.42
495.54	415.14
495.90	419.94
496.26	424.86
496.63	430.11
496.99	435.51
497.35	441.07
497.72	446.93
498.08	452.93
498.44	459.06
498.80	465.53
499.17	472.04
499.53	478.71
499.89	485.62
500.26	492.65
500.62	499.79
500.98	507.28
501.34	514.77
501.71	522.56
502.07	530.43
502.43	538.45
502.79	546.63
503.16	555.12
503.52	563.83
503.88	572.59
504.24	581.62
504.60	590.75
504.97	600.03
505.33	609.42
505.69	619.37
506.05	629.28
506.41	639.19
506.78	649.32
507.14	659.69
507.50	670.17
507.86	680.98
508.22	691.88
508.59	702.54
508.95	713.70
509.31	724.95
509.67	736.50
510.03	747.98
510.39	759.74
510.75	771.59
511.12	783.49
511.48	795.61
511.84	807.90
512.20	820.27
512.56	832.98
512.92	845.81
513.28	858.50
513.64	871.27
514.00	884.11
514.37	897.06
514.73	910.20
515.09	923.33
515.45	936.28
515.81	949.37
516.17	962.83
516.53	976.13
516.89	989.38
517.25	1002.65
517.61	1016.26
517.97	1029.83
518.33	1043.05
518.69	1056.70
519.05	1070.61
519.41	1084.34
519.77	1098.30
520.13	1111.67
520.49	1125.01
520.85	1138.45
521.21	1151.93
521.57	1165.71
521.93	1178.98
522.29	1192.89
522.65	1206.64
523.01	1220.41
523.37	1233.80
523.73	1247.30
524.09	1260.51
524.45	1274.03
524.81	1287.65
525.17	1301.17
525.53	1314.49
525.89	1327.85
526.25	1341.06
526.61	1353.99
526.97	1367.29
527.33	1380.52
527.68	1394.21
528.04	1407.87
528.40	1421.15
528.76	1434.65
529.12	1447.69
529.48	1461.16
529.84	1473.55
530.20	1486.34
530.56	1499.01
530.91	1512.35
531.27	1525.31
531.63	1538.30
531.99	1551.27
532.35	1563.64
532.71	1576.11
533.07	1589.20
533.42	1601.62
533.78	1613.97
534.14	1626.23
534.50	1637.60
534.86	1649.06
535.21	1660.01
535.57	1671.58
535.93	1682.98
536.29	1694.18
536.65	1705.78
537.00	1716.76
537.36	1728.22
537.72	1739.42
538.08	1751.02
538.44	1762.09
538.79	1773.35
539.15	1784.42
539.51	1795.22
539.87	1806.55
540.22	1817.48
540.58	1828.33
540.94	1839.37
541.29	1849.72
541.65	1859.50
542.01	1870.04
542.37	1880.31
542.72	1890.54
543.08	1900.29
543.44	1910.73
543.79	1920.31
544.15	1929.89
544.51	1940.04
544.87	1950.15
545.22	1959.40
545.58	1968.25
545.94	1977.14
546.29	1985.56
546.65	1993.93
547.01	2002.32
547.36	2010.12
547.72	2017.89
548.07	2025.50
548.43	2033.36
548.79	2041.32
549.14	2049.58
549.50	2058.19
549.86	2066.24
550.21	2073.75
550.57	2081.59
550.92	2088.62
551.28	2096.14
551.64	2103.47
551.99	2111.05
552.35	2118.24
552.70	2125.23
553.06	2132.11
553.41	2138.45
553.77	2145.09
554.13	2151.58
554.48	2158.64
554.84	2165.87
555.19	2172.59
555.55	2179.28
555.90	2185.62
556.26	2192.48
556.61	2198.55
556.97	2203.34
557.32	2209.06
557.68	2215.48
558.03	2221.30
558.39	2226.74
558.74	2232.64
559.10	2238.06
559.45	2243.65
559.81	2249.11
560.16	2254.73
560.52	2260.53
560.87	2267.03
561.23	2273.07
561.58	2279.70
561.94	2284.93
562.29	2289.64
562.64	2295.82
563.00	2301.53
563.35	2307.10
563.71	2312.92
564.06	2318.79
564.42	2324.86
564.77	2329.99
565.12	2335.23
565.48	2340.37
565.83	2345.82
566.19	2351.25
566.54	2356.72
566.89	2361.52
567.25	2366.10
567.60	2371.65
567.96	2376.83
568.31	2381.43
568.66	2385.71
569.02	2389.69
569.37	2393.54
569.72	2397.97
570.08	2401.37
570.43	2404.43
570.78	2407.58
571.14	2409.98
571.49	2412.99
571.84	2416.43
572.20	2419.45
572.55	2422.55
572.90	2424.81
573.26	2427.60
573.61	2430.10
573.96	2432.22
574.31	2434.06
574.67	2436.02
575.02	2436.87
575.37	2438.25
575.72	2438.88
576.08	2440.17
576.43	2440.27
576.78	2440.68
577.13	2442.20
577.49	2443.37
577.84	2444.32
578.19	2445.60
578.54	2446.27
578.90	2446.97
579.25	2446.90
579.60	2446.80
579.95	2445.99
580.30	2445.93
580.66	2445.29
581.01	2443.52
581.36	2441.22
581.71	2439.78
582.06	2438.51
582.42	2437.69
582.77	2435.39
583.12	2433.67
583.47	2432.26
583.82	2431.60
584.17	2430.28
584.53	2428.05
584.88	2426.04
585.23	2424.22
585.58	2421.88
585.93	2419.64
586.28	2417.34
586.63	2414.73
586.98	2412.37
587.34	2410.31
587.69	2407.95
588.04	2405.81
588.39	2404.44
588.74	2401.90
589.09	2399.11
589.44	2395.92
589.79	2393.23
590.14	2391.28
590.49	2388.43
590.84	2384.65
591.19	2381.39
591.54	2378.01
591.89	2373.93
592.25	2370.59
592.60	2366.25
592.95	2362.13
593.30	2357.95
593.65	2353.70
594.00	2349.36
594.35	2346.39
594.70	2341.76
595.05	2337.20
595.40	2331.66
595.75	2325.87
596.10	2322.31
596.45	2317.46
596.80	2313.00
597.15	2307.93
597.50	2301.94
597.85	2297.04
598.19	2291.75
598.54	2286.02
598.89	2280.75
599.24	2276.01
599.59	2269.63
599.94	2263.75
600.29	2257.70
600.64	2251.88
600.99	2244.96
601.34	2239.35
601.69	2232.37
602.04	2225.85
602.39	2219.01
602.74	2212.83
603.08	2207.14
603.43	2200.47
603.78	2193.46
604.13	2186.19
604.48	2178.77
604.83	2172.51
605.18	2166.15
605.53	2159.14
605.87	2152.09
606.22	2145.29
606.57	2137.48
606.92	2129.52
607.27	2122.47
607.62	2115.75
607.96	2108.57
608.31	2102.13
608.66	2094.31
609.01	2086.54
609.36	2079.38
609.70	2071.84
610.05	2063.98
610.40	2055.54
610.75	2047.14
611.10	2039.40
611.44	2030.43
611.79	2021.62
612.14	2011.62
612.49	2000.91
612.83	1991.55
613.18	1982.14
613.53	1972.88
613.88	1963.37
614.22	1954.76
614.57	1945.00
614.92	1934.39
615.27	1924.15
615.61	1913.96
615.96	1904.23
616.31	1894.61
616.65	1885.21
617.00	1875.43
617.35	1865.73
617.70	1856.13
618.04	1846.16
618.39	1835.93
618.74	1826.31
619.08	1816.57
619.43	1807.90
619.78	1799.65
620.12	1791.05
620.47	1781.58
620.82	1771.10
621.16	1761.15
621.51	1751.13
621.85	1741.17
622.20	1730.81
622.55	1720.27
622.89	1710.35
623.24	1700.60
623.59	1690.84
623.93	1680.66
624.28	1670.74
624.62	1660.65
624.97	1650.32
625.32	1640.27
625.66	1631.42
626.01	1622.66
626.35	1613.33
626.70	1603.18
627.04	1593.05
627.39	1582.88
627.73	1573.48
628.08	1564.45
628.43	1554.83
628.77	1545.69
629.12	1536.82
629.46	1528.85
629.81	1520.42
630.15	1510.71
630.50	1500.86
630.84	1490.31
631.19	1480.38
631.53	1470.97
631.88	1460.75
632.22	1450.59
632.57	1441.35
632.91	1431.02
633.26	1420.93
633.60	1411.30
633.95	1401.96
634.29	1392.35
634.64	1382.93
634.98	1372.71
635.32	1363.39
635.67	1354.85
636.01	1345.53
636.36	1335.71
636.70	1326.18
637.05	1316.81
637.39	1307.88
637.73	1299.19
638.08	1291.52
638.42	1283.27
638.77	1274.47
639.11	1266.20
639.45	1258.38
639.80	1249.75
640.14	1241.11
640.49	1232.31
640.83	1223.46
641.17	1215.18
641.52	1207.11
641.86	1198.41
642.20	1190.65
642.55	1182.15
642.89	1173.21
643.23	1164.45
643.58	1156.27
643.92	1147.10
644.26	1138.30
644.61	1129.80
644.95	1120.94
645.29	1111.66
645.64	1102.40
645.98	1093.84
646.32	1085.83
646.66	1077.25
647.01	1068.87
647.35	1060.60
647.69	1052.25
648.04	1043.93
648.38	1035.06
648.72	1026.12
649.06	1017.71
649.41	1009.54
649.75	1001.38
650.09	993.47
650.43	985.30
650.78	976.88
651.12	969.17
651.46	961.68
651.80	954.40
652.14	947.05
652.49	939.40
652.83	932.04
653.17	924.36
653.51	916.67
653.85	909.43
654.20	902.01
654.54	894.56
654.88	887.22
655.22	879.93
655.56	872.94
655.90	866.08
656.25	859.32
656.59	852.24
656.93	845.13
657.27	837.87
657.61	830.90
657.95	824.77
658.29	818.85
658.64	812.64
658.98	806.11
659.32	799.59
659.66	793.30
660.00	786.88
660.34	780.66
660.68	774.44
661.02	767.98
661.36	762.04
661.70	756.16
662.05	750.51
662.39	744.98
662.73	739.53
663.07	734.09
663.41	728.47
663.75	722.73
664.09	717.01
664.43	711.57
664.77	706.19
665.11	700.28
665.45	694.22
665.79	688.35
666.13	682.60
666.47	676.97
666.81	671.46
667.15	666.03
667.49	660.78
667.83	655.48
668.17	650.16
668.51	644.97
668.85	639.96
669.19	635.02
669.53	629.88
669.87	624.67
670.21	619.91
670.55	615.08
670.89	610.57
671.23	606.23
671.57	601.79
671.91	597.43
672.25	593.29
672.58	589.14
672.92	585.03
673.26	581.05
673.60	577.16
673.94	573.37
674.28	569.71
674.62	565.99
674.96	562.24
675.30	558.70
675.64	555.01
675.97	551.43
676.31	547.73
676.65	544.17
676.99	540.74
677.33	536.83
677.67	533.14
678.01	529.32
678.34	525.58
678.68	522.02
679.02	518.39
679.36	514.66
679.70	510.98
680.04	507.40
680.37	503.87
680.71	500.47
681.05	497.17
681.39	493.86
681.73	490.61
682.06	487.57
682.40	484.44
682.74	481.25
683.08	477.94
683.42	474.69
683.75	471.61
684.09	468.53
684.43	465.69
684.77	462.74
685.10	459.84
685.44	456.93
685.78	453.92
686.12	451.04
686.45	448.23
686.79	445.52
687.13	442.93
687.46	440.26
687.80	437.54
688.14	434.63
688.48	431.94
688.81	429.23
689.15	426.55
689.49	423.91
689.82	421.29
690.16	418.68
690.50	416.19
690.83	413.62
691.17	411.01
691.51	408.49
691.84	406.21
692.18	403.90
692.52	401.63
692.85	399.48
693.19	397.38
693.52	395.19
693.86	392.93
694.20	390.69
694.53	388.57
694.87	386.36
695.21	384.21
695.54	382.05
695.88	379.84
696.21	377.63
696.55	375.45
696.88	373.40
697.22	371.40
697.56	369.49
697.89	367.60
698.23	365.80
698.56	363.98
698.90	362.15
699.23	360.22
699.57	358.35
699.90	356.45
700.24	354.54
700.58	352.74
700.91	351.05
701.25	349.47
701.58	347.81
701.92	346.16
702.25	344.58
702.59	342.88
702.92	341.31
703.26	339.71
703.59	338.21
703.93	336.91
704.26	335.44
704.60	333.90
704.93	332.34
705.26	330.82
705.60	329.31
705.93	327.76
706.27	326.41
706.60	325.12
706.94	323.84
707.27	322.46
707.61	321.10
707.94	319.73
708.27	318.17
708.61	316.68
708.94	315.29
709.28	313.99
709.61	312.75
709.94	311.57
710.28	310.31
710.61	309.12
710.95	307.71
711.28	306.59
711.61	305.38
711.95	304.26
712.28	303.04
712.61	301.83
712.95	300.82
713.28	299.79
713.61	298.60
713.95	297.46
714.28	296.44
714.61	295.36
714.95	294.38
715.28	293.40
715.61	292.38
715.95	291.46
716.28	290.49
716.61	289.51
716.95	288.46
717.28	287.53
717.61	286.54
717.94	285.62
718.28	284.58
718.61	283.71
718.94	282.83
719.27	282.00
719.61	281.21
719.94	280.31
720.27	279.32
720.60	278.48
720.94	277.67
721.27	276.90
721.60	276.21
721.93	275.44
722.27	274.75
722.60	274.04
722.93	273.29
723.26	272.62
723.59	271.89
723.93	271.27
724.26	270.64
724.59	269.99
724.92	269.35
725.25	268.81
725.59	268.20
725.92	267.63
726.25	267.05
726.58	266.47
726.91	265.80
727.24	265.30
727.57	264.74
727.91	264.11
728.24	263.58
728.57	262.99
728.90	262.43
729.23	261.78
729.56	261.39
729.89	260.82
730.22	260.23
730.55	259.70
730.89	259.14
731.22	258.58
731.55	258.07
731.88	257.56
732.21	256.98
732.54	256.42
732.87	255.88
733.20	255.39
733.53	254.88
733.86	254.43
734.19	253.91
734.52	253.48
734.85	253.19
735.18	252.66
735.51	252.27
735.84	251.83
736.17	251.49
736.50	250.93
736.83	250.80
737.16	250.42
737.49	250.03
737.82	249.62
738.15	249.28
738.48	248.88
738.81	248.49
739.14	248.06
739.47	247.70
739.80	247.33
740.13	246.96
740.46	246.54
740.79	246.17
741.12	245.80
741.45	245.42
741.78	244.96
742.11	244.69
742.44	244.32
742.77	244.02
743.10	243.63
743.43	243.28
743.75	242.69
744.08	242.61
744.41	242.25
744.74	241.93
745.07	241.50
745.40	241.20
745.73	240.93
746.06	240.63
746.39	240.36
746.71	240.00
747.04	239.64
747.37	239.32
747.70	239.02
748.03	238.69
748.36	238.40
748.68	238.11
749.01	237.73
749.34	237.41
749.67	237.12
750.00	236.88
750.33	236.77
750.65	236.47
750.98	235.92
751.31	235.65
751.64	235.43
751.97	235.33
752.29	235.06
752.62	234.73
752.95	234.46
753.28	234.19
753.60	233.96
753.93	233.81
754.26	233.62
754.59	233.39
754.91	233.16
755.24	232.89
755.57	232.63
755.90	232.43
756.22	232.21
756.55	231.94
756.88	231.68
757.20	231.34
757.53	231.12
757.86	230.91
758.19	230.76
758.51	230.52
758.84	230.22
759.17	230.02
759.49	229.85
759.82	229.79
760.15	229.59
760.47	229.40
760.80	229.13
761.13	228.95
761.45	228.74
761.78	228.55
762.11	228.41
762.43	228.23
762.76	228.03
763.08	227.88
763.41	227.72
763.74	227.58
764.06	227.40
764.39	227.24
764.71	227.11
765.04	226.91
765.37	226.74
765.69	226.59
766.02	226.45
766.34	226.30
766.67	226.08
767.00	225.98
767.32	225.95
767.65	225.96
767.97	225.83
768.30	225.69
768.62	225.59
768.95	225.42
769.27	225.29
769.60	225.21
769.92	225.04
770.25	224.90
770.57	224.71
770.90	224.59
771.22	224.45
771.55	224.31
771.87	224.19
772.20	224.08
772.52	224.12
772.85	224.24
773.17	224.13
773.50	224.02
773.82	223.88
774.15	223.65
774.47	223.43
774.80	223.29
775.12	223.21
775.45	223.08
775.77	223.04
776.09	222.98
776.42	222.87
776.74	222.86
777.07	222.75
777.39	222.69
777.72	222.59
778.04	222.53
778.36	222.43
778.69	222.37
779.01	222.26
779.33	222.04
779.66	221.71
779.98	221.62
780.31	221.52
780.63	221.50
780.95	221.47
781.28	221.38
781.60	221.31
781.92	221.21
782.25	221.17
782.57	221.04
782.89	220.95
783.22	220.84
783.54	220.74
783.86	220.69
784.19	220.61
784.51	220.60
784.83	220.53
785.16	220.48
785.48	220.42
785.80	220.37
786.12	220.30
