SpectraSuite Data File
++++++++++++++++++++++++++++++++++++
Date: Tue Jan 29 16:24:00 EST 2013
User: group
Dark Spectrum Present: No
Reference Spectrum Present: No
Number of Sampled Component Spectra: 1
Spectrometers: USB2E7196
Integration Time (usec): 65000 (USB2E7196)
Spectra Averaged: 100 (USB2E7196)
Boxcar Smoothing: 10 (USB2E7196)
Correct for Electrical Dark: No (USB2E7196)
Strobe/Lamp Enabled: No (USB2E7196)
Correct for Detector Non-linearity: No (USB2E7196)
Correct for Stray Light: No (USB2E7196)
Number of Pixels in Processed Spectrum: 2048
>>>>>Begin Processed Spectral Data<<<<<
339.09	0.00
339.48	202.34
339.86	203.72
340.24	205.80
340.63	207.10
341.01	211.26
341.39	209.25
341.78	211.22
342.16	212.24
342.54	212.80
342.93	201.58
343.31	211.73
343.69	212.25
344.07	212.71
344.46	213.10
344.84	213.49
345.22	213.66
345.60	213.94
345.99	214.11
346.37	214.22
346.75	214.31
347.13	214.37
347.52	214.44
347.90	214.53
348.28	214.58
348.66	214.64
349.05	214.63
349.43	214.66
349.81	214.72
350.19	214.79
350.57	214.86
350.96	214.98
351.34	215.07
351.72	215.16
352.10	215.26
352.48	215.31
352.87	215.30
353.25	215.35
353.63	215.41
354.01	215.46
354.39	215.54
354.77	215.60
355.15	215.70
355.54	215.73
355.92	215.73
356.30	215.81
356.68	215.98
357.06	216.05
357.44	216.11
357.82	216.16
358.20	216.24
358.58	216.32
358.97	216.37
359.35	216.49
359.73	216.57
360.11	216.65
360.49	216.73
360.87	216.80
361.25	216.86
361.63	216.94
362.01	216.98
362.39	216.99
362.77	217.03
363.15	217.05
363.53	217.06
363.91	217.09
364.29	217.10
364.67	216.93
365.05	216.97
365.43	217.01
365.81	217.08
366.19	217.17
366.57	217.22
366.95	217.23
367.33	217.18
367.71	217.21
368.09	217.25
368.47	217.26
368.85	217.27
369.23	217.30
369.61	217.26
369.99	217.32
370.37	217.37
370.75	217.47
371.13	217.43
371.51	217.41
371.89	217.41
372.27	217.42
372.65	217.41
373.03	217.39
373.41	217.34
373.78	217.27
374.16	217.14
374.54	217.05
374.92	217.01
375.30	216.99
375.68	216.90
376.06	216.86
376.44	216.83
376.82	216.80
377.19	216.75
377.57	216.71
377.95	216.60
378.33	216.55
378.71	216.35
379.09	216.36
379.47	216.34
379.84	216.27
380.22	216.19
380.60	216.14
380.98	216.06
381.36	216.01
381.73	215.97
382.11	215.97
382.49	215.95
382.87	215.86
383.25	215.79
383.62	215.99
384.00	215.93
384.38	215.86
384.76	215.86
385.13	215.89
385.51	215.85
385.89	215.82
386.27	215.75
386.64	215.79
387.02	215.71
387.40	215.70
387.78	215.70
388.15	215.71
388.53	215.66
388.91	215.67
389.29	215.61
389.66	215.64
390.04	215.54
390.42	215.55
390.79	215.56
391.17	215.56
391.55	215.33
391.92	215.30
392.30	215.32
392.68	215.27
393.05	215.26
393.43	215.26
393.81	215.25
394.18	215.26
394.56	215.26
394.94	215.34
395.31	215.31
395.69	215.37
396.06	215.38
396.44	215.43
396.82	215.43
397.19	215.59
397.57	215.57
397.95	215.67
398.32	215.64
398.70	215.69
399.07	215.78
399.45	215.82
399.82	215.88
400.20	215.93
400.58	215.94
400.95	215.93
401.33	216.07
401.70	216.30
402.08	216.36
402.45	216.43
402.83	216.55
403.20	216.67
403.58	216.77
403.95	216.91
404.33	217.07
404.71	217.20
405.08	217.45
405.46	217.66
405.83	217.83
406.21	218.02
406.58	218.26
406.96	218.49
407.33	218.72
407.70	218.99
408.08	219.43
408.45	219.82
408.83	220.21
409.20	220.53
409.58	220.75
409.95	221.24
410.33	221.74
410.70	222.16
411.08	222.75
411.45	223.32
411.82	223.91
412.20	224.60
412.57	225.46
412.95	226.01
413.32	226.79
413.69	227.63
414.07	228.54
414.44	229.53
414.82	230.55
415.19	231.73
415.56	232.94
415.94	234.10
416.31	235.53
416.68	236.90
417.06	238.49
417.43	240.08
417.81	241.77
418.18	243.53
418.55	245.47
418.93	247.44
419.30	249.56
419.67	251.76
420.04	254.01
420.42	256.35
420.79	259.17
421.16	261.96
421.54	264.86
421.91	267.80
422.28	270.88
422.66	274.16
423.03	277.44
423.40	280.79
423.77	284.39
424.15	288.02
424.52	291.87
424.89	296.01
425.26	300.08
425.64	303.99
426.01	308.27
426.38	312.74
426.75	317.30
427.13	322.04
427.50	326.99
427.87	332.19
428.24	337.36
428.61	342.34
428.99	347.83
429.36	353.83
429.73	359.74
430.10	365.60
430.47	371.60
430.85	377.85
431.22	384.54
431.59	391.67
431.96	398.43
432.33	405.89
432.70	413.13
433.08	421.64
433.45	429.63
433.82	437.60
434.19	446.38
434.56	455.06
434.93	463.28
435.30	471.58
435.68	480.60
436.05	489.56
436.42	498.44
436.79	506.54
437.16	515.19
437.53	524.38
437.90	533.49
438.27	542.50
438.64	551.68
439.01	560.10
439.38	567.63
439.75	574.94
440.13	583.33
440.50	591.24
440.87	597.61
441.24	604.31
441.61	611.63
441.98	617.01
442.35	623.30
442.72	629.60
443.09	635.62
443.46	639.38
443.83	641.93
444.20	644.02
444.57	647.17
444.94	648.69
445.31	650.16
445.68	651.48
446.05	652.02
446.42	651.19
446.79	650.28
447.16	649.18
447.53	648.39
447.90	645.03
448.27	641.76
448.64	637.08
449.01	633.68
449.37	627.72
449.74	622.09
450.11	615.11
450.48	607.75
450.85	600.29
451.22	593.79
451.59	587.61
451.96	581.86
452.33	573.99
452.70	566.88
453.07	558.49
453.43	549.95
453.80	541.68
454.17	533.78
454.54	526.23
454.91	518.12
455.28	510.21
455.65	502.83
456.02	495.37
456.38	489.12
456.75	481.34
457.12	474.87
457.49	468.45
457.86	462.35
458.23	457.01
458.59	451.13
458.96	445.25
459.33	440.01
459.70	434.64
460.07	430.43
460.43	425.59
460.80	420.99
461.17	417.02
461.54	412.87
461.91	408.85
462.27	404.74
462.64	401.30
463.01	397.55
463.38	393.90
463.74	390.22
464.11	387.00
464.48	384.13
464.85	381.04
465.21	378.56
465.58	375.97
465.95	372.79
466.32	370.19
466.68	367.56
467.05	364.95
467.42	362.47
467.78	359.84
468.15	357.27
468.52	355.38
468.88	352.89
469.25	350.65
469.62	348.87
469.98	346.97
470.35	345.20
470.72	343.52
471.08	341.74
471.45	340.26
471.82	338.74
472.18	337.13
472.55	335.93
472.92	334.55
473.28	333.34
473.65	332.25
474.02	331.14
474.38	330.30
474.75	329.57
475.11	328.71
475.48	328.10
475.85	327.65
476.21	327.16
476.58	326.84
476.94	326.67
477.31	326.39
477.67	326.15
478.04	325.97
478.41	325.93
478.77	326.06
479.14	325.96
479.50	326.10
479.87	326.39
480.23	326.68
480.60	326.97
480.96	327.24
481.33	327.87
481.69	328.45
482.06	328.94
482.42	329.46
482.79	330.07
483.15	330.89
483.52	331.83
483.88	332.73
484.25	333.67
484.61	334.67
484.98	335.74
485.34	337.04
485.71	338.44
486.07	339.90
486.44	341.27
486.80	342.94
487.17	344.57
487.53	346.40
487.90	348.28
488.26	350.29
488.62	352.48
488.99	354.50
489.35	356.70
489.72	359.10
490.08	361.66
490.44	364.23
490.81	366.90
491.17	369.62
491.54	372.59
491.90	375.64
492.26	378.90
492.63	382.32
492.99	385.84
493.36	389.52
493.72	393.38
494.08	397.42
494.45	401.63
494.81	406.02
495.17	410.50
495.54	415.26
495.90	420.10
496.26	425.01
496.63	430.23
496.99	435.66
497.35	441.27
497.72	447.06
498.08	453.04
498.44	459.19
498.80	465.67
499.17	472.19
499.53	478.95
499.89	485.96
500.26	493.06
500.62	500.20
500.98	507.68
501.34	515.26
501.71	523.07
502.07	530.90
502.43	538.98
502.79	547.15
503.16	555.57
503.52	564.27
503.88	573.04
504.24	582.04
504.60	591.12
504.97	600.40
505.33	609.80
505.69	619.72
506.05	629.67
506.41	639.67
506.78	649.90
507.14	660.26
507.50	670.70
507.86	681.42
508.22	692.31
508.59	703.02
508.95	714.13
509.31	725.44
509.67	737.14
510.03	748.60
510.39	760.41
510.75	772.38
511.12	784.42
511.48	796.67
511.84	809.03
512.20	821.49
512.56	834.28
512.92	847.16
513.28	859.92
513.64	872.78
514.00	885.71
514.37	898.76
514.73	911.95
515.09	925.09
515.45	938.02
515.81	951.16
516.17	964.64
516.53	978.05
516.89	991.31
517.25	1004.57
517.61	1018.23
517.97	1031.77
518.33	1045.11
518.69	1058.72
519.05	1072.58
519.41	1086.41
519.77	1100.52
520.13	1113.92
520.49	1127.22
520.85	1140.69
521.21	1154.24
521.57	1168.06
521.93	1181.26
522.29	1195.09
522.65	1208.84
523.01	1222.63
523.37	1235.95
523.73	1249.44
524.09	1262.76
524.45	1276.39
524.81	1290.01
525.17	1303.57
525.53	1316.84
525.89	1330.20
526.25	1343.54
526.61	1356.55
526.97	1369.77
527.33	1382.83
527.68	1396.37
528.04	1409.97
528.40	1423.20
528.76	1436.69
529.12	1449.54
529.48	1462.87
529.84	1475.28
530.20	1488.18
530.56	1500.78
530.91	1514.10
531.27	1526.99
531.63	1539.86
531.99	1552.62
532.35	1564.92
532.71	1577.33
533.07	1590.44
533.42	1602.83
533.78	1614.91
534.14	1627.04
534.50	1638.37
534.86	1650.08
535.21	1661.01
535.57	1672.62
535.93	1684.03
536.29	1695.14
536.65	1706.83
537.00	1717.91
537.36	1729.48
537.72	1740.56
538.08	1752.16
538.44	1763.16
538.79	1774.38
539.15	1785.26
539.51	1796.10
539.87	1807.45
540.22	1818.40
540.58	1829.34
540.94	1840.31
541.29	1850.72
541.65	1860.43
542.01	1871.02
542.37	1881.10
542.72	1891.34
543.08	1901.11
543.44	1911.58
543.79	1920.82
544.15	1930.40
544.51	1940.54
544.87	1950.32
545.22	1959.58
545.58	1968.63
545.94	1977.56
546.29	1986.12
546.65	1994.52
547.01	2002.83
547.36	2010.68
547.72	2018.33
548.07	2025.88
548.43	2033.58
548.79	2041.37
549.14	2049.65
549.50	2058.19
549.86	2066.11
550.21	2073.72
550.57	2081.57
550.92	2088.44
551.28	2096.00
551.64	2103.15
551.99	2110.61
552.35	2117.93
552.70	2124.82
553.06	2131.45
553.41	2137.87
553.77	2144.55
554.13	2150.94
554.48	2158.08
554.84	2165.20
555.19	2171.92
555.55	2178.43
555.90	2184.77
556.26	2191.79
556.61	2197.93
556.97	2202.73
557.32	2208.51
557.68	2214.91
558.03	2220.65
558.39	2226.18
558.74	2232.24
559.10	2237.80
559.45	2243.45
559.81	2249.00
560.16	2254.59
560.52	2260.52
560.87	2267.14
561.23	2273.11
561.58	2279.97
561.94	2285.18
562.29	2289.94
562.64	2296.10
563.00	2302.03
563.35	2307.73
563.71	2313.50
564.06	2319.25
564.42	2325.18
564.77	2330.32
565.12	2335.68
565.48	2340.89
565.83	2346.33
566.19	2351.79
566.54	2357.35
566.89	2361.86
567.25	2366.58
567.60	2372.34
567.96	2377.44
568.31	2381.84
568.66	2386.12
569.02	2389.90
569.37	2393.81
569.72	2398.24
570.08	2401.75
570.43	2404.74
570.78	2407.90
571.14	2410.37
571.49	2413.55
571.84	2417.27
572.20	2420.30
572.55	2423.29
572.90	2425.73
573.26	2428.65
573.61	2431.40
573.96	2433.60
574.31	2435.77
574.67	2437.69
575.02	2438.48
575.37	2440.07
575.72	2440.87
576.08	2442.35
576.43	2442.62
576.78	2443.04
577.13	2444.59
577.49	2445.81
577.84	2446.92
578.19	2448.25
578.54	2449.03
578.90	2449.70
579.25	2449.74
579.60	2449.58
579.95	2448.93
580.30	2449.09
580.66	2448.61
581.01	2446.94
581.36	2444.50
581.71	2443.15
582.06	2442.08
582.42	2441.36
582.77	2439.13
583.12	2437.60
583.47	2436.22
583.82	2435.62
584.17	2434.54
584.53	2432.59
584.88	2430.67
585.23	2428.86
585.58	2426.68
585.93	2424.74
586.28	2422.74
586.63	2420.27
586.98	2418.32
587.34	2416.30
587.69	2413.79
588.04	2411.54
588.39	2410.09
588.74	2407.71
589.09	2405.13
589.44	2401.82
589.79	2399.19
590.14	2397.27
590.49	2394.38
590.84	2390.62
591.19	2387.52
591.54	2384.38
591.89	2380.41
592.25	2377.08
592.60	2372.93
592.95	2368.85
593.30	2364.62
593.65	2360.29
594.00	2355.78
594.35	2352.71
594.70	2348.12
595.05	2343.60
595.40	2338.22
595.75	2332.45
596.10	2328.93
596.45	2323.90
596.80	2319.47
597.15	2314.45
597.50	2308.54
597.85	2303.64
598.19	2298.46
598.54	2292.73
598.89	2287.34
599.24	2282.69
599.59	2276.43
599.94	2270.60
600.29	2264.56
600.64	2258.55
600.99	2251.67
601.34	2246.23
601.69	2239.26
602.04	2232.87
602.39	2226.14
602.74	2219.85
603.08	2214.38
603.43	2207.86
603.78	2201.15
604.13	2194.00
604.48	2186.58
604.83	2180.49
605.18	2174.34
605.53	2167.38
605.87	2160.51
606.22	2153.66
606.57	2145.70
606.92	2137.69
607.27	2130.60
607.62	2123.86
607.96	2116.97
608.31	2110.50
608.66	2102.67
609.01	2094.98
609.36	2087.79
609.70	2080.08
610.05	2072.54
610.40	2064.10
610.75	2055.60
611.10	2047.84
611.44	2038.86
611.79	2030.08
612.14	2020.00
612.49	2009.20
612.83	1999.65
613.18	1990.09
613.53	1980.74
613.88	1971.05
614.22	1962.52
614.57	1952.62
614.92	1941.93
615.27	1931.62
615.61	1921.37
615.96	1911.61
616.31	1901.83
616.65	1892.28
617.00	1882.47
617.35	1872.54
617.70	1862.75
618.04	1852.70
618.39	1842.54
618.74	1832.81
619.08	1823.14
619.43	1814.34
619.78	1805.85
620.12	1797.27
620.47	1787.66
620.82	1777.11
621.16	1767.28
621.51	1757.23
621.85	1747.20
622.20	1736.83
622.55	1726.05
622.89	1715.97
623.24	1706.20
623.59	1696.35
623.93	1686.13
624.28	1676.22
624.62	1666.07
624.97	1655.69
625.32	1645.64
625.66	1636.46
626.01	1627.72
626.35	1618.26
626.70	1608.05
627.04	1598.02
627.39	1587.71
627.73	1578.36
628.08	1569.44
628.43	1559.68
628.77	1550.26
629.12	1541.40
629.46	1533.48
629.81	1524.98
630.15	1515.43
630.50	1505.44
630.84	1494.68
631.19	1484.68
631.53	1475.25
631.88	1464.99
632.22	1454.85
632.57	1445.59
632.91	1435.31
633.26	1425.21
633.60	1415.47
633.95	1406.16
634.29	1396.53
634.64	1387.09
634.98	1376.94
635.32	1367.56
635.67	1359.05
636.01	1349.74
636.36	1339.82
636.70	1330.14
637.05	1320.72
637.39	1311.71
637.73	1303.06
638.08	1295.53
638.42	1287.21
638.77	1278.34
639.11	1270.02
639.45	1262.07
639.80	1253.28
640.14	1244.51
640.49	1235.57
640.83	1226.64
641.17	1218.24
641.52	1209.97
641.86	1201.29
642.20	1193.31
642.55	1184.40
642.89	1175.35
643.23	1166.54
643.58	1158.35
643.92	1149.23
644.26	1140.45
644.61	1131.84
644.95	1122.84
645.29	1113.35
645.64	1104.03
645.98	1095.38
646.32	1087.23
646.66	1078.50
647.01	1070.09
647.35	1061.85
647.69	1053.43
648.04	1045.03
648.38	1036.08
648.72	1027.17
649.06	1018.62
649.41	1010.28
649.75	1002.33
650.09	994.34
650.43	986.24
650.78	977.78
651.12	969.97
651.46	962.45
651.80	955.14
652.14	947.68
652.49	940.18
652.83	932.86
653.17	925.12
653.51	917.43
653.85	910.12
654.20	902.79
654.54	895.14
654.88	887.70
655.22	880.47
655.56	873.36
655.90	866.51
656.25	859.72
656.59	852.76
656.93	845.63
657.27	838.44
657.61	831.25
657.95	825.04
658.29	819.02
658.64	812.79
658.98	806.21
659.32	799.62
659.66	793.30
660.00	786.78
660.34	780.62
660.68	774.33
661.02	768.00
661.36	761.86
661.70	756.03
662.05	750.33
662.39	744.75
662.73	739.29
663.07	733.76
663.41	728.09
663.75	722.32
664.09	716.58
664.43	711.07
664.77	705.70
665.11	699.81
665.45	693.80
665.79	687.89
666.13	682.11
666.47	676.56
666.81	671.04
667.15	665.62
667.49	660.27
667.83	655.08
668.17	649.80
668.51	644.67
668.85	639.60
669.19	634.69
669.53	629.59
669.87	624.41
670.21	619.63
670.55	614.89
670.89	610.37
671.23	605.97
671.57	601.51
671.91	597.15
672.25	592.93
672.58	588.74
672.92	584.64
673.26	580.63
673.60	576.69
673.94	572.86
674.28	569.22
674.62	565.49
674.96	561.59
675.30	558.00
675.64	554.21
675.97	550.66
676.31	547.00
676.65	543.34
676.99	539.89
677.33	535.92
677.67	532.20
678.01	528.31
678.34	524.62
678.68	521.07
679.02	517.48
679.36	513.72
679.70	510.04
680.04	506.42
680.37	502.93
680.71	499.56
681.05	496.22
681.39	492.85
681.73	489.61
682.06	486.57
682.40	483.39
682.74	480.24
683.08	476.96
683.42	473.73
683.75	470.68
684.09	467.59
684.43	464.82
684.77	461.84
685.10	458.93
685.44	455.95
685.78	452.92
686.12	450.05
686.45	447.34
686.79	444.65
687.13	442.10
687.46	439.44
687.80	436.74
688.14	433.88
688.48	431.26
688.81	428.53
689.15	425.94
689.49	423.27
689.82	420.77
690.16	418.19
690.50	415.69
690.83	413.16
691.17	410.59
691.51	408.08
691.84	405.79
692.18	403.53
692.52	401.31
692.85	399.16
693.19	397.03
693.52	394.83
693.86	392.57
694.20	390.36
694.53	388.12
694.87	385.86
695.21	383.74
695.54	381.53
695.88	379.36
696.21	377.12
696.55	375.06
696.88	372.90
697.22	370.84
697.56	368.92
697.89	367.00
698.23	365.22
698.56	363.42
698.90	361.63
699.23	359.72
699.57	357.81
699.90	355.90
700.24	354.08
700.58	352.34
700.91	350.63
701.25	349.02
701.58	347.46
701.92	345.89
702.25	344.27
702.59	342.60
702.92	341.06
703.26	339.49
703.59	337.93
703.93	336.65
704.26	335.20
704.60	333.66
704.93	332.12
705.26	330.61
705.60	329.09
705.93	327.58
706.27	326.20
706.60	324.93
706.94	323.74
707.27	322.30
707.61	320.90
707.94	319.58
708.27	318.05
708.61	316.57
708.94	315.17
709.28	313.86
709.61	312.61
709.94	311.36
710.28	310.15
710.61	308.90
710.95	307.50
711.28	306.43
711.61	305.19
711.95	304.11
712.28	302.89
712.61	301.68
712.95	300.59
713.28	299.57
713.61	298.39
713.95	297.19
714.28	296.19
714.61	295.09
714.95	294.02
715.28	292.99
715.61	291.99
715.95	290.98
716.28	290.01
716.61	289.06
716.95	288.02
717.28	287.08
717.61	286.13
717.94	285.17
718.28	284.16
718.61	283.32
718.94	282.40
719.27	281.52
719.61	280.71
719.94	279.80
720.27	278.78
720.60	277.93
720.94	277.16
721.27	276.37
721.60	275.70
721.93	274.98
722.27	274.37
722.60	273.69
722.93	273.02
723.26	272.35
723.59	271.61
723.93	271.02
724.26	270.34
724.59	269.71
724.92	269.10
725.25	268.53
725.59	267.97
725.92	267.41
726.25	266.86
726.58	266.26
726.91	265.64
727.24	265.12
727.57	264.55
727.91	263.91
728.24	263.31
728.57	262.70
728.90	262.13
729.23	261.47
729.56	260.99
729.89	260.43
730.22	259.85
730.55	259.32
730.89	258.75
731.22	258.18
731.55	257.64
731.88	257.15
732.21	256.54
732.54	255.97
732.87	255.45
733.20	254.94
733.53	254.46
733.86	254.03
734.19	253.52
734.52	253.11
734.85	252.80
735.18	252.34
735.51	251.97
735.84	251.54
736.17	251.14
736.50	250.60
736.83	250.43
737.16	250.03
737.49	249.65
737.82	249.25
738.15	248.94
738.48	248.56
738.81	248.14
739.14	247.75
739.47	247.36
739.80	246.97
740.13	246.64
740.46	246.27
740.79	245.88
741.12	245.51
741.45	245.12
741.78	244.67
742.11	244.38
742.44	243.98
742.77	243.68
743.10	243.33
743.43	242.98
743.75	242.44
744.08	242.39
744.41	242.01
744.74	241.64
745.07	241.23
745.40	240.94
745.73	240.71
746.06	240.41
746.39	240.08
746.71	239.75
747.04	239.37
747.37	239.05
747.70	238.78
748.03	238.53
748.36	238.25
748.68	237.95
749.01	237.62
749.34	237.34
749.67	237.08
750.00	236.82
750.33	236.72
750.65	236.46
750.98	235.93
751.31	235.73
751.64	235.52
751.97	235.42
752.29	235.15
752.62	234.80
752.95	234.53
753.28	234.30
753.60	234.05
753.93	233.92
754.26	233.69
754.59	233.44
754.91	233.17
755.24	232.95
755.57	232.73
755.90	232.52
756.22	232.30
756.55	232.00
756.88	231.75
757.20	231.41
757.53	231.12
757.86	230.92
758.19	230.74
758.51	230.52
758.84	230.18
759.17	229.99
759.49	229.83
759.82	229.75
760.15	229.63
760.47	229.46
760.80	229.19
761.13	229.05
761.45	228.82
761.78	228.63
762.11	228.39
762.43	228.21
762.76	227.99
763.08	227.83
763.41	227.70
763.74	227.54
764.06	227.39
764.39	227.24
764.71	227.08
765.04	226.90
765.37	226.75
765.69	226.64
766.02	226.46
766.34	226.29
766.67	226.06
767.00	225.92
767.32	225.90
767.65	225.88
767.97	225.72
768.30	225.65
768.62	225.53
768.95	225.44
769.27	225.32
769.60	225.24
769.92	225.07
770.25	224.92
770.57	224.76
770.90	224.59
771.22	224.47
771.55	224.35
771.87	224.24
772.20	224.11
772.52	224.15
772.85	224.32
773.17	224.21
773.50	224.12
773.82	223.97
774.15	223.74
774.47	223.51
774.80	223.41
775.12	223.29
775.45	223.18
775.77	223.08
776.09	222.97
776.42	222.90
776.74	222.89
777.07	222.81
777.39	222.74
777.72	222.65
778.04	222.59
778.36	222.47
778.69	222.39
779.01	222.32
779.33	222.10
779.66	221.74
779.98	221.66
780.31	221.59
780.63	221.62
780.95	221.60
781.28	221.54
781.60	221.43
781.92	221.34
782.25	221.30
782.57	221.21
782.89	221.12
783.22	221.01
783.54	220.91
783.86	220.84
784.19	220.78
784.51	220.80
784.83	220.71
785.16	220.64
785.48	220.62
785.80	220.55
786.12	220.53
