SpectraSuite Data File
++++++++++++++++++++++++++++++++++++
Date: Tue Jan 29 16:41:17 EST 2013
User: group
Dark Spectrum Present: No
Reference Spectrum Present: No
Number of Sampled Component Spectra: 1
Spectrometers: USB2E7196
Integration Time (usec): 65000 (USB2E7196)
Spectra Averaged: 100 (USB2E7196)
Boxcar Smoothing: 10 (USB2E7196)
Correct for Electrical Dark: No (USB2E7196)
Strobe/Lamp Enabled: No (USB2E7196)
Correct for Detector Non-linearity: No (USB2E7196)
Correct for Stray Light: No (USB2E7196)
Number of Pixels in Processed Spectrum: 2048
>>>>>Begin Processed Spectral Data<<<<<
339.09	0.00
339.48	202.64
339.86	203.81
340.24	205.10
340.63	206.24
341.01	210.63
341.39	209.00
341.78	210.80
342.16	211.22
342.54	212.05
342.93	201.29
343.31	211.47
343.69	211.98
344.07	212.45
344.46	212.91
344.84	213.33
345.22	213.51
345.60	213.79
345.99	213.97
346.37	214.13
346.75	214.24
347.13	214.33
347.52	214.43
347.90	214.57
348.28	214.59
348.66	214.69
349.05	214.65
349.43	214.70
349.81	214.81
350.19	214.87
350.57	214.97
350.96	215.06
351.34	215.17
351.72	215.24
352.10	215.35
352.48	215.40
352.87	215.44
353.25	215.47
353.63	215.53
354.01	215.58
354.39	215.66
354.77	215.74
355.15	215.85
355.54	215.88
355.92	215.90
356.30	215.97
356.68	216.16
357.06	216.26
357.44	216.31
357.82	216.33
358.20	216.38
358.58	216.42
358.97	216.46
359.35	216.52
359.73	216.64
360.11	216.67
360.49	216.73
360.87	216.78
361.25	216.90
361.63	217.00
362.01	217.08
362.39	217.10
362.77	217.14
363.15	217.18
363.53	217.21
363.91	217.22
364.29	217.25
364.67	217.08
365.05	217.07
365.43	217.10
365.81	217.17
366.19	217.25
366.57	217.32
366.95	217.35
367.33	217.30
367.71	217.29
368.09	217.30
368.47	217.28
368.85	217.25
369.23	217.26
369.61	217.15
369.99	217.19
370.37	217.20
370.75	217.27
371.13	217.21
371.51	217.16
371.89	217.14
372.27	217.10
372.65	217.08
373.03	217.10
373.41	217.05
373.78	216.98
374.16	216.85
374.54	216.73
374.92	216.66
375.30	216.61
375.68	216.54
376.06	216.54
376.44	216.50
376.82	216.51
377.19	216.45
377.57	216.42
377.95	216.31
378.33	216.28
378.71	216.13
379.09	216.12
379.47	216.11
379.84	216.04
380.22	215.99
380.60	215.91
380.98	215.83
381.36	215.82
381.73	215.72
382.11	215.70
382.49	215.69
382.87	215.64
383.25	215.62
383.62	215.80
384.00	215.72
384.38	215.68
384.76	215.66
385.13	215.71
385.51	215.67
385.89	215.57
386.27	215.51
386.64	215.55
387.02	215.48
387.40	215.43
387.78	215.43
388.15	215.44
388.53	215.42
388.91	215.39
389.29	215.31
389.66	215.36
390.04	215.30
390.42	215.32
390.79	215.33
391.17	215.31
391.55	215.11
391.92	215.09
392.30	215.09
392.68	215.05
393.05	215.02
393.43	215.01
393.81	215.06
394.18	215.03
394.56	214.99
394.94	215.05
395.31	215.05
395.69	215.13
396.06	215.19
396.44	215.20
396.82	215.23
397.19	215.40
397.57	215.39
397.95	215.47
398.32	215.43
398.70	215.47
399.07	215.55
399.45	215.55
399.82	215.61
400.20	215.63
400.58	215.73
400.95	215.70
401.33	215.83
401.70	216.04
402.08	216.14
402.45	216.21
402.83	216.36
403.20	216.50
403.58	216.55
403.95	216.66
404.33	216.84
404.71	216.97
405.08	217.22
405.46	217.39
405.83	217.58
406.21	217.78
406.58	218.04
406.96	218.25
407.33	218.53
407.70	218.82
408.08	219.31
408.45	219.62
408.83	220.03
409.20	220.36
409.58	220.63
409.95	221.12
410.33	221.61
410.70	222.03
411.08	222.56
411.45	223.12
411.82	223.70
412.20	224.39
412.57	225.21
412.95	225.78
413.32	226.61
413.69	227.42
414.07	228.38
414.44	229.36
414.82	230.38
415.19	231.60
415.56	232.81
415.94	233.97
416.31	235.40
416.68	236.78
417.06	238.41
417.43	239.95
417.81	241.69
418.18	243.51
418.55	245.48
418.93	247.52
419.30	249.63
419.67	251.87
420.04	254.16
420.42	256.58
420.79	259.43
421.16	262.25
421.54	265.19
421.91	268.16
422.28	271.28
422.66	274.57
423.03	277.81
423.40	281.19
423.77	284.83
424.15	288.50
424.52	292.42
424.89	296.64
425.26	300.72
425.64	304.62
426.01	308.88
426.38	313.34
426.75	317.91
427.13	322.65
427.50	327.66
427.87	332.91
428.24	338.09
428.61	343.04
428.99	348.54
429.36	354.59
429.73	360.47
430.10	366.34
430.47	372.47
430.85	378.82
431.22	385.56
431.59	392.69
431.96	399.56
432.33	407.00
432.70	414.25
433.08	422.82
433.45	430.87
433.82	438.96
434.19	447.80
434.56	456.57
434.93	464.97
435.30	473.27
435.68	482.37
436.05	491.44
436.42	500.34
436.79	508.57
437.16	517.37
437.53	526.72
437.90	535.96
438.27	544.87
438.64	554.06
439.01	562.60
439.38	570.23
439.75	577.53
440.13	586.02
440.50	594.07
440.87	600.62
441.24	607.30
441.61	614.62
441.98	620.15
442.35	626.48
442.72	632.81
443.09	638.94
443.46	642.70
443.83	645.21
444.20	647.48
444.57	650.65
444.94	652.11
445.31	653.51
445.68	654.86
446.05	655.51
446.42	654.79
446.79	653.81
447.16	652.71
447.53	651.97
447.90	648.64
448.27	645.28
448.64	640.53
449.01	637.19
449.37	631.31
449.74	625.54
450.11	618.56
450.48	611.18
450.85	603.63
451.22	597.14
451.59	590.96
451.96	585.07
452.33	577.19
452.70	570.07
453.07	561.59
453.43	552.94
453.80	544.66
454.17	536.60
454.54	529.06
454.91	520.83
455.28	512.86
455.65	505.43
456.02	497.91
456.38	491.59
456.75	483.72
457.12	477.07
457.49	470.53
457.86	464.34
458.23	458.90
458.59	452.97
458.96	446.99
459.33	441.63
459.70	436.29
460.07	431.99
460.43	427.08
460.80	422.55
461.17	418.58
461.54	414.32
461.91	410.32
462.27	406.16
462.64	402.76
463.01	398.88
463.38	395.13
463.74	391.38
464.11	388.11
464.48	385.25
464.85	382.16
465.21	379.76
465.58	377.16
465.95	373.99
466.32	371.36
466.68	368.70
467.05	366.13
467.42	363.55
467.78	360.78
468.15	358.20
468.52	356.24
468.88	353.72
469.25	351.49
469.62	349.65
469.98	347.71
470.35	345.85
470.72	344.17
471.08	342.35
471.45	340.82
471.82	339.29
472.18	337.60
472.55	336.38
472.92	334.94
473.28	333.70
473.65	332.57
474.02	331.43
474.38	330.54
474.75	329.81
475.11	328.97
475.48	328.43
475.85	327.94
476.21	327.40
476.58	327.02
476.94	326.80
477.31	326.51
477.67	326.23
478.04	326.08
478.41	326.02
478.77	326.24
479.14	326.22
479.50	326.33
479.87	326.62
480.23	326.92
480.60	327.16
480.96	327.41
481.33	327.98
481.69	328.54
482.06	329.08
482.42	329.55
482.79	330.17
483.15	331.00
483.52	331.96
483.88	332.86
484.25	333.84
484.61	334.87
484.98	335.91
485.34	337.24
485.71	338.62
486.07	340.05
486.44	341.37
486.80	342.93
487.17	344.58
487.53	346.39
487.90	348.27
488.26	350.35
488.62	352.52
488.99	354.57
489.35	356.77
489.72	359.10
490.08	361.64
490.44	364.14
490.81	366.82
491.17	369.48
491.54	372.45
491.90	375.45
492.26	378.65
492.63	382.09
492.99	385.54
493.36	389.19
493.72	393.09
494.08	397.09
494.45	401.36
494.81	405.71
495.17	410.21
495.54	414.94
495.90	419.70
496.26	424.63
496.63	429.80
496.99	435.18
497.35	440.81
497.72	446.58
498.08	452.51
498.44	458.60
498.80	464.98
499.17	471.48
499.53	478.15
499.89	485.08
500.26	492.02
500.62	499.14
500.98	506.55
501.34	514.02
501.71	521.83
502.07	529.66
502.43	537.69
502.79	545.82
503.16	554.24
503.52	562.85
503.88	571.59
504.24	580.60
504.60	589.69
504.97	598.96
505.33	608.26
505.69	618.21
506.05	628.12
506.41	638.05
506.78	648.13
507.14	658.46
507.50	668.90
507.86	679.60
508.22	690.38
508.59	701.06
508.95	712.13
509.31	723.38
509.67	734.83
510.03	746.17
510.39	757.91
510.75	769.82
511.12	781.80
511.48	793.89
511.84	806.16
512.20	818.50
512.56	831.07
512.92	843.88
513.28	856.47
513.64	869.23
514.00	882.07
514.37	895.11
514.73	908.29
515.09	921.33
515.45	934.35
515.81	947.47
516.17	960.97
516.53	974.27
516.89	987.42
517.25	1000.66
517.61	1014.32
517.97	1027.75
518.33	1040.96
518.69	1054.64
519.05	1068.52
519.41	1082.23
519.77	1096.16
520.13	1109.66
520.49	1122.89
520.85	1136.44
521.21	1149.85
521.57	1163.66
521.93	1176.83
522.29	1190.58
522.65	1204.29
523.01	1217.93
523.37	1231.20
523.73	1244.57
524.09	1257.82
524.45	1271.38
524.81	1285.01
525.17	1298.48
525.53	1311.77
525.89	1325.11
526.25	1338.26
526.61	1351.14
526.97	1364.36
527.33	1377.45
527.68	1391.03
528.04	1404.64
528.40	1417.80
528.76	1431.31
529.12	1444.34
529.48	1457.72
529.84	1470.08
530.20	1482.91
530.56	1495.52
530.91	1508.87
531.27	1521.83
531.63	1534.61
531.99	1547.37
532.35	1559.65
532.71	1572.12
533.07	1585.10
533.42	1597.46
533.78	1609.63
534.14	1621.87
534.50	1633.14
534.86	1644.83
535.21	1655.75
535.57	1667.46
535.93	1678.87
536.29	1689.99
536.65	1701.53
537.00	1712.58
537.36	1724.08
537.72	1735.21
538.08	1746.92
538.44	1758.02
538.79	1769.22
539.15	1780.36
539.51	1791.32
539.87	1802.84
540.22	1813.79
540.58	1824.94
540.94	1835.89
541.29	1846.43
541.65	1856.26
542.01	1866.92
542.37	1877.12
542.72	1887.33
543.08	1897.08
543.44	1907.66
543.79	1917.15
544.15	1926.75
544.51	1936.75
544.87	1946.77
545.22	1956.14
545.58	1965.00
545.94	1974.00
546.29	1982.53
546.65	1990.97
547.01	1999.21
547.36	2006.84
547.72	2014.70
548.07	2022.20
548.43	2030.10
548.79	2037.94
549.14	2046.09
549.50	2054.59
549.86	2062.56
550.21	2070.15
550.57	2078.04
550.92	2084.88
551.28	2092.47
551.64	2099.65
551.99	2107.34
552.35	2114.61
552.70	2121.48
553.06	2128.21
553.41	2134.45
553.77	2141.05
554.13	2147.41
554.48	2154.44
554.84	2161.64
555.19	2168.22
555.55	2174.74
555.90	2180.93
556.26	2187.73
556.61	2194.10
556.97	2198.90
557.32	2204.74
557.68	2211.12
558.03	2216.81
558.39	2222.28
558.74	2228.19
559.10	2233.73
559.45	2239.47
559.81	2244.99
560.16	2250.56
560.52	2256.42
560.87	2262.87
561.23	2268.65
561.58	2275.35
561.94	2280.58
562.29	2285.25
562.64	2291.24
563.00	2296.95
563.35	2302.58
563.71	2308.42
564.06	2313.85
564.42	2319.87
564.77	2324.82
565.12	2330.08
565.48	2335.28
565.83	2340.70
566.19	2346.00
566.54	2351.37
566.89	2355.69
567.25	2360.13
567.60	2365.86
567.96	2371.00
568.31	2375.47
568.66	2379.85
569.02	2383.51
569.37	2387.22
569.72	2391.55
570.08	2394.92
570.43	2397.94
570.78	2401.03
571.14	2403.37
571.49	2406.43
571.84	2409.87
572.20	2412.68
572.55	2415.53
572.90	2417.59
573.26	2420.30
573.61	2422.78
573.96	2424.67
574.31	2426.71
574.67	2428.53
575.02	2429.17
575.37	2430.41
575.72	2431.01
576.08	2432.39
576.43	2432.69
576.78	2433.15
577.13	2434.58
577.49	2435.68
577.84	2436.54
578.19	2437.50
578.54	2438.05
578.90	2438.49
579.25	2438.19
579.60	2437.91
579.95	2436.98
580.30	2436.99
580.66	2436.03
581.01	2434.29
581.36	2432.02
581.71	2430.32
582.06	2429.12
582.42	2428.09
582.77	2425.77
583.12	2424.02
583.47	2422.39
583.82	2421.51
584.17	2420.07
584.53	2417.85
584.88	2415.83
585.23	2413.92
585.58	2411.76
585.93	2409.55
586.28	2407.35
586.63	2404.93
586.98	2402.72
587.34	2400.65
587.69	2398.01
588.04	2395.90
588.39	2394.33
588.74	2391.81
589.09	2389.10
589.44	2385.79
589.79	2383.06
590.14	2380.98
590.49	2378.04
590.84	2374.12
591.19	2370.96
591.54	2367.56
591.89	2363.43
592.25	2359.96
592.60	2355.56
592.95	2351.21
593.30	2346.83
593.65	2342.39
594.00	2337.89
594.35	2334.74
594.70	2330.00
595.05	2325.41
595.40	2319.74
595.75	2313.78
596.10	2309.86
596.45	2304.94
596.80	2300.29
597.15	2295.13
597.50	2289.18
597.85	2284.20
598.19	2278.88
598.54	2273.07
598.89	2267.78
599.24	2263.08
599.59	2256.76
599.94	2250.90
600.29	2244.86
600.64	2239.05
600.99	2232.21
601.34	2226.62
601.69	2219.52
602.04	2213.18
602.39	2206.57
602.74	2200.51
603.08	2195.09
603.43	2188.66
603.78	2181.70
604.13	2174.64
604.48	2167.31
604.83	2161.21
605.18	2155.06
605.53	2148.15
605.87	2141.13
606.22	2134.34
606.57	2126.39
606.92	2118.37
607.27	2111.48
607.62	2104.87
607.96	2097.66
608.31	2091.21
608.66	2083.36
609.01	2075.82
609.36	2068.55
609.70	2060.76
610.05	2053.01
610.40	2044.67
610.75	2036.40
611.10	2028.69
611.44	2019.68
611.79	2010.96
612.14	2000.80
612.49	1989.99
612.83	1980.72
613.18	1971.24
613.53	1961.92
613.88	1952.39
614.22	1943.80
614.57	1933.88
614.92	1923.26
615.27	1913.15
615.61	1902.99
615.96	1893.29
616.31	1883.65
616.65	1874.24
617.00	1864.52
617.35	1854.77
617.70	1844.96
618.04	1834.80
618.39	1824.64
618.74	1815.03
619.08	1805.51
619.43	1796.85
619.78	1788.57
620.12	1779.81
620.47	1770.29
620.82	1759.92
621.16	1750.20
621.51	1740.38
621.85	1730.52
622.20	1720.31
622.55	1709.91
622.89	1699.90
623.24	1690.31
623.59	1680.55
623.93	1670.43
624.28	1660.61
624.62	1650.70
624.97	1640.58
625.32	1630.85
625.66	1622.03
626.01	1613.30
626.35	1603.86
626.70	1593.90
627.04	1583.91
627.39	1573.90
627.73	1564.70
628.08	1555.86
628.43	1546.30
628.77	1537.10
629.12	1528.33
629.46	1520.47
629.81	1512.05
630.15	1502.74
630.50	1492.89
630.84	1482.38
631.19	1472.49
631.53	1463.36
631.88	1453.19
632.22	1442.96
632.57	1433.74
632.91	1423.64
633.26	1413.77
633.60	1404.25
633.95	1395.00
634.29	1385.44
634.64	1376.11
634.98	1366.12
635.32	1356.83
635.67	1348.27
636.01	1338.98
636.36	1329.20
636.70	1319.54
637.05	1310.12
637.39	1301.17
637.73	1292.53
638.08	1285.10
638.42	1277.05
638.77	1268.25
639.11	1260.05
639.45	1252.39
639.80	1243.76
640.14	1235.02
640.49	1226.14
640.83	1217.28
641.17	1209.10
641.52	1201.13
641.86	1192.55
642.20	1184.86
642.55	1176.21
642.89	1167.44
643.23	1158.91
643.58	1150.85
643.92	1141.98
644.26	1133.43
644.61	1125.03
644.95	1116.26
645.29	1107.03
645.64	1097.78
645.98	1089.29
646.32	1081.38
646.66	1072.87
647.01	1064.61
647.35	1056.57
647.69	1048.33
648.04	1040.10
648.38	1031.35
648.72	1022.51
649.06	1014.13
649.41	1005.82
649.75	997.96
650.09	990.23
650.43	982.21
650.78	973.95
651.12	966.23
651.46	958.75
651.80	951.52
652.14	944.26
652.49	936.68
652.83	929.46
653.17	921.72
653.51	914.14
653.85	906.93
654.20	899.66
654.54	892.20
654.88	884.91
655.22	877.63
655.56	870.45
655.90	863.71
656.25	857.07
656.59	850.27
656.93	843.17
657.27	835.95
657.61	828.90
657.95	822.61
658.29	816.65
658.64	810.46
658.98	803.98
659.32	797.50
659.66	791.27
660.00	784.88
660.34	778.85
660.68	772.60
661.02	766.24
661.36	760.25
661.70	754.38
662.05	748.73
662.39	743.31
662.73	737.95
663.07	732.47
663.41	726.82
663.75	721.01
664.09	715.38
664.43	709.83
664.77	704.52
665.11	698.79
665.45	692.92
665.79	687.16
666.13	681.37
666.47	675.80
666.81	670.33
667.15	664.89
667.49	659.60
667.83	654.33
668.17	649.09
668.51	643.94
668.85	639.02
669.19	634.10
669.53	629.04
669.87	623.86
670.21	619.08
670.55	614.33
670.89	609.84
671.23	605.47
671.57	601.11
671.91	596.77
672.25	592.54
672.58	588.39
672.92	584.29
673.26	580.31
673.60	576.40
673.94	572.59
674.28	569.03
674.62	565.30
674.96	561.56
675.30	557.94
675.64	554.27
675.97	550.61
676.31	547.01
676.65	543.42
676.99	540.00
677.33	536.14
677.67	532.47
678.01	528.61
678.34	525.03
678.68	521.48
679.02	517.86
679.36	514.22
679.70	510.52
680.04	506.94
680.37	503.45
680.71	500.13
681.05	496.88
681.39	493.57
681.73	490.36
682.06	487.33
682.40	484.31
682.74	481.13
683.08	477.87
683.42	474.60
683.75	471.56
684.09	468.54
684.43	465.72
684.77	462.77
685.10	459.92
685.44	456.90
685.78	453.93
686.12	451.08
686.45	448.30
686.79	445.64
687.13	443.08
687.46	440.50
687.80	437.82
688.14	434.95
688.48	432.19
688.81	429.51
689.15	426.85
689.49	424.15
689.82	421.53
690.16	418.93
690.50	416.43
690.83	413.89
691.17	411.29
691.51	408.80
691.84	406.50
692.18	404.19
692.52	401.96
692.85	399.80
693.19	397.66
693.52	395.44
693.86	393.15
694.20	390.90
694.53	388.68
694.87	386.37
695.21	384.24
695.54	382.09
695.88	379.86
696.21	377.65
696.55	375.48
696.88	373.45
697.22	371.45
697.56	369.53
697.89	367.59
698.23	365.76
698.56	363.91
698.90	362.09
699.23	360.20
699.57	358.32
699.90	356.43
700.24	354.57
700.58	352.82
700.91	351.12
701.25	349.54
701.58	347.92
701.92	346.33
702.25	344.73
702.59	343.10
702.92	341.53
703.26	339.92
703.59	338.42
703.93	337.06
704.26	335.65
704.60	334.11
704.93	332.61
705.26	331.14
705.60	329.67
705.93	328.15
706.27	326.77
706.60	325.45
706.94	324.22
707.27	322.83
707.61	321.48
707.94	320.09
708.27	318.57
708.61	317.09
708.94	315.69
709.28	314.34
709.61	313.07
709.94	311.88
710.28	310.69
710.61	309.47
710.95	308.05
711.28	306.87
711.61	305.67
711.95	304.52
712.28	303.31
712.61	302.11
712.95	301.02
713.28	300.00
713.61	298.85
713.95	297.64
714.28	296.60
714.61	295.50
714.95	294.49
715.28	293.44
715.61	292.38
715.95	291.39
716.28	290.41
716.61	289.46
716.95	288.41
717.28	287.43
717.61	286.50
717.94	285.56
718.28	284.57
718.61	283.68
718.94	282.79
719.27	281.91
719.61	281.04
719.94	280.19
720.27	279.18
720.60	278.31
720.94	277.51
721.27	276.74
721.60	276.04
721.93	275.32
722.27	274.66
722.60	274.04
722.93	273.33
723.26	272.65
723.59	271.93
723.93	271.30
724.26	270.64
724.59	269.95
724.92	269.39
725.25	268.82
725.59	268.22
725.92	267.63
726.25	267.05
726.58	266.49
726.91	265.88
727.24	265.33
727.57	264.77
727.91	264.17
728.24	263.59
728.57	262.97
728.90	262.40
729.23	261.78
729.56	261.29
729.89	260.77
730.22	260.22
730.55	259.67
730.89	259.12
731.22	258.58
731.55	258.08
731.88	257.54
732.21	256.96
732.54	256.43
732.87	255.95
733.20	255.47
733.53	254.97
733.86	254.49
734.19	254.00
734.52	253.57
734.85	253.25
735.18	252.79
735.51	252.45
735.84	252.03
736.17	251.63
736.50	251.11
736.83	250.97
737.16	250.57
737.49	250.21
737.82	249.80
738.15	249.43
738.48	249.00
738.81	248.58
739.14	248.17
739.47	247.80
739.80	247.39
740.13	247.04
740.46	246.63
740.79	246.25
741.12	245.86
741.45	245.49
741.78	245.04
742.11	244.75
742.44	244.34
742.77	244.04
743.10	243.69
743.43	243.36
743.75	242.75
744.08	242.68
744.41	242.28
744.74	241.94
745.07	241.59
745.40	241.30
745.73	241.04
746.06	240.71
746.39	240.38
746.71	240.02
747.04	239.61
747.37	239.28
747.70	238.97
748.03	238.68
748.36	238.40
748.68	238.08
749.01	237.68
749.34	237.41
749.67	237.05
750.00	236.79
750.33	236.61
750.65	236.34
750.98	235.79
751.31	235.53
751.64	235.31
751.97	235.19
752.29	234.92
752.62	234.57
752.95	234.33
753.28	234.06
753.60	233.80
753.93	233.66
754.26	233.48
754.59	233.19
754.91	232.92
755.24	232.66
755.57	232.40
755.90	232.21
756.22	231.95
756.55	231.71
756.88	231.45
757.20	231.12
757.53	230.85
757.86	230.67
758.19	230.46
758.51	230.24
758.84	229.92
759.17	229.71
759.49	229.54
759.82	229.43
760.15	229.26
760.47	229.08
760.80	228.81
761.13	228.61
761.45	228.42
761.78	228.24
762.11	228.06
762.43	227.90
762.76	227.74
763.08	227.59
763.41	227.42
763.74	227.28
764.06	227.13
764.39	226.98
764.71	226.79
765.04	226.60
765.37	226.44
765.69	226.29
766.02	226.14
766.34	226.00
766.67	225.81
767.00	225.71
767.32	225.69
767.65	225.69
767.97	225.58
768.30	225.50
768.62	225.40
768.95	225.25
769.27	225.07
769.60	224.97
769.92	224.82
770.25	224.66
770.57	224.45
770.90	224.29
771.22	224.15
771.55	224.05
771.87	223.97
772.20	223.86
772.52	223.93
772.85	224.09
773.17	223.95
773.50	223.83
773.82	223.71
774.15	223.51
774.47	223.26
774.80	223.17
775.12	223.03
775.45	222.94
775.77	222.88
776.09	222.83
776.42	222.74
776.74	222.70
777.07	222.61
777.39	222.55
777.72	222.51
778.04	222.44
778.36	222.33
778.69	222.23
779.01	222.13
779.33	221.84
779.66	221.48
779.98	221.39
780.31	221.31
780.63	221.30
780.95	221.26
781.28	221.20
781.60	221.09
781.92	221.00
782.25	220.93
782.57	220.85
782.89	220.77
783.22	220.67
783.54	220.58
783.86	220.53
784.19	220.49
784.51	220.42
784.83	220.36
785.16	220.28
785.48	220.21
785.80	220.17
786.12	220.13
