SpectraSuite Data File
++++++++++++++++++++++++++++++++++++
Date: Tue Jan 29 15:59:11 EST 2013
User: group
Dark Spectrum Present: No
Reference Spectrum Present: No
Number of Sampled Component Spectra: 1
Spectrometers: USB2E7196
Integration Time (usec): 65000 (USB2E7196)
Spectra Averaged: 100 (USB2E7196)
Boxcar Smoothing: 10 (USB2E7196)
Correct for Electrical Dark: No (USB2E7196)
Strobe/Lamp Enabled: No (USB2E7196)
Correct for Detector Non-linearity: No (USB2E7196)
Correct for Stray Light: No (USB2E7196)
Number of Pixels in Processed Spectrum: 2048
>>>>>Begin Processed Spectral Data<<<<<
339.09	0.00
339.48	202.67
339.86	204.48
340.24	206.04
340.63	206.69
341.01	211.21
341.39	209.84
341.78	211.61
342.16	212.79
342.54	212.58
342.93	201.97
343.31	212.18
343.69	212.75
344.07	213.20
344.46	213.62
344.84	214.05
345.22	214.24
345.60	214.49
345.99	214.67
346.37	214.80
346.75	214.88
347.13	214.95
347.52	215.00
347.90	215.14
348.28	215.14
348.66	215.25
349.05	215.21
349.43	215.27
349.81	215.34
350.19	215.41
350.57	215.52
350.96	215.58
351.34	215.68
351.72	215.75
352.10	215.86
352.48	215.91
352.87	215.93
353.25	216.01
353.63	216.08
354.01	216.13
354.39	216.21
354.77	216.33
355.15	216.43
355.54	216.49
355.92	216.48
356.30	216.56
356.68	216.71
357.06	216.81
357.44	216.84
357.82	216.91
358.20	216.97
358.58	216.98
358.97	217.02
359.35	217.13
359.73	217.22
360.11	217.28
360.49	217.36
360.87	217.43
361.25	217.50
361.63	217.59
362.01	217.66
362.39	217.64
362.77	217.70
363.15	217.74
363.53	217.76
363.91	217.79
364.29	217.82
364.67	217.66
365.05	217.66
365.43	217.70
365.81	217.74
366.19	217.85
366.57	217.95
366.95	217.98
367.33	217.89
367.71	217.89
368.09	217.92
368.47	217.90
368.85	217.89
369.23	217.90
369.61	217.85
369.99	217.87
370.37	217.91
370.75	217.98
371.13	217.91
371.51	217.88
371.89	217.88
372.27	217.85
372.65	217.86
373.03	217.84
373.41	217.79
373.78	217.73
374.16	217.59
374.54	217.47
374.92	217.42
375.30	217.41
375.68	217.35
376.06	217.32
376.44	217.26
376.82	217.25
377.19	217.21
377.57	217.14
377.95	217.08
378.33	217.02
378.71	216.83
379.09	216.85
379.47	216.86
379.84	216.78
380.22	216.75
380.60	216.66
380.98	216.60
381.36	216.55
381.73	216.48
382.11	216.49
382.49	216.50
382.87	216.46
383.25	216.41
383.62	216.62
384.00	216.53
384.38	216.52
384.76	216.52
385.13	216.54
385.51	216.51
385.89	216.43
386.27	216.42
386.64	216.43
387.02	216.37
387.40	216.30
387.78	216.31
388.15	216.27
388.53	216.24
388.91	216.23
389.29	216.19
389.66	216.21
390.04	216.17
390.42	216.20
390.79	216.18
391.17	216.19
391.55	215.94
391.92	215.94
392.30	215.97
392.68	215.88
393.05	215.87
393.43	215.89
393.81	215.91
394.18	215.87
394.56	215.89
394.94	215.93
395.31	215.93
395.69	215.99
396.06	216.07
396.44	216.11
396.82	216.13
397.19	216.27
397.57	216.27
397.95	216.34
398.32	216.30
398.70	216.36
399.07	216.42
399.45	216.47
399.82	216.51
400.20	216.56
400.58	216.66
400.95	216.63
401.33	216.76
401.70	216.98
402.08	217.06
402.45	217.14
402.83	217.26
403.20	217.36
403.58	217.49
403.95	217.64
404.33	217.79
404.71	217.94
405.08	218.22
405.46	218.39
405.83	218.57
406.21	218.76
406.58	218.99
406.96	219.20
407.33	219.46
407.70	219.73
408.08	220.16
408.45	220.49
408.83	220.88
409.20	221.18
409.58	221.43
409.95	221.91
410.33	222.37
410.70	222.80
411.08	223.33
411.45	223.85
411.82	224.37
412.20	225.03
412.57	225.80
412.95	226.30
413.32	227.11
413.69	227.89
414.07	228.78
414.44	229.70
414.82	230.69
415.19	231.81
415.56	232.99
415.94	234.06
416.31	235.42
416.68	236.74
417.06	238.30
417.43	239.82
417.81	241.47
418.18	243.21
418.55	245.09
418.93	247.06
419.30	249.05
419.67	251.19
420.04	253.39
420.42	255.68
420.79	258.42
421.16	261.11
421.54	263.88
421.91	266.76
422.28	269.76
422.66	272.93
423.03	276.04
423.40	279.26
423.77	282.77
424.15	286.29
424.52	289.99
424.89	294.01
425.26	297.90
425.64	301.64
426.01	305.72
426.38	309.95
426.75	314.32
427.13	318.89
427.50	323.68
427.87	328.67
428.24	333.68
428.61	338.49
428.99	343.81
429.36	349.59
429.73	355.24
430.10	360.91
430.47	366.77
430.85	372.85
431.22	379.38
431.59	386.22
431.96	392.80
432.33	400.00
432.70	406.99
433.08	415.21
433.45	422.99
433.82	430.77
434.19	439.30
434.56	447.67
434.93	455.72
435.30	463.68
435.68	472.43
436.05	481.09
436.42	489.72
436.79	497.50
437.16	505.95
437.53	514.89
437.90	523.67
438.27	532.27
438.64	541.16
439.01	549.30
439.38	556.58
439.75	563.65
440.13	571.74
440.50	579.37
440.87	585.48
441.24	591.90
441.61	598.92
441.98	604.13
442.35	610.22
442.72	616.21
443.09	621.93
443.46	625.51
443.83	627.88
444.20	629.89
444.57	632.93
444.94	634.34
445.31	635.65
445.68	637.01
446.05	637.62
446.42	636.82
446.79	635.88
447.16	634.84
447.53	634.07
447.90	630.86
448.27	627.60
448.64	623.16
449.01	619.83
449.37	614.15
449.74	608.70
450.11	602.04
450.48	594.98
450.85	587.91
451.22	581.71
451.59	575.82
451.96	570.18
452.33	562.60
452.70	555.71
453.07	547.62
453.43	539.31
453.80	531.34
454.17	523.64
454.54	516.38
454.91	508.56
455.28	500.93
455.65	493.85
456.02	486.72
456.38	480.67
456.75	473.25
457.12	466.93
457.49	460.73
457.86	454.83
458.23	449.71
458.59	444.01
458.96	438.29
459.33	433.28
459.70	428.23
460.07	424.18
460.43	419.59
460.80	415.15
461.17	411.36
461.54	407.30
461.91	403.45
462.27	399.52
462.64	396.16
463.01	392.51
463.38	388.95
463.74	385.39
464.11	382.29
464.48	379.52
464.85	376.52
465.21	374.17
465.58	371.62
465.95	368.58
466.32	366.06
466.68	363.56
467.05	361.07
467.42	358.53
467.78	355.94
468.15	353.47
468.52	351.67
468.88	349.27
469.25	347.15
469.62	345.46
469.98	343.64
470.35	341.96
470.72	340.35
471.08	338.66
471.45	337.28
471.82	335.82
472.18	334.25
472.55	333.17
472.92	331.85
473.28	330.70
473.65	329.67
474.02	328.65
474.38	327.82
474.75	327.08
475.11	326.36
475.48	325.84
475.85	325.45
476.21	325.05
476.58	324.72
476.94	324.53
477.31	324.28
477.67	324.04
478.04	323.95
478.41	323.95
478.77	324.14
479.14	324.12
479.50	324.24
479.87	324.54
480.23	324.89
480.60	325.14
480.96	325.47
481.33	326.05
481.69	326.66
482.06	327.22
482.42	327.74
482.79	328.40
483.15	329.23
483.52	330.18
483.88	331.02
484.25	332.02
484.61	333.08
484.98	334.11
485.34	335.45
485.71	336.76
486.07	338.22
486.44	339.54
486.80	341.13
487.17	342.81
487.53	344.62
487.90	346.43
488.26	348.42
488.62	350.57
488.99	352.61
489.35	354.75
489.72	357.08
490.08	359.55
490.44	362.07
490.81	364.75
491.17	367.42
491.54	370.43
491.90	373.37
492.26	376.63
492.63	380.05
492.99	383.54
493.36	387.24
493.72	391.07
494.08	395.10
494.45	399.31
494.81	403.65
495.17	408.12
495.54	412.83
495.90	417.63
496.26	422.58
496.63	427.79
496.99	433.20
497.35	438.75
497.72	444.59
498.08	450.47
498.44	456.56
498.80	462.93
499.17	469.42
499.53	476.16
499.89	482.98
500.26	489.92
500.62	496.91
500.98	504.28
501.34	511.71
501.71	519.37
502.07	527.12
502.43	535.14
502.79	543.24
503.16	551.60
503.52	560.18
503.88	568.79
504.24	577.67
504.60	586.68
504.97	595.91
505.33	605.12
505.69	615.03
506.05	624.87
506.41	634.74
506.78	644.74
507.14	654.98
507.50	665.36
507.86	676.00
508.22	686.78
508.59	697.47
508.95	708.49
509.31	719.74
509.67	731.19
510.03	742.54
510.39	754.30
510.75	766.06
511.12	777.90
511.48	789.95
511.84	802.20
512.20	814.49
512.56	826.98
512.92	839.74
513.28	852.32
513.64	864.98
514.00	877.63
514.37	890.44
514.73	903.37
515.09	916.28
515.45	929.12
515.81	941.97
516.17	955.10
516.53	968.10
516.89	981.09
517.25	994.19
517.61	1007.49
517.97	1020.65
518.33	1033.68
518.69	1047.15
519.05	1060.71
519.41	1074.18
519.77	1087.76
520.13	1100.89
520.49	1113.87
520.85	1127.00
521.21	1140.05
521.57	1153.60
521.93	1166.56
522.29	1180.16
522.65	1193.50
523.01	1206.82
523.37	1219.86
523.73	1232.97
524.09	1246.00
524.45	1259.18
524.81	1272.32
525.17	1285.46
525.53	1298.30
525.89	1311.32
526.25	1324.05
526.61	1336.64
526.97	1349.45
527.33	1362.21
527.68	1375.43
528.04	1388.54
528.40	1401.37
528.76	1414.40
529.12	1427.03
529.48	1439.97
529.84	1451.98
530.20	1464.47
530.56	1476.91
530.91	1489.81
531.27	1502.36
531.63	1514.86
531.99	1527.37
532.35	1539.34
532.71	1551.47
533.07	1563.91
533.42	1575.81
533.78	1587.61
534.14	1599.41
534.50	1610.33
534.86	1621.67
535.21	1632.17
535.57	1643.30
535.93	1654.37
536.29	1665.27
536.65	1676.25
537.00	1686.99
537.36	1697.97
537.72	1708.63
538.08	1719.47
538.44	1730.15
538.79	1740.87
539.15	1751.24
539.51	1761.54
539.87	1772.60
540.22	1782.95
540.58	1793.54
540.94	1803.97
541.29	1813.82
541.65	1823.32
542.01	1833.39
542.37	1843.00
542.72	1852.83
543.08	1862.38
543.44	1872.36
543.79	1881.31
544.15	1890.52
544.51	1900.22
544.87	1909.65
545.22	1918.42
545.58	1927.10
545.94	1935.58
546.29	1943.93
546.65	1952.03
547.01	1959.95
547.36	1967.28
547.72	1974.87
548.07	1982.48
548.43	1989.99
548.79	1997.77
549.14	2005.52
549.50	2013.74
549.86	2021.38
550.21	2028.60
550.57	2035.99
550.92	2042.50
551.28	2049.76
551.64	2056.77
551.99	2063.85
552.35	2070.96
552.70	2077.70
553.06	2084.18
553.41	2090.35
553.77	2096.53
554.13	2102.89
554.48	2109.86
554.84	2116.74
555.19	2123.11
555.55	2129.36
555.90	2135.58
556.26	2142.14
556.61	2147.90
556.97	2152.68
557.32	2158.41
557.68	2164.73
558.03	2170.28
558.39	2175.43
558.74	2181.32
559.10	2186.96
559.45	2192.66
559.81	2198.12
560.16	2203.72
560.52	2209.61
560.87	2215.90
561.23	2221.99
561.58	2228.53
561.94	2233.66
562.29	2238.47
562.64	2244.63
563.00	2250.14
563.35	2255.76
563.71	2261.63
564.06	2267.42
564.42	2273.39
564.77	2278.50
565.12	2283.64
565.48	2288.99
565.83	2294.77
566.19	2300.29
566.54	2305.67
566.89	2310.12
567.25	2314.64
567.60	2320.31
567.96	2325.47
568.31	2330.11
568.66	2334.33
569.02	2338.23
569.37	2341.95
569.72	2346.30
570.08	2349.87
570.43	2353.04
570.78	2356.19
571.14	2358.93
571.49	2362.22
571.84	2365.94
572.20	2368.82
572.55	2372.06
572.90	2374.47
573.26	2377.55
573.61	2380.06
573.96	2382.32
574.31	2384.57
574.67	2386.72
575.02	2387.69
575.37	2389.28
575.72	2390.39
576.08	2391.98
576.43	2392.44
576.78	2393.39
577.13	2395.32
577.49	2396.54
577.84	2398.14
578.19	2399.74
578.54	2400.55
578.90	2401.67
579.25	2401.79
579.60	2402.17
579.95	2401.83
580.30	2402.36
580.66	2401.85
581.01	2400.52
581.36	2398.59
581.71	2397.46
582.06	2396.73
582.42	2396.25
582.77	2394.40
583.12	2392.98
583.47	2391.97
583.82	2391.69
584.17	2390.61
584.53	2388.87
584.88	2387.13
585.23	2385.17
585.58	2383.10
585.93	2381.22
586.28	2379.30
586.63	2377.15
586.98	2375.05
587.34	2373.38
587.69	2371.14
588.04	2369.33
588.39	2368.10
588.74	2365.85
589.09	2363.54
589.44	2360.56
589.79	2358.43
590.14	2356.63
590.49	2353.94
590.84	2350.36
591.19	2347.49
591.54	2344.39
591.89	2340.41
592.25	2337.49
592.60	2333.55
592.95	2329.73
593.30	2325.68
593.65	2321.24
594.00	2317.03
594.35	2314.23
594.70	2309.62
595.05	2305.18
595.40	2299.82
595.75	2294.40
596.10	2290.83
596.45	2286.01
596.80	2281.70
597.15	2276.35
597.50	2270.67
597.85	2265.94
598.19	2260.85
598.54	2255.22
598.89	2250.42
599.24	2245.94
599.59	2239.88
599.94	2234.46
600.29	2228.71
600.64	2223.02
600.99	2216.53
601.34	2211.14
601.69	2204.03
602.04	2197.70
602.39	2191.23
602.74	2185.43
603.08	2179.86
603.43	2173.44
603.78	2166.73
604.13	2159.57
604.48	2152.55
604.83	2146.55
605.18	2140.22
605.53	2133.28
605.87	2126.26
606.22	2119.46
606.57	2111.63
606.92	2103.75
607.27	2096.70
607.62	2090.09
607.96	2083.08
608.31	2076.66
608.66	2068.93
609.01	2061.66
609.36	2054.68
609.70	2046.96
610.05	2039.16
610.40	2030.94
610.75	2022.78
611.10	2015.27
611.44	2006.62
611.79	1997.92
612.14	1987.95
612.49	1977.50
612.83	1968.57
613.18	1959.42
613.53	1950.07
613.88	1940.59
614.22	1932.07
614.57	1922.26
614.92	1911.78
615.27	1901.72
615.61	1891.69
615.96	1881.99
616.31	1872.48
616.65	1863.17
617.00	1853.24
617.35	1843.53
617.70	1833.80
618.04	1823.63
618.39	1813.20
618.74	1803.52
619.08	1793.97
619.43	1785.35
619.78	1777.19
620.12	1768.23
620.47	1758.47
620.82	1748.12
621.16	1738.35
621.51	1728.35
621.85	1718.52
622.20	1707.84
622.55	1697.30
622.89	1687.62
623.24	1678.02
623.59	1668.20
623.93	1657.97
624.28	1648.37
624.62	1638.23
624.97	1628.05
625.32	1618.36
625.66	1609.68
626.01	1600.75
626.35	1591.29
626.70	1581.18
627.04	1570.96
627.39	1560.98
627.73	1551.78
628.08	1542.72
628.43	1533.11
628.77	1523.93
629.12	1514.99
629.46	1507.25
629.81	1498.79
630.15	1489.04
630.50	1479.11
630.84	1468.66
631.19	1458.72
631.53	1449.33
631.88	1439.17
632.22	1429.07
632.57	1419.74
632.91	1409.44
633.26	1399.70
633.60	1390.14
633.95	1380.71
634.29	1371.36
634.64	1361.97
634.98	1352.03
635.32	1342.64
635.67	1334.11
636.01	1324.80
636.36	1314.97
636.70	1305.45
637.05	1296.10
637.39	1287.03
637.73	1278.39
638.08	1270.75
638.42	1262.40
638.77	1253.52
639.11	1245.25
639.45	1237.28
639.80	1228.49
640.14	1219.81
640.49	1210.86
640.83	1202.05
641.17	1193.91
641.52	1185.56
641.86	1176.83
642.20	1168.80
642.55	1160.43
642.89	1151.42
643.23	1142.61
643.58	1134.46
643.92	1125.40
644.26	1116.74
644.61	1108.42
644.95	1099.56
645.29	1090.32
645.64	1081.28
645.98	1072.97
646.32	1065.02
646.66	1056.60
647.01	1048.19
647.35	1040.13
647.69	1031.64
648.04	1023.24
648.38	1014.21
648.72	1005.41
649.06	997.04
649.41	989.01
649.75	980.88
650.09	973.04
650.43	965.09
650.78	956.93
651.12	949.24
651.46	941.77
651.80	934.39
652.14	927.19
652.49	919.60
652.83	912.31
653.17	904.55
653.51	897.00
653.85	889.76
654.20	882.61
654.54	874.97
654.88	867.84
655.22	860.71
655.56	853.85
655.90	847.12
656.25	840.44
656.59	833.40
656.93	826.41
657.27	819.37
657.61	812.52
657.95	806.36
658.29	800.51
658.64	794.36
658.98	787.89
659.32	781.31
659.66	775.14
660.00	768.71
660.34	762.74
660.68	756.63
661.02	750.33
661.36	744.43
661.70	738.73
662.05	733.10
662.39	727.61
662.73	722.23
663.07	716.90
663.41	711.37
663.75	705.82
664.09	700.23
664.43	694.84
664.77	689.49
665.11	683.76
665.45	677.96
665.79	672.23
666.13	666.65
666.47	661.19
666.81	655.82
667.15	650.56
667.49	645.33
667.83	640.11
668.17	634.99
668.51	629.98
668.85	625.08
669.19	620.29
669.53	615.36
669.87	610.33
670.21	605.63
670.55	600.99
670.89	596.61
671.23	592.41
671.57	588.10
671.91	583.86
672.25	579.84
672.58	575.74
672.92	571.75
673.26	567.88
673.60	564.14
673.94	560.31
674.28	556.77
674.62	553.11
674.96	549.43
675.30	545.92
675.64	542.27
675.97	538.78
676.31	535.23
676.65	531.62
676.99	528.26
677.33	524.46
677.67	520.83
678.01	516.94
678.34	513.29
678.68	509.80
679.02	506.22
679.36	502.54
679.70	498.93
680.04	495.44
680.37	492.11
680.71	488.80
681.05	485.70
681.39	482.52
681.73	479.39
682.06	476.40
682.40	473.38
682.74	470.27
683.08	467.11
683.42	463.97
683.75	461.09
684.09	458.15
684.43	455.38
684.77	452.45
685.10	449.76
685.44	446.85
685.78	444.02
686.12	441.32
686.45	438.65
686.79	435.99
687.13	433.45
687.46	430.82
687.80	428.21
688.14	425.44
688.48	422.86
688.81	420.31
689.15	417.81
689.49	415.26
689.82	412.78
690.16	410.24
690.50	407.83
690.83	405.38
691.17	402.86
691.51	400.48
691.84	398.36
692.18	396.16
692.52	394.01
692.85	391.89
693.19	389.73
693.52	387.60
693.86	385.49
694.20	383.39
694.53	381.29
694.87	379.15
695.21	377.08
695.54	374.96
695.88	372.81
696.21	370.62
696.55	368.52
696.88	366.59
697.22	364.66
697.56	362.82
697.89	360.98
698.23	359.28
698.56	357.55
698.90	355.82
699.23	353.93
699.57	352.12
699.90	350.34
700.24	348.64
700.58	346.92
700.91	345.30
701.25	343.82
701.58	342.28
701.92	340.68
702.25	339.10
702.59	337.55
702.92	336.03
703.26	334.56
703.59	333.18
703.93	331.90
704.26	330.51
704.60	329.04
704.93	327.62
705.26	326.14
705.60	324.69
705.93	323.22
706.27	321.95
706.60	320.76
706.94	319.56
707.27	318.18
707.61	316.88
707.94	315.56
708.27	314.06
708.61	312.65
708.94	311.32
709.28	310.06
709.61	308.84
709.94	307.63
710.28	306.45
710.61	305.23
710.95	303.82
711.28	302.73
711.61	301.56
711.95	300.44
712.28	299.27
712.61	298.12
712.95	297.11
713.28	296.13
713.61	294.96
713.95	293.81
714.28	292.83
714.61	291.81
714.95	290.84
715.28	289.88
715.61	288.88
715.95	288.01
716.28	287.08
716.61	286.16
716.95	285.23
717.28	284.34
717.61	283.44
717.94	282.61
718.28	281.63
718.61	280.79
718.94	279.94
719.27	279.14
719.61	278.39
719.94	277.55
720.27	276.60
720.60	275.79
720.94	275.02
721.27	274.31
721.60	273.66
721.93	272.94
722.27	272.31
722.60	271.70
722.93	271.01
723.26	270.41
723.59	269.72
723.93	269.16
724.26	268.55
724.59	267.95
724.92	267.33
725.25	266.85
725.59	266.32
725.92	265.80
726.25	265.26
726.58	264.67
726.91	264.10
727.24	263.55
727.57	263.03
727.91	262.45
728.24	261.90
728.57	261.33
728.90	260.82
729.23	260.19
729.56	259.76
729.89	259.24
730.22	258.69
730.55	258.18
730.89	257.64
731.22	257.11
731.55	256.59
731.88	256.10
732.21	255.54
732.54	255.00
732.87	254.52
733.20	254.03
733.53	253.56
733.86	253.12
734.19	252.69
734.52	252.31
734.85	252.03
735.18	251.55
735.51	251.15
735.84	250.71
736.17	250.38
736.50	249.85
736.83	249.68
737.16	249.30
737.49	248.94
737.82	248.52
738.15	248.19
738.48	247.82
738.81	247.46
739.14	247.04
739.47	246.67
739.80	246.31
740.13	245.98
740.46	245.60
740.79	245.23
741.12	244.87
741.45	244.51
741.78	244.06
742.11	243.85
742.44	243.50
742.77	243.24
743.10	242.87
743.43	242.54
743.75	242.00
744.08	241.93
744.41	241.54
744.74	241.21
745.07	240.83
745.40	240.59
745.73	240.34
746.06	240.05
746.39	239.78
746.71	239.42
747.04	239.07
747.37	238.77
747.70	238.47
748.03	238.19
748.36	237.93
748.68	237.67
749.01	237.31
749.34	237.02
749.67	236.71
750.00	236.50
750.33	236.39
750.65	236.14
750.98	235.63
751.31	235.46
751.64	235.23
751.97	235.11
752.29	234.81
752.62	234.48
752.95	234.21
753.28	233.92
753.60	233.71
753.93	233.59
754.26	233.39
754.59	233.13
754.91	232.92
755.24	232.67
755.57	232.44
755.90	232.24
756.22	232.01
756.55	231.80
756.88	231.52
757.20	231.19
757.53	230.96
757.86	230.75
758.19	230.54
758.51	230.33
758.84	230.05
759.17	229.87
759.49	229.70
759.82	229.68
760.15	229.57
760.47	229.39
760.80	229.10
761.13	228.98
761.45	228.79
761.78	228.57
762.11	228.39
762.43	228.19
762.76	227.98
763.08	227.87
763.41	227.72
763.74	227.59
764.06	227.44
764.39	227.29
764.71	227.15
765.04	227.00
765.37	226.87
765.69	226.72
766.02	226.57
766.34	226.40
766.67	226.15
767.00	226.04
767.32	226.04
767.65	226.04
767.97	225.87
768.30	225.80
768.62	225.70
768.95	225.59
769.27	225.49
769.60	225.45
769.92	225.27
770.25	225.10
770.57	224.95
770.90	224.83
771.22	224.67
771.55	224.54
771.87	224.43
772.20	224.32
772.52	224.40
772.85	224.53
773.17	224.48
773.50	224.39
773.82	224.26
774.15	224.05
774.47	223.81
774.80	223.75
775.12	223.59
775.45	223.55
775.77	223.46
776.09	223.38
776.42	223.27
776.74	223.25
777.07	223.17
777.39	223.12
777.72	223.03
778.04	223.02
778.36	222.94
778.69	222.90
779.01	222.84
779.33	222.55
779.66	222.24
779.98	222.12
780.31	222.02
780.63	222.02
780.95	222.00
781.28	221.92
781.60	221.80
781.92	221.77
782.25	221.67
782.57	221.60
782.89	221.51
783.22	221.46
783.54	221.35
783.86	221.31
784.19	221.22
784.51	221.20
784.83	221.09
785.16	221.04
785.48	220.95
785.80	220.87
786.12	220.85
