SpectraSuite Data File
++++++++++++++++++++++++++++++++++++
Date: Tue Jan 29 16:30:48 EST 2013
User: group
Dark Spectrum Present: No
Reference Spectrum Present: No
Number of Sampled Component Spectra: 1
Spectrometers: USB2E7196
Integration Time (usec): 65000 (USB2E7196)
Spectra Averaged: 100 (USB2E7196)
Boxcar Smoothing: 10 (USB2E7196)
Correct for Electrical Dark: No (USB2E7196)
Strobe/Lamp Enabled: No (USB2E7196)
Correct for Detector Non-linearity: No (USB2E7196)
Correct for Stray Light: No (USB2E7196)
Number of Pixels in Processed Spectrum: 2048
>>>>>Begin Processed Spectral Data<<<<<
339.09	0.00
339.48	202.06
339.86	203.50
340.24	204.57
340.63	205.84
341.01	210.30
341.39	208.80
341.78	210.77
342.16	211.53
342.54	211.51
342.93	201.12
343.31	211.30
343.69	211.84
344.07	212.29
344.46	212.75
344.84	213.17
345.22	213.36
345.60	213.63
345.99	213.81
346.37	213.98
346.75	214.11
347.13	214.17
347.52	214.23
347.90	214.38
348.28	214.41
348.66	214.49
349.05	214.48
349.43	214.60
349.81	214.66
350.19	214.72
350.57	214.82
350.96	214.91
351.34	215.00
351.72	215.12
352.10	215.25
352.48	215.33
352.87	215.39
353.25	215.43
353.63	215.49
354.01	215.57
354.39	215.64
354.77	215.73
355.15	215.87
355.54	215.92
355.92	215.90
356.30	215.97
356.68	216.16
357.06	216.24
357.44	216.24
357.82	216.31
358.20	216.42
358.58	216.41
358.97	216.50
359.35	216.61
359.73	216.72
360.11	216.79
360.49	216.84
360.87	216.86
361.25	217.00
361.63	217.14
362.01	217.20
362.39	217.21
362.77	217.27
363.15	217.27
363.53	217.32
363.91	217.36
364.29	217.39
364.67	217.22
365.05	217.25
365.43	217.32
365.81	217.34
366.19	217.41
366.57	217.53
366.95	217.53
367.33	217.49
367.71	217.44
368.09	217.48
368.47	217.49
368.85	217.51
369.23	217.53
369.61	217.43
369.99	217.46
370.37	217.49
370.75	217.54
371.13	217.51
371.51	217.46
371.89	217.47
372.27	217.49
372.65	217.51
373.03	217.46
373.41	217.38
373.78	217.35
374.16	217.23
374.54	217.12
374.92	217.03
375.30	216.96
375.68	216.91
376.06	216.84
376.44	216.78
376.82	216.70
377.19	216.64
377.57	216.59
377.95	216.48
378.33	216.42
378.71	216.27
379.09	216.25
379.47	216.24
379.84	216.16
380.22	216.08
380.60	216.01
380.98	215.95
381.36	215.93
381.73	215.85
382.11	215.84
382.49	215.82
382.87	215.77
383.25	215.75
383.62	215.95
384.00	215.88
384.38	215.85
384.76	215.91
385.13	215.92
385.51	215.91
385.89	215.87
386.27	215.85
386.64	215.85
387.02	215.78
387.40	215.75
387.78	215.71
388.15	215.71
388.53	215.68
388.91	215.69
389.29	215.64
389.66	215.67
390.04	215.62
390.42	215.59
390.79	215.63
391.17	215.61
391.55	215.37
391.92	215.35
392.30	215.35
392.68	215.26
393.05	215.23
393.43	215.24
393.81	215.24
394.18	215.21
394.56	215.21
394.94	215.26
395.31	215.23
395.69	215.30
396.06	215.29
396.44	215.32
396.82	215.31
397.19	215.41
397.57	215.42
397.95	215.49
398.32	215.47
398.70	215.50
399.07	215.59
399.45	215.63
399.82	215.64
400.20	215.68
400.58	215.75
400.95	215.71
401.33	215.79
401.70	216.00
402.08	216.07
402.45	216.16
402.83	216.31
403.20	216.47
403.58	216.55
403.95	216.75
404.33	216.93
404.71	217.06
405.08	217.35
405.46	217.51
405.83	217.71
406.21	217.93
406.58	218.17
406.96	218.38
407.33	218.61
407.70	218.95
408.08	219.43
408.45	219.81
408.83	220.23
409.20	220.57
409.58	220.82
409.95	221.29
410.33	221.77
410.70	222.19
411.08	222.69
411.45	223.28
411.82	223.83
412.20	224.48
412.57	225.33
412.95	225.88
413.32	226.70
413.69	227.52
414.07	228.42
414.44	229.40
414.82	230.45
415.19	231.69
415.56	232.89
415.94	234.08
416.31	235.48
416.68	236.87
417.06	238.47
417.43	240.04
417.81	241.81
418.18	243.60
418.55	245.54
418.93	247.59
419.30	249.67
419.67	251.91
420.04	254.24
420.42	256.59
420.79	259.40
421.16	262.21
421.54	265.14
421.91	268.16
422.28	271.23
422.66	274.51
423.03	277.75
423.40	281.11
423.77	284.69
424.15	288.33
424.52	292.23
424.89	296.42
425.26	300.51
425.64	304.42
426.01	308.70
426.38	313.15
426.75	317.69
427.13	322.46
427.50	327.40
427.87	332.57
428.24	337.77
428.61	342.78
428.99	348.27
429.36	354.26
429.73	360.12
430.10	366.03
430.47	372.07
430.85	378.37
431.22	385.04
431.59	392.17
431.96	398.99
432.33	406.46
432.70	413.71
433.08	422.18
433.45	430.21
433.82	438.24
434.19	447.14
434.56	455.89
434.93	464.17
435.30	472.44
435.68	481.56
436.05	490.53
436.42	499.38
436.79	507.58
437.16	516.38
437.53	525.65
437.90	534.76
438.27	543.74
438.64	552.95
439.01	561.45
439.38	569.00
439.75	576.31
440.13	584.76
440.50	592.68
440.87	599.07
441.24	605.69
441.61	613.00
441.98	618.36
442.35	624.65
442.72	631.04
443.09	637.18
443.46	640.92
443.83	643.45
444.20	645.71
444.57	648.84
444.94	650.28
445.31	651.74
445.68	653.25
446.05	653.88
446.42	653.06
446.79	652.12
447.16	651.02
447.53	650.33
447.90	646.98
448.27	643.71
448.64	639.11
449.01	635.81
449.37	629.96
449.74	624.30
450.11	617.38
450.48	609.96
450.85	602.43
451.22	596.00
451.59	589.86
451.96	584.03
452.33	576.11
452.70	568.98
453.07	560.47
453.43	551.77
453.80	543.47
454.17	535.50
454.54	528.01
454.91	519.84
455.28	511.82
455.65	504.42
456.02	496.93
456.38	490.59
456.75	482.74
457.12	476.13
457.49	469.62
457.86	463.45
458.23	458.05
458.59	452.18
458.96	446.12
459.33	440.85
459.70	435.46
460.07	431.23
460.43	426.39
460.80	421.78
461.17	417.79
461.54	413.59
461.91	409.56
462.27	405.42
462.64	402.00
463.01	398.22
463.38	394.45
463.74	390.74
464.11	387.50
464.48	384.62
464.85	381.53
465.21	379.09
465.58	376.48
465.95	373.36
466.32	370.72
466.68	368.14
467.05	365.55
467.42	363.01
467.78	360.35
468.15	357.77
468.52	355.92
468.88	353.40
469.25	351.15
469.62	349.38
469.98	347.45
470.35	345.64
470.72	343.93
471.08	342.19
471.45	340.71
471.82	339.17
472.18	337.56
472.55	336.35
472.92	334.98
473.28	333.74
473.65	332.61
474.02	331.50
474.38	330.64
474.75	329.87
475.11	329.05
475.48	328.41
475.85	327.93
476.21	327.42
476.58	327.11
476.94	326.89
477.31	326.58
477.67	326.32
478.04	326.15
478.41	326.13
478.77	326.26
479.14	326.18
479.50	326.29
479.87	326.58
480.23	326.92
480.60	327.17
480.96	327.43
481.33	328.00
481.69	328.56
482.06	329.04
482.42	329.52
482.79	330.12
483.15	330.95
483.52	331.88
483.88	332.76
484.25	333.71
484.61	334.72
484.98	335.78
485.34	337.08
485.71	338.51
486.07	339.92
486.44	341.25
486.80	342.92
487.17	344.64
487.53	346.45
487.90	348.29
488.26	350.31
488.62	352.48
488.99	354.50
489.35	356.66
489.72	359.01
490.08	361.55
490.44	364.14
490.81	366.84
491.17	369.56
491.54	372.57
491.90	375.61
492.26	378.85
492.63	382.26
492.99	385.71
493.36	389.35
493.72	393.26
494.08	397.26
494.45	401.47
494.81	405.80
495.17	410.30
495.54	415.00
495.90	419.81
496.26	424.75
496.63	430.02
496.99	435.42
497.35	441.03
497.72	446.81
498.08	452.71
498.44	458.83
498.80	465.30
499.17	471.81
499.53	478.49
499.89	485.41
500.26	492.40
500.62	499.56
500.98	506.98
501.34	514.47
501.71	522.31
502.07	530.19
502.43	538.26
502.79	546.42
503.16	554.87
503.52	563.49
503.88	572.22
504.24	581.19
504.60	590.26
504.97	599.59
505.33	608.91
505.69	618.85
506.05	628.77
506.41	638.71
506.78	648.77
507.14	659.15
507.50	669.67
507.86	680.42
508.22	691.31
508.59	702.05
508.95	713.24
509.31	724.53
509.67	736.02
510.03	747.51
510.39	759.33
510.75	771.25
511.12	783.24
511.48	795.47
511.84	807.77
512.20	820.30
512.56	833.02
512.92	845.90
513.28	858.65
513.64	871.57
514.00	884.45
514.37	897.55
514.73	910.73
515.09	923.86
515.45	936.88
515.81	949.98
516.17	963.44
516.53	976.72
516.89	989.88
517.25	1003.21
517.61	1016.74
517.97	1030.18
518.33	1043.48
518.69	1057.16
519.05	1070.96
519.41	1084.72
519.77	1098.68
520.13	1112.09
520.49	1125.40
520.85	1138.98
521.21	1152.37
521.57	1166.17
521.93	1179.38
522.29	1193.22
522.65	1206.92
523.01	1220.72
523.37	1234.07
523.73	1247.60
524.09	1260.88
524.45	1274.47
524.81	1287.99
525.17	1301.48
525.53	1314.88
525.89	1328.31
526.25	1341.65
526.61	1354.66
526.97	1367.93
527.33	1380.98
527.68	1394.50
528.04	1408.07
528.40	1421.24
528.76	1434.75
529.12	1447.75
529.48	1461.27
529.84	1473.57
530.20	1486.62
530.56	1499.33
530.91	1512.74
531.27	1525.73
531.63	1538.57
531.99	1551.46
532.35	1563.89
532.71	1576.39
533.07	1589.32
533.42	1601.60
533.78	1613.69
534.14	1625.90
534.50	1637.29
534.86	1649.04
535.21	1660.06
535.57	1671.79
535.93	1683.11
536.29	1694.18
536.65	1705.82
537.00	1716.80
537.36	1728.45
537.72	1739.33
538.08	1750.85
538.44	1761.87
538.79	1772.96
539.15	1784.09
539.51	1794.88
539.87	1806.24
540.22	1817.28
540.58	1828.32
540.94	1839.38
541.29	1849.87
541.65	1859.68
542.01	1870.23
542.37	1880.36
542.72	1890.61
543.08	1900.47
543.44	1911.11
543.79	1920.67
544.15	1930.11
544.51	1940.15
544.87	1950.07
545.22	1959.53
545.58	1968.35
545.94	1977.33
546.29	1985.87
546.65	1994.29
547.01	2002.65
547.36	2010.43
547.72	2018.23
548.07	2025.82
548.43	2033.58
548.79	2041.48
549.14	2049.78
549.50	2058.27
549.86	2066.22
550.21	2073.69
550.57	2081.43
550.92	2088.17
551.28	2095.65
551.64	2102.98
551.99	2110.61
552.35	2117.81
552.70	2124.61
553.06	2131.42
553.41	2137.76
553.77	2144.39
554.13	2150.83
554.48	2157.88
554.84	2165.01
555.19	2171.65
555.55	2178.18
555.90	2184.51
556.26	2191.39
556.61	2197.55
556.97	2202.56
557.32	2208.35
557.68	2214.85
558.03	2220.65
558.39	2226.34
558.74	2232.33
559.10	2237.97
559.45	2243.54
559.81	2249.17
560.16	2254.71
560.52	2260.61
560.87	2267.03
561.23	2273.01
561.58	2279.70
561.94	2285.12
562.29	2289.77
562.64	2295.99
563.00	2301.72
563.35	2307.36
563.71	2313.10
564.06	2318.60
564.42	2324.47
564.77	2329.69
565.12	2334.97
565.48	2340.20
565.83	2345.60
566.19	2351.03
566.54	2356.44
566.89	2361.18
567.25	2365.83
567.60	2371.60
567.96	2376.76
568.31	2381.15
568.66	2385.60
569.02	2389.47
569.37	2393.20
569.72	2397.71
570.08	2401.07
570.43	2404.22
570.78	2407.49
571.14	2410.02
571.49	2413.21
571.84	2416.76
572.20	2419.68
572.55	2422.72
572.90	2424.86
573.26	2427.58
573.61	2430.10
573.96	2432.18
574.31	2434.11
574.67	2436.07
575.02	2436.79
575.37	2438.18
575.72	2438.92
576.08	2440.15
576.43	2440.41
576.78	2440.82
577.13	2442.30
577.49	2443.45
577.84	2444.60
578.19	2445.68
578.54	2446.23
578.90	2446.99
579.25	2446.81
579.60	2446.63
579.95	2445.84
580.30	2445.97
580.66	2445.22
581.01	2443.49
581.36	2441.05
581.71	2439.58
582.06	2438.35
582.42	2437.53
582.77	2435.39
583.12	2433.90
583.47	2432.61
583.82	2431.92
584.17	2430.70
584.53	2428.65
584.88	2426.57
585.23	2424.37
585.58	2422.12
585.93	2420.09
586.28	2417.90
586.63	2415.42
586.98	2413.21
587.34	2411.24
587.69	2408.69
588.04	2406.70
588.39	2405.20
588.74	2402.81
589.09	2400.12
589.44	2396.83
589.79	2394.24
590.14	2392.24
590.49	2389.32
590.84	2385.29
591.19	2382.13
591.54	2378.73
591.89	2374.62
592.25	2371.25
592.60	2366.98
592.95	2362.79
593.30	2358.49
593.65	2354.05
594.00	2349.67
594.35	2346.54
594.70	2341.75
595.05	2337.13
595.40	2331.47
595.75	2325.79
596.10	2322.07
596.45	2317.09
596.80	2312.41
597.15	2307.25
597.50	2301.28
597.85	2296.40
598.19	2291.17
598.54	2285.35
598.89	2280.05
599.24	2275.33
599.59	2269.14
599.94	2263.38
600.29	2257.38
600.64	2251.44
600.99	2244.51
601.34	2238.93
601.69	2231.96
602.04	2225.52
602.39	2219.02
602.74	2212.95
603.08	2207.31
603.43	2200.77
603.78	2193.92
604.13	2186.92
604.48	2179.47
604.83	2173.26
605.18	2166.90
605.53	2159.92
605.87	2152.66
606.22	2145.85
606.57	2137.89
606.92	2129.85
607.27	2122.95
607.62	2116.27
607.96	2109.15
608.31	2102.79
608.66	2095.01
609.01	2087.39
609.36	2080.23
609.70	2072.41
610.05	2064.64
610.40	2056.31
610.75	2047.94
611.10	2040.15
611.44	2031.09
611.79	2022.28
612.14	2012.14
612.49	2001.38
612.83	1991.95
613.18	1982.82
613.53	1973.49
613.88	1963.90
614.22	1955.31
614.57	1945.34
614.92	1934.60
615.27	1924.36
615.61	1914.10
615.96	1904.38
616.31	1894.54
616.65	1885.07
617.00	1875.18
617.35	1865.46
617.70	1855.66
618.04	1845.63
618.39	1835.31
618.74	1825.62
619.08	1816.11
619.43	1807.44
619.78	1799.11
620.12	1790.51
620.47	1780.79
620.82	1770.36
621.16	1760.58
621.51	1750.57
621.85	1740.65
622.20	1730.36
622.55	1719.74
622.89	1709.77
623.24	1699.94
623.59	1690.21
623.93	1680.02
624.28	1670.29
624.62	1659.98
624.97	1649.61
625.32	1639.74
625.66	1630.93
626.01	1622.11
626.35	1612.68
626.70	1602.53
627.04	1592.44
627.39	1582.17
627.73	1572.90
628.08	1563.92
628.43	1554.31
628.77	1545.04
629.12	1536.11
629.46	1528.24
629.81	1519.86
630.15	1510.21
630.50	1500.45
630.84	1489.87
631.19	1479.97
631.53	1470.51
631.88	1460.49
632.22	1450.42
632.57	1440.99
632.91	1430.83
633.26	1420.86
633.60	1411.16
633.95	1401.89
634.29	1392.34
634.64	1383.08
634.98	1372.93
635.32	1363.60
635.67	1355.04
636.01	1345.74
636.36	1335.96
636.70	1326.35
637.05	1316.95
637.39	1308.08
637.73	1299.36
638.08	1291.73
638.42	1283.43
638.77	1274.63
639.11	1266.29
639.45	1258.47
639.80	1249.84
640.14	1241.09
640.49	1232.29
640.83	1223.45
641.17	1215.16
641.52	1207.00
641.86	1198.25
642.20	1190.45
642.55	1181.83
642.89	1172.91
643.23	1164.21
643.58	1156.01
643.92	1146.91
644.26	1138.18
644.61	1129.66
644.95	1120.74
645.29	1111.56
645.64	1102.41
645.98	1093.80
646.32	1085.87
646.66	1077.22
647.01	1068.84
647.35	1060.56
647.69	1052.14
648.04	1043.77
648.38	1034.88
648.72	1025.99
649.06	1017.58
649.41	1009.28
649.75	1001.14
650.09	993.24
650.43	985.11
650.78	976.69
651.12	968.89
651.46	961.43
651.80	954.16
652.14	946.85
652.49	939.19
652.83	931.75
653.17	923.92
653.51	916.15
653.85	908.88
654.20	901.58
654.54	894.07
654.88	886.80
655.22	879.46
655.56	872.38
655.90	865.49
656.25	858.79
656.59	851.83
656.93	844.80
657.27	837.60
657.61	830.52
657.95	824.40
658.29	818.41
658.64	812.18
658.98	805.64
659.32	799.08
659.66	792.77
660.00	786.37
660.34	780.32
660.68	774.18
661.02	767.76
661.36	761.75
661.70	755.89
662.05	750.15
662.39	744.71
662.73	739.32
663.07	733.99
663.41	728.35
663.75	722.59
664.09	716.88
664.43	711.40
664.77	706.01
665.11	700.13
665.45	694.22
665.79	688.32
666.13	682.58
666.47	677.00
666.81	671.55
667.15	666.11
667.49	660.88
667.83	655.61
668.17	650.39
668.51	645.27
668.85	640.29
669.19	635.38
669.53	630.33
669.87	625.13
670.21	620.30
670.55	615.50
670.89	611.01
671.23	606.65
671.57	602.20
671.91	597.96
672.25	593.78
672.58	589.65
672.92	585.60
673.26	581.51
673.60	577.54
673.94	573.64
674.28	569.94
674.62	566.19
674.96	562.41
675.30	558.82
675.64	555.06
675.97	551.40
676.31	547.73
676.65	544.06
676.99	540.62
677.33	536.68
677.67	533.00
678.01	529.05
678.34	525.33
678.68	521.70
679.02	518.01
679.36	514.26
679.70	510.50
680.04	506.90
680.37	503.47
680.71	500.10
681.05	496.89
681.39	493.64
681.73	490.44
682.06	487.38
682.40	484.20
682.74	480.96
683.08	477.69
683.42	474.41
683.75	471.38
684.09	468.26
684.43	465.47
684.77	462.49
685.10	459.59
685.44	456.67
685.78	453.74
686.12	450.95
686.45	448.17
686.79	445.52
687.13	442.89
687.46	440.21
687.80	437.52
688.14	434.68
688.48	431.99
688.81	429.22
689.15	426.53
689.49	423.89
689.82	421.34
690.16	418.70
690.50	416.26
690.83	413.67
691.17	411.09
691.51	408.56
691.84	406.26
692.18	404.06
692.52	401.81
692.85	399.67
693.19	397.43
693.52	395.26
693.86	393.01
694.20	390.80
694.53	388.67
694.87	386.45
695.21	384.28
695.54	382.10
695.88	379.91
696.21	377.69
696.55	375.57
696.88	373.48
697.22	371.52
697.56	369.53
697.89	367.63
698.23	365.86
698.56	364.06
698.90	362.23
699.23	360.31
699.57	358.39
699.90	356.48
700.24	354.64
700.58	352.88
700.91	351.21
701.25	349.62
701.58	347.98
701.92	346.34
702.25	344.71
702.59	343.08
702.92	341.57
703.26	340.00
703.59	338.52
703.93	337.23
704.26	335.75
704.60	334.26
704.93	332.78
705.26	331.19
705.60	329.68
705.93	328.18
706.27	326.85
706.60	325.59
706.94	324.35
707.27	322.97
707.61	321.57
707.94	320.23
708.27	318.75
708.61	317.31
708.94	315.95
709.28	314.64
709.61	313.33
709.94	312.10
710.28	310.88
710.61	309.65
710.95	308.19
711.28	307.08
711.61	305.84
711.95	304.68
712.28	303.52
712.61	302.28
712.95	301.18
713.28	300.10
713.61	298.88
713.95	297.73
714.28	296.67
714.61	295.62
714.95	294.53
715.28	293.49
715.61	292.43
715.95	291.40
716.28	290.42
716.61	289.44
716.95	288.39
717.28	287.47
717.61	286.50
717.94	285.59
718.28	284.57
718.61	283.73
718.94	282.79
719.27	281.95
719.61	281.17
719.94	280.30
720.27	279.30
720.60	278.41
720.94	277.62
721.27	276.88
721.60	276.15
721.93	275.44
722.27	274.76
722.60	274.08
722.93	273.39
723.26	272.70
723.59	272.02
723.93	271.35
724.26	270.67
724.59	270.01
724.92	269.40
725.25	268.85
725.59	268.27
725.92	267.77
726.25	267.18
726.58	266.53
726.91	265.92
727.24	265.36
727.57	264.85
727.91	264.22
728.24	263.64
728.57	263.04
728.90	262.47
729.23	261.85
729.56	261.39
729.89	260.82
730.22	260.23
730.55	259.68
730.89	259.13
731.22	258.58
731.55	258.06
731.88	257.55
732.21	257.02
732.54	256.42
732.87	255.87
733.20	255.37
733.53	254.95
733.86	254.52
734.19	254.02
734.52	253.56
734.85	253.27
735.18	252.79
735.51	252.46
735.84	252.00
736.17	251.62
736.50	251.07
736.83	250.90
737.16	250.51
737.49	250.12
737.82	249.73
738.15	249.37
738.48	248.99
738.81	248.59
739.14	248.13
739.47	247.74
739.80	247.32
740.13	246.98
740.46	246.53
740.79	246.11
741.12	245.82
741.45	245.45
741.78	244.97
742.11	244.68
742.44	244.23
742.77	243.96
743.10	243.59
743.43	243.25
743.75	242.71
744.08	242.66
744.41	242.29
744.74	241.93
745.07	241.56
745.40	241.27
745.73	240.98
746.06	240.66
746.39	240.36
746.71	240.06
747.04	239.71
747.37	239.38
747.70	239.10
748.03	238.76
748.36	238.48
748.68	238.17
749.01	237.81
749.34	237.56
749.67	237.22
750.00	236.99
750.33	236.86
750.65	236.58
750.98	236.04
751.31	235.82
751.64	235.58
751.97	235.43
752.29	235.12
752.62	234.82
752.95	234.56
753.28	234.32
753.60	234.08
753.93	233.89
754.26	233.66
754.59	233.34
754.91	233.09
755.24	232.83
755.57	232.61
755.90	232.41
756.22	232.13
756.55	231.88
756.88	231.61
757.20	231.27
757.53	231.05
757.86	230.84
758.19	230.65
758.51	230.40
758.84	230.07
759.17	229.88
759.49	229.69
759.82	229.63
760.15	229.46
760.47	229.26
760.80	228.99
761.13	228.84
761.45	228.66
761.78	228.47
762.11	228.30
762.43	228.07
762.76	227.89
763.08	227.75
763.41	227.61
763.74	227.47
764.06	227.30
764.39	227.11
764.71	226.96
765.04	226.79
765.37	226.68
765.69	226.55
766.02	226.39
766.34	226.23
766.67	225.98
767.00	225.89
767.32	225.88
767.65	225.88
767.97	225.78
768.30	225.67
768.62	225.55
768.95	225.42
769.27	225.34
769.60	225.24
769.92	225.06
770.25	224.89
770.57	224.72
770.90	224.59
771.22	224.45
771.55	224.32
771.87	224.19
772.20	224.03
772.52	224.12
772.85	224.26
773.17	224.14
773.50	224.06
773.82	223.90
774.15	223.67
774.47	223.45
774.80	223.29
775.12	223.19
775.45	223.11
775.77	223.04
776.09	222.91
776.42	222.83
776.74	222.83
777.07	222.78
777.39	222.70
777.72	222.59
778.04	222.58
778.36	222.50
778.69	222.44
779.01	222.38
779.33	222.09
779.66	221.77
779.98	221.68
780.31	221.59
780.63	221.59
780.95	221.56
781.28	221.47
781.60	221.38
781.92	221.34
782.25	221.22
782.57	221.14
782.89	221.05
783.22	220.96
783.54	220.84
783.86	220.75
784.19	220.68
784.51	220.68
784.83	220.55
785.16	220.46
785.48	220.38
785.80	220.32
786.12	220.30
