SpectraSuite Data File
++++++++++++++++++++++++++++++++++++
Date: Tue Jan 29 16:28:20 EST 2013
User: group
Dark Spectrum Present: No
Reference Spectrum Present: No
Number of Sampled Component Spectra: 1
Spectrometers: USB2E7196
Integration Time (usec): 65000 (USB2E7196)
Spectra Averaged: 100 (USB2E7196)
Boxcar Smoothing: 10 (USB2E7196)
Correct for Electrical Dark: No (USB2E7196)
Strobe/Lamp Enabled: No (USB2E7196)
Correct for Detector Non-linearity: No (USB2E7196)
Correct for Stray Light: No (USB2E7196)
Number of Pixels in Processed Spectrum: 2048
>>>>>Begin Processed Spectral Data<<<<<
339.09	0.00
339.48	201.99
339.86	203.45
340.24	205.02
340.63	206.91
341.01	211.09
341.39	209.36
341.78	210.91
342.16	212.14
342.54	212.43
342.93	201.46
343.31	211.64
343.69	212.18
344.07	212.67
344.46	213.11
344.84	213.49
345.22	213.63
345.60	213.87
345.99	214.06
346.37	214.20
346.75	214.29
347.13	214.34
347.52	214.40
347.90	214.52
348.28	214.56
348.66	214.62
349.05	214.57
349.43	214.63
349.81	214.70
350.19	214.76
350.57	214.81
350.96	214.86
351.34	214.98
351.72	215.08
352.10	215.18
352.48	215.23
352.87	215.26
353.25	215.34
353.63	215.41
354.01	215.47
354.39	215.52
354.77	215.58
355.15	215.73
355.54	215.79
355.92	215.76
356.30	215.80
356.68	215.98
357.06	216.07
357.44	216.10
357.82	216.16
358.20	216.22
358.58	216.26
358.97	216.31
359.35	216.38
359.73	216.45
360.11	216.51
360.49	216.57
360.87	216.62
361.25	216.67
361.63	216.80
362.01	216.87
362.39	216.88
362.77	216.95
363.15	216.96
363.53	217.00
363.91	217.04
364.29	217.06
364.67	216.92
365.05	216.93
365.43	217.03
365.81	217.08
366.19	217.18
366.57	217.30
366.95	217.32
367.33	217.26
367.71	217.29
368.09	217.34
368.47	217.35
368.85	217.35
369.23	217.41
369.61	217.33
369.99	217.37
370.37	217.40
370.75	217.48
371.13	217.41
371.51	217.36
371.89	217.40
372.27	217.41
372.65	217.39
373.03	217.39
373.41	217.29
373.78	217.25
374.16	217.13
374.54	217.06
374.92	216.98
375.30	216.98
375.68	216.88
376.06	216.83
376.44	216.76
376.82	216.73
377.19	216.66
377.57	216.62
377.95	216.51
378.33	216.46
378.71	216.28
379.09	216.29
379.47	216.32
379.84	216.28
380.22	216.24
380.60	216.19
380.98	216.13
381.36	216.10
381.73	216.02
382.11	216.02
382.49	215.96
382.87	215.93
383.25	215.87
383.62	216.09
384.00	216.03
384.38	216.03
384.76	216.04
385.13	216.09
385.51	216.07
385.89	216.00
386.27	215.97
386.64	215.99
387.02	215.93
387.40	215.84
387.78	215.81
388.15	215.78
388.53	215.73
388.91	215.69
389.29	215.65
389.66	215.69
390.04	215.65
390.42	215.66
390.79	215.64
391.17	215.63
391.55	215.42
391.92	215.38
392.30	215.38
392.68	215.29
393.05	215.26
393.43	215.23
393.81	215.26
394.18	215.25
394.56	215.25
394.94	215.32
395.31	215.32
395.69	215.39
396.06	215.42
396.44	215.46
396.82	215.49
397.19	215.62
397.57	215.58
397.95	215.61
398.32	215.58
398.70	215.66
399.07	215.74
399.45	215.74
399.82	215.79
400.20	215.82
400.58	215.91
400.95	215.88
401.33	216.00
401.70	216.21
402.08	216.32
402.45	216.42
402.83	216.51
403.20	216.63
403.58	216.66
403.95	216.82
404.33	216.98
404.71	217.13
405.08	217.37
405.46	217.54
405.83	217.77
406.21	217.96
406.58	218.18
406.96	218.41
407.33	218.67
407.70	218.99
408.08	219.46
408.45	219.82
408.83	220.22
409.20	220.55
409.58	220.82
409.95	221.26
410.33	221.69
410.70	222.16
411.08	222.74
411.45	223.39
411.82	223.96
412.20	224.64
412.57	225.49
412.95	226.06
413.32	226.92
413.69	227.75
414.07	228.67
414.44	229.65
414.82	230.67
415.19	231.84
415.56	233.03
415.94	234.20
416.31	235.60
416.68	237.01
417.06	238.64
417.43	240.19
417.81	241.91
418.18	243.72
418.55	245.64
418.93	247.63
419.30	249.68
419.67	251.92
420.04	254.23
420.42	256.57
420.79	259.44
421.16	262.27
421.54	265.15
421.91	268.15
422.28	271.25
422.66	274.56
423.03	277.81
423.40	281.19
423.77	284.81
424.15	288.46
424.52	292.31
424.89	296.49
425.26	300.58
425.64	304.49
426.01	308.77
426.38	313.24
426.75	317.80
427.13	322.54
427.50	327.51
427.87	332.73
428.24	337.93
428.61	342.84
428.99	348.31
429.36	354.34
429.73	360.25
430.10	366.09
430.47	372.18
430.85	378.53
431.22	385.20
431.59	392.37
431.96	399.24
432.33	406.73
432.70	413.94
433.08	422.47
433.45	430.53
433.82	438.55
434.19	447.49
434.56	456.21
434.93	464.59
435.30	472.90
435.68	482.00
436.05	491.07
436.42	500.00
436.79	508.18
437.16	516.96
437.53	526.21
437.90	535.37
438.27	544.33
438.64	553.53
439.01	562.10
439.38	569.65
439.75	576.99
440.13	585.47
440.50	593.46
440.87	599.90
441.24	606.56
441.61	613.96
441.98	619.34
442.35	625.74
442.72	632.03
443.09	638.08
443.46	641.81
443.83	644.34
444.20	646.56
444.57	649.73
444.94	651.19
445.31	652.64
445.68	654.12
446.05	654.77
446.42	654.00
446.79	653.03
447.16	651.99
447.53	651.15
447.90	647.80
448.27	644.52
448.64	639.86
449.01	636.54
449.37	630.63
449.74	624.90
450.11	617.91
450.48	610.53
450.85	603.11
451.22	596.65
451.59	590.47
451.96	584.63
452.33	576.70
452.70	569.60
453.07	561.13
453.43	552.47
453.80	544.08
454.17	536.08
454.54	528.54
454.91	520.34
455.28	512.37
455.65	504.92
456.02	497.38
456.38	491.02
456.75	483.15
457.12	476.56
457.49	470.07
457.86	463.93
458.23	458.57
458.59	452.58
458.96	446.61
459.33	441.28
459.70	435.86
460.07	431.63
460.43	426.74
460.80	422.14
461.17	418.10
461.54	413.96
461.91	409.93
462.27	405.78
462.64	402.28
463.01	398.49
463.38	394.81
463.74	391.10
464.11	387.92
464.48	385.06
464.85	381.92
465.21	379.53
465.58	376.84
465.95	373.68
466.32	371.08
466.68	368.43
467.05	365.87
467.42	363.35
467.78	360.65
468.15	358.07
468.52	356.21
468.88	353.74
469.25	351.55
469.62	349.77
469.98	347.82
470.35	346.07
470.72	344.35
471.08	342.53
471.45	341.06
471.82	339.50
472.18	337.82
472.55	336.65
472.92	335.22
473.28	334.04
473.65	332.88
474.02	331.74
474.38	330.88
474.75	330.10
475.11	329.29
475.48	328.77
475.85	328.32
476.21	327.81
476.58	327.42
476.94	327.17
477.31	326.83
477.67	326.60
478.04	326.41
478.41	326.39
478.77	326.55
479.14	326.49
479.50	326.62
479.87	326.93
480.23	327.25
480.60	327.51
480.96	327.78
481.33	328.37
481.69	328.96
482.06	329.47
482.42	329.90
482.79	330.47
483.15	331.22
483.52	332.17
483.88	333.06
484.25	334.02
484.61	335.01
484.98	336.07
485.34	337.36
485.71	338.74
486.07	340.23
486.44	341.57
486.80	343.19
487.17	344.86
487.53	346.67
487.90	348.54
488.26	350.59
488.62	352.75
488.99	354.80
489.35	356.99
489.72	359.36
490.08	361.92
490.44	364.54
490.81	367.28
491.17	369.96
491.54	372.97
491.90	376.05
492.26	379.36
492.63	382.80
492.99	386.28
493.36	390.00
493.72	393.84
494.08	397.92
494.45	402.14
494.81	406.54
495.17	411.04
495.54	415.78
495.90	420.58
496.26	425.58
496.63	430.84
496.99	436.24
497.35	441.82
497.72	447.72
498.08	453.68
498.44	459.81
498.80	466.27
499.17	472.78
499.53	479.52
499.89	486.46
500.26	493.49
500.62	500.64
500.98	508.10
501.34	515.63
501.71	523.40
502.07	531.30
502.43	539.39
502.79	547.62
503.16	556.02
503.52	564.71
503.88	573.44
504.24	582.46
504.60	591.61
504.97	600.97
505.33	610.30
505.69	620.26
506.05	630.14
506.41	640.17
506.78	650.34
507.14	660.62
507.50	671.15
507.86	682.00
508.22	692.89
508.59	703.62
508.95	714.85
509.31	726.18
509.67	737.71
510.03	749.21
510.39	761.06
510.75	773.00
511.12	784.98
511.48	797.19
511.84	809.55
512.20	821.97
512.56	834.72
512.92	847.71
513.28	860.45
513.64	873.39
514.00	886.27
514.37	899.30
514.73	912.53
515.09	925.65
515.45	938.58
515.81	951.62
516.17	965.06
516.53	978.39
516.89	991.61
517.25	1004.80
517.61	1018.40
517.97	1031.85
518.33	1045.04
518.69	1058.75
519.05	1072.58
519.41	1086.36
519.77	1100.46
520.13	1113.85
520.49	1127.09
520.85	1140.62
521.21	1154.20
521.57	1167.96
521.93	1181.20
522.29	1195.08
522.65	1208.80
523.01	1222.59
523.37	1235.99
523.73	1249.48
524.09	1262.77
524.45	1276.36
524.81	1289.92
525.17	1303.42
525.53	1316.74
525.89	1330.25
526.25	1343.54
526.61	1356.63
526.97	1369.89
527.33	1382.85
527.68	1396.40
528.04	1410.02
528.40	1423.23
528.76	1436.70
529.12	1449.74
529.48	1463.22
529.84	1475.56
530.20	1488.46
530.56	1501.18
530.91	1514.60
531.27	1527.61
531.63	1540.42
531.99	1553.26
532.35	1565.80
532.71	1578.34
533.07	1591.51
533.42	1604.00
533.78	1616.14
534.14	1628.36
534.50	1639.75
534.86	1651.44
535.21	1662.44
535.57	1674.08
535.93	1685.52
536.29	1696.56
536.65	1708.19
537.00	1719.34
537.36	1730.87
537.72	1741.99
538.08	1753.37
538.44	1764.46
538.79	1775.63
539.15	1786.68
539.51	1797.74
539.87	1809.12
540.22	1820.07
540.58	1831.02
540.94	1841.91
541.29	1852.39
541.65	1862.07
542.01	1872.62
542.37	1882.78
542.72	1893.02
543.08	1902.75
543.44	1913.30
543.79	1922.73
544.15	1932.25
544.51	1942.31
544.87	1952.26
545.22	1961.66
545.58	1970.79
545.94	1979.64
546.29	1988.32
546.65	1996.70
547.01	2004.70
547.36	2012.49
547.72	2020.18
548.07	2027.71
548.43	2035.64
548.79	2043.59
549.14	2051.91
549.50	2060.38
549.86	2068.45
550.21	2076.06
550.57	2083.87
550.92	2090.70
551.28	2098.30
551.64	2105.67
551.99	2113.18
552.35	2120.34
552.70	2127.27
553.06	2133.94
553.41	2140.37
553.77	2146.90
554.13	2153.41
554.48	2160.57
554.84	2167.76
555.19	2174.44
555.55	2181.03
555.90	2187.51
556.26	2194.28
556.61	2200.41
556.97	2205.27
557.32	2211.00
557.68	2217.58
558.03	2223.35
558.39	2228.70
558.74	2234.61
559.10	2240.02
559.45	2245.57
559.81	2251.22
560.16	2256.75
560.52	2262.68
560.87	2269.06
561.23	2275.00
561.58	2281.74
561.94	2286.95
562.29	2291.59
562.64	2297.79
563.00	2303.48
563.35	2308.75
563.71	2314.65
564.06	2320.39
564.42	2326.52
564.77	2331.69
565.12	2336.83
565.48	2342.09
565.83	2347.80
566.19	2353.29
566.54	2358.83
566.89	2363.48
567.25	2368.24
567.60	2373.97
567.96	2379.09
568.31	2383.69
568.66	2388.00
569.02	2391.87
569.37	2395.89
569.72	2400.45
570.08	2403.90
570.43	2406.99
570.78	2410.27
571.14	2412.56
571.49	2415.70
571.84	2419.19
572.20	2422.15
572.55	2425.08
572.90	2427.40
573.26	2430.17
573.61	2432.77
573.96	2434.93
574.31	2436.96
574.67	2438.83
575.02	2439.45
575.37	2440.88
575.72	2441.56
576.08	2442.99
576.43	2443.11
576.78	2443.46
577.13	2444.87
577.49	2446.10
577.84	2447.11
578.19	2448.48
578.54	2449.25
578.90	2449.82
579.25	2449.85
579.60	2449.74
579.95	2449.04
580.30	2449.05
580.66	2448.34
581.01	2446.76
581.36	2444.35
581.71	2443.01
582.06	2441.89
582.42	2441.19
582.77	2438.91
583.12	2437.37
583.47	2436.02
583.82	2435.57
584.17	2434.21
584.53	2432.21
584.88	2430.02
585.23	2428.13
585.58	2425.82
585.93	2423.80
586.28	2421.66
586.63	2419.09
586.98	2416.92
587.34	2415.01
587.69	2412.59
588.04	2410.53
588.39	2409.15
588.74	2406.63
589.09	2403.86
589.44	2400.54
589.79	2398.06
590.14	2396.13
590.49	2393.41
590.84	2389.50
591.19	2386.38
591.54	2383.26
591.89	2379.13
592.25	2375.87
592.60	2371.74
592.95	2367.56
593.30	2363.35
593.65	2358.91
594.00	2354.36
594.35	2351.17
594.70	2346.37
595.05	2341.90
595.40	2336.33
595.75	2330.39
596.10	2326.87
596.45	2322.10
596.80	2317.53
597.15	2312.29
597.50	2306.37
597.85	2301.25
598.19	2295.99
598.54	2290.03
598.89	2284.74
599.24	2280.25
599.59	2274.10
599.94	2268.15
600.29	2262.10
600.64	2255.97
600.99	2249.19
601.34	2243.69
601.69	2236.70
602.04	2230.24
602.39	2223.43
602.74	2217.23
603.08	2211.69
603.43	2205.00
603.78	2197.97
604.13	2190.71
604.48	2183.32
604.83	2177.17
605.18	2170.93
605.53	2164.03
605.87	2156.92
606.22	2150.10
606.57	2142.16
606.92	2134.09
607.27	2127.04
607.62	2120.29
607.96	2113.43
608.31	2106.95
608.66	2099.14
609.01	2091.56
609.36	2084.40
609.70	2076.59
610.05	2068.91
610.40	2060.41
610.75	2052.14
611.10	2044.30
611.44	2035.42
611.79	2026.75
612.14	2016.76
612.49	2005.99
612.83	1996.49
613.18	1987.19
613.53	1977.67
613.88	1967.93
614.22	1959.20
614.57	1949.37
614.92	1938.79
615.27	1928.54
615.61	1918.20
615.96	1908.37
616.31	1898.59
616.65	1889.08
617.00	1879.35
617.35	1869.43
617.70	1859.72
618.04	1849.50
618.39	1839.30
618.74	1829.65
619.08	1819.79
619.43	1811.08
619.78	1802.76
620.12	1794.18
620.47	1784.63
620.82	1774.28
621.16	1764.58
621.51	1754.67
621.85	1744.70
622.20	1734.22
622.55	1723.50
622.89	1713.61
623.24	1703.89
623.59	1694.04
623.93	1683.83
624.28	1674.00
624.62	1663.91
624.97	1653.49
625.32	1643.54
625.66	1634.49
626.01	1625.62
626.35	1616.21
626.70	1605.91
627.04	1595.76
627.39	1585.48
627.73	1576.07
628.08	1567.03
628.43	1557.19
628.77	1547.90
629.12	1538.92
629.46	1531.14
629.81	1522.67
630.15	1513.05
630.50	1503.18
630.84	1492.60
631.19	1482.63
631.53	1473.22
631.88	1462.98
632.22	1452.87
632.57	1443.64
632.91	1433.56
633.26	1423.58
633.60	1413.82
633.95	1404.40
634.29	1394.81
634.64	1385.36
634.98	1375.22
635.32	1365.85
635.67	1357.37
636.01	1348.01
636.36	1338.13
636.70	1328.44
637.05	1319.00
637.39	1309.99
637.73	1301.34
638.08	1293.65
638.42	1285.47
638.77	1276.52
639.11	1268.22
639.45	1260.41
639.80	1251.63
640.14	1242.73
640.49	1233.82
640.83	1224.97
641.17	1216.82
641.52	1208.63
641.86	1200.06
642.20	1192.21
642.55	1183.44
642.89	1174.38
643.23	1165.65
643.58	1157.51
643.92	1148.43
644.26	1139.65
644.61	1131.18
644.95	1122.19
645.29	1112.97
645.64	1103.65
645.98	1095.12
646.32	1087.10
646.66	1078.48
647.01	1070.12
647.35	1061.96
647.69	1053.58
648.04	1045.25
648.38	1036.27
648.72	1027.32
649.06	1018.73
649.41	1010.41
649.75	1002.49
650.09	994.61
650.43	986.46
650.78	978.09
651.12	970.24
651.46	962.72
651.80	955.32
652.14	947.95
652.49	940.35
652.83	932.96
653.17	925.15
653.51	917.46
653.85	910.08
654.20	902.75
654.54	895.25
654.88	887.86
655.22	880.58
655.56	873.49
655.90	866.74
656.25	859.97
656.59	853.01
656.93	845.88
657.27	838.60
657.61	831.53
657.95	825.34
658.29	819.26
658.64	813.13
658.98	806.59
659.32	800.00
659.66	793.64
660.00	787.28
660.34	781.19
660.68	775.03
661.02	768.64
661.36	762.65
661.70	756.84
662.05	751.21
662.39	745.65
662.73	740.27
663.07	734.73
663.41	729.11
663.75	723.30
664.09	717.61
664.43	712.21
664.77	706.77
665.11	700.91
665.45	695.05
665.79	689.13
666.13	683.46
666.47	677.93
666.81	672.41
667.15	666.93
667.49	661.58
667.83	656.23
668.17	650.93
668.51	645.64
668.85	640.58
669.19	635.55
669.53	630.46
669.87	625.18
670.21	620.37
670.55	615.56
670.89	611.07
671.23	606.62
671.57	602.14
671.91	597.84
672.25	593.61
672.58	589.38
672.92	585.30
673.26	581.20
673.60	577.20
673.94	573.39
674.28	569.73
674.62	565.95
674.96	562.17
675.30	558.60
675.64	554.93
675.97	551.23
676.31	547.60
676.65	543.99
676.99	540.60
677.33	536.69
677.67	533.06
678.01	529.11
678.34	525.45
678.68	521.92
679.02	518.26
679.36	514.55
679.70	510.88
680.04	507.21
680.37	503.71
680.71	500.34
681.05	497.04
681.39	493.75
681.73	490.53
682.06	487.38
682.40	484.27
682.74	481.02
683.08	477.84
683.42	474.60
683.75	471.53
684.09	468.39
684.43	465.55
684.77	462.57
685.10	459.75
685.44	456.79
685.78	453.77
686.12	450.95
686.45	448.15
686.79	445.47
687.13	442.91
687.46	440.29
687.80	437.63
688.14	434.81
688.48	432.08
688.81	429.36
689.15	426.79
689.49	424.14
689.82	421.57
690.16	418.86
690.50	416.37
690.83	413.82
691.17	411.22
691.51	408.73
691.84	406.39
692.18	404.08
692.52	401.82
692.85	399.65
693.19	397.52
693.52	395.31
693.86	393.00
694.20	390.80
694.53	388.63
694.87	386.39
695.21	384.22
695.54	382.06
695.88	379.91
696.21	377.67
696.55	375.49
696.88	373.40
697.22	371.38
697.56	369.45
697.89	367.49
698.23	365.72
698.56	363.91
698.90	362.09
699.23	360.16
699.57	358.28
699.90	356.39
700.24	354.52
700.58	352.75
700.91	351.09
701.25	349.48
701.58	347.85
701.92	346.22
702.25	344.60
702.59	342.95
702.92	341.35
703.26	339.78
703.59	338.26
703.93	336.99
704.26	335.53
704.60	334.02
704.93	332.52
705.26	331.02
705.60	329.52
705.93	327.94
706.27	326.58
706.60	325.34
706.94	324.08
707.27	322.69
707.61	321.34
707.94	319.98
708.27	318.45
708.61	316.96
708.94	315.53
709.28	314.21
709.61	312.94
709.94	311.68
710.28	310.45
710.61	309.28
710.95	307.82
711.28	306.79
711.61	305.58
711.95	304.43
712.28	303.14
712.61	301.91
712.95	300.87
713.28	299.82
713.61	298.62
713.95	297.43
714.28	296.40
714.61	295.31
714.95	294.23
715.28	293.19
715.61	292.21
715.95	291.27
716.28	290.30
716.61	289.35
716.95	288.36
717.28	287.40
717.61	286.39
717.94	285.49
718.28	284.42
718.61	283.52
718.94	282.65
719.27	281.87
719.61	281.05
719.94	280.20
720.27	279.25
720.60	278.32
720.94	277.54
721.27	276.74
721.60	276.07
721.93	275.35
722.27	274.69
722.60	274.01
722.93	273.27
723.26	272.57
723.59	271.85
723.93	271.24
724.26	270.59
724.59	269.94
724.92	269.31
725.25	268.77
725.59	268.16
725.92	267.61
726.25	267.00
726.58	266.41
726.91	265.79
727.24	265.22
727.57	264.72
727.91	264.10
728.24	263.54
728.57	262.90
728.90	262.33
729.23	261.70
729.56	261.24
729.89	260.70
730.22	260.17
730.55	259.64
730.89	259.08
731.22	258.53
731.55	258.05
731.88	257.52
732.21	256.98
732.54	256.48
732.87	255.94
733.20	255.48
733.53	254.98
733.86	254.49
734.19	254.03
734.52	253.61
734.85	253.29
735.18	252.81
735.51	252.45
735.84	252.04
736.17	251.63
736.50	251.06
736.83	250.92
737.16	250.46
737.49	250.09
737.82	249.68
738.15	249.35
738.48	248.95
738.81	248.57
739.14	248.10
739.47	247.66
739.80	247.26
740.13	246.89
740.46	246.49
740.79	246.08
741.12	245.72
741.45	245.30
741.78	244.84
742.11	244.58
742.44	244.18
742.77	243.85
743.10	243.53
743.43	243.21
743.75	242.63
744.08	242.59
744.41	242.18
744.74	241.85
745.07	241.45
745.40	241.12
745.73	240.86
746.06	240.56
746.39	240.31
746.71	239.95
747.04	239.59
747.37	239.28
747.70	239.04
748.03	238.68
748.36	238.42
748.68	238.15
749.01	237.76
749.34	237.48
749.67	237.18
750.00	236.91
750.33	236.78
750.65	236.56
750.98	236.02
751.31	235.79
751.64	235.53
751.97	235.40
752.29	235.14
752.62	234.78
752.95	234.53
753.28	234.23
753.60	234.02
753.93	233.85
754.26	233.66
754.59	233.38
754.91	233.18
755.24	232.97
755.57	232.72
755.90	232.50
756.22	232.26
756.55	231.98
756.88	231.72
757.20	231.34
757.53	231.06
757.86	230.86
758.19	230.65
758.51	230.43
758.84	230.13
759.17	229.91
759.49	229.78
759.82	229.68
760.15	229.54
760.47	229.34
760.80	229.11
761.13	228.93
761.45	228.72
761.78	228.54
762.11	228.33
762.43	228.14
762.76	227.96
763.08	227.84
763.41	227.69
763.74	227.55
764.06	227.41
764.39	227.26
764.71	227.08
765.04	226.94
765.37	226.73
765.69	226.58
766.02	226.43
766.34	226.27
766.67	226.07
767.00	225.93
767.32	225.93
767.65	225.91
767.97	225.78
768.30	225.67
768.62	225.51
768.95	225.36
769.27	225.25
769.60	225.15
769.92	224.95
770.25	224.83
770.57	224.65
770.90	224.52
771.22	224.39
771.55	224.29
771.87	224.18
772.20	224.08
772.52	224.15
772.85	224.30
773.17	224.18
773.50	224.05
773.82	223.90
774.15	223.68
774.47	223.44
774.80	223.29
775.12	223.19
775.45	223.10
775.77	223.02
776.09	222.98
776.42	222.92
776.74	222.89
777.07	222.80
777.39	222.74
777.72	222.68
778.04	222.62
778.36	222.51
778.69	222.41
779.01	222.38
779.33	222.11
779.66	221.80
779.98	221.71
780.31	221.67
780.63	221.69
780.95	221.64
781.28	221.55
781.60	221.49
781.92	221.43
782.25	221.39
782.57	221.32
782.89	221.18
783.22	221.10
783.54	221.01
783.86	220.97
784.19	220.89
784.51	220.88
784.83	220.78
785.16	220.70
785.48	220.67
785.80	220.57
786.12	220.53
