SpectraSuite Data File
++++++++++++++++++++++++++++++++++++
Date: Tue Jan 29 16:57:08 EST 2013
User: group
Dark Spectrum Present: No
Reference Spectrum Present: No
Number of Sampled Component Spectra: 1
Spectrometers: USB2E7196
Integration Time (usec): 65000 (USB2E7196)
Spectra Averaged: 100 (USB2E7196)
Boxcar Smoothing: 10 (USB2E7196)
Correct for Electrical Dark: No (USB2E7196)
Strobe/Lamp Enabled: No (USB2E7196)
Correct for Detector Non-linearity: No (USB2E7196)
Correct for Stray Light: No (USB2E7196)
Number of Pixels in Processed Spectrum: 2048
>>>>>Begin Processed Spectral Data<<<<<
339.09	0.00
339.48	201.63
339.86	203.06
340.24	204.71
340.63	205.95
341.01	210.07
341.39	209.03
341.78	210.22
342.16	211.39
342.54	212.05
342.93	200.99
343.31	211.14
343.69	211.66
344.07	212.17
344.46	212.61
344.84	213.00
345.22	213.16
345.60	213.44
345.99	213.63
346.37	213.74
346.75	213.85
347.13	213.91
347.52	213.95
347.90	214.08
348.28	214.10
348.66	214.18
349.05	214.13
349.43	214.18
349.81	214.27
350.19	214.32
350.57	214.35
350.96	214.44
351.34	214.51
351.72	214.62
352.10	214.70
352.48	214.76
352.87	214.82
353.25	214.91
353.63	214.94
354.01	215.02
354.39	215.11
354.77	215.15
355.15	215.27
355.54	215.34
355.92	215.34
356.30	215.40
356.68	215.57
357.06	215.64
357.44	215.69
357.82	215.72
358.20	215.78
358.58	215.85
358.97	215.89
359.35	216.02
359.73	216.14
360.11	216.19
360.49	216.24
360.87	216.27
361.25	216.33
361.63	216.44
362.01	216.49
362.39	216.53
362.77	216.61
363.15	216.63
363.53	216.65
363.91	216.69
364.29	216.74
364.67	216.58
365.05	216.63
365.43	216.65
365.81	216.71
366.19	216.84
366.57	216.94
366.95	216.96
367.33	216.93
367.71	216.88
368.09	216.93
368.47	216.92
368.85	216.90
369.23	216.94
369.61	216.87
369.99	216.88
370.37	216.88
370.75	216.92
371.13	216.85
371.51	216.80
371.89	216.80
372.27	216.77
372.65	216.76
373.03	216.72
373.41	216.68
373.78	216.62
374.16	216.50
374.54	216.36
374.92	216.32
375.30	216.26
375.68	216.19
376.06	216.14
376.44	216.08
376.82	216.05
377.19	215.98
377.57	215.95
377.95	215.84
378.33	215.80
378.71	215.66
379.09	215.66
379.47	215.65
379.84	215.58
380.22	215.51
380.60	215.44
380.98	215.40
381.36	215.31
381.73	215.25
382.11	215.25
382.49	215.27
382.87	215.19
383.25	215.13
383.62	215.35
384.00	215.27
384.38	215.26
384.76	215.27
385.13	215.32
385.51	215.26
385.89	215.22
386.27	215.21
386.64	215.23
387.02	215.18
387.40	215.14
387.78	215.13
388.15	215.10
388.53	215.06
388.91	215.02
389.29	215.01
389.66	215.03
390.04	214.96
390.42	214.95
390.79	214.95
391.17	214.96
391.55	214.70
391.92	214.69
392.30	214.69
392.68	214.64
393.05	214.63
393.43	214.64
393.81	214.64
394.18	214.58
394.56	214.58
394.94	214.63
395.31	214.61
395.69	214.68
396.06	214.73
396.44	214.78
396.82	214.78
397.19	214.91
397.57	214.92
397.95	214.98
398.32	214.97
398.70	215.03
399.07	215.13
399.45	215.18
399.82	215.23
400.20	215.23
400.58	215.28
400.95	215.27
401.33	215.39
401.70	215.65
402.08	215.75
402.45	215.85
402.83	215.98
403.20	216.09
403.58	216.15
403.95	216.31
404.33	216.45
404.71	216.62
405.08	216.87
405.46	217.01
405.83	217.19
406.21	217.37
406.58	217.61
406.96	217.81
407.33	218.10
407.70	218.39
408.08	218.92
408.45	219.29
408.83	219.68
409.20	220.05
409.58	220.31
409.95	220.77
410.33	221.24
410.70	221.70
411.08	222.29
411.45	222.87
411.82	223.46
412.20	224.15
412.57	224.97
412.95	225.56
413.32	226.44
413.69	227.28
414.07	228.22
414.44	229.19
414.82	230.21
415.19	231.38
415.56	232.59
415.94	233.77
416.31	235.15
416.68	236.55
417.06	238.13
417.43	239.71
417.81	241.46
418.18	243.26
418.55	245.20
418.93	247.24
419.30	249.36
419.67	251.58
420.04	253.85
420.42	256.26
420.79	259.13
421.16	261.91
421.54	264.86
421.91	267.88
422.28	271.03
422.66	274.36
423.03	277.63
423.40	281.02
423.77	284.65
424.15	288.35
424.52	292.20
424.89	296.41
425.26	300.51
425.64	304.44
426.01	308.72
426.38	313.23
426.75	317.81
427.13	322.58
427.50	327.57
427.87	332.84
428.24	338.07
428.61	343.02
428.99	348.57
429.36	354.61
429.73	360.52
430.10	366.40
430.47	372.49
430.85	378.84
431.22	385.64
431.59	392.74
431.96	399.67
432.33	407.24
432.70	414.53
433.08	423.15
433.45	431.25
433.82	439.28
434.19	448.15
434.56	456.91
434.93	465.33
435.30	473.69
435.68	482.85
436.05	491.89
436.42	500.83
436.79	509.07
437.16	517.91
437.53	527.20
437.90	536.46
438.27	545.48
438.64	554.78
439.01	563.32
439.38	571.00
439.75	578.31
440.13	586.72
440.50	594.72
440.87	601.13
441.24	607.82
441.61	615.22
441.98	620.65
442.35	626.99
442.72	633.33
443.09	639.46
443.46	643.29
443.83	645.80
444.20	648.07
444.57	651.25
444.94	652.71
445.31	654.23
445.68	655.64
446.05	656.34
446.42	655.64
446.79	654.71
447.16	653.61
447.53	652.90
447.90	649.56
448.27	646.27
448.64	641.63
449.01	638.32
449.37	632.44
449.74	626.76
450.11	619.82
450.48	612.41
450.85	604.92
451.22	598.36
451.59	592.26
451.96	586.43
452.33	578.55
452.70	571.42
453.07	562.87
453.43	554.15
453.80	545.72
454.17	537.58
454.54	529.95
454.91	521.70
455.28	513.62
455.65	506.21
456.02	498.65
456.38	492.23
456.75	484.24
457.12	477.65
457.49	471.13
457.86	464.88
458.23	459.42
458.59	453.42
458.96	447.33
459.33	441.96
459.70	436.52
460.07	432.21
460.43	427.24
460.80	422.64
461.17	418.56
461.54	414.34
461.91	410.28
462.27	406.09
462.64	402.60
463.01	398.80
463.38	395.05
463.74	391.33
464.11	388.08
464.48	385.28
464.85	382.10
465.21	379.64
465.58	377.02
465.95	373.86
466.32	371.21
466.68	368.64
467.05	365.96
467.42	363.36
467.78	360.62
468.15	358.09
468.52	356.12
468.88	353.62
469.25	351.38
469.62	349.59
469.98	347.67
470.35	345.86
470.72	344.16
471.08	342.34
471.45	340.78
471.82	339.22
472.18	337.48
472.55	336.27
472.92	334.85
473.28	333.63
473.65	332.46
474.02	331.32
474.38	330.38
474.75	329.66
475.11	328.81
475.48	328.20
475.85	327.67
476.21	327.19
476.58	326.86
476.94	326.62
477.31	326.26
477.67	326.00
478.04	325.86
478.41	325.80
478.77	325.93
479.14	325.87
479.50	326.01
479.87	326.28
480.23	326.58
480.60	326.78
480.96	327.03
481.33	327.61
481.69	328.14
482.06	328.67
482.42	329.14
482.79	329.76
483.15	330.57
483.52	331.52
483.88	332.37
484.25	333.29
484.61	334.30
484.98	335.36
485.34	336.65
485.71	337.99
486.07	339.41
486.44	340.78
486.80	342.43
487.17	344.09
487.53	345.94
487.90	347.85
488.26	349.86
488.62	351.97
488.99	354.05
489.35	356.22
489.72	358.61
490.08	361.12
490.44	363.74
490.81	366.45
491.17	369.12
491.54	372.09
491.90	375.10
492.26	378.30
492.63	381.72
492.99	385.19
493.36	388.89
493.72	392.77
494.08	396.76
494.45	400.94
494.81	405.33
495.17	409.72
495.54	414.39
495.90	419.25
496.26	424.20
496.63	429.32
496.99	434.73
497.35	440.26
497.72	446.09
498.08	452.00
498.44	458.06
498.80	464.54
499.17	471.04
499.53	477.78
499.89	484.72
500.26	491.64
500.62	498.71
500.98	506.00
501.34	513.43
501.71	521.17
502.07	528.97
502.43	536.91
502.79	545.05
503.16	553.44
503.52	562.01
503.88	570.64
504.24	579.64
504.60	588.69
504.97	597.88
505.33	607.07
505.69	616.87
506.05	626.72
506.41	636.59
506.78	646.54
507.14	656.77
507.50	667.14
507.86	677.86
508.22	688.60
508.59	699.20
508.95	710.22
509.31	721.41
509.67	732.80
510.03	744.11
510.39	755.84
510.75	767.53
511.12	779.30
511.48	791.37
511.84	803.59
512.20	815.86
512.56	828.42
512.92	841.19
513.28	853.74
513.64	866.44
514.00	879.15
514.37	892.27
514.73	905.31
515.09	918.35
515.45	931.23
515.81	944.25
516.17	957.69
516.53	970.84
516.89	983.81
517.25	997.03
517.61	1010.61
517.97	1023.92
518.33	1037.14
518.69	1050.75
519.05	1064.56
519.41	1078.18
519.77	1092.04
520.13	1105.42
520.49	1118.59
520.85	1131.99
521.21	1145.31
521.57	1158.91
521.93	1171.83
522.29	1185.57
522.65	1199.04
523.01	1212.58
523.37	1225.88
523.73	1239.17
524.09	1252.44
524.45	1265.99
524.81	1279.45
525.17	1292.78
525.53	1305.99
525.89	1319.19
526.25	1332.39
526.61	1345.25
526.97	1358.40
527.33	1371.37
527.68	1384.83
528.04	1398.33
528.40	1411.41
528.76	1424.79
529.12	1437.86
529.48	1451.20
529.84	1463.45
530.20	1476.31
530.56	1489.00
530.91	1502.16
531.27	1515.09
531.63	1527.78
531.99	1540.68
532.35	1552.91
532.71	1565.30
533.07	1578.39
533.42	1590.83
533.78	1603.05
534.14	1615.12
534.50	1626.51
534.86	1638.13
535.21	1648.98
535.57	1660.63
535.93	1672.00
536.29	1683.17
536.65	1694.51
537.00	1705.60
537.36	1717.13
537.72	1728.19
538.08	1739.68
538.44	1750.84
538.79	1761.99
539.15	1773.08
539.51	1783.86
539.87	1795.31
540.22	1806.10
540.58	1817.03
540.94	1828.11
541.29	1838.32
541.65	1848.25
542.01	1858.63
542.37	1868.75
542.72	1878.94
543.08	1888.72
543.44	1899.28
543.79	1908.56
544.15	1918.22
544.51	1928.21
544.87	1938.09
545.22	1947.40
545.58	1956.23
545.94	1965.07
546.29	1973.60
546.65	1982.00
547.01	1990.16
547.36	1997.77
547.72	2005.79
548.07	2013.38
548.43	2020.94
548.79	2028.78
549.14	2036.80
549.50	2045.38
549.86	2053.42
550.21	2061.03
550.57	2068.68
550.92	2075.61
551.28	2083.17
551.64	2090.26
551.99	2097.76
552.35	2104.97
552.70	2111.84
553.06	2118.50
553.41	2124.77
553.77	2131.28
554.13	2137.62
554.48	2144.75
554.84	2151.98
555.19	2158.47
555.55	2164.77
555.90	2171.16
556.26	2178.15
556.61	2184.36
556.97	2189.12
557.32	2194.66
557.68	2201.05
558.03	2206.92
558.39	2212.21
558.74	2218.16
559.10	2223.71
559.45	2229.19
559.81	2234.73
560.16	2240.20
560.52	2246.15
560.87	2252.55
561.23	2258.35
561.58	2264.87
561.94	2270.17
562.29	2274.64
562.64	2280.47
563.00	2286.19
563.35	2291.57
563.71	2296.96
564.06	2302.60
564.42	2308.56
564.77	2313.60
565.12	2318.78
565.48	2323.67
565.83	2329.07
566.19	2334.21
566.54	2339.48
566.89	2344.02
567.25	2348.43
567.60	2354.08
567.96	2358.92
568.31	2363.26
568.66	2367.51
569.02	2371.33
569.37	2374.83
569.72	2379.16
570.08	2382.57
570.43	2385.55
570.78	2388.66
571.14	2391.07
571.49	2393.97
571.84	2397.34
572.20	2400.22
572.55	2403.00
572.90	2405.31
573.26	2407.81
573.61	2410.43
573.96	2412.44
574.31	2414.39
574.67	2416.08
575.02	2416.59
575.37	2417.96
575.72	2418.45
576.08	2419.82
576.43	2419.82
576.78	2420.04
577.13	2421.37
577.49	2422.41
577.84	2423.19
578.19	2424.21
578.54	2424.73
578.90	2425.07
579.25	2424.74
579.60	2424.43
579.95	2423.32
580.30	2422.96
580.66	2422.34
581.01	2420.39
581.36	2417.80
581.71	2416.11
582.06	2414.72
582.42	2413.74
582.77	2411.24
583.12	2409.57
583.47	2407.97
583.82	2407.22
584.17	2405.81
584.53	2403.57
584.88	2401.29
585.23	2399.30
585.58	2396.74
585.93	2394.56
586.28	2392.28
586.63	2389.54
586.98	2387.11
587.34	2385.09
587.69	2382.31
588.04	2379.79
588.39	2378.10
588.74	2375.50
589.09	2372.59
589.44	2369.21
589.79	2366.50
590.14	2364.19
590.49	2361.18
590.84	2356.89
591.19	2353.46
591.54	2350.03
591.89	2345.88
592.25	2342.52
592.60	2338.20
592.95	2333.95
593.30	2329.70
593.65	2325.23
594.00	2320.66
594.35	2317.59
594.70	2312.90
595.05	2308.62
595.40	2303.22
595.75	2297.31
596.10	2293.45
596.45	2288.57
596.80	2284.03
597.15	2278.77
597.50	2273.01
597.85	2267.96
598.19	2262.90
598.54	2257.04
598.89	2251.70
599.24	2247.03
599.59	2240.82
599.94	2234.68
600.29	2228.72
600.64	2222.72
600.99	2215.77
601.34	2210.28
601.69	2203.27
602.04	2196.77
602.39	2189.91
602.74	2183.69
603.08	2178.21
603.43	2171.82
603.78	2165.01
604.13	2157.83
604.48	2150.56
604.83	2144.37
605.18	2138.21
605.53	2131.49
605.87	2124.59
606.22	2117.85
606.57	2109.99
606.92	2102.01
607.27	2095.22
607.62	2088.72
607.96	2081.75
608.31	2075.33
608.66	2067.65
609.01	2060.03
609.36	2052.94
609.70	2045.44
610.05	2037.62
610.40	2029.36
610.75	2021.01
611.10	2013.17
611.44	2004.24
611.79	1995.52
612.14	1985.70
612.49	1974.93
612.83	1965.35
613.18	1955.88
613.53	1946.58
613.88	1937.03
614.22	1928.51
614.57	1918.66
614.92	1907.95
615.27	1897.63
615.61	1887.34
615.96	1877.59
616.31	1868.10
616.65	1858.62
617.00	1849.02
617.35	1839.49
617.70	1829.72
618.04	1819.80
618.39	1810.01
618.74	1800.58
619.08	1790.97
619.43	1782.28
619.78	1774.05
620.12	1765.62
620.47	1756.38
620.82	1746.18
621.16	1736.42
621.51	1726.58
621.85	1716.95
622.20	1706.92
622.55	1696.66
622.89	1686.94
623.24	1677.52
623.59	1667.68
623.93	1657.84
624.28	1648.02
624.62	1638.03
624.97	1628.10
625.32	1618.44
625.66	1609.37
626.01	1600.67
626.35	1591.45
626.70	1581.57
627.04	1571.89
627.39	1561.81
627.73	1552.54
628.08	1543.73
628.43	1534.36
628.77	1525.17
629.12	1516.41
629.46	1508.66
629.81	1500.50
630.15	1491.37
630.50	1481.55
630.84	1471.36
631.19	1461.53
631.53	1452.51
631.88	1442.65
632.22	1432.82
632.57	1423.58
632.91	1413.77
633.26	1404.07
633.60	1394.63
633.95	1385.60
634.29	1376.17
634.64	1367.05
634.98	1357.31
635.32	1348.29
635.67	1340.11
636.01	1331.02
636.36	1321.46
636.70	1312.10
637.05	1302.78
637.39	1294.02
637.73	1285.63
638.08	1278.08
638.42	1270.09
638.77	1261.42
639.11	1253.27
639.45	1245.54
639.80	1237.21
640.14	1228.49
640.49	1219.76
640.83	1211.07
641.17	1202.80
641.52	1194.75
641.86	1186.24
642.20	1178.48
642.55	1169.71
642.89	1160.77
643.23	1152.32
643.58	1144.23
643.92	1135.28
644.26	1126.58
644.61	1118.18
644.95	1109.36
645.29	1100.34
645.64	1091.25
645.98	1082.64
646.32	1074.71
646.66	1066.27
647.01	1058.08
647.35	1050.13
647.69	1042.01
648.04	1033.86
648.38	1025.17
648.72	1016.49
649.06	1008.28
649.41	1000.08
649.75	992.39
650.09	984.69
650.43	976.70
650.78	968.50
651.12	960.80
651.46	953.54
651.80	946.34
652.14	939.21
652.49	931.73
652.83	924.52
653.17	917.02
653.51	909.56
653.85	902.40
654.20	895.20
654.54	887.90
654.88	880.66
655.22	873.51
655.56	866.57
655.90	859.90
656.25	853.19
656.59	846.47
656.93	839.57
657.27	832.52
657.61	825.53
657.95	819.41
658.29	813.49
658.64	807.53
658.98	801.11
659.32	794.69
659.66	788.50
660.00	782.25
660.34	776.19
660.68	770.13
661.02	763.73
661.36	757.66
661.70	751.79
662.05	746.21
662.39	740.81
662.73	735.43
663.07	730.00
663.41	724.41
663.75	718.67
664.09	712.99
664.43	707.53
664.77	702.23
665.11	696.52
665.45	690.71
665.79	684.81
666.13	679.14
666.47	673.68
666.81	668.21
667.15	662.79
667.49	657.59
667.83	652.28
668.17	647.08
668.51	642.00
668.85	637.08
669.19	632.22
669.53	627.19
669.87	622.10
670.21	617.28
670.55	612.67
670.89	608.21
671.23	603.78
671.57	599.35
671.91	595.14
672.25	590.95
672.58	586.84
672.92	582.80
673.26	578.87
673.60	574.93
673.94	571.20
674.28	567.65
674.62	564.03
674.96	560.25
675.30	556.78
675.64	553.11
675.97	549.52
676.31	545.94
676.65	542.28
676.99	538.97
677.33	535.20
677.67	531.51
678.01	527.72
678.34	524.16
678.68	520.65
679.02	517.01
679.36	513.33
679.70	509.66
680.04	506.09
680.37	502.59
680.71	499.26
681.05	496.01
681.39	492.59
681.73	489.32
682.06	486.30
682.40	483.17
682.74	480.02
683.08	476.80
683.42	473.52
683.75	470.47
684.09	467.31
684.43	464.45
684.77	461.53
685.10	458.70
685.44	455.74
685.78	452.88
686.12	450.08
686.45	447.37
686.79	444.71
687.13	442.14
687.46	439.50
687.80	436.80
688.14	433.89
688.48	431.29
688.81	428.57
689.15	425.97
689.49	423.34
689.82	420.79
690.16	418.10
690.50	415.66
690.83	413.21
691.17	410.65
691.51	408.20
691.84	405.87
692.18	403.56
692.52	401.34
692.85	399.13
693.19	397.03
693.52	394.85
693.86	392.59
694.20	390.40
694.53	388.25
694.87	386.05
695.21	383.95
695.54	381.78
695.88	379.67
696.21	377.39
696.55	375.21
696.88	373.17
697.22	371.24
697.56	369.30
697.89	367.36
698.23	365.59
698.56	363.72
698.90	361.92
699.23	360.02
699.57	358.14
699.90	356.18
700.24	354.27
700.58	352.48
700.91	350.80
701.25	349.19
701.58	347.56
701.92	345.97
702.25	344.34
702.59	342.70
702.92	341.09
703.26	339.50
703.59	337.99
703.93	336.67
704.26	335.17
704.60	333.67
704.93	332.17
705.26	330.67
705.60	329.21
705.93	327.63
706.27	326.26
706.60	324.96
706.94	323.79
707.27	322.42
707.61	321.06
707.94	319.68
708.27	318.15
708.61	316.68
708.94	315.25
709.28	313.90
709.61	312.61
709.94	311.40
710.28	310.21
710.61	309.02
710.95	307.56
711.28	306.48
711.61	305.28
711.95	304.12
712.28	302.85
712.61	301.59
712.95	300.56
713.28	299.50
713.61	298.34
713.95	297.12
714.28	296.11
714.61	295.05
714.95	294.00
715.28	292.99
715.61	291.98
715.95	291.00
716.28	290.02
716.61	289.06
716.95	288.01
717.28	287.08
717.61	286.13
717.94	285.22
718.28	284.19
718.61	283.30
718.94	282.39
719.27	281.57
719.61	280.81
719.94	279.92
720.27	278.96
720.60	278.07
720.94	277.26
721.27	276.46
721.60	275.73
721.93	275.01
722.27	274.32
722.60	273.62
722.93	272.90
723.26	272.26
723.59	271.55
723.93	270.92
724.26	270.27
724.59	269.58
724.92	268.95
725.25	268.39
725.59	267.77
725.92	267.22
726.25	266.68
726.58	266.09
726.91	265.45
727.24	264.90
727.57	264.36
727.91	263.74
728.24	263.18
728.57	262.55
728.90	262.00
729.23	261.36
729.56	260.89
729.89	260.31
730.22	259.69
730.55	259.13
730.89	258.57
731.22	258.00
731.55	257.48
731.88	256.95
732.21	256.35
732.54	255.79
732.87	255.26
733.20	254.73
733.53	254.25
733.86	253.84
734.19	253.32
734.52	252.87
734.85	252.60
735.18	252.12
735.51	251.76
735.84	251.30
736.17	250.96
736.50	250.43
736.83	250.30
737.16	249.92
737.49	249.54
737.82	249.16
738.15	248.80
738.48	248.43
738.81	248.05
739.14	247.67
739.47	247.33
739.80	246.96
740.13	246.63
740.46	246.17
740.79	245.72
741.12	245.36
741.45	244.97
741.78	244.52
742.11	244.20
742.44	243.83
742.77	243.53
743.10	243.16
743.43	242.78
743.75	242.23
744.08	242.17
744.41	241.82
744.74	241.43
745.07	241.07
745.40	240.76
745.73	240.51
746.06	240.19
746.39	239.89
746.71	239.54
747.04	239.18
747.37	238.91
747.70	238.64
748.03	238.33
748.36	238.09
748.68	237.77
749.01	237.40
749.34	237.10
749.67	236.79
750.00	236.51
750.33	236.41
750.65	236.14
750.98	235.59
751.31	235.37
751.64	235.15
751.97	234.98
752.29	234.68
752.62	234.35
752.95	234.13
753.28	233.82
753.60	233.58
753.93	233.39
754.26	233.15
754.59	232.89
754.91	232.64
755.24	232.36
755.57	232.12
755.90	231.94
756.22	231.70
756.55	231.44
756.88	231.16
757.20	230.81
757.53	230.56
757.86	230.34
758.19	230.14
758.51	229.92
758.84	229.65
759.17	229.46
759.49	229.29
759.82	229.11
760.15	228.96
760.47	228.74
760.80	228.48
761.13	228.32
761.45	228.11
761.78	227.97
762.11	227.81
762.43	227.61
762.76	227.39
763.08	227.25
763.41	227.11
763.74	226.99
764.06	226.80
764.39	226.61
764.71	226.45
765.04	226.26
765.37	226.12
765.69	225.94
766.02	225.79
766.34	225.60
766.67	225.42
767.00	225.29
767.32	225.29
767.65	225.30
767.97	225.16
768.30	225.05
768.62	224.94
768.95	224.76
769.27	224.66
769.60	224.58
769.92	224.42
770.25	224.26
770.57	224.09
770.90	224.04
771.22	223.92
771.55	223.82
771.87	223.67
772.20	223.56
772.52	223.64
772.85	223.79
773.17	223.73
773.50	223.61
773.82	223.46
774.15	223.26
774.47	223.01
774.80	222.90
775.12	222.80
775.45	222.67
775.77	222.60
776.09	222.49
776.42	222.45
776.74	222.43
777.07	222.37
777.39	222.33
777.72	222.19
778.04	222.15
778.36	222.06
778.69	222.01
779.01	221.93
779.33	221.64
779.66	221.30
779.98	221.20
780.31	221.16
780.63	221.19
780.95	221.13
781.28	221.05
781.60	220.96
781.92	220.89
782.25	220.80
782.57	220.74
782.89	220.66
783.22	220.51
783.54	220.38
783.86	220.30
784.19	220.17
784.51	220.17
784.83	220.08
785.16	219.99
785.48	219.92
785.80	219.87
786.12	219.84
