SpectraSuite Data File
++++++++++++++++++++++++++++++++++++
Date: Tue Jan 29 15:58:17 EST 2013
User: group
Dark Spectrum Present: No
Reference Spectrum Present: No
Number of Sampled Component Spectra: 1
Spectrometers: USB2E7196
Integration Time (usec): 65000 (USB2E7196)
Spectra Averaged: 100 (USB2E7196)
Boxcar Smoothing: 10 (USB2E7196)
Correct for Electrical Dark: No (USB2E7196)
Strobe/Lamp Enabled: No (USB2E7196)
Correct for Detector Non-linearity: No (USB2E7196)
Correct for Stray Light: No (USB2E7196)
Number of Pixels in Processed Spectrum: 2048
>>>>>Begin Processed Spectral Data<<<<<
339.09	0.00
339.48	202.30
339.86	203.79
340.24	205.07
340.63	206.60
341.01	210.61
341.39	209.76
341.78	211.13
342.16	212.21
342.54	212.46
342.93	201.62
343.31	211.83
343.69	212.39
344.07	212.85
344.46	213.33
344.84	213.75
345.22	213.96
345.60	214.25
345.99	214.45
346.37	214.60
346.75	214.75
347.13	214.85
347.52	214.93
347.90	215.07
348.28	215.14
348.66	215.21
349.05	215.19
349.43	215.29
349.81	215.36
350.19	215.42
350.57	215.49
350.96	215.60
351.34	215.69
351.72	215.79
352.10	215.92
352.48	215.98
352.87	216.04
353.25	216.12
353.63	216.17
354.01	216.26
354.39	216.36
354.77	216.42
355.15	216.60
355.54	216.66
355.92	216.67
356.30	216.77
356.68	217.02
357.06	217.14
357.44	217.19
357.82	217.26
358.20	217.36
358.58	217.42
358.97	217.49
359.35	217.62
359.73	217.74
360.11	217.82
360.49	217.91
360.87	217.96
361.25	218.07
361.63	218.21
362.01	218.23
362.39	218.28
362.77	218.34
363.15	218.31
363.53	218.34
363.91	218.37
364.29	218.39
364.67	218.21
365.05	218.21
365.43	218.24
365.81	218.30
366.19	218.41
366.57	218.53
366.95	218.52
367.33	218.48
367.71	218.47
368.09	218.51
368.47	218.45
368.85	218.47
369.23	218.48
369.61	218.37
369.99	218.42
370.37	218.43
370.75	218.53
371.13	218.48
371.51	218.46
371.89	218.46
372.27	218.46
372.65	218.43
373.03	218.43
373.41	218.38
373.78	218.31
374.16	218.14
374.54	218.01
374.92	217.97
375.30	217.91
375.68	217.83
376.06	217.78
376.44	217.75
376.82	217.68
377.19	217.58
377.57	217.56
377.95	217.47
378.33	217.36
378.71	217.16
379.09	217.13
379.47	217.09
379.84	217.04
380.22	216.98
380.60	216.91
380.98	216.82
381.36	216.77
381.73	216.71
382.11	216.71
382.49	216.68
382.87	216.62
383.25	216.57
383.62	216.76
384.00	216.67
384.38	216.68
384.76	216.73
385.13	216.76
385.51	216.69
385.89	216.61
386.27	216.61
386.64	216.63
387.02	216.60
387.40	216.59
387.78	216.54
388.15	216.51
388.53	216.46
388.91	216.46
389.29	216.44
389.66	216.45
390.04	216.38
390.42	216.42
390.79	216.41
391.17	216.40
391.55	216.17
391.92	216.14
392.30	216.12
392.68	216.06
393.05	216.04
393.43	216.04
393.81	216.05
394.18	216.02
394.56	216.01
394.94	216.03
395.31	215.99
395.69	216.06
396.06	216.10
396.44	216.16
396.82	216.15
397.19	216.29
397.57	216.31
397.95	216.39
398.32	216.34
398.70	216.39
399.07	216.47
399.45	216.52
399.82	216.62
400.20	216.66
400.58	216.68
400.95	216.67
401.33	216.78
401.70	217.04
402.08	217.11
402.45	217.20
402.83	217.29
403.20	217.44
403.58	217.50
403.95	217.64
404.33	217.81
404.71	217.96
405.08	218.19
405.46	218.34
405.83	218.53
406.21	218.74
406.58	218.98
406.96	219.19
407.33	219.43
407.70	219.69
408.08	220.14
408.45	220.54
408.83	220.94
409.20	221.27
409.58	221.52
409.95	222.00
410.33	222.46
410.70	222.90
411.08	223.43
411.45	224.00
411.82	224.54
412.20	225.18
412.57	225.97
412.95	226.51
413.32	227.34
413.69	228.11
414.07	229.02
414.44	229.97
414.82	230.93
415.19	232.06
415.56	233.22
415.94	234.33
416.31	235.63
416.68	236.95
417.06	238.47
417.43	239.97
417.81	241.60
418.18	243.35
418.55	245.24
418.93	247.20
419.30	249.23
419.67	251.38
420.04	253.55
420.42	255.85
420.79	258.56
421.16	261.21
421.54	264.00
421.91	266.82
422.28	269.79
422.66	272.94
423.03	276.07
423.40	279.31
423.77	282.77
424.15	286.33
424.52	290.03
424.89	294.04
425.26	297.94
425.64	301.66
426.01	305.73
426.38	309.99
426.75	314.34
427.13	318.91
427.50	323.66
427.87	328.71
428.24	333.65
428.61	338.46
428.99	343.80
429.36	349.56
429.73	355.21
430.10	360.82
430.47	366.65
430.85	372.72
431.22	379.16
431.59	385.99
431.96	392.55
432.33	399.76
432.70	406.77
433.08	414.92
433.45	422.71
433.82	430.39
434.19	438.94
434.56	447.30
434.93	455.32
435.30	463.26
435.68	471.99
436.05	480.65
436.42	489.15
436.79	496.95
437.16	505.37
437.53	514.36
437.90	523.21
438.27	531.87
438.64	540.72
439.01	548.94
439.38	556.21
439.75	563.24
440.13	571.34
440.50	578.90
440.87	585.11
441.24	591.51
441.61	598.60
441.98	603.72
442.35	609.91
442.72	615.89
443.09	621.76
443.46	625.35
443.83	627.76
444.20	629.86
444.57	632.87
444.94	634.27
445.31	635.60
445.68	636.91
446.05	637.44
446.42	636.60
446.79	635.62
447.16	634.57
447.53	633.82
447.90	630.56
448.27	627.37
448.64	622.83
449.01	619.56
449.37	613.85
449.74	608.45
450.11	601.71
450.48	594.64
450.85	587.43
451.22	581.16
451.59	575.28
451.96	569.70
452.33	562.14
452.70	555.33
453.07	547.18
453.43	538.90
453.80	531.02
454.17	523.42
454.54	516.15
454.91	508.37
455.28	500.69
455.65	493.65
456.02	486.55
456.38	480.53
456.75	473.10
457.12	466.83
457.49	460.60
457.86	454.68
458.23	449.56
458.59	443.94
458.96	438.26
459.33	433.15
459.70	428.00
460.07	423.95
460.43	419.25
460.80	414.88
461.17	411.08
461.54	407.04
461.91	403.17
462.27	399.26
462.64	395.92
463.01	392.34
463.38	388.77
463.74	385.19
464.11	382.07
464.48	379.31
464.85	376.36
465.21	373.99
465.58	371.44
465.95	368.38
466.32	365.84
466.68	363.35
467.05	360.93
467.42	358.52
467.78	355.94
468.15	353.49
468.52	351.62
468.88	349.23
469.25	347.10
469.62	345.42
469.98	343.60
470.35	341.85
470.72	340.27
471.08	338.56
471.45	337.18
471.82	335.73
472.18	334.15
472.55	333.01
472.92	331.75
473.28	330.65
473.65	329.62
474.02	328.58
474.38	327.76
474.75	327.00
475.11	326.27
475.48	325.76
475.85	325.35
476.21	324.94
476.58	324.63
476.94	324.40
477.31	324.12
477.67	323.92
478.04	323.83
478.41	323.75
478.77	323.91
479.14	323.90
479.50	324.07
479.87	324.36
480.23	324.67
480.60	324.88
480.96	325.19
481.33	325.78
481.69	326.40
482.06	326.92
482.42	327.47
482.79	328.06
483.15	328.89
483.52	329.87
483.88	330.82
484.25	331.77
484.61	332.82
484.98	333.87
485.34	335.19
485.71	336.52
486.07	337.99
486.44	339.37
486.80	340.97
487.17	342.62
487.53	344.45
487.90	346.35
488.26	348.40
488.62	350.53
488.99	352.58
489.35	354.65
489.72	356.98
490.08	359.48
490.44	362.02
490.81	364.71
491.17	367.40
491.54	370.33
491.90	373.35
492.26	376.62
492.63	380.01
492.99	383.45
493.36	387.17
493.72	391.05
494.08	395.06
494.45	399.27
494.81	403.60
495.17	408.05
495.54	412.77
495.90	417.55
496.26	422.50
496.63	427.69
496.99	433.12
497.35	438.74
497.72	444.51
498.08	450.46
498.44	456.54
498.80	462.93
499.17	469.44
499.53	476.16
499.89	482.97
500.26	490.00
500.62	497.10
500.98	504.50
501.34	511.86
501.71	519.56
502.07	527.29
502.43	535.38
502.79	543.43
503.16	551.74
503.52	560.28
503.88	568.97
504.24	577.91
504.60	586.91
504.97	596.04
505.33	605.31
505.69	615.04
506.05	624.84
506.41	634.59
506.78	644.57
507.14	654.79
507.50	665.21
507.86	675.84
508.22	686.49
508.59	697.04
508.95	708.14
509.31	719.37
509.67	730.86
510.03	742.18
510.39	753.92
510.75	765.70
511.12	777.67
511.48	789.77
511.84	801.93
512.20	814.22
512.56	826.90
512.92	839.55
513.28	852.13
513.64	864.89
514.00	877.67
514.37	890.59
514.73	903.43
515.09	916.34
515.45	928.99
515.81	941.93
516.17	955.26
516.53	968.33
516.89	981.22
517.25	994.19
517.61	1007.45
517.97	1020.67
518.33	1033.61
518.69	1046.91
519.05	1060.28
519.41	1073.74
519.77	1087.42
520.13	1100.47
520.49	1113.50
520.85	1126.79
521.21	1139.86
521.57	1153.28
521.93	1166.13
522.29	1179.69
522.65	1192.99
523.01	1206.44
523.37	1219.42
523.73	1232.35
524.09	1245.33
524.45	1258.57
524.81	1271.79
525.17	1284.99
525.53	1297.88
525.89	1310.92
526.25	1323.85
526.61	1336.49
526.97	1349.29
527.33	1361.87
527.68	1375.04
528.04	1388.20
528.40	1400.94
528.76	1413.96
529.12	1426.56
529.48	1439.46
529.84	1451.61
530.20	1464.23
530.56	1476.70
530.91	1489.57
531.27	1502.10
531.63	1514.48
531.99	1526.92
532.35	1538.88
532.71	1550.88
533.07	1563.25
533.42	1575.18
533.78	1586.93
534.14	1598.67
534.50	1609.65
534.86	1621.01
535.21	1631.49
535.57	1642.63
535.93	1653.64
536.29	1664.43
536.65	1675.63
537.00	1686.31
537.36	1697.32
537.72	1707.94
538.08	1718.77
538.44	1729.51
538.79	1740.33
539.15	1750.79
539.51	1761.03
539.87	1772.03
540.22	1782.58
540.58	1793.28
540.94	1803.83
541.29	1813.73
541.65	1823.29
542.01	1833.45
542.37	1843.18
542.72	1853.08
543.08	1862.60
543.44	1872.67
543.79	1881.66
544.15	1890.73
544.51	1900.39
544.87	1909.75
545.22	1918.46
545.58	1927.08
545.94	1935.59
546.29	1943.72
546.65	1951.86
547.01	1959.89
547.36	1967.13
547.72	1974.48
548.07	1981.84
548.43	1989.24
548.79	1996.74
549.14	2004.59
549.50	2012.61
549.86	2020.12
550.21	2027.33
550.57	2034.77
550.92	2041.21
551.28	2048.45
551.64	2055.55
551.99	2062.86
552.35	2069.76
552.70	2076.55
553.06	2082.99
553.41	2089.10
553.77	2095.58
554.13	2101.74
554.48	2108.61
554.84	2115.51
555.19	2121.83
555.55	2128.20
555.90	2134.39
556.26	2141.00
556.61	2146.58
556.97	2151.41
557.32	2157.14
557.68	2163.39
558.03	2168.98
558.39	2174.25
558.74	2180.09
559.10	2185.55
559.45	2191.05
559.81	2196.62
560.16	2202.16
560.52	2208.10
560.87	2214.61
561.23	2220.51
561.58	2227.16
561.94	2232.38
562.29	2237.26
562.64	2243.55
563.00	2249.24
563.35	2255.01
563.71	2261.04
564.06	2266.71
564.42	2272.57
564.77	2277.73
565.12	2282.85
565.48	2288.15
565.83	2293.81
566.19	2299.47
566.54	2304.82
566.89	2309.44
567.25	2314.20
567.60	2319.85
567.96	2324.99
568.31	2329.47
568.66	2333.62
569.02	2337.57
569.37	2341.41
569.72	2345.85
570.08	2349.43
570.43	2352.39
570.78	2355.41
571.14	2358.08
571.49	2361.45
571.84	2365.19
572.20	2368.20
572.55	2371.56
572.90	2373.80
573.26	2376.91
573.61	2379.30
573.96	2381.60
574.31	2383.77
574.67	2385.81
575.02	2386.97
575.37	2388.46
575.72	2389.43
576.08	2391.22
576.43	2391.55
576.78	2392.51
577.13	2394.42
577.49	2395.56
577.84	2397.18
578.19	2399.03
578.54	2399.86
578.90	2401.20
579.25	2401.29
579.60	2401.63
579.95	2401.00
580.30	2401.56
580.66	2401.02
581.01	2399.67
581.36	2397.88
581.71	2396.86
582.06	2396.04
582.42	2395.40
582.77	2393.69
583.12	2392.41
583.47	2391.40
583.82	2391.17
584.17	2390.01
584.53	2388.04
584.88	2386.35
585.23	2384.48
585.58	2382.19
585.93	2380.17
586.28	2378.04
586.63	2375.96
586.98	2373.87
587.34	2372.27
587.69	2370.05
588.04	2368.12
588.39	2366.92
588.74	2364.58
589.09	2362.13
589.44	2359.34
589.79	2357.15
590.14	2355.36
590.49	2352.70
590.84	2349.03
591.19	2346.32
591.54	2343.20
591.89	2339.47
592.25	2336.40
592.60	2332.52
592.95	2328.59
593.30	2324.58
593.65	2320.22
594.00	2316.10
594.35	2313.13
594.70	2308.57
595.05	2304.11
595.40	2298.94
595.75	2293.61
596.10	2290.02
596.45	2285.25
596.80	2280.77
597.15	2275.56
597.50	2269.80
597.85	2265.04
598.19	2259.83
598.54	2254.01
598.89	2249.09
599.24	2244.50
599.59	2238.54
599.94	2233.04
600.29	2227.26
600.64	2221.48
600.99	2214.97
601.34	2209.41
601.69	2202.54
602.04	2196.37
602.39	2189.98
602.74	2184.11
603.08	2178.62
603.43	2172.38
603.78	2165.68
604.13	2158.43
604.48	2151.40
604.83	2145.48
605.18	2139.21
605.53	2132.60
605.87	2125.69
606.22	2118.99
606.57	2111.28
606.92	2103.57
607.27	2096.68
607.62	2090.26
607.96	2083.48
608.31	2077.15
608.66	2069.52
609.01	2062.05
609.36	2054.97
609.70	2047.33
610.05	2039.61
610.40	2031.30
610.75	2022.97
611.10	2015.48
611.44	2006.98
611.79	1998.21
612.14	1988.21
612.49	1977.69
612.83	1968.42
613.18	1959.45
613.53	1950.00
613.88	1940.55
614.22	1932.03
614.57	1922.06
614.92	1911.54
615.27	1901.45
615.61	1891.43
615.96	1881.82
616.31	1872.33
616.65	1862.93
617.00	1853.00
617.35	1843.42
617.70	1833.69
618.04	1823.58
618.39	1813.09
618.74	1803.41
619.08	1793.91
619.43	1785.24
619.78	1777.07
620.12	1768.30
620.47	1758.32
620.82	1748.20
621.16	1738.43
621.51	1728.37
621.85	1718.44
622.20	1707.85
622.55	1697.16
622.89	1687.36
623.24	1677.78
623.59	1668.13
623.93	1658.09
624.28	1648.46
624.62	1638.17
624.97	1627.83
625.32	1618.23
625.66	1609.51
626.01	1600.51
626.35	1590.95
626.70	1580.72
627.04	1570.55
627.39	1560.51
627.73	1551.21
628.08	1542.11
628.43	1532.45
628.77	1523.26
629.12	1514.36
629.46	1506.54
629.81	1498.09
630.15	1488.34
630.50	1478.33
630.84	1467.69
631.19	1457.66
631.53	1448.12
631.88	1437.94
632.22	1427.96
632.57	1418.55
632.91	1408.30
633.26	1398.56
633.60	1388.91
633.95	1379.67
634.29	1370.21
634.64	1360.76
634.98	1350.98
635.32	1341.61
635.67	1333.01
636.01	1323.74
636.36	1313.99
636.70	1304.37
637.05	1295.12
637.39	1286.16
637.73	1277.49
638.08	1269.90
638.42	1261.60
638.77	1252.89
639.11	1244.62
639.45	1236.73
639.80	1228.00
640.14	1219.39
640.49	1210.45
640.83	1201.74
641.17	1193.57
641.52	1185.15
641.86	1176.55
642.20	1168.62
642.55	1160.05
642.89	1151.09
643.23	1142.33
643.58	1134.20
643.92	1125.21
644.26	1116.48
644.61	1108.01
644.95	1099.31
645.29	1090.00
645.64	1080.91
645.98	1072.50
646.32	1064.60
646.66	1056.11
647.01	1047.67
647.35	1039.41
647.69	1030.97
648.04	1022.59
648.38	1013.70
648.72	1005.02
649.06	996.58
649.41	988.40
649.75	980.38
650.09	972.57
650.43	964.54
650.78	956.37
651.12	948.72
651.46	941.35
651.80	934.10
652.14	926.74
652.49	919.23
652.83	911.84
653.17	904.13
653.51	896.53
653.85	889.24
654.20	882.08
654.54	874.51
654.88	867.45
655.22	860.30
655.56	853.34
655.90	846.63
656.25	840.04
656.59	832.98
656.93	825.97
657.27	818.88
657.61	811.98
657.95	805.82
658.29	799.97
658.64	793.76
658.98	787.34
659.32	780.85
659.66	774.68
660.00	768.46
660.34	762.40
660.68	756.24
661.02	749.99
661.36	744.13
661.70	738.50
662.05	732.81
662.39	727.31
662.73	722.00
663.07	716.59
663.41	711.04
663.75	705.54
664.09	700.03
664.43	694.70
664.77	689.41
665.11	683.65
665.45	677.71
665.79	671.95
666.13	666.30
666.47	660.84
666.81	655.45
667.15	650.09
667.49	644.99
667.83	639.80
668.17	634.60
668.51	629.54
668.85	624.71
669.19	619.88
669.53	615.02
669.87	609.89
670.21	605.24
670.55	600.53
670.89	596.10
671.23	591.84
671.57	587.50
671.91	583.23
672.25	579.18
672.58	575.14
672.92	571.18
673.26	567.31
673.60	563.49
673.94	559.77
674.28	556.23
674.62	552.52
674.96	548.84
675.30	545.44
675.64	541.81
675.97	538.23
676.31	534.71
676.65	531.10
676.99	527.78
677.33	524.00
677.67	520.40
678.01	516.65
678.34	512.98
678.68	509.55
679.02	505.98
679.36	502.28
679.70	498.69
680.04	495.27
680.37	491.91
680.71	488.74
681.05	485.64
681.39	482.41
681.73	479.27
682.06	476.35
682.40	473.29
682.74	470.18
683.08	467.00
683.42	463.86
683.75	461.02
684.09	458.04
684.43	455.29
684.77	452.41
685.10	449.64
685.44	446.76
685.78	443.83
686.12	441.17
686.45	438.53
686.79	435.94
687.13	433.42
687.46	430.80
687.80	428.06
688.14	425.22
688.48	422.71
688.81	420.12
689.15	417.60
689.49	415.06
689.82	412.52
690.16	410.05
690.50	407.69
690.83	405.21
691.17	402.71
691.51	400.32
691.84	398.16
692.18	396.02
692.52	393.88
692.85	391.78
693.19	389.65
693.52	387.56
693.86	385.38
694.20	383.24
694.53	381.18
694.87	379.02
695.21	376.99
695.54	374.89
695.88	372.80
696.21	370.59
696.55	368.52
696.88	366.60
697.22	364.72
697.56	362.86
697.89	361.03
698.23	359.33
698.56	357.60
698.90	355.83
699.23	353.94
699.57	352.17
699.90	350.39
700.24	348.65
700.58	346.88
700.91	345.31
701.25	343.76
701.58	342.22
701.92	340.75
702.25	339.20
702.59	337.60
702.92	336.10
703.26	334.59
703.59	333.17
703.93	331.91
704.26	330.49
704.60	329.01
704.93	327.53
705.26	326.08
705.60	324.62
705.93	323.12
706.27	321.86
706.60	320.61
706.94	319.40
707.27	318.04
707.61	316.79
707.94	315.43
708.27	313.99
708.61	312.57
708.94	311.25
709.28	310.00
709.61	308.79
709.94	307.62
710.28	306.49
710.61	305.28
710.95	303.88
711.28	302.86
711.61	301.70
711.95	300.62
712.28	299.48
712.61	298.34
712.95	297.37
713.28	296.35
713.61	295.21
713.95	294.09
714.28	293.13
714.61	292.09
714.95	291.12
715.28	290.13
715.61	289.14
715.95	288.21
716.28	287.27
716.61	286.34
716.95	285.37
717.28	284.46
717.61	283.57
717.94	282.71
718.28	281.65
718.61	280.80
718.94	279.94
719.27	279.09
719.61	278.30
719.94	277.43
720.27	276.49
720.60	275.70
720.94	274.92
721.27	274.22
721.60	273.55
721.93	272.83
722.27	272.21
722.60	271.56
722.93	270.85
723.26	270.23
723.59	269.56
723.93	268.97
724.26	268.33
724.59	267.71
724.92	267.12
725.25	266.64
725.59	266.07
725.92	265.55
726.25	265.02
726.58	264.44
726.91	263.90
727.24	263.40
727.57	262.85
727.91	262.28
728.24	261.72
728.57	261.12
728.90	260.61
729.23	260.02
729.56	259.60
729.89	259.06
730.22	258.50
730.55	257.97
730.89	257.45
731.22	256.95
731.55	256.44
731.88	255.94
732.21	255.38
732.54	254.86
732.87	254.39
733.20	253.90
733.53	253.46
733.86	253.02
734.19	252.54
734.52	252.16
734.85	251.91
735.18	251.44
735.51	251.13
735.84	250.76
736.17	250.39
736.50	249.90
736.83	249.80
737.16	249.43
737.49	249.09
737.82	248.71
738.15	248.37
738.48	248.00
738.81	247.64
739.14	247.25
739.47	246.88
739.80	246.50
740.13	246.18
740.46	245.80
740.79	245.41
741.12	245.07
741.45	244.68
741.78	244.20
742.11	243.98
742.44	243.58
742.77	243.28
743.10	242.96
743.43	242.59
743.75	242.01
744.08	241.95
744.41	241.57
744.74	241.20
745.07	240.84
745.40	240.55
745.73	240.32
746.06	240.04
746.39	239.78
746.71	239.45
747.04	239.13
747.37	238.83
747.70	238.56
748.03	238.28
748.36	238.00
748.68	237.69
749.01	237.32
749.34	237.06
749.67	236.75
750.00	236.48
750.33	236.38
750.65	236.19
750.98	235.65
751.31	235.46
751.64	235.27
751.97	235.12
752.29	234.90
752.62	234.58
752.95	234.33
753.28	234.06
753.60	233.83
753.93	233.65
754.26	233.44
754.59	233.19
754.91	232.93
755.24	232.70
755.57	232.50
755.90	232.27
756.22	231.99
756.55	231.73
756.88	231.53
757.20	231.21
757.53	230.92
757.86	230.76
758.19	230.56
758.51	230.36
758.84	230.08
759.17	229.84
759.49	229.69
759.82	229.63
760.15	229.50
760.47	229.35
760.80	229.10
761.13	228.97
761.45	228.82
761.78	228.63
762.11	228.46
762.43	228.26
762.76	228.11
763.08	227.99
763.41	227.83
763.74	227.67
764.06	227.53
764.39	227.37
764.71	227.21
765.04	227.03
765.37	226.86
765.69	226.74
766.02	226.60
766.34	226.41
766.67	226.19
767.00	226.09
767.32	226.05
767.65	226.03
767.97	225.88
768.30	225.74
768.62	225.64
768.95	225.52
769.27	225.43
769.60	225.33
769.92	225.19
770.25	225.06
770.57	224.90
770.90	224.77
771.22	224.64
771.55	224.53
771.87	224.46
772.20	224.33
772.52	224.35
772.85	224.52
773.17	224.44
773.50	224.33
773.82	224.16
774.15	223.95
774.47	223.71
774.80	223.60
775.12	223.51
775.45	223.43
775.77	223.37
776.09	223.29
776.42	223.21
776.74	223.15
777.07	223.08
777.39	223.00
777.72	222.90
778.04	222.86
778.36	222.76
778.69	222.66
779.01	222.57
779.33	222.36
779.66	222.02
779.98	221.88
780.31	221.82
780.63	221.84
780.95	221.82
781.28	221.79
781.60	221.69
781.92	221.66
782.25	221.59
782.57	221.50
782.89	221.40
783.22	221.31
783.54	221.22
783.86	221.18
784.19	221.13
784.51	221.12
784.83	221.03
785.16	220.98
785.48	220.93
785.80	220.89
786.12	220.84
