SpectraSuite Data File
++++++++++++++++++++++++++++++++++++
Date: Tue Jan 29 16:47:05 EST 2013
User: group
Dark Spectrum Present: No
Reference Spectrum Present: No
Number of Sampled Component Spectra: 1
Spectrometers: USB2E7196
Integration Time (usec): 65000 (USB2E7196)
Spectra Averaged: 100 (USB2E7196)
Boxcar Smoothing: 10 (USB2E7196)
Correct for Electrical Dark: No (USB2E7196)
Strobe/Lamp Enabled: No (USB2E7196)
Correct for Detector Non-linearity: No (USB2E7196)
Correct for Stray Light: No (USB2E7196)
Number of Pixels in Processed Spectrum: 2048
>>>>>Begin Processed Spectral Data<<<<<
339.09	0.00
339.48	201.87
339.86	203.59
340.24	205.07
340.63	205.96
341.01	210.48
341.39	208.77
341.78	210.86
342.16	211.84
342.54	212.65
342.93	201.20
343.31	211.36
343.69	211.87
344.07	212.31
344.46	212.73
344.84	213.15
345.22	213.33
345.60	213.63
345.99	213.80
346.37	213.92
346.75	213.99
347.13	214.06
347.52	214.12
347.90	214.22
348.28	214.22
348.66	214.30
349.05	214.28
349.43	214.33
349.81	214.39
350.19	214.46
350.57	214.53
350.96	214.62
351.34	214.71
351.72	214.84
352.10	214.94
352.48	215.00
352.87	215.03
353.25	215.06
353.63	215.06
354.01	215.10
354.39	215.18
354.77	215.28
355.15	215.39
355.54	215.44
355.92	215.43
356.30	215.50
356.68	215.69
357.06	215.76
357.44	215.76
357.82	215.77
358.20	215.81
358.58	215.86
358.97	215.93
359.35	216.03
359.73	216.10
360.11	216.14
360.49	216.19
360.87	216.21
361.25	216.30
361.63	216.43
362.01	216.50
362.39	216.49
362.77	216.48
363.15	216.51
363.53	216.54
363.91	216.60
364.29	216.61
364.67	216.46
365.05	216.50
365.43	216.58
365.81	216.66
366.19	216.76
366.57	216.87
366.95	216.85
367.33	216.78
367.71	216.79
368.09	216.87
368.47	216.86
368.85	216.85
369.23	216.88
369.61	216.82
369.99	216.87
370.37	216.89
370.75	217.00
371.13	216.91
371.51	216.85
371.89	216.83
372.27	216.82
372.65	216.82
373.03	216.77
373.41	216.70
373.78	216.62
374.16	216.48
374.54	216.38
374.92	216.33
375.30	216.31
375.68	216.24
376.06	216.20
376.44	216.18
376.82	216.19
377.19	216.09
377.57	216.02
377.95	215.91
378.33	215.86
378.71	215.67
379.09	215.69
379.47	215.68
379.84	215.60
380.22	215.53
380.60	215.44
380.98	215.38
381.36	215.33
381.73	215.30
382.11	215.29
382.49	215.28
382.87	215.23
383.25	215.18
383.62	215.38
384.00	215.29
384.38	215.25
384.76	215.26
385.13	215.33
385.51	215.28
385.89	215.23
386.27	215.21
386.64	215.25
387.02	215.19
387.40	215.14
387.78	215.17
388.15	215.15
388.53	215.12
388.91	215.09
389.29	215.08
389.66	215.07
390.04	215.04
390.42	215.06
390.79	215.06
391.17	215.08
391.55	214.83
391.92	214.85
392.30	214.86
392.68	214.78
393.05	214.78
393.43	214.83
393.81	214.84
394.18	214.81
394.56	214.79
394.94	214.87
395.31	214.87
395.69	214.95
396.06	215.01
396.44	215.06
396.82	215.07
397.19	215.19
397.57	215.18
397.95	215.25
398.32	215.23
398.70	215.30
399.07	215.35
399.45	215.42
399.82	215.41
400.20	215.47
400.58	215.52
400.95	215.48
401.33	215.59
401.70	215.83
402.08	215.93
402.45	216.08
402.83	216.18
403.20	216.28
403.58	216.34
403.95	216.49
404.33	216.64
404.71	216.82
405.08	217.07
405.46	217.29
405.83	217.49
406.21	217.65
406.58	217.87
406.96	218.11
407.33	218.36
407.70	218.68
408.08	219.14
408.45	219.50
408.83	219.91
409.20	220.23
409.58	220.48
409.95	220.97
410.33	221.43
410.70	221.85
411.08	222.43
411.45	223.04
411.82	223.62
412.20	224.31
412.57	225.13
412.95	225.72
413.32	226.54
413.69	227.40
414.07	228.34
414.44	229.34
414.82	230.35
415.19	231.54
415.56	232.77
415.94	233.97
416.31	235.39
416.68	236.82
417.06	238.43
417.43	239.99
417.81	241.73
418.18	243.52
418.55	245.47
418.93	247.48
419.30	249.60
419.67	251.87
420.04	254.15
420.42	256.54
420.79	259.38
421.16	262.17
421.54	265.06
421.91	268.06
422.28	271.19
422.66	274.53
423.03	277.83
423.40	281.19
423.77	284.80
424.15	288.49
424.52	292.33
424.89	296.54
425.26	300.65
425.64	304.50
426.01	308.80
426.38	313.31
426.75	317.88
427.13	322.65
427.50	327.64
427.87	332.85
428.24	338.08
428.61	343.08
428.99	348.66
429.36	354.68
429.73	360.58
430.10	366.44
430.47	372.53
430.85	378.83
431.22	385.55
431.59	392.68
431.96	399.55
432.33	407.10
432.70	414.37
433.08	422.91
433.45	431.02
433.82	439.02
434.19	447.93
434.56	456.65
434.93	465.01
435.30	473.23
435.68	482.43
436.05	491.44
436.42	500.35
436.79	508.44
437.16	517.29
437.53	526.56
437.90	535.78
438.27	544.80
438.64	554.04
439.01	562.61
439.38	570.24
439.75	577.58
440.13	586.03
440.50	593.99
440.87	600.49
441.24	607.11
441.61	614.54
441.98	619.99
442.35	626.37
442.72	632.71
443.09	638.86
443.46	642.64
443.83	645.19
444.20	647.44
444.57	650.69
444.94	652.13
445.31	653.62
445.68	655.06
446.05	655.65
446.42	654.88
446.79	653.94
447.16	652.90
447.53	652.17
447.90	648.86
448.27	645.60
448.64	640.98
449.01	637.73
449.37	631.89
449.74	626.16
450.11	619.27
450.48	611.86
450.85	604.36
451.22	597.84
451.59	591.66
451.96	585.80
452.33	577.86
452.70	570.72
453.07	562.23
453.43	553.55
453.80	545.28
454.17	537.28
454.54	529.68
454.91	521.44
455.28	513.40
455.65	505.90
456.02	498.36
456.38	491.97
456.75	484.04
457.12	477.34
457.49	470.82
457.86	464.57
458.23	459.17
458.59	453.26
458.96	447.20
459.33	441.87
459.70	436.47
460.07	432.25
460.43	427.35
460.80	422.75
461.17	418.71
461.54	414.43
461.91	410.41
462.27	406.30
462.64	402.80
463.01	399.02
463.38	395.35
463.74	391.66
464.11	388.38
464.48	385.58
464.85	382.52
465.21	380.06
465.58	377.44
465.95	374.26
466.32	371.62
466.68	369.04
467.05	366.40
467.42	363.81
467.78	361.08
468.15	358.53
468.52	356.59
468.88	354.09
469.25	351.87
469.62	350.01
469.98	348.04
470.35	346.21
470.72	344.49
471.08	342.67
471.45	341.09
471.82	339.55
472.18	337.85
472.55	336.62
472.92	335.22
473.28	334.03
473.65	332.85
474.02	331.71
474.38	330.78
474.75	330.06
475.11	329.20
475.48	328.60
475.85	328.08
476.21	327.57
476.58	327.20
476.94	326.95
477.31	326.62
477.67	326.33
478.04	326.17
478.41	326.13
478.77	326.22
479.14	326.15
479.50	326.27
479.87	326.52
480.23	326.79
480.60	327.01
480.96	327.23
481.33	327.80
481.69	328.35
482.06	328.89
482.42	329.34
482.79	329.98
483.15	330.73
483.52	331.74
483.88	332.61
484.25	333.56
484.61	334.60
484.98	335.64
485.34	336.93
485.71	338.33
486.07	339.71
486.44	341.03
486.80	342.68
487.17	344.35
487.53	346.20
487.90	348.09
488.26	350.15
488.62	352.26
488.99	354.33
489.35	356.47
489.72	358.82
490.08	361.36
490.44	363.90
490.81	366.61
491.17	369.29
491.54	372.27
491.90	375.30
492.26	378.52
492.63	381.97
492.99	385.47
493.36	389.15
493.72	393.08
494.08	397.13
494.45	401.35
494.81	405.72
495.17	410.13
495.54	414.82
495.90	419.60
496.26	424.55
496.63	429.73
496.99	435.15
497.35	440.74
497.72	446.55
498.08	452.52
498.44	458.62
498.80	465.03
499.17	471.55
499.53	478.27
499.89	485.19
500.26	492.13
500.62	499.30
500.98	506.67
501.34	514.14
501.71	521.90
502.07	529.65
502.43	537.58
502.79	545.74
503.16	554.07
503.52	562.67
503.88	571.39
504.24	580.34
504.60	589.41
504.97	598.62
505.33	607.85
505.69	617.69
506.05	627.53
506.41	637.34
506.78	647.32
507.14	657.58
507.50	668.03
507.86	678.74
508.22	689.43
508.59	700.05
508.95	711.14
509.31	722.37
509.67	733.86
510.03	745.29
510.39	756.99
510.75	768.88
511.12	780.78
511.48	792.86
511.84	805.11
512.20	817.45
512.56	830.09
512.92	842.92
513.28	855.49
513.64	868.28
514.00	881.20
514.37	894.25
514.73	907.37
515.09	920.42
515.45	933.35
515.81	946.42
516.17	959.80
516.53	972.97
516.89	986.13
517.25	999.33
517.61	1012.85
517.97	1026.28
518.33	1039.50
518.69	1053.04
519.05	1066.81
519.41	1080.55
519.77	1094.43
520.13	1107.76
520.49	1121.02
520.85	1134.58
521.21	1147.95
521.57	1161.66
521.93	1174.75
522.29	1188.47
522.65	1201.98
523.01	1215.63
523.37	1228.84
523.73	1242.30
524.09	1255.63
524.45	1269.06
524.81	1282.64
525.17	1296.12
525.53	1309.43
525.89	1322.77
526.25	1336.01
526.61	1348.91
526.97	1362.06
527.33	1375.10
527.68	1388.61
528.04	1402.16
528.40	1415.27
528.76	1428.79
529.12	1441.71
529.48	1455.06
529.84	1467.43
530.20	1480.32
530.56	1492.94
530.91	1506.37
531.27	1519.24
531.63	1532.05
531.99	1544.92
532.35	1557.17
532.71	1569.60
533.07	1582.53
533.42	1594.62
533.78	1606.81
534.14	1619.01
534.50	1630.41
534.86	1642.06
535.21	1652.97
535.57	1664.56
535.93	1675.93
536.29	1687.13
536.65	1698.71
537.00	1709.79
537.36	1721.28
537.72	1732.47
538.08	1744.01
538.44	1755.04
538.79	1766.20
539.15	1777.14
539.51	1788.10
539.87	1799.53
540.22	1810.46
540.58	1821.46
540.94	1832.62
541.29	1843.05
541.65	1852.92
542.01	1863.32
542.37	1873.53
542.72	1883.80
543.08	1893.62
543.44	1904.19
543.79	1913.35
544.15	1922.79
544.51	1932.79
544.87	1942.76
545.22	1951.99
545.58	1960.90
545.94	1969.84
546.29	1978.35
546.65	1986.78
547.01	1994.98
547.36	2002.76
547.72	2010.70
548.07	2018.35
548.43	2026.18
548.79	2034.18
549.14	2042.37
549.50	2050.99
549.86	2058.79
550.21	2066.34
550.57	2074.10
550.92	2080.94
551.28	2088.61
551.64	2095.99
551.99	2103.55
552.35	2110.75
552.70	2117.69
553.06	2124.31
553.41	2130.57
553.77	2137.19
554.13	2143.70
554.48	2150.66
554.84	2157.78
555.19	2164.14
555.55	2170.54
555.90	2176.85
556.26	2183.59
556.61	2189.65
556.97	2194.41
557.32	2200.21
557.68	2206.68
558.03	2212.34
558.39	2217.66
558.74	2223.61
559.10	2229.16
559.45	2234.85
559.81	2240.39
560.16	2245.86
560.52	2251.92
560.87	2258.25
561.23	2264.08
561.58	2270.69
561.94	2275.86
562.29	2280.42
562.64	2286.47
563.00	2292.20
563.35	2297.81
563.71	2303.40
564.06	2309.10
564.42	2315.14
564.77	2320.16
565.12	2325.39
565.48	2330.35
565.83	2335.82
566.19	2341.17
566.54	2346.37
566.89	2350.87
567.25	2355.35
567.60	2361.00
567.96	2365.87
568.31	2370.42
568.66	2374.74
569.02	2378.38
569.37	2382.15
569.72	2386.54
570.08	2389.99
570.43	2392.93
570.78	2395.85
571.14	2398.23
571.49	2401.19
571.84	2404.49
572.20	2407.41
572.55	2410.16
572.90	2412.51
573.26	2415.29
573.61	2417.76
573.96	2419.85
574.31	2421.71
574.67	2423.59
575.02	2424.15
575.37	2425.47
575.72	2425.96
576.08	2427.28
576.43	2427.35
576.78	2427.61
577.13	2428.95
577.49	2430.03
577.84	2430.76
578.19	2431.87
578.54	2432.34
578.90	2432.78
579.25	2432.61
579.60	2432.27
579.95	2431.31
580.30	2431.28
580.66	2430.30
581.01	2428.44
581.36	2425.95
581.71	2424.30
582.06	2422.83
582.42	2421.79
582.77	2419.50
583.12	2417.69
583.47	2416.01
583.82	2415.29
584.17	2413.92
584.53	2411.71
584.88	2409.34
585.23	2407.50
585.58	2404.99
585.93	2402.86
586.28	2400.54
586.63	2397.81
586.98	2395.53
587.34	2393.34
587.69	2390.71
588.04	2388.43
588.39	2386.97
588.74	2384.23
589.09	2381.41
589.44	2378.13
589.79	2375.61
590.14	2373.35
590.49	2370.46
590.84	2366.45
591.19	2363.09
591.54	2359.74
591.89	2355.65
592.25	2352.35
592.60	2347.94
592.95	2343.75
593.30	2339.61
593.65	2335.17
594.00	2330.68
594.35	2327.52
594.70	2322.97
595.05	2318.30
595.40	2312.83
595.75	2306.71
596.10	2302.99
596.45	2298.11
596.80	2293.28
597.15	2288.00
597.50	2282.23
597.85	2277.19
598.19	2272.01
598.54	2266.25
598.89	2261.02
599.24	2256.18
599.59	2249.86
599.94	2244.04
600.29	2238.02
600.64	2231.95
600.99	2225.05
601.34	2219.38
601.69	2212.35
602.04	2205.91
602.39	2199.12
602.74	2192.94
603.08	2187.40
603.43	2180.88
603.78	2173.87
604.13	2166.85
604.48	2159.44
604.83	2153.21
605.18	2146.97
605.53	2140.05
605.87	2133.07
606.22	2126.15
606.57	2118.38
606.92	2110.45
607.27	2103.45
607.62	2096.90
607.96	2089.91
608.31	2083.50
608.66	2075.93
609.01	2068.25
609.36	2061.16
609.70	2053.60
610.05	2045.83
610.40	2037.55
610.75	2029.20
611.10	2021.44
611.44	2012.67
611.79	2004.07
612.14	1994.14
612.49	1983.39
612.83	1974.02
613.18	1964.52
613.53	1955.22
613.88	1945.56
614.22	1937.05
614.57	1927.20
614.92	1916.65
615.27	1906.33
615.61	1896.12
615.96	1886.38
616.31	1876.79
616.65	1867.32
617.00	1857.61
617.35	1848.08
617.70	1838.39
618.04	1828.49
618.39	1818.46
618.74	1808.76
619.08	1799.09
619.43	1790.29
619.78	1782.15
620.12	1773.63
620.47	1764.27
620.82	1754.00
621.16	1744.27
621.51	1734.49
621.85	1724.74
622.20	1714.37
622.55	1703.98
622.89	1694.13
623.24	1684.47
623.59	1674.65
623.93	1664.60
624.28	1654.76
624.62	1644.62
624.97	1634.45
625.32	1624.65
625.66	1615.82
626.01	1607.12
626.35	1597.87
626.70	1587.92
627.04	1578.01
627.39	1567.92
627.73	1558.61
628.08	1549.82
628.43	1540.47
628.77	1531.22
629.12	1522.46
629.46	1514.75
629.81	1506.58
630.15	1497.28
630.50	1487.59
630.84	1477.29
631.19	1467.45
631.53	1458.48
631.88	1448.42
632.22	1438.52
632.57	1429.25
632.91	1419.25
633.26	1409.46
633.60	1399.86
633.95	1390.73
634.29	1381.32
634.64	1372.18
634.98	1362.43
635.32	1353.16
635.67	1344.72
636.01	1335.44
636.36	1325.75
636.70	1316.31
637.05	1306.85
637.39	1297.96
637.73	1289.48
638.08	1282.10
638.42	1274.02
638.77	1265.12
639.11	1256.98
639.45	1249.27
639.80	1240.90
640.14	1232.21
640.49	1223.49
640.83	1214.83
641.17	1206.64
641.52	1198.57
641.86	1189.97
642.20	1182.15
642.55	1173.59
642.89	1164.72
643.23	1156.23
643.58	1148.22
643.92	1139.31
644.26	1130.69
644.61	1122.31
644.95	1113.53
645.29	1104.27
645.64	1095.13
645.98	1086.58
646.32	1078.60
646.66	1070.06
647.01	1061.71
647.35	1053.69
647.69	1045.42
648.04	1037.18
648.38	1028.46
648.72	1019.67
649.06	1011.30
649.41	1003.08
649.75	995.22
650.09	987.43
650.43	979.42
650.78	971.08
651.12	963.29
651.46	955.95
651.80	948.73
652.14	941.47
652.49	934.00
652.83	926.75
653.17	919.21
653.51	911.71
653.85	904.50
654.20	897.29
654.54	889.83
654.88	882.64
655.22	875.48
655.56	868.45
655.90	861.67
656.25	855.01
656.59	848.24
656.93	841.23
657.27	834.17
657.61	827.24
657.95	821.16
658.29	815.21
658.64	809.09
658.98	802.64
659.32	796.10
659.66	789.88
660.00	783.58
660.34	777.51
660.68	771.38
661.02	765.06
661.36	759.10
661.70	753.38
662.05	747.73
662.39	742.26
662.73	736.88
663.07	731.53
663.41	725.88
663.75	720.13
664.09	714.33
664.43	708.85
664.77	703.47
665.11	697.66
665.45	691.76
665.79	685.90
666.13	680.28
666.47	674.76
666.81	669.35
667.15	663.97
667.49	658.84
667.83	653.60
668.17	648.39
668.51	643.20
668.85	638.21
669.19	633.34
669.53	628.29
669.87	623.07
670.21	618.31
670.55	613.63
670.89	609.14
671.23	604.89
671.57	600.51
671.91	596.27
672.25	592.05
672.58	587.98
672.92	583.97
673.26	579.94
673.60	576.08
673.94	572.23
674.28	568.60
674.62	564.81
674.96	561.04
675.30	557.49
675.64	553.86
675.97	550.27
676.31	546.63
676.65	543.03
676.99	539.71
677.33	535.87
677.67	532.24
678.01	528.39
678.34	524.70
678.68	521.12
679.02	517.50
679.36	513.85
679.70	510.17
680.04	506.56
680.37	503.12
680.71	499.70
681.05	496.49
681.39	493.18
681.73	489.99
682.06	486.97
682.40	483.91
682.74	480.73
683.08	477.51
683.42	474.23
683.75	471.16
684.09	468.02
684.43	465.14
684.77	462.19
685.10	459.35
685.44	456.47
685.78	453.55
686.12	450.71
686.45	447.94
686.79	445.27
687.13	442.70
687.46	440.07
687.80	437.47
688.14	434.58
688.48	431.88
688.81	429.16
689.15	426.53
689.49	423.89
689.82	421.28
690.16	418.60
690.50	416.11
690.83	413.62
691.17	411.11
691.51	408.67
691.84	406.28
692.18	404.02
692.52	401.70
692.85	399.51
693.19	397.34
693.52	395.16
693.86	392.88
694.20	390.67
694.53	388.51
694.87	386.23
695.21	384.04
695.54	381.82
695.88	379.66
696.21	377.42
696.55	375.28
696.88	373.26
697.22	371.27
697.56	369.38
697.89	367.43
698.23	365.66
698.56	363.83
698.90	362.11
699.23	360.15
699.57	358.28
699.90	356.36
700.24	354.51
700.58	352.74
700.91	351.05
701.25	349.47
701.58	347.82
701.92	346.22
702.25	344.62
702.59	342.98
702.92	341.39
703.26	339.84
703.59	338.31
703.93	336.98
704.26	335.54
704.60	334.02
704.93	332.53
705.26	331.00
705.60	329.49
705.93	327.91
706.27	326.57
706.60	325.32
706.94	324.13
707.27	322.72
707.61	321.34
707.94	319.95
708.27	318.38
708.61	316.89
708.94	315.49
709.28	314.19
709.61	312.96
709.94	311.73
710.28	310.47
710.61	309.25
710.95	307.82
711.28	306.73
711.61	305.50
711.95	304.35
712.28	303.12
712.61	301.90
712.95	300.86
713.28	299.83
713.61	298.63
713.95	297.46
714.28	296.47
714.61	295.42
714.95	294.42
715.28	293.38
715.61	292.37
715.95	291.38
716.28	290.37
716.61	289.38
716.95	288.36
717.28	287.44
717.61	286.48
717.94	285.55
718.28	284.48
718.61	283.62
718.94	282.69
719.27	281.82
719.61	281.02
719.94	280.09
720.27	279.11
720.60	278.27
720.94	277.39
721.27	276.55
721.60	275.88
721.93	275.12
722.27	274.47
722.60	273.81
722.93	273.13
723.26	272.50
723.59	271.77
723.93	271.13
724.26	270.44
724.59	269.76
724.92	269.16
725.25	268.58
725.59	268.00
725.92	267.45
726.25	266.88
726.58	266.26
726.91	265.64
727.24	265.08
727.57	264.51
727.91	263.88
728.24	263.34
728.57	262.71
728.90	262.16
729.23	261.55
729.56	261.09
729.89	260.51
730.22	259.90
730.55	259.36
730.89	258.81
731.22	258.28
731.55	257.76
731.88	257.20
732.21	256.67
732.54	256.09
732.87	255.60
733.20	255.09
733.53	254.61
733.86	254.18
734.19	253.68
734.52	253.22
734.85	252.95
735.18	252.45
735.51	252.06
735.84	251.62
736.17	251.23
736.50	250.66
736.83	250.52
737.16	250.14
737.49	249.77
737.82	249.35
738.15	248.95
738.48	248.55
738.81	248.21
739.14	247.75
739.47	247.35
739.80	246.95
740.13	246.60
740.46	246.24
740.79	245.84
741.12	245.49
741.45	245.12
741.78	244.65
742.11	244.38
742.44	243.99
742.77	243.69
743.10	243.35
743.43	243.01
743.75	242.43
744.08	242.37
744.41	241.98
744.74	241.64
745.07	241.24
745.40	240.96
745.73	240.68
746.06	240.39
746.39	240.10
746.71	239.71
747.04	239.33
747.37	238.96
747.70	238.64
748.03	238.34
748.36	238.06
748.68	237.75
749.01	237.39
749.34	237.08
749.67	236.75
750.00	236.47
750.33	236.36
750.65	236.09
750.98	235.54
751.31	235.29
751.64	235.07
751.97	234.96
752.29	234.70
752.62	234.34
752.95	234.05
753.28	233.76
753.60	233.54
753.93	233.38
754.26	233.22
754.59	232.92
754.91	232.65
755.24	232.38
755.57	232.14
755.90	231.92
756.22	231.67
756.55	231.43
756.88	231.18
757.20	230.83
757.53	230.56
757.86	230.37
758.19	230.20
758.51	229.94
758.84	229.65
759.17	229.42
759.49	229.26
759.82	229.17
760.15	229.02
760.47	228.81
760.80	228.54
761.13	228.35
761.45	228.18
761.78	228.04
762.11	227.89
762.43	227.71
762.76	227.53
763.08	227.40
763.41	227.26
763.74	227.12
764.06	226.91
764.39	226.77
764.71	226.60
765.04	226.41
765.37	226.26
765.69	226.09
766.02	225.97
766.34	225.81
766.67	225.63
767.00	225.54
767.32	225.51
767.65	225.53
767.97	225.41
768.30	225.29
768.62	225.13
768.95	224.98
769.27	224.83
769.60	224.71
769.92	224.54
770.25	224.35
770.57	224.18
770.90	224.11
771.22	223.99
771.55	223.85
771.87	223.78
772.20	223.66
772.52	223.70
772.85	223.79
773.17	223.71
773.50	223.57
773.82	223.43
774.15	223.26
774.47	223.04
774.80	222.91
775.12	222.82
775.45	222.73
775.77	222.63
776.09	222.57
776.42	222.49
776.74	222.48
777.07	222.38
777.39	222.29
777.72	222.14
778.04	222.09
778.36	222.02
778.69	221.94
779.01	221.87
779.33	221.65
779.66	221.37
779.98	221.29
780.31	221.23
780.63	221.23
780.95	221.21
781.28	221.14
781.60	221.04
781.92	220.99
782.25	220.91
782.57	220.85
782.89	220.76
783.22	220.70
783.54	220.58
783.86	220.57
784.19	220.51
784.51	220.51
784.83	220.38
785.16	220.30
785.48	220.24
785.80	220.21
786.12	220.14
