SpectraSuite Data File
++++++++++++++++++++++++++++++++++++
Date: Tue Jan 29 16:14:17 EST 2013
User: group
Dark Spectrum Present: No
Reference Spectrum Present: No
Number of Sampled Component Spectra: 1
Spectrometers: USB2E7196
Integration Time (usec): 65000 (USB2E7196)
Spectra Averaged: 100 (USB2E7196)
Boxcar Smoothing: 10 (USB2E7196)
Correct for Electrical Dark: No (USB2E7196)
Strobe/Lamp Enabled: No (USB2E7196)
Correct for Detector Non-linearity: No (USB2E7196)
Correct for Stray Light: No (USB2E7196)
Number of Pixels in Processed Spectrum: 2048
>>>>>Begin Processed Spectral Data<<<<<
339.09	0.00
339.48	202.93
339.86	203.84
340.24	205.78
340.63	206.92
341.01	211.38
341.39	208.86
341.78	211.58
342.16	212.26
342.54	212.50
342.93	201.74
343.31	211.93
343.69	212.43
344.07	212.89
344.46	213.33
344.84	213.72
345.22	213.87
345.60	214.18
345.99	214.38
346.37	214.51
346.75	214.61
347.13	214.69
347.52	214.75
347.90	214.86
348.28	214.85
348.66	214.93
349.05	214.90
349.43	214.98
349.81	215.06
350.19	215.12
350.57	215.20
350.96	215.26
351.34	215.38
351.72	215.47
352.10	215.61
352.48	215.66
352.87	215.72
353.25	215.79
353.63	215.84
354.01	215.91
354.39	215.98
354.77	216.05
355.15	216.16
355.54	216.23
355.92	216.24
356.30	216.30
356.68	216.49
357.06	216.58
357.44	216.58
357.82	216.60
358.20	216.66
358.58	216.70
358.97	216.80
359.35	216.89
359.73	217.00
360.11	217.03
360.49	217.08
360.87	217.11
361.25	217.20
361.63	217.30
362.01	217.30
362.39	217.32
362.77	217.38
363.15	217.42
363.53	217.45
363.91	217.49
364.29	217.51
364.67	217.34
365.05	217.37
365.43	217.42
365.81	217.47
366.19	217.59
366.57	217.68
366.95	217.67
367.33	217.58
367.71	217.60
368.09	217.61
368.47	217.60
368.85	217.57
369.23	217.57
369.61	217.49
369.99	217.54
370.37	217.55
370.75	217.64
371.13	217.56
371.51	217.49
371.89	217.46
372.27	217.46
372.65	217.45
373.03	217.40
373.41	217.36
373.78	217.31
374.16	217.15
374.54	217.04
374.92	217.01
375.30	216.99
375.68	216.86
376.06	216.82
376.44	216.78
376.82	216.76
377.19	216.72
377.57	216.67
377.95	216.60
378.33	216.55
378.71	216.36
379.09	216.37
379.47	216.39
379.84	216.32
380.22	216.27
380.60	216.19
380.98	216.12
381.36	216.08
381.73	216.03
382.11	216.05
382.49	216.05
382.87	215.93
383.25	215.90
383.62	216.13
384.00	216.07
384.38	216.07
384.76	216.06
385.13	216.09
385.51	216.05
385.89	215.97
386.27	215.97
386.64	216.00
387.02	215.94
387.40	215.89
387.78	215.90
388.15	215.87
388.53	215.88
388.91	215.89
389.29	215.83
389.66	215.82
390.04	215.74
390.42	215.76
390.79	215.79
391.17	215.80
391.55	215.58
391.92	215.61
392.30	215.58
392.68	215.53
393.05	215.52
393.43	215.53
393.81	215.53
394.18	215.46
394.56	215.44
394.94	215.48
395.31	215.46
395.69	215.50
396.06	215.55
396.44	215.59
396.82	215.59
397.19	215.73
397.57	215.72
397.95	215.81
398.32	215.78
398.70	215.84
399.07	215.89
399.45	215.92
399.82	215.96
400.20	216.00
400.58	216.09
400.95	216.05
401.33	216.15
401.70	216.37
402.08	216.49
402.45	216.56
402.83	216.72
403.20	216.84
403.58	216.91
403.95	217.06
404.33	217.18
404.71	217.34
405.08	217.57
405.46	217.73
405.83	217.91
406.21	218.09
406.58	218.31
406.96	218.52
407.33	218.75
407.70	219.04
408.08	219.52
408.45	219.84
408.83	220.21
409.20	220.56
409.58	220.82
409.95	221.25
410.33	221.74
410.70	222.16
411.08	222.71
411.45	223.30
411.82	223.86
412.20	224.52
412.57	225.32
412.95	225.89
413.32	226.69
413.69	227.49
414.07	228.37
414.44	229.31
414.82	230.29
415.19	231.46
415.56	232.62
415.94	233.73
416.31	235.06
416.68	236.42
417.06	237.94
417.43	239.45
417.81	241.16
418.18	242.89
418.55	244.73
418.93	246.69
419.30	248.75
419.67	250.88
420.04	253.11
420.42	255.42
420.79	258.12
421.16	260.84
421.54	263.67
421.91	266.57
422.28	269.56
422.66	272.78
423.03	275.92
423.40	279.15
423.77	282.65
424.15	286.18
424.52	289.92
424.89	293.97
425.26	297.91
425.64	301.66
426.01	305.77
426.38	310.11
426.75	314.46
427.13	318.98
427.50	323.77
427.87	328.76
428.24	333.80
428.61	338.63
428.99	343.94
429.36	349.72
429.73	355.42
430.10	361.08
430.47	366.89
430.85	372.99
431.22	379.50
431.59	386.39
431.96	393.00
432.33	400.26
432.70	407.29
433.08	415.54
433.45	423.33
433.82	431.09
434.19	439.64
434.56	448.13
434.93	456.15
435.30	464.17
435.68	473.04
436.05	481.73
436.42	490.35
436.79	498.16
437.16	506.64
437.53	515.54
437.90	524.40
438.27	533.02
438.64	541.87
439.01	550.08
439.38	557.37
439.75	564.42
440.13	572.54
440.50	580.20
440.87	586.40
441.24	592.79
441.61	599.82
441.98	605.00
442.35	611.05
442.72	617.14
443.09	623.01
443.46	626.59
443.83	628.98
444.20	631.05
444.57	634.09
444.94	635.49
445.31	636.92
445.68	638.30
446.05	638.92
446.42	638.23
446.79	637.33
447.16	636.23
447.53	635.54
447.90	632.29
448.27	629.09
448.64	624.54
449.01	621.37
449.37	615.69
449.74	610.24
450.11	603.59
450.48	596.42
450.85	589.24
451.22	582.92
451.59	576.99
451.96	571.39
452.33	563.88
452.70	557.01
453.07	548.79
453.43	540.47
453.80	532.52
454.17	524.78
454.54	517.47
454.91	509.63
455.28	501.93
455.65	494.79
456.02	487.61
456.38	481.53
456.75	473.92
457.12	467.60
457.49	461.36
457.86	455.39
458.23	450.29
458.59	444.57
458.96	438.82
459.33	433.69
459.70	428.54
460.07	424.42
460.43	419.70
460.80	415.32
461.17	411.48
461.54	407.42
461.91	403.58
462.27	399.59
462.64	396.26
463.01	392.57
463.38	389.02
463.74	385.42
464.11	382.31
464.48	379.59
464.85	376.61
465.21	374.27
465.58	371.78
465.95	368.75
466.32	366.20
466.68	363.73
467.05	361.28
467.42	358.81
467.78	356.24
468.15	353.84
468.52	352.01
468.88	349.59
469.25	347.43
469.62	345.69
469.98	343.88
470.35	342.16
470.72	340.54
471.08	338.80
471.45	337.38
471.82	335.90
472.18	334.30
472.55	333.19
472.92	331.86
473.28	330.72
473.65	329.64
474.02	328.59
474.38	327.74
474.75	327.04
475.11	326.25
475.48	325.73
475.85	325.29
476.21	324.81
476.58	324.48
476.94	324.27
477.31	324.00
477.67	323.73
478.04	323.64
478.41	323.63
478.77	323.85
479.14	323.88
479.50	324.09
479.87	324.40
480.23	324.68
480.60	324.93
480.96	325.18
481.33	325.79
481.69	326.37
482.06	326.89
482.42	327.39
482.79	328.01
483.15	328.82
483.52	329.77
483.88	330.69
484.25	331.68
484.61	332.68
484.98	333.74
485.34	335.05
485.71	336.37
486.07	337.81
486.44	339.13
486.80	340.67
487.17	342.33
487.53	344.12
487.90	345.98
488.26	348.00
488.62	350.15
488.99	352.16
489.35	354.27
489.72	356.62
490.08	359.09
490.44	361.63
490.81	364.26
491.17	366.98
491.54	369.98
491.90	372.98
492.26	376.22
492.63	379.60
492.99	383.10
493.36	386.77
493.72	390.65
494.08	394.62
494.45	398.80
494.81	403.09
495.17	407.57
495.54	412.30
495.90	417.11
496.26	422.03
496.63	427.22
496.99	432.62
497.35	438.21
497.72	444.03
498.08	449.93
498.44	456.03
498.80	462.39
499.17	468.79
499.53	475.46
499.89	482.36
500.26	489.25
500.62	496.32
500.98	503.67
501.34	511.10
501.71	518.80
502.07	526.52
502.43	534.53
502.79	542.55
503.16	550.88
503.52	559.45
503.88	568.09
504.24	577.07
504.60	586.04
504.97	595.16
505.33	604.39
505.69	614.18
506.05	623.94
506.41	633.74
506.78	643.78
507.14	653.92
507.50	664.33
507.86	675.01
508.22	685.68
508.59	696.29
508.95	707.32
509.31	718.58
509.67	730.01
510.03	741.32
510.39	753.04
510.75	764.80
511.12	776.58
511.48	788.58
511.84	800.62
512.20	812.88
512.56	825.40
512.92	838.03
513.28	850.52
513.64	863.14
514.00	875.81
514.37	888.67
514.73	901.64
515.09	914.42
515.45	927.08
515.81	939.96
516.17	953.13
516.53	966.15
516.89	979.02
517.25	991.94
517.61	1005.27
517.97	1018.42
518.33	1031.30
518.69	1044.69
519.05	1058.18
519.41	1071.61
519.77	1085.25
520.13	1098.37
520.49	1111.30
520.85	1124.51
521.21	1137.60
521.57	1151.13
521.93	1164.07
522.29	1177.58
522.65	1191.01
523.01	1204.38
523.37	1217.29
523.73	1230.30
524.09	1243.19
524.45	1256.36
524.81	1269.63
525.17	1282.69
525.53	1295.60
525.89	1308.69
526.25	1321.49
526.61	1333.97
526.97	1346.72
527.33	1359.35
527.68	1372.47
528.04	1385.75
528.40	1398.50
528.76	1411.57
529.12	1424.02
529.48	1436.75
529.84	1448.62
530.20	1461.03
530.56	1473.36
530.91	1486.30
531.27	1498.90
531.63	1511.36
531.99	1523.70
532.35	1535.69
532.71	1547.92
533.07	1560.42
533.42	1572.24
533.78	1583.95
534.14	1595.78
534.50	1606.64
534.86	1617.98
535.21	1628.58
535.57	1639.78
535.93	1650.87
536.29	1661.64
536.65	1672.86
537.00	1683.61
537.36	1694.81
537.72	1705.42
538.08	1716.51
538.44	1727.09
538.79	1737.72
539.15	1748.23
539.51	1758.64
539.87	1769.48
540.22	1779.87
540.58	1790.45
540.94	1801.12
541.29	1811.14
541.65	1820.60
542.01	1831.08
542.37	1840.81
542.72	1850.66
543.08	1860.13
543.44	1870.23
543.79	1879.17
544.15	1888.17
544.51	1897.83
544.87	1907.46
545.22	1916.40
545.58	1924.97
545.94	1933.50
546.29	1941.86
546.65	1949.93
547.01	1958.03
547.36	1965.48
547.72	1972.93
548.07	1980.34
548.43	1987.75
548.79	1995.55
549.14	2003.39
549.50	2011.40
549.86	2018.91
550.21	2025.99
550.57	2033.35
550.92	2039.72
551.28	2047.15
551.64	2054.33
551.99	2061.64
552.35	2068.43
552.70	2075.05
553.06	2081.55
553.41	2087.77
553.77	2094.08
554.13	2100.34
554.48	2107.10
554.84	2113.97
555.19	2120.32
555.55	2126.60
555.90	2132.82
556.26	2139.25
556.61	2145.12
556.97	2149.95
557.32	2155.76
557.68	2162.10
558.03	2167.61
558.39	2172.90
558.74	2178.71
559.10	2184.17
559.45	2189.62
559.81	2195.05
560.16	2200.64
560.52	2206.48
560.87	2212.80
561.23	2218.64
561.58	2225.29
561.94	2230.39
562.29	2235.19
562.64	2241.30
563.00	2246.86
563.35	2252.48
563.71	2258.34
564.06	2263.89
564.42	2269.82
564.77	2274.76
565.12	2280.03
565.48	2285.30
565.83	2290.84
566.19	2296.31
566.54	2301.72
566.89	2306.43
567.25	2311.10
567.60	2316.79
567.96	2322.06
568.31	2326.69
568.66	2331.03
569.02	2334.89
569.37	2338.81
569.72	2343.26
570.08	2346.71
570.43	2349.88
570.78	2352.84
571.14	2355.38
571.49	2358.70
571.84	2362.23
572.20	2365.24
572.55	2368.41
572.90	2370.67
573.26	2373.68
573.61	2376.20
573.96	2378.50
574.31	2380.52
574.67	2382.53
575.02	2383.37
575.37	2384.61
575.72	2385.44
576.08	2387.10
576.43	2387.64
576.78	2388.30
577.13	2390.12
577.49	2391.54
577.84	2392.95
578.19	2394.62
578.54	2395.52
578.90	2396.58
579.25	2396.69
579.60	2396.99
579.95	2396.33
580.30	2396.73
580.66	2396.14
581.01	2394.68
581.36	2392.55
581.71	2391.33
582.06	2390.48
582.42	2389.91
582.77	2388.03
583.12	2386.57
583.47	2385.33
583.82	2384.82
584.17	2383.75
584.53	2381.65
584.88	2379.62
585.23	2377.74
585.58	2375.49
585.93	2373.43
586.28	2371.29
586.63	2369.03
586.98	2366.88
587.34	2365.20
587.69	2363.04
588.04	2361.17
588.39	2359.88
588.74	2357.56
589.09	2355.17
589.44	2352.16
589.79	2349.86
590.14	2348.13
590.49	2345.47
590.84	2341.85
591.19	2338.99
591.54	2335.83
591.89	2331.99
592.25	2328.98
592.60	2324.95
592.95	2321.10
593.30	2317.05
593.65	2312.85
594.00	2308.62
594.35	2305.64
594.70	2301.09
595.05	2296.59
595.40	2291.28
595.75	2285.75
596.10	2282.23
596.45	2277.44
596.80	2273.07
597.15	2268.04
597.50	2262.27
597.85	2257.39
598.19	2252.26
598.54	2246.57
598.89	2241.56
599.24	2237.17
599.59	2231.26
599.94	2225.67
600.29	2219.79
600.64	2214.09
600.99	2207.49
601.34	2202.16
601.69	2195.27
602.04	2189.04
602.39	2182.44
602.74	2176.64
603.08	2171.25
603.43	2164.74
603.78	2158.07
604.13	2150.99
604.48	2143.87
604.83	2137.89
605.18	2131.78
605.53	2124.82
605.87	2117.75
606.22	2111.06
606.57	2103.23
606.92	2095.26
607.27	2088.44
607.62	2081.83
607.96	2074.76
608.31	2068.30
608.66	2060.59
609.01	2053.13
609.36	2046.03
609.70	2038.49
610.05	2030.67
610.40	2022.33
610.75	2014.23
611.10	2006.60
611.44	1997.88
611.79	1989.07
612.14	1979.02
612.49	1968.50
612.83	1959.42
613.18	1950.25
613.53	1940.99
613.88	1931.58
614.22	1923.06
614.57	1913.21
614.92	1902.96
615.27	1892.96
615.61	1882.99
615.96	1873.39
616.31	1863.82
616.65	1854.44
617.00	1844.55
617.35	1834.89
617.70	1825.17
618.04	1815.07
618.39	1804.81
618.74	1795.09
619.08	1785.51
619.43	1776.91
619.78	1768.86
620.12	1760.29
620.47	1750.61
620.82	1740.26
621.16	1730.38
621.51	1720.52
621.85	1710.61
622.20	1700.03
622.55	1689.52
622.89	1679.76
623.24	1670.12
623.59	1660.46
623.93	1650.50
624.28	1640.95
624.62	1630.89
624.97	1620.71
625.32	1611.04
625.66	1602.32
626.01	1593.60
626.35	1584.15
626.70	1574.11
627.04	1563.84
627.39	1553.70
627.73	1544.56
628.08	1535.58
628.43	1526.02
628.77	1516.81
629.12	1508.03
629.46	1500.23
629.81	1491.84
630.15	1482.15
630.50	1472.28
630.84	1461.83
631.19	1451.95
631.53	1442.63
631.88	1432.52
632.22	1422.53
632.57	1413.25
632.91	1403.21
633.26	1393.40
633.60	1383.92
633.95	1374.54
634.29	1365.32
634.64	1356.08
634.98	1346.17
635.32	1337.04
635.67	1328.58
636.01	1319.37
636.36	1309.58
636.70	1300.03
637.05	1290.72
637.39	1281.95
637.73	1273.45
638.08	1265.99
638.42	1257.65
638.77	1248.89
639.11	1240.72
639.45	1232.98
639.80	1224.31
640.14	1215.57
640.49	1206.64
640.83	1198.03
641.17	1190.06
641.52	1181.85
641.86	1173.26
642.20	1165.34
642.55	1156.69
642.89	1147.90
643.23	1139.19
643.58	1131.15
643.92	1122.14
644.26	1113.59
644.61	1105.19
644.95	1096.43
645.29	1087.15
645.64	1078.06
645.98	1069.75
646.32	1061.88
646.66	1053.41
647.01	1045.19
647.35	1037.13
647.69	1028.97
648.04	1020.54
648.38	1011.64
648.72	1002.84
649.06	994.40
649.41	986.39
649.75	978.55
650.09	970.73
650.43	962.83
650.78	954.65
651.12	947.11
651.46	939.77
651.80	932.52
652.14	925.20
652.49	917.69
652.83	910.42
653.17	902.74
653.51	895.11
653.85	887.87
654.20	880.66
654.54	873.10
654.88	865.94
655.22	858.90
655.56	852.04
655.90	845.37
656.25	838.86
656.59	831.91
656.93	824.90
657.27	817.75
657.61	810.87
657.95	804.86
658.29	799.09
658.64	792.90
658.98	786.47
659.32	780.02
659.66	773.88
660.00	767.63
660.34	761.65
660.68	755.64
661.02	749.39
661.36	743.58
661.70	737.94
662.05	732.28
662.39	726.88
662.73	721.64
663.07	716.38
663.41	710.75
663.75	705.16
664.09	699.65
664.43	694.39
664.77	689.09
665.11	683.32
665.45	677.43
665.79	671.72
666.13	666.13
666.47	660.73
666.81	655.40
667.15	650.15
667.49	645.02
667.83	639.86
668.17	634.72
668.51	629.62
668.85	624.77
669.19	619.99
669.53	615.07
669.87	609.97
670.21	605.21
670.55	600.59
670.89	596.23
671.23	592.02
671.57	587.77
671.91	583.58
672.25	579.53
672.58	575.41
672.92	571.42
673.26	567.52
673.60	563.66
673.94	559.90
674.28	556.32
674.62	552.64
674.96	549.01
675.30	545.61
675.64	542.02
675.97	538.51
676.31	534.96
676.65	531.37
676.99	527.98
677.33	524.17
677.67	520.59
678.01	516.79
678.34	513.11
678.68	509.62
679.02	506.06
679.36	502.42
679.70	498.86
680.04	495.43
680.37	492.10
680.71	488.87
681.05	485.73
681.39	482.53
681.73	479.38
682.06	476.35
682.40	473.28
682.74	470.14
683.08	466.97
683.42	463.87
683.75	460.99
684.09	458.04
684.43	455.37
684.77	452.47
685.10	449.75
685.44	446.88
685.78	444.01
686.12	441.31
686.45	438.63
686.79	436.03
687.13	433.54
687.46	430.93
687.80	428.30
688.14	425.54
688.48	422.94
688.81	420.38
689.15	417.91
689.49	415.34
689.82	412.85
690.16	410.31
690.50	407.89
690.83	405.41
691.17	402.91
691.51	400.51
691.84	398.34
692.18	396.16
692.52	394.01
692.85	391.96
693.19	389.90
693.52	387.77
693.86	385.66
694.20	383.54
694.53	381.49
694.87	379.31
695.21	377.24
695.54	375.21
695.88	373.07
696.21	370.87
696.55	368.82
696.88	366.83
697.22	364.95
697.56	363.16
697.89	361.35
698.23	359.61
698.56	357.84
698.90	356.09
699.23	354.23
699.57	352.39
699.90	350.56
700.24	348.78
700.58	347.07
700.91	345.44
701.25	343.90
701.58	342.31
701.92	340.79
702.25	339.21
702.59	337.62
702.92	336.09
703.26	334.63
703.59	333.20
703.93	331.92
704.26	330.51
704.60	329.03
704.93	327.58
705.26	326.17
705.60	324.74
705.93	323.28
706.27	321.98
706.60	320.77
706.94	319.59
707.27	318.18
707.61	316.88
707.94	315.58
708.27	314.08
708.61	312.68
708.94	311.34
709.28	310.15
709.61	308.91
709.94	307.75
710.28	306.55
710.61	305.38
710.95	304.03
711.28	302.98
711.61	301.76
711.95	300.66
712.28	299.50
712.61	298.33
712.95	297.30
713.28	296.29
713.61	295.18
713.95	294.04
714.28	293.10
714.61	292.08
714.95	291.05
715.28	290.11
715.61	289.11
715.95	288.19
716.28	287.21
716.61	286.28
716.95	285.38
717.28	284.46
717.61	283.56
717.94	282.70
718.28	281.72
718.61	280.93
718.94	280.03
719.27	279.22
719.61	278.48
719.94	277.65
720.27	276.68
720.60	275.83
720.94	275.06
721.27	274.29
721.60	273.62
721.93	272.95
722.27	272.28
722.60	271.62
722.93	270.92
723.26	270.32
723.59	269.68
723.93	269.02
724.26	268.41
724.59	267.73
724.92	267.17
725.25	266.64
725.59	266.04
725.92	265.55
726.25	264.94
726.58	264.32
726.91	263.77
727.24	263.27
727.57	262.78
727.91	262.18
728.24	261.63
728.57	261.06
728.90	260.51
729.23	259.92
729.56	259.50
729.89	258.99
730.22	258.42
730.55	257.92
730.89	257.44
731.22	256.93
731.55	256.40
731.88	255.86
732.21	255.30
732.54	254.78
732.87	254.31
733.20	253.88
733.53	253.41
733.86	252.93
734.19	252.47
734.52	252.05
734.85	251.79
735.18	251.38
735.51	251.04
735.84	250.63
736.17	250.25
736.50	249.71
736.83	249.56
737.16	249.17
737.49	248.78
737.82	248.32
738.15	247.99
738.48	247.65
738.81	247.29
739.14	246.86
739.47	246.50
739.80	246.07
740.13	245.71
740.46	245.34
740.79	244.97
741.12	244.62
741.45	244.25
741.78	243.80
742.11	243.51
742.44	243.12
742.77	242.86
743.10	242.51
743.43	242.22
743.75	241.65
744.08	241.59
744.41	241.22
744.74	240.90
745.07	240.51
745.40	240.21
745.73	239.97
746.06	239.70
746.39	239.40
746.71	239.10
747.04	238.74
747.37	238.46
747.70	238.22
748.03	237.94
748.36	237.69
748.68	237.38
749.01	237.02
749.34	236.70
749.67	236.41
750.00	236.19
750.33	236.05
750.65	235.85
750.98	235.34
751.31	235.14
751.64	234.94
751.97	234.83
752.29	234.57
752.62	234.25
752.95	234.01
753.28	233.77
753.60	233.54
753.93	233.40
754.26	233.18
754.59	232.89
754.91	232.64
755.24	232.38
755.57	232.14
755.90	231.92
756.22	231.71
756.55	231.44
756.88	231.17
757.20	230.85
757.53	230.56
757.86	230.37
758.19	230.16
758.51	229.97
758.84	229.67
759.17	229.49
759.49	229.34
759.82	229.24
760.15	229.09
760.47	228.92
760.80	228.66
761.13	228.54
761.45	228.34
761.78	228.15
762.11	228.00
762.43	227.85
762.76	227.71
763.08	227.57
763.41	227.43
763.74	227.30
764.06	227.13
764.39	227.02
764.71	226.84
765.04	226.68
765.37	226.49
765.69	226.32
766.02	226.18
766.34	226.03
766.67	225.83
767.00	225.72
767.32	225.70
767.65	225.73
767.97	225.55
768.30	225.44
768.62	225.33
768.95	225.18
769.27	225.04
769.60	224.95
769.92	224.80
770.25	224.65
770.57	224.52
770.90	224.42
771.22	224.27
771.55	224.18
771.87	224.08
772.20	223.98
772.52	224.06
772.85	224.20
773.17	224.10
773.50	224.02
773.82	223.91
774.15	223.67
774.47	223.46
774.80	223.37
775.12	223.30
775.45	223.23
775.77	223.17
776.09	223.10
776.42	223.00
776.74	222.99
777.07	222.86
777.39	222.80
777.72	222.70
778.04	222.67
778.36	222.61
778.69	222.55
779.01	222.51
779.33	222.27
779.66	221.95
779.98	221.89
780.31	221.76
780.63	221.76
780.95	221.74
781.28	221.64
781.60	221.51
781.92	221.43
782.25	221.35
782.57	221.28
782.89	221.23
783.22	221.18
783.54	221.05
783.86	221.03
784.19	220.98
784.51	220.97
784.83	220.90
785.16	220.81
785.48	220.74
785.80	220.68
786.12	220.65
