SpectraSuite Data File
++++++++++++++++++++++++++++++++++++
Date: Tue Jan 29 16:32:48 EST 2013
User: group
Dark Spectrum Present: No
Reference Spectrum Present: No
Number of Sampled Component Spectra: 1
Spectrometers: USB2E7196
Integration Time (usec): 65000 (USB2E7196)
Spectra Averaged: 100 (USB2E7196)
Boxcar Smoothing: 10 (USB2E7196)
Correct for Electrical Dark: No (USB2E7196)
Strobe/Lamp Enabled: No (USB2E7196)
Correct for Detector Non-linearity: No (USB2E7196)
Correct for Stray Light: No (USB2E7196)
Number of Pixels in Processed Spectrum: 2048
>>>>>Begin Processed Spectral Data<<<<<
339.09	0.00
339.48	201.76
339.86	203.77
340.24	205.11
340.63	206.44
341.01	211.13
341.39	208.91
341.78	210.71
342.16	212.09
342.54	211.84
342.93	201.18
343.31	211.36
343.69	211.92
344.07	212.40
344.46	212.83
344.84	213.22
345.22	213.37
345.60	213.65
345.99	213.87
346.37	214.00
346.75	214.12
347.13	214.21
347.52	214.23
347.90	214.37
348.28	214.37
348.66	214.45
349.05	214.44
349.43	214.51
349.81	214.59
350.19	214.64
350.57	214.72
350.96	214.81
351.34	214.87
351.72	214.94
352.10	215.00
352.48	215.06
352.87	215.10
353.25	215.16
353.63	215.20
354.01	215.23
354.39	215.27
354.77	215.34
355.15	215.44
355.54	215.45
355.92	215.42
356.30	215.50
356.68	215.70
357.06	215.73
357.44	215.77
357.82	215.82
358.20	215.90
358.58	215.97
358.97	216.04
359.35	216.15
359.73	216.25
360.11	216.31
360.49	216.35
360.87	216.38
361.25	216.46
361.63	216.58
362.01	216.61
362.39	216.66
362.77	216.70
363.15	216.72
363.53	216.78
363.91	216.84
364.29	216.89
364.67	216.69
365.05	216.74
365.43	216.74
365.81	216.77
366.19	216.91
366.57	216.98
366.95	217.01
367.33	216.95
367.71	216.95
368.09	217.01
368.47	217.02
368.85	217.03
369.23	217.03
369.61	216.92
369.99	216.98
370.37	216.99
370.75	217.08
371.13	217.01
371.51	216.96
371.89	216.98
372.27	216.96
372.65	216.94
373.03	216.88
373.41	216.87
373.78	216.83
374.16	216.66
374.54	216.57
374.92	216.49
375.30	216.49
375.68	216.42
376.06	216.38
376.44	216.32
376.82	216.30
377.19	216.28
377.57	216.23
377.95	216.12
378.33	216.07
378.71	215.95
379.09	215.97
379.47	215.96
379.84	215.86
380.22	215.79
380.60	215.72
380.98	215.69
381.36	215.67
381.73	215.62
382.11	215.64
382.49	215.61
382.87	215.55
383.25	215.50
383.62	215.68
384.00	215.63
384.38	215.63
384.76	215.65
385.13	215.66
385.51	215.64
385.89	215.63
386.27	215.61
386.64	215.59
387.02	215.56
387.40	215.53
387.78	215.53
388.15	215.50
388.53	215.50
388.91	215.49
389.29	215.45
389.66	215.44
390.04	215.42
390.42	215.43
390.79	215.43
391.17	215.39
391.55	215.19
391.92	215.17
392.30	215.17
392.68	215.11
393.05	215.12
393.43	215.13
393.81	215.14
394.18	215.09
394.56	215.09
394.94	215.17
395.31	215.17
395.69	215.24
396.06	215.30
396.44	215.33
396.82	215.38
397.19	215.50
397.57	215.52
397.95	215.56
398.32	215.50
398.70	215.57
399.07	215.65
399.45	215.67
399.82	215.73
400.20	215.74
400.58	215.81
400.95	215.76
401.33	215.87
401.70	216.05
402.08	216.16
402.45	216.24
402.83	216.31
403.20	216.45
403.58	216.53
403.95	216.70
404.33	216.88
404.71	216.99
405.08	217.24
405.46	217.41
405.83	217.58
406.21	217.82
406.58	218.03
406.96	218.28
407.33	218.54
407.70	218.83
408.08	219.28
408.45	219.62
408.83	220.02
409.20	220.36
409.58	220.66
409.95	221.10
410.33	221.60
410.70	222.08
411.08	222.61
411.45	223.17
411.82	223.71
412.20	224.38
412.57	225.22
412.95	225.78
413.32	226.61
413.69	227.47
414.07	228.39
414.44	229.37
414.82	230.39
415.19	231.55
415.56	232.72
415.94	233.95
416.31	235.36
416.68	236.76
417.06	238.37
417.43	239.90
417.81	241.62
418.18	243.38
418.55	245.30
418.93	247.32
419.30	249.43
419.67	251.70
420.04	253.96
420.42	256.37
420.79	259.19
421.16	261.92
421.54	264.82
421.91	267.77
422.28	270.87
422.66	274.19
423.03	277.52
423.40	280.91
423.77	284.46
424.15	288.13
424.52	291.97
424.89	296.17
425.26	300.25
425.64	304.21
426.01	308.51
426.38	312.98
426.75	317.56
427.13	322.27
427.50	327.26
427.87	332.49
428.24	337.70
428.61	342.68
428.99	348.26
429.36	354.24
429.73	360.18
430.10	366.10
430.47	372.13
430.85	378.42
431.22	385.12
431.59	392.27
431.96	399.04
432.33	406.55
432.70	413.76
433.08	422.30
433.45	430.37
433.82	438.42
434.19	447.35
434.56	456.04
434.93	464.44
435.30	472.70
435.68	481.86
436.05	490.76
436.42	499.68
436.79	507.85
437.16	516.64
437.53	525.96
437.90	535.14
438.27	544.13
438.64	553.36
439.01	561.92
439.38	569.50
439.75	576.87
440.13	585.29
440.50	593.24
440.87	599.69
441.24	606.34
441.61	613.68
441.98	619.07
442.35	625.36
442.72	631.67
443.09	637.74
443.46	641.41
443.83	643.98
444.20	646.19
444.57	649.33
444.94	650.81
445.31	652.20
445.68	653.54
446.05	654.20
446.42	653.38
446.79	652.43
447.16	651.36
447.53	650.65
447.90	647.31
448.27	644.04
448.64	639.43
449.01	636.14
449.37	630.24
449.74	624.51
450.11	617.66
450.48	610.25
450.85	602.80
451.22	596.36
451.59	590.26
451.96	584.48
452.33	576.63
452.70	569.51
453.07	561.02
453.43	552.34
453.80	544.01
454.17	536.01
454.54	528.41
454.91	520.22
455.28	512.20
455.65	504.78
456.02	497.27
456.38	490.87
456.75	482.93
457.12	476.30
457.49	469.82
457.86	463.56
458.23	458.15
458.59	452.26
458.96	446.27
459.33	440.91
459.70	435.49
460.07	431.22
460.43	426.32
460.80	421.75
461.17	417.82
461.54	413.60
461.91	409.62
462.27	405.54
462.64	402.11
463.01	398.34
463.38	394.72
463.74	391.00
464.11	387.81
464.48	384.95
464.85	381.88
465.21	379.41
465.58	376.88
465.95	373.75
466.32	371.09
466.68	368.47
467.05	365.93
467.42	363.38
467.78	360.67
468.15	358.12
468.52	356.22
468.88	353.74
469.25	351.56
469.62	349.75
469.98	347.80
470.35	345.97
470.72	344.22
471.08	342.38
471.45	340.92
471.82	339.34
472.18	337.67
472.55	336.44
472.92	335.03
473.28	333.79
473.65	332.67
474.02	331.51
474.38	330.60
474.75	329.78
475.11	328.97
475.48	328.38
475.85	327.92
476.21	327.42
476.58	327.06
476.94	326.80
477.31	326.45
477.67	326.13
478.04	325.98
478.41	325.98
478.77	326.15
479.14	326.09
479.50	326.18
479.87	326.51
480.23	326.85
480.60	327.10
480.96	327.34
481.33	327.94
481.69	328.50
482.06	329.00
482.42	329.51
482.79	330.10
483.15	330.91
483.52	331.82
483.88	332.69
484.25	333.62
484.61	334.64
484.98	335.67
485.34	337.02
485.71	338.38
486.07	339.79
486.44	341.06
486.80	342.68
487.17	344.36
487.53	346.14
487.90	347.99
488.26	350.08
488.62	352.21
488.99	354.25
489.35	356.40
489.72	358.82
490.08	361.32
490.44	363.89
490.81	366.57
491.17	369.28
491.54	372.28
491.90	375.28
492.26	378.52
492.63	382.00
492.99	385.44
493.36	389.15
493.72	393.04
494.08	397.08
494.45	401.30
494.81	405.70
495.17	410.17
495.54	414.93
495.90	419.69
496.26	424.66
496.63	429.83
496.99	435.25
497.35	440.88
497.72	446.75
498.08	452.65
498.44	458.77
498.80	465.23
499.17	471.74
499.53	478.45
499.89	485.39
500.26	492.37
500.62	499.56
500.98	507.02
501.34	514.47
501.71	522.27
502.07	530.10
502.43	538.14
502.79	546.31
503.16	554.79
503.52	563.48
503.88	572.21
504.24	581.18
504.60	590.26
504.97	599.48
505.33	608.78
505.69	618.76
506.05	628.73
506.41	638.64
506.78	648.83
507.14	659.11
507.50	669.68
507.86	680.44
508.22	691.26
508.59	701.95
508.95	713.09
509.31	724.35
509.67	735.88
510.03	747.37
510.39	759.15
510.75	770.99
511.12	782.89
511.48	795.03
511.84	807.39
512.20	819.84
512.56	832.55
512.92	845.43
513.28	858.08
513.64	870.94
514.00	883.93
514.37	897.05
514.73	910.23
515.09	923.26
515.45	936.23
515.81	949.37
516.17	962.87
516.53	976.24
516.89	989.51
517.25	1002.83
517.61	1016.40
517.97	1029.92
518.33	1043.13
518.69	1056.81
519.05	1070.70
519.41	1084.47
519.77	1098.40
520.13	1111.84
520.49	1125.17
520.85	1138.73
521.21	1152.11
521.57	1165.86
521.93	1178.88
522.29	1192.75
522.65	1206.36
523.01	1220.08
523.37	1233.37
523.73	1246.68
524.09	1259.94
524.45	1273.39
524.81	1287.08
525.17	1300.61
525.53	1313.88
525.89	1327.35
526.25	1340.54
526.61	1353.48
526.97	1366.56
527.33	1379.75
527.68	1393.28
528.04	1406.82
528.40	1420.09
528.76	1433.51
529.12	1446.53
529.48	1460.02
529.84	1472.46
530.20	1485.38
530.56	1498.12
530.91	1511.58
531.27	1524.60
531.63	1537.46
531.99	1550.45
532.35	1562.66
532.71	1575.25
533.07	1588.38
533.42	1600.64
533.78	1612.84
534.14	1625.15
534.50	1636.66
534.86	1648.24
535.21	1659.23
535.57	1670.98
535.93	1682.23
536.29	1693.54
536.65	1705.01
537.00	1716.02
537.36	1727.51
537.72	1738.67
538.08	1750.22
538.44	1761.19
538.79	1772.50
539.15	1783.59
539.51	1794.42
539.87	1805.74
540.22	1816.62
540.58	1827.55
540.94	1838.51
541.29	1848.94
541.65	1858.79
542.01	1869.37
542.37	1879.53
542.72	1889.82
543.08	1899.52
543.44	1910.19
543.79	1919.54
544.15	1929.19
544.51	1939.37
544.87	1949.29
545.22	1958.57
545.58	1967.51
545.94	1976.44
546.29	1984.99
546.65	1993.27
547.01	2001.67
547.36	2009.47
547.72	2017.36
548.07	2025.06
548.43	2032.94
548.79	2040.94
549.14	2049.07
549.50	2057.78
549.86	2065.84
550.21	2073.39
550.57	2081.27
550.92	2088.11
551.28	2095.64
551.64	2102.97
551.99	2110.52
552.35	2117.88
552.70	2124.89
553.06	2131.60
553.41	2137.96
553.77	2144.51
554.13	2151.06
554.48	2158.17
554.84	2165.51
555.19	2171.94
555.55	2178.47
555.90	2184.92
556.26	2191.85
556.61	2198.07
556.97	2202.78
557.32	2208.51
557.68	2214.95
558.03	2220.68
558.39	2225.96
558.74	2232.10
559.10	2237.68
559.45	2243.16
559.81	2248.69
560.16	2254.22
560.52	2260.09
560.87	2266.54
561.23	2272.54
561.58	2279.16
561.94	2284.34
562.29	2288.96
562.64	2295.16
563.00	2300.80
563.35	2306.37
563.71	2312.14
564.06	2317.80
564.42	2323.82
564.77	2329.01
565.12	2334.33
565.48	2339.55
565.83	2345.23
566.19	2350.51
566.54	2355.95
566.89	2360.69
567.25	2365.28
567.60	2371.02
567.96	2376.22
568.31	2380.76
568.66	2385.09
569.02	2389.01
569.37	2392.76
569.72	2397.22
570.08	2400.64
570.43	2403.75
570.78	2406.91
571.14	2409.29
571.49	2412.39
571.84	2415.85
572.20	2418.78
572.55	2421.80
572.90	2423.94
573.26	2426.70
573.61	2429.31
573.96	2431.35
574.31	2433.32
574.67	2435.16
575.02	2435.89
575.37	2437.21
575.72	2437.86
576.08	2439.20
576.43	2439.41
576.78	2439.82
577.13	2441.27
577.49	2442.45
577.84	2443.47
578.19	2444.63
578.54	2445.16
578.90	2445.74
579.25	2445.66
579.60	2445.44
579.95	2444.43
580.30	2444.56
580.66	2443.75
581.01	2441.97
581.36	2439.53
581.71	2438.06
582.06	2436.72
582.42	2435.86
582.77	2433.61
583.12	2431.98
583.47	2430.44
583.82	2429.82
584.17	2428.56
584.53	2426.40
584.88	2424.21
585.23	2422.21
585.58	2420.00
585.93	2418.10
586.28	2415.93
586.63	2413.42
586.98	2411.15
587.34	2409.21
587.69	2406.68
588.04	2404.66
588.39	2403.18
588.74	2400.74
589.09	2397.86
589.44	2394.69
589.79	2391.99
590.14	2389.92
590.49	2387.10
590.84	2383.22
591.19	2379.86
591.54	2376.50
591.89	2372.43
592.25	2369.12
592.60	2364.93
592.95	2360.64
593.30	2356.21
593.65	2351.69
594.00	2347.15
594.35	2344.15
594.70	2339.39
595.05	2334.83
595.40	2329.07
595.75	2323.32
596.10	2319.65
596.45	2314.73
596.80	2310.09
597.15	2304.94
597.50	2299.08
597.85	2294.07
598.19	2288.80
598.54	2283.07
598.89	2277.82
599.24	2273.18
599.59	2267.00
599.94	2261.04
600.29	2254.96
600.64	2249.03
600.99	2242.19
601.34	2236.64
601.69	2229.43
602.04	2223.04
602.39	2216.35
602.74	2210.37
603.08	2204.73
603.43	2198.12
603.78	2191.48
604.13	2184.47
604.48	2177.06
604.83	2170.68
605.18	2164.35
605.53	2157.39
605.87	2150.33
606.22	2143.46
606.57	2135.43
606.92	2127.46
607.27	2120.43
607.62	2113.84
607.96	2106.88
608.31	2100.48
608.66	2092.64
609.01	2085.10
609.36	2077.97
609.70	2070.19
610.05	2062.27
610.40	2053.89
610.75	2045.54
611.10	2037.67
611.44	2028.64
611.79	2019.85
612.14	2009.92
612.49	1999.22
612.83	1989.92
613.18	1980.55
613.53	1971.21
613.88	1961.66
614.22	1952.82
614.57	1942.94
614.92	1932.25
615.27	1921.91
615.61	1911.67
615.96	1902.00
616.31	1892.34
616.65	1882.85
617.00	1872.97
617.35	1863.38
617.70	1853.55
618.04	1843.43
618.39	1833.11
618.74	1823.46
619.08	1813.84
619.43	1805.11
619.78	1796.89
620.12	1788.20
620.47	1778.60
620.82	1768.28
621.16	1758.43
621.51	1748.52
621.85	1738.66
622.20	1728.26
622.55	1717.67
622.89	1707.78
623.24	1698.05
623.59	1688.28
623.93	1678.08
624.28	1668.37
624.62	1658.16
624.97	1647.85
625.32	1638.08
625.66	1629.25
626.01	1620.53
626.35	1611.10
626.70	1601.09
627.04	1590.96
627.39	1580.80
627.73	1571.50
628.08	1562.48
628.43	1552.88
628.77	1543.73
629.12	1534.97
629.46	1527.05
629.81	1518.78
630.15	1509.15
630.50	1499.24
630.84	1488.60
631.19	1478.72
631.53	1469.33
631.88	1459.21
632.22	1449.21
632.57	1439.82
632.91	1429.61
633.26	1419.65
633.60	1410.07
633.95	1400.64
634.29	1391.12
634.64	1381.68
634.98	1371.65
635.32	1362.25
635.67	1353.70
636.01	1344.43
636.36	1334.42
636.70	1325.03
637.05	1315.59
637.39	1306.72
637.73	1298.12
638.08	1290.61
638.42	1282.42
638.77	1273.66
639.11	1265.37
639.45	1257.49
639.80	1248.87
640.14	1240.25
640.49	1231.36
640.83	1222.49
641.17	1214.37
641.52	1206.22
641.86	1197.67
642.20	1189.82
642.55	1181.18
642.89	1172.25
643.23	1163.58
643.58	1155.45
643.92	1146.25
644.26	1137.41
644.61	1128.90
644.95	1120.05
645.29	1110.75
645.64	1101.46
645.98	1092.92
646.32	1084.96
646.66	1076.41
647.01	1068.05
647.35	1059.74
647.69	1051.44
648.04	1043.14
648.38	1034.17
648.72	1025.34
649.06	1016.86
649.41	1008.52
649.75	1000.59
650.09	992.76
650.43	984.52
650.78	976.22
651.12	968.44
651.46	961.03
651.80	953.77
652.14	946.36
652.49	938.87
652.83	931.47
653.17	923.68
653.51	916.02
653.85	908.80
654.20	901.50
654.54	894.01
654.88	886.69
655.22	879.34
655.56	872.35
655.90	865.46
656.25	858.76
656.59	851.83
656.93	844.78
657.27	837.56
657.61	830.64
657.95	824.44
658.29	818.56
658.64	812.36
658.98	805.80
659.32	799.22
659.66	792.88
660.00	786.49
660.34	780.37
660.68	774.23
661.02	767.78
661.36	761.76
661.70	755.92
662.05	750.18
662.39	744.73
662.73	739.22
663.07	733.74
663.41	728.06
663.75	722.34
664.09	716.62
664.43	711.13
664.77	705.77
665.11	699.97
665.45	693.93
665.79	688.09
666.13	682.32
666.47	676.81
666.81	671.24
667.15	665.82
667.49	660.63
667.83	655.21
668.17	649.92
668.51	644.73
668.85	639.78
669.19	634.90
669.53	629.80
669.87	624.66
670.21	619.90
670.55	615.07
670.89	610.61
671.23	606.20
671.57	601.80
671.91	597.46
672.25	593.23
672.58	589.17
672.92	585.07
673.26	581.10
673.60	577.18
673.94	573.38
674.28	569.73
674.62	565.87
674.96	562.17
675.30	558.58
675.64	554.90
675.97	551.27
676.31	547.59
676.65	543.96
676.99	540.51
677.33	536.61
677.67	532.94
678.01	528.95
678.34	525.20
678.68	521.64
679.02	517.96
679.36	514.24
679.70	510.45
680.04	506.85
680.37	503.35
680.71	499.94
681.05	496.74
681.39	493.43
681.73	490.25
682.06	487.19
682.40	484.10
682.74	480.84
683.08	477.56
683.42	474.33
683.75	471.25
684.09	468.15
684.43	465.32
684.77	462.35
685.10	459.53
685.44	456.63
685.78	453.66
686.12	450.84
686.45	448.12
686.79	445.43
687.13	442.86
687.46	440.21
687.80	437.57
688.14	434.68
688.48	432.00
688.81	429.29
689.15	426.58
689.49	423.99
689.82	421.41
690.16	418.79
690.50	416.27
690.83	413.78
691.17	411.18
691.51	408.69
691.84	406.42
692.18	404.14
692.52	401.88
692.85	399.72
693.19	397.53
693.52	395.32
693.86	393.06
694.20	390.84
694.53	388.67
694.87	386.39
695.21	384.20
695.54	382.04
695.88	379.83
696.21	377.63
696.55	375.41
696.88	373.34
697.22	371.35
697.56	369.44
697.89	367.55
698.23	365.80
698.56	363.95
698.90	362.17
699.23	360.26
699.57	358.33
699.90	356.40
700.24	354.57
700.58	352.75
700.91	351.06
701.25	349.48
701.58	347.82
701.92	346.26
702.25	344.68
702.59	343.02
702.92	341.46
703.26	339.87
703.59	338.38
703.93	337.08
704.26	335.57
704.60	334.02
704.93	332.50
705.26	330.97
705.60	329.47
705.93	327.92
706.27	326.55
706.60	325.30
706.94	324.05
707.27	322.61
707.61	321.28
707.94	319.91
708.27	318.35
708.61	316.89
708.94	315.43
709.28	314.14
709.61	312.85
709.94	311.65
710.28	310.43
710.61	309.22
710.95	307.76
711.28	306.68
711.61	305.47
711.95	304.31
712.28	303.12
712.61	301.94
712.95	300.84
713.28	299.82
713.61	298.66
713.95	297.51
714.28	296.49
714.61	295.39
714.95	294.35
715.28	293.31
715.61	292.33
715.95	291.37
716.28	290.35
716.61	289.39
716.95	288.38
717.28	287.47
717.61	286.47
717.94	285.58
718.28	284.54
718.61	283.66
718.94	282.73
719.27	281.85
719.61	281.01
719.94	280.15
720.27	279.14
720.60	278.26
720.94	277.44
721.27	276.69
721.60	276.00
721.93	275.32
722.27	274.68
722.60	273.98
722.93	273.29
723.26	272.61
723.59	271.91
723.93	271.25
724.26	270.55
724.59	269.91
724.92	269.26
725.25	268.75
725.59	268.16
725.92	267.62
726.25	267.05
726.58	266.46
726.91	265.85
727.24	265.31
727.57	264.76
727.91	264.18
728.24	263.61
728.57	263.00
728.90	262.42
729.23	261.77
729.56	261.27
729.89	260.72
730.22	260.16
730.55	259.59
730.89	259.04
731.22	258.51
731.55	257.98
731.88	257.47
732.21	256.89
732.54	256.35
732.87	255.81
733.20	255.29
733.53	254.81
733.86	254.33
734.19	253.84
734.52	253.39
734.85	253.08
735.18	252.61
735.51	252.22
735.84	251.77
736.17	251.41
736.50	250.88
736.83	250.70
737.16	250.33
737.49	249.94
737.82	249.52
738.15	249.14
738.48	248.76
738.81	248.36
739.14	247.91
739.47	247.51
739.80	247.12
740.13	246.79
740.46	246.39
740.79	246.01
741.12	245.61
741.45	245.24
741.78	244.77
742.11	244.47
742.44	244.08
742.77	243.79
743.10	243.42
743.43	243.07
743.75	242.49
744.08	242.41
744.41	242.03
744.74	241.69
745.07	241.31
745.40	241.03
745.73	240.78
746.06	240.46
746.39	240.16
746.71	239.82
747.04	239.49
747.37	239.17
747.70	238.89
748.03	238.61
748.36	238.33
748.68	237.99
749.01	237.66
749.34	237.35
749.67	237.01
750.00	236.76
750.33	236.66
750.65	236.37
750.98	235.82
751.31	235.59
751.64	235.35
751.97	235.20
752.29	234.91
752.62	234.56
752.95	234.33
753.28	234.03
753.60	233.79
753.93	233.58
754.26	233.32
754.59	233.05
754.91	232.79
755.24	232.52
755.57	232.28
755.90	232.04
756.22	231.79
756.55	231.54
756.88	231.24
757.20	230.88
757.53	230.63
757.86	230.42
758.19	230.22
758.51	230.01
758.84	229.70
759.17	229.49
759.49	229.31
759.82	229.24
760.15	229.08
760.47	228.90
760.80	228.65
761.13	228.53
761.45	228.32
761.78	228.18
762.11	228.01
762.43	227.84
762.76	227.63
763.08	227.48
763.41	227.32
763.74	227.18
764.06	227.02
764.39	226.87
764.71	226.71
765.04	226.56
765.37	226.40
765.69	226.25
766.02	226.07
766.34	225.94
766.67	225.70
767.00	225.61
767.32	225.58
767.65	225.57
767.97	225.40
768.30	225.30
768.62	225.15
768.95	225.00
769.27	224.89
769.60	224.83
769.92	224.70
770.25	224.56
770.57	224.42
770.90	224.30
771.22	224.15
771.55	224.03
771.87	223.93
772.20	223.80
772.52	223.88
772.85	224.03
773.17	223.93
773.50	223.80
773.82	223.66
774.15	223.44
774.47	223.18
774.80	223.05
775.12	222.92
775.45	222.82
775.77	222.74
776.09	222.64
776.42	222.52
776.74	222.47
777.07	222.38
777.39	222.30
777.72	222.20
778.04	222.16
778.36	222.04
778.69	221.94
779.01	221.88
779.33	221.62
779.66	221.32
779.98	221.21
780.31	221.14
780.63	221.15
780.95	221.10
781.28	221.05
781.60	220.96
781.92	220.92
782.25	220.86
782.57	220.79
782.89	220.71
783.22	220.64
783.54	220.54
783.86	220.49
784.19	220.45
784.51	220.44
784.83	220.36
785.16	220.31
785.48	220.25
785.80	220.18
786.12	220.15
