SpectraSuite Data File
++++++++++++++++++++++++++++++++++++
Date: Tue Jan 29 16:25:33 EST 2013
User: group
Dark Spectrum Present: No
Reference Spectrum Present: No
Number of Sampled Component Spectra: 1
Spectrometers: USB2E7196
Integration Time (usec): 65000 (USB2E7196)
Spectra Averaged: 100 (USB2E7196)
Boxcar Smoothing: 10 (USB2E7196)
Correct for Electrical Dark: No (USB2E7196)
Strobe/Lamp Enabled: No (USB2E7196)
Correct for Detector Non-linearity: No (USB2E7196)
Correct for Stray Light: No (USB2E7196)
Number of Pixels in Processed Spectrum: 2048
>>>>>Begin Processed Spectral Data<<<<<
339.09	0.00
339.48	202.23
339.86	203.63
340.24	204.69
340.63	206.74
341.01	210.91
341.39	209.53
341.78	210.99
342.16	212.14
342.54	212.58
342.93	201.56
343.31	211.72
343.69	212.27
344.07	212.73
344.46	213.19
344.84	213.60
345.22	213.81
345.60	214.07
345.99	214.27
346.37	214.39
346.75	214.50
347.13	214.58
347.52	214.64
347.90	214.74
348.28	214.77
348.66	214.88
349.05	214.84
349.43	214.89
349.81	214.97
350.19	215.02
350.57	215.11
350.96	215.16
351.34	215.28
351.72	215.39
352.10	215.52
352.48	215.59
352.87	215.60
353.25	215.58
353.63	215.65
354.01	215.69
354.39	215.78
354.77	215.82
355.15	215.94
355.54	215.99
355.92	215.95
356.30	216.03
356.68	216.19
357.06	216.23
357.44	216.24
357.82	216.27
358.20	216.32
358.58	216.36
358.97	216.42
359.35	216.52
359.73	216.58
360.11	216.62
360.49	216.69
360.87	216.74
361.25	216.84
361.63	216.93
362.01	216.98
362.39	217.01
362.77	217.07
363.15	217.06
363.53	217.11
363.91	217.15
364.29	217.16
364.67	216.99
365.05	217.04
365.43	217.12
365.81	217.18
366.19	217.25
366.57	217.34
366.95	217.34
367.33	217.27
367.71	217.28
368.09	217.34
368.47	217.33
368.85	217.32
369.23	217.39
369.61	217.32
369.99	217.35
370.37	217.35
370.75	217.46
371.13	217.43
371.51	217.37
371.89	217.36
372.27	217.36
372.65	217.37
373.03	217.35
373.41	217.31
373.78	217.24
374.16	217.09
374.54	216.99
374.92	216.95
375.30	216.93
375.68	216.84
376.06	216.81
376.44	216.73
376.82	216.71
377.19	216.65
377.57	216.62
377.95	216.50
378.33	216.44
378.71	216.30
379.09	216.27
379.47	216.25
379.84	216.23
380.22	216.18
380.60	216.10
380.98	216.04
381.36	215.99
381.73	215.95
382.11	215.98
382.49	215.95
382.87	215.86
383.25	215.82
383.62	216.04
384.00	215.91
384.38	215.91
384.76	215.91
385.13	215.95
385.51	215.88
385.89	215.85
386.27	215.84
386.64	215.77
387.02	215.74
387.40	215.70
387.78	215.66
388.15	215.61
388.53	215.57
388.91	215.53
389.29	215.47
389.66	215.49
390.04	215.45
390.42	215.50
390.79	215.52
391.17	215.52
391.55	215.26
391.92	215.30
392.30	215.29
392.68	215.25
393.05	215.18
393.43	215.18
393.81	215.23
394.18	215.18
394.56	215.22
394.94	215.27
395.31	215.26
395.69	215.32
396.06	215.37
396.44	215.40
396.82	215.43
397.19	215.58
397.57	215.59
397.95	215.65
398.32	215.60
398.70	215.65
399.07	215.69
399.45	215.76
399.82	215.83
400.20	215.87
400.58	215.90
400.95	215.92
401.33	216.05
401.70	216.27
402.08	216.42
402.45	216.48
402.83	216.60
403.20	216.73
403.58	216.84
403.95	216.99
404.33	217.17
404.71	217.32
405.08	217.58
405.46	217.77
405.83	217.96
406.21	218.16
406.58	218.40
406.96	218.64
407.33	218.87
407.70	219.16
408.08	219.60
408.45	219.94
408.83	220.36
409.20	220.70
409.58	220.93
409.95	221.38
410.33	221.89
410.70	222.30
411.08	222.88
411.45	223.45
411.82	224.00
412.20	224.69
412.57	225.51
412.95	226.04
413.32	226.85
413.69	227.70
414.07	228.59
414.44	229.56
414.82	230.56
415.19	231.77
415.56	232.96
415.94	234.13
416.31	235.57
416.68	236.92
417.06	238.49
417.43	240.02
417.81	241.76
418.18	243.54
418.55	245.47
418.93	247.44
419.30	249.55
419.67	251.76
420.04	253.98
420.42	256.35
420.79	259.21
421.16	261.97
421.54	264.85
421.91	267.87
422.28	270.94
422.66	274.26
423.03	277.46
423.40	280.79
423.77	284.36
424.15	288.02
424.52	291.85
424.89	296.03
425.26	300.14
425.64	303.97
426.01	308.22
426.38	312.67
426.75	317.22
427.13	321.91
427.50	326.87
427.87	332.10
428.24	337.29
428.61	342.24
428.99	347.75
429.36	353.72
429.73	359.53
430.10	365.39
430.47	371.38
430.85	377.64
431.22	384.29
431.59	391.40
431.96	398.19
432.33	405.66
432.70	412.87
433.08	421.38
433.45	429.43
433.82	437.48
434.19	446.30
434.56	454.96
434.93	463.28
435.30	471.52
435.68	480.59
436.05	489.51
436.42	498.35
436.79	506.41
437.16	515.20
437.53	524.48
437.90	533.60
438.27	542.55
438.64	551.77
439.01	560.31
439.38	567.80
439.75	575.09
440.13	583.50
440.50	591.41
440.87	597.77
441.24	604.36
441.61	611.61
441.98	616.97
442.35	623.26
442.72	629.53
443.09	635.63
443.46	639.40
443.83	641.91
444.20	644.15
444.57	647.37
444.94	648.79
445.31	650.24
445.68	651.63
446.05	652.20
446.42	651.43
446.79	650.46
447.16	649.39
447.53	648.62
447.90	645.36
448.27	642.10
448.64	637.43
449.01	634.12
449.37	628.29
449.74	622.66
450.11	615.83
450.48	608.46
450.85	600.99
451.22	594.47
451.59	588.29
451.96	582.44
452.33	574.59
452.70	567.49
453.07	558.99
453.43	550.40
453.80	542.16
454.17	534.17
454.54	526.60
454.91	518.51
455.28	510.56
455.65	503.06
456.02	495.49
456.38	489.22
456.75	481.44
457.12	474.86
457.49	468.39
457.86	462.19
458.23	456.85
458.59	450.97
458.96	445.01
459.33	439.82
459.70	434.49
460.07	430.23
460.43	425.36
460.80	420.80
461.17	416.82
461.54	412.63
461.91	408.64
462.27	404.56
462.64	401.13
463.01	397.35
463.38	393.71
463.74	390.12
464.11	386.88
464.48	384.04
464.85	380.93
465.21	378.49
465.58	375.87
465.95	372.70
466.32	370.07
466.68	367.51
467.05	364.88
467.42	362.37
467.78	359.71
468.15	357.20
468.52	355.34
468.88	352.82
469.25	350.64
469.62	348.87
469.98	346.98
470.35	345.19
470.72	343.53
471.08	341.74
471.45	340.28
471.82	338.75
472.18	337.13
472.55	335.95
472.92	334.60
473.28	333.42
473.65	332.33
474.02	331.25
474.38	330.35
474.75	329.62
475.11	328.80
475.48	328.20
475.85	327.71
476.21	327.21
476.58	326.91
476.94	326.69
477.31	326.42
477.67	326.14
478.04	325.95
478.41	325.90
478.77	326.05
479.14	325.96
479.50	326.15
479.87	326.41
480.23	326.74
480.60	326.97
480.96	327.24
481.33	327.84
481.69	328.38
482.06	328.91
482.42	329.43
482.79	330.04
483.15	330.81
483.52	331.80
483.88	332.73
484.25	333.67
484.61	334.70
484.98	335.76
485.34	337.06
485.71	338.51
486.07	339.99
486.44	341.32
486.80	342.95
487.17	344.58
487.53	346.37
487.90	348.25
488.26	350.29
488.62	352.44
488.99	354.52
489.35	356.70
489.72	359.10
490.08	361.61
490.44	364.18
490.81	366.90
491.17	369.58
491.54	372.55
491.90	375.59
492.26	378.90
492.63	382.28
492.99	385.76
493.36	389.42
493.72	393.24
494.08	397.33
494.45	401.59
494.81	405.99
495.17	410.51
495.54	415.19
495.90	420.03
496.26	424.95
496.63	430.17
496.99	435.61
497.35	441.22
497.72	447.10
498.08	453.09
498.44	459.26
498.80	465.71
499.17	472.22
499.53	478.96
499.89	485.85
500.26	492.87
500.62	500.04
500.98	507.45
501.34	514.99
501.71	522.84
502.07	530.70
502.43	538.69
502.79	546.87
503.16	555.30
503.52	563.95
503.88	572.79
504.24	581.75
504.60	590.82
504.97	600.07
505.33	609.38
505.69	619.27
506.05	629.15
506.41	639.09
506.78	649.26
507.14	659.60
507.50	670.06
507.86	680.78
508.22	691.61
508.59	702.35
508.95	713.49
509.31	724.80
509.67	736.33
510.03	747.89
510.39	759.78
510.75	771.75
511.12	783.79
511.48	795.99
511.84	808.32
512.20	820.85
512.56	833.60
512.92	846.55
513.28	859.31
513.64	872.25
514.00	885.17
514.37	898.26
514.73	911.45
515.09	924.61
515.45	937.65
515.81	950.85
516.17	964.41
516.53	977.76
516.89	990.93
517.25	1004.20
517.61	1017.79
517.97	1031.29
518.33	1044.64
518.69	1058.34
519.05	1072.12
519.41	1086.01
519.77	1099.93
520.13	1113.34
520.49	1126.62
520.85	1140.05
521.21	1153.49
521.57	1167.33
521.93	1180.49
522.29	1194.46
522.65	1208.34
523.01	1222.12
523.37	1235.43
523.73	1248.79
524.09	1262.12
524.45	1275.66
524.81	1289.28
525.17	1302.72
525.53	1315.87
525.89	1329.29
526.25	1342.50
526.61	1355.48
526.97	1368.61
527.33	1381.79
527.68	1395.34
528.04	1408.85
528.40	1422.06
528.76	1435.48
529.12	1448.44
529.48	1461.85
529.84	1474.03
530.20	1486.68
530.56	1499.29
530.91	1512.65
531.27	1525.61
531.63	1538.47
531.99	1551.40
532.35	1563.67
532.71	1576.18
533.07	1589.32
533.42	1601.62
533.78	1613.86
534.14	1626.08
534.50	1637.53
534.86	1649.14
535.21	1660.16
535.57	1671.81
535.93	1683.23
536.29	1694.41
536.65	1705.94
537.00	1717.09
537.36	1728.65
537.72	1739.77
538.08	1751.30
538.44	1762.33
538.79	1773.47
539.15	1784.44
539.51	1795.15
539.87	1806.68
540.22	1817.61
540.58	1828.50
540.94	1839.42
541.29	1849.79
541.65	1859.61
542.01	1870.06
542.37	1880.18
542.72	1890.47
543.08	1900.41
543.44	1911.02
543.79	1920.46
544.15	1929.97
544.51	1939.95
544.87	1949.84
545.22	1959.23
545.58	1968.09
545.94	1977.02
546.29	1985.69
546.65	1993.99
547.01	2002.29
547.36	2009.93
547.72	2017.77
548.07	2025.45
548.43	2033.14
548.79	2041.02
549.14	2049.15
549.50	2057.74
549.86	2065.66
550.21	2073.12
550.57	2080.74
550.92	2087.60
551.28	2095.07
551.64	2102.48
551.99	2110.11
552.35	2117.40
552.70	2124.28
553.06	2131.02
553.41	2137.39
553.77	2144.01
554.13	2150.62
554.48	2157.81
554.84	2165.06
555.19	2171.62
555.55	2178.11
555.90	2184.52
556.26	2191.38
556.61	2197.52
556.97	2202.39
557.32	2208.22
557.68	2214.67
558.03	2220.48
558.39	2225.75
558.74	2231.89
559.10	2237.35
559.45	2242.91
559.81	2248.44
560.16	2253.99
560.52	2260.18
560.87	2266.74
561.23	2272.57
561.58	2279.27
561.94	2284.42
562.29	2289.07
562.64	2295.34
563.00	2301.07
563.35	2306.68
563.71	2312.56
564.06	2318.35
564.42	2324.30
564.77	2329.47
565.12	2334.81
565.48	2340.06
565.83	2345.77
566.19	2351.24
566.54	2356.71
566.89	2361.24
567.25	2366.06
567.60	2371.84
567.96	2376.86
568.31	2381.35
568.66	2385.74
569.02	2389.76
569.37	2393.75
569.72	2398.37
570.08	2401.73
570.43	2405.02
570.78	2408.27
571.14	2410.75
571.49	2413.93
571.84	2417.59
572.20	2420.52
572.55	2423.49
572.90	2425.79
573.26	2428.48
573.61	2431.12
573.96	2433.35
574.31	2435.44
574.67	2437.35
575.02	2438.09
575.37	2439.65
575.72	2440.39
576.08	2441.97
576.43	2442.06
576.78	2442.48
577.13	2444.08
577.49	2445.46
577.84	2446.57
578.19	2447.90
578.54	2448.70
578.90	2449.42
579.25	2449.26
579.60	2449.24
579.95	2448.61
580.30	2448.72
580.66	2448.22
581.01	2446.46
581.36	2444.19
581.71	2442.97
582.06	2441.76
582.42	2441.01
582.77	2438.71
583.12	2437.19
583.47	2435.79
583.82	2435.33
584.17	2434.12
584.53	2431.94
584.88	2429.92
585.23	2428.03
585.58	2425.73
585.93	2423.68
586.28	2421.61
586.63	2419.26
586.98	2417.23
587.34	2415.25
587.69	2412.87
588.04	2410.76
588.39	2409.36
588.74	2406.86
589.09	2404.03
589.44	2400.86
589.79	2398.36
590.14	2396.51
590.49	2393.59
590.84	2389.72
591.19	2386.49
591.54	2383.24
591.89	2379.25
592.25	2375.86
592.60	2371.58
592.95	2367.53
593.30	2363.35
593.65	2358.85
594.00	2354.39
594.35	2351.21
594.70	2346.57
595.05	2341.91
595.40	2336.39
595.75	2330.65
596.10	2327.00
596.45	2322.18
596.80	2317.72
597.15	2312.46
597.50	2306.63
597.85	2301.81
598.19	2296.60
598.54	2290.84
598.89	2285.56
599.24	2280.95
599.59	2274.84
599.94	2268.82
600.29	2262.81
600.64	2256.83
600.99	2249.95
601.34	2244.26
601.69	2237.20
602.04	2230.79
602.39	2224.17
602.74	2217.91
603.08	2212.32
603.43	2205.78
603.78	2198.81
604.13	2191.63
604.48	2184.16
604.83	2177.88
605.18	2171.48
605.53	2164.45
605.87	2157.30
606.22	2150.42
606.57	2142.41
606.92	2134.35
607.27	2127.56
607.62	2120.83
607.96	2113.69
608.31	2107.30
608.66	2099.63
609.01	2092.06
609.36	2084.86
609.70	2077.19
610.05	2069.58
610.40	2061.18
610.75	2052.78
611.10	2045.19
611.44	2036.26
611.79	2027.76
612.14	2017.55
612.49	2006.86
612.83	1997.50
613.18	1988.28
613.53	1979.01
613.88	1969.37
614.22	1960.68
614.57	1950.76
614.92	1940.07
615.27	1929.80
615.61	1919.55
615.96	1909.86
616.31	1900.07
616.65	1890.66
617.00	1880.75
617.35	1870.89
617.70	1861.09
618.04	1851.00
618.39	1840.73
618.74	1830.85
619.08	1821.07
619.43	1812.45
619.78	1804.26
620.12	1795.59
620.47	1785.81
620.82	1775.36
621.16	1765.54
621.51	1755.52
621.85	1745.54
622.20	1735.07
622.55	1724.44
622.89	1714.44
623.24	1704.62
623.59	1694.78
623.93	1684.51
624.28	1674.67
624.62	1664.52
624.97	1654.11
625.32	1644.22
625.66	1635.17
626.01	1626.40
626.35	1616.90
626.70	1606.62
627.04	1596.28
627.39	1585.98
627.73	1576.65
628.08	1567.66
628.43	1557.95
628.77	1548.63
629.12	1539.58
629.46	1531.82
629.81	1523.51
630.15	1513.95
630.50	1504.01
630.84	1493.48
631.19	1483.45
631.53	1474.02
631.88	1463.75
632.22	1453.66
632.57	1444.17
632.91	1433.97
633.26	1423.97
633.60	1414.37
633.95	1405.04
634.29	1395.54
634.64	1386.13
634.98	1375.99
635.32	1366.55
635.67	1358.11
636.01	1348.75
636.36	1338.90
636.70	1329.18
637.05	1319.59
637.39	1310.65
637.73	1301.92
638.08	1294.33
638.42	1286.08
638.77	1277.28
639.11	1268.95
639.45	1261.02
639.80	1252.40
640.14	1243.57
640.49	1234.65
640.83	1225.70
641.17	1217.42
641.52	1209.25
641.86	1200.60
642.20	1192.62
642.55	1183.93
642.89	1174.89
643.23	1166.17
643.58	1158.00
643.92	1148.93
644.26	1140.12
644.61	1131.55
644.95	1122.68
645.29	1113.28
645.64	1103.92
645.98	1095.21
646.32	1087.24
646.66	1078.61
647.01	1070.19
647.35	1061.86
647.69	1053.55
648.04	1045.18
648.38	1036.22
648.72	1027.19
649.06	1018.60
649.41	1010.43
649.75	1002.34
650.09	994.27
650.43	986.10
650.78	977.67
651.12	969.81
651.46	962.35
651.80	954.98
652.14	947.55
652.49	939.87
652.83	932.46
653.17	924.75
653.51	917.04
653.85	909.71
654.20	902.49
654.54	895.03
654.88	887.58
655.22	880.26
655.56	873.20
655.90	866.29
656.25	859.54
656.59	852.48
656.93	845.35
657.27	838.11
657.61	831.03
657.95	824.91
658.29	818.88
658.64	812.62
658.98	806.04
659.32	799.45
659.66	793.19
660.00	786.82
660.34	780.70
660.68	774.51
661.02	768.16
661.36	762.03
661.70	756.12
662.05	750.47
662.39	744.92
662.73	739.53
663.07	734.15
663.41	728.53
663.75	722.76
664.09	717.01
664.43	711.55
664.77	706.13
665.11	700.18
665.45	694.25
665.79	688.44
666.13	682.62
666.47	677.03
666.81	671.44
667.15	665.97
667.49	660.69
667.83	655.34
668.17	650.00
668.51	644.79
668.85	639.79
669.19	634.76
669.53	629.61
669.87	624.39
670.21	619.53
670.55	614.71
670.89	610.21
671.23	605.89
671.57	601.50
671.91	597.23
672.25	593.07
672.58	588.90
672.92	584.75
673.26	580.78
673.60	576.88
673.94	573.04
674.28	569.37
674.62	565.53
674.96	561.73
675.30	558.17
675.64	554.46
675.97	550.83
676.31	547.21
676.65	543.59
676.99	540.12
677.33	536.21
677.67	532.53
678.01	528.59
678.34	524.88
678.68	521.30
679.02	517.62
679.36	513.87
679.70	510.13
680.04	506.50
680.37	503.00
680.71	499.61
681.05	496.35
681.39	493.07
681.73	489.87
682.06	486.81
682.40	483.66
682.74	480.48
683.08	477.25
683.42	474.02
683.75	470.97
684.09	467.91
684.43	465.13
684.77	462.18
685.10	459.33
685.44	456.36
685.78	453.38
686.12	450.56
686.45	447.78
686.79	445.05
687.13	442.50
687.46	439.87
687.80	437.16
688.14	434.27
688.48	431.56
688.81	428.84
689.15	426.26
689.49	423.59
689.82	420.97
690.16	418.37
690.50	415.91
690.83	413.37
691.17	410.70
691.51	408.15
691.84	405.86
692.18	403.64
692.52	401.40
692.85	399.26
693.19	397.10
693.52	394.96
693.86	392.79
694.20	390.53
694.53	388.33
694.87	386.07
695.21	383.95
695.54	381.76
695.88	379.56
696.21	377.30
696.55	375.15
696.88	373.13
697.22	371.10
697.56	369.15
697.89	367.23
698.23	365.53
698.56	363.71
698.90	361.91
699.23	359.96
699.57	358.04
699.90	356.12
700.24	354.24
700.58	352.46
700.91	350.75
701.25	349.18
701.58	347.57
701.92	346.00
702.25	344.38
702.59	342.78
702.92	341.20
703.26	339.63
703.59	338.13
703.93	336.80
704.26	335.32
704.60	333.82
704.93	332.33
705.26	330.72
705.60	329.23
705.93	327.66
706.27	326.26
706.60	325.00
706.94	323.73
707.27	322.34
707.61	320.97
707.94	319.57
708.27	318.04
708.61	316.56
708.94	315.17
709.28	313.86
709.61	312.58
709.94	311.39
710.28	310.16
710.61	308.98
710.95	307.56
711.28	306.43
711.61	305.23
711.95	304.10
712.28	302.97
712.61	301.79
712.95	300.77
713.28	299.71
713.61	298.54
713.95	297.41
714.28	296.41
714.61	295.35
714.95	294.34
715.28	293.30
715.61	292.31
715.95	291.33
716.28	290.37
716.61	289.42
716.95	288.37
717.28	287.44
717.61	286.47
717.94	285.57
718.28	284.58
718.61	283.70
718.94	282.79
719.27	281.94
719.61	281.11
719.94	280.21
720.27	279.26
720.60	278.38
720.94	277.56
721.27	276.77
721.60	276.03
721.93	275.29
722.27	274.64
722.60	273.95
722.93	273.21
723.26	272.54
723.59	271.83
723.93	271.21
724.26	270.54
724.59	269.84
724.92	269.23
725.25	268.69
725.59	268.04
725.92	267.48
726.25	266.89
726.58	266.29
726.91	265.67
727.24	265.13
727.57	264.58
727.91	263.96
728.24	263.40
728.57	262.80
728.90	262.22
729.23	261.60
729.56	261.17
729.89	260.64
730.22	260.06
730.55	259.53
730.89	258.96
731.22	258.44
731.55	257.96
731.88	257.43
732.21	256.85
732.54	256.34
732.87	255.80
733.20	255.31
733.53	254.83
733.86	254.40
734.19	253.90
734.52	253.49
734.85	253.17
735.18	252.70
735.51	252.32
735.84	251.94
736.17	251.55
736.50	251.02
736.83	250.85
737.16	250.43
737.49	250.02
737.82	249.62
738.15	249.23
738.48	248.80
738.81	248.42
739.14	248.00
739.47	247.61
739.80	247.25
740.13	246.87
740.46	246.48
740.79	246.07
741.12	245.74
741.45	245.35
741.78	244.92
742.11	244.64
742.44	244.26
742.77	243.95
743.10	243.58
743.43	243.23
743.75	242.65
744.08	242.61
744.41	242.27
744.74	241.94
745.07	241.55
745.40	241.27
745.73	240.98
746.06	240.67
746.39	240.35
746.71	239.98
747.04	239.64
747.37	239.33
747.70	239.03
748.03	238.70
748.36	238.43
748.68	238.10
749.01	237.71
749.34	237.43
749.67	237.10
750.00	236.83
750.33	236.70
750.65	236.45
750.98	235.88
751.31	235.63
751.64	235.38
751.97	235.26
752.29	235.00
752.62	234.66
752.95	234.39
753.28	234.14
753.60	233.91
753.93	233.74
754.26	233.50
754.59	233.27
754.91	233.06
755.24	232.78
755.57	232.57
755.90	232.37
756.22	232.14
756.55	231.93
756.88	231.71
757.20	231.33
757.53	231.08
757.86	230.89
758.19	230.70
758.51	230.50
758.84	230.16
759.17	229.95
759.49	229.77
759.82	229.69
760.15	229.54
760.47	229.37
760.80	229.12
761.13	228.97
761.45	228.76
761.78	228.58
762.11	228.39
762.43	228.19
762.76	227.99
763.08	227.81
763.41	227.64
763.74	227.46
764.06	227.31
764.39	227.13
764.71	226.97
765.04	226.79
765.37	226.61
765.69	226.48
766.02	226.34
766.34	226.20
766.67	226.00
767.00	225.89
767.32	225.86
767.65	225.84
767.97	225.70
768.30	225.61
768.62	225.47
768.95	225.36
769.27	225.23
769.60	225.17
769.92	225.02
770.25	224.84
770.57	224.66
770.90	224.56
771.22	224.41
771.55	224.30
771.87	224.18
772.20	224.07
772.52	224.11
772.85	224.23
773.17	224.14
773.50	224.00
773.82	223.84
774.15	223.62
774.47	223.40
774.80	223.27
775.12	223.11
775.45	223.02
775.77	222.92
776.09	222.87
776.42	222.75
776.74	222.74
777.07	222.69
777.39	222.64
777.72	222.49
778.04	222.44
778.36	222.36
778.69	222.28
779.01	222.20
779.33	221.96
779.66	221.65
779.98	221.53
780.31	221.47
780.63	221.52
780.95	221.47
781.28	221.39
781.60	221.28
781.92	221.23
782.25	221.14
782.57	221.11
782.89	220.97
783.22	220.86
783.54	220.75
783.86	220.69
784.19	220.64
784.51	220.66
784.83	220.57
785.16	220.47
785.48	220.40
785.80	220.36
786.12	220.29
