SpectraSuite Data File
++++++++++++++++++++++++++++++++++++
Date: Tue Jan 29 16:29:48 EST 2013
User: group
Dark Spectrum Present: No
Reference Spectrum Present: No
Number of Sampled Component Spectra: 1
Spectrometers: USB2E7196
Integration Time (usec): 65000 (USB2E7196)
Spectra Averaged: 100 (USB2E7196)
Boxcar Smoothing: 10 (USB2E7196)
Correct for Electrical Dark: No (USB2E7196)
Strobe/Lamp Enabled: No (USB2E7196)
Correct for Detector Non-linearity: No (USB2E7196)
Correct for Stray Light: No (USB2E7196)
Number of Pixels in Processed Spectrum: 2048
>>>>>Begin Processed Spectral Data<<<<<
339.09	0.00
339.48	202.37
339.86	203.64
340.24	204.77
340.63	206.47
341.01	211.27
341.39	209.10
341.78	211.03
342.16	212.19
342.54	212.34
342.93	201.37
343.31	211.54
343.69	212.09
344.07	212.54
344.46	212.99
344.84	213.38
345.22	213.53
345.60	213.79
345.99	213.98
346.37	214.09
346.75	214.18
347.13	214.26
347.52	214.32
347.90	214.46
348.28	214.50
348.66	214.57
349.05	214.54
349.43	214.60
349.81	214.66
350.19	214.68
350.57	214.75
350.96	214.86
351.34	214.98
351.72	215.06
352.10	215.18
352.48	215.25
352.87	215.33
353.25	215.37
353.63	215.41
354.01	215.48
354.39	215.56
354.77	215.64
355.15	215.74
355.54	215.78
355.92	215.76
356.30	215.83
356.68	216.02
357.06	216.09
357.44	216.15
357.82	216.21
358.20	216.33
358.58	216.38
358.97	216.43
359.35	216.52
359.73	216.60
360.11	216.64
360.49	216.69
360.87	216.70
361.25	216.84
361.63	216.96
362.01	217.02
362.39	217.06
362.77	217.11
363.15	217.13
363.53	217.19
363.91	217.24
364.29	217.27
364.67	217.10
365.05	217.15
365.43	217.20
365.81	217.25
366.19	217.32
366.57	217.43
366.95	217.45
367.33	217.40
367.71	217.41
368.09	217.45
368.47	217.45
368.85	217.48
369.23	217.44
369.61	217.35
369.99	217.39
370.37	217.41
370.75	217.51
371.13	217.45
371.51	217.40
371.89	217.41
372.27	217.40
372.65	217.40
373.03	217.34
373.41	217.31
373.78	217.24
374.16	217.14
374.54	217.06
374.92	216.96
375.30	216.91
375.68	216.81
376.06	216.79
376.44	216.75
376.82	216.74
377.19	216.69
377.57	216.66
377.95	216.55
378.33	216.44
378.71	216.27
379.09	216.26
379.47	216.24
379.84	216.19
380.22	216.08
380.60	216.01
380.98	215.96
381.36	215.91
381.73	215.83
382.11	215.77
382.49	215.73
382.87	215.71
383.25	215.69
383.62	215.90
384.00	215.82
384.38	215.78
384.76	215.75
385.13	215.83
385.51	215.78
385.89	215.74
386.27	215.71
386.64	215.74
387.02	215.73
387.40	215.69
387.78	215.64
388.15	215.69
388.53	215.66
388.91	215.60
389.29	215.56
389.66	215.60
390.04	215.58
390.42	215.58
390.79	215.58
391.17	215.53
391.55	215.30
391.92	215.30
392.30	215.29
392.68	215.24
393.05	215.22
393.43	215.28
393.81	215.27
394.18	215.26
394.56	215.24
394.94	215.27
395.31	215.29
395.69	215.35
396.06	215.34
396.44	215.39
396.82	215.42
397.19	215.53
397.57	215.51
397.95	215.56
398.32	215.52
398.70	215.59
399.07	215.69
399.45	215.73
399.82	215.77
400.20	215.80
400.58	215.86
400.95	215.84
401.33	215.91
401.70	216.14
402.08	216.23
402.45	216.34
402.83	216.47
403.20	216.55
403.58	216.64
403.95	216.81
404.33	216.96
404.71	217.16
405.08	217.41
405.46	217.59
405.83	217.79
406.21	217.99
406.58	218.21
406.96	218.40
407.33	218.68
407.70	218.94
408.08	219.43
408.45	219.79
408.83	220.18
409.20	220.51
409.58	220.79
409.95	221.24
410.33	221.73
410.70	222.14
411.08	222.70
411.45	223.27
411.82	223.82
412.20	224.49
412.57	225.30
412.95	225.88
413.32	226.71
413.69	227.58
414.07	228.48
414.44	229.47
414.82	230.50
415.19	231.66
415.56	232.90
415.94	234.07
416.31	235.46
416.68	236.84
417.06	238.45
417.43	239.96
417.81	241.69
418.18	243.46
418.55	245.40
418.93	247.42
419.30	249.54
419.67	251.74
420.04	254.02
420.42	256.40
420.79	259.22
421.16	262.01
421.54	264.90
421.91	267.89
422.28	270.99
422.66	274.26
423.03	277.55
423.40	280.88
423.77	284.45
424.15	288.13
424.52	291.98
424.89	296.16
425.26	300.26
425.64	304.16
426.01	308.42
426.38	312.89
426.75	317.44
427.13	322.15
427.50	327.13
427.87	332.37
428.24	337.51
428.61	342.52
428.99	348.05
429.36	354.05
429.73	359.93
430.10	365.81
430.47	371.89
430.85	378.19
431.22	384.89
431.59	392.02
431.96	398.82
432.33	406.30
432.70	413.52
433.08	422.03
433.45	430.04
433.82	438.11
434.19	447.01
434.56	455.67
434.93	463.97
435.30	472.21
435.68	481.34
436.05	490.33
436.42	499.16
436.79	507.30
437.16	516.06
437.53	525.33
437.90	534.45
438.27	543.38
438.64	552.56
439.01	561.08
439.38	568.62
439.75	575.93
440.13	584.41
440.50	592.36
440.87	598.82
441.24	605.47
441.61	612.70
441.98	618.08
442.35	624.46
442.72	630.82
443.09	636.89
443.46	640.57
443.83	643.10
444.20	645.29
444.57	648.46
444.94	649.93
445.31	651.34
445.68	652.69
446.05	653.31
446.42	652.52
446.79	651.57
447.16	650.50
447.53	649.76
447.90	646.33
448.27	643.06
448.64	638.35
449.01	635.05
449.37	629.17
449.74	623.44
450.11	616.50
450.48	609.10
450.85	601.67
451.22	595.24
451.59	589.09
451.96	583.33
452.33	575.44
452.70	568.32
453.07	559.90
453.43	551.35
453.80	543.11
454.17	535.14
454.54	527.62
454.91	519.49
455.28	511.53
455.65	504.18
456.02	496.69
456.38	490.40
456.75	482.55
457.12	476.01
457.49	469.57
457.86	463.37
458.23	458.03
458.59	452.11
458.96	446.10
459.33	440.81
459.70	435.45
460.07	431.20
460.43	426.30
460.80	421.75
461.17	417.77
461.54	413.58
461.91	409.57
462.27	405.47
462.64	401.99
463.01	398.17
463.38	394.48
463.74	390.84
464.11	387.58
464.48	384.74
464.85	381.65
465.21	379.23
465.58	376.62
465.95	373.49
466.32	370.88
466.68	368.30
467.05	365.72
467.42	363.13
467.78	360.46
468.15	357.91
468.52	355.99
468.88	353.55
469.25	351.33
469.62	349.50
469.98	347.52
470.35	345.74
470.72	344.10
471.08	342.27
471.45	340.70
471.82	339.17
472.18	337.51
472.55	336.32
472.92	334.89
473.28	333.70
473.65	332.56
474.02	331.46
474.38	330.52
474.75	329.77
475.11	328.95
475.48	328.35
475.85	327.84
476.21	327.33
476.58	326.91
476.94	326.64
477.31	326.34
477.67	326.10
478.04	325.93
478.41	325.92
478.77	326.08
479.14	326.06
479.50	326.25
479.87	326.55
480.23	326.86
480.60	327.12
480.96	327.41
481.33	327.99
481.69	328.57
482.06	329.11
482.42	329.61
482.79	330.21
483.15	331.02
483.52	332.05
483.88	332.94
484.25	333.88
484.61	334.95
484.98	335.98
485.34	337.31
485.71	338.68
486.07	340.07
486.44	341.39
486.80	343.00
487.17	344.65
487.53	346.49
487.90	348.32
488.26	350.37
488.62	352.50
488.99	354.53
489.35	356.68
489.72	359.10
490.08	361.63
490.44	364.21
490.81	366.95
491.17	369.62
491.54	372.57
491.90	375.62
492.26	378.80
492.63	382.25
492.99	385.73
493.36	389.41
493.72	393.28
494.08	397.33
494.45	401.53
494.81	405.91
495.17	410.34
495.54	415.09
495.90	419.93
496.26	424.87
496.63	430.16
496.99	435.60
497.35	441.14
497.72	446.96
498.08	452.97
498.44	459.08
498.80	465.58
499.17	472.15
499.53	478.89
499.89	485.88
500.26	492.92
500.62	500.03
500.98	507.47
501.34	515.06
501.71	522.83
502.07	530.67
502.43	538.68
502.79	546.94
503.16	555.36
503.52	563.93
503.88	572.69
504.24	581.63
504.60	590.72
504.97	599.98
505.33	609.35
505.69	619.26
506.05	629.17
506.41	639.09
506.78	649.23
507.14	659.54
507.50	670.00
507.86	680.74
508.22	691.62
508.59	702.32
508.95	713.42
509.31	724.81
509.67	736.32
510.03	747.79
510.39	759.54
510.75	771.44
511.12	783.44
511.48	795.63
511.84	808.03
512.20	820.47
512.56	833.17
512.92	846.08
513.28	858.76
513.64	871.53
514.00	884.47
514.37	897.55
514.73	910.83
515.09	923.93
515.45	936.89
515.81	950.03
516.17	963.64
516.53	976.94
516.89	990.05
517.25	1003.38
517.61	1017.14
517.97	1030.65
518.33	1043.96
518.69	1057.71
519.05	1071.54
519.41	1085.22
519.77	1099.15
520.13	1112.61
520.49	1125.87
520.85	1139.34
521.21	1152.89
521.57	1166.69
521.93	1179.83
522.29	1193.64
522.65	1207.42
523.01	1221.12
523.37	1234.45
523.73	1247.82
524.09	1261.23
524.45	1274.84
524.81	1288.38
525.17	1301.75
525.53	1314.96
525.89	1328.42
526.25	1341.61
526.61	1354.67
526.97	1367.89
527.33	1381.02
527.68	1394.60
528.04	1408.23
528.40	1421.43
528.76	1435.03
529.12	1447.99
529.48	1461.48
529.84	1473.77
530.20	1486.68
530.56	1499.46
530.91	1512.81
531.27	1525.72
531.63	1538.49
531.99	1551.38
532.35	1563.75
532.71	1576.34
533.07	1589.44
533.42	1601.76
533.78	1614.05
534.14	1626.10
534.50	1637.40
534.86	1649.15
535.21	1660.11
535.57	1671.68
535.93	1683.26
536.29	1694.27
536.65	1705.85
537.00	1716.85
537.36	1728.36
537.72	1739.46
538.08	1751.02
538.44	1762.04
538.79	1773.33
539.15	1784.27
539.51	1795.14
539.87	1806.56
540.22	1817.42
540.58	1828.38
540.94	1839.40
541.29	1849.76
541.65	1859.65
542.01	1870.50
542.37	1880.60
542.72	1890.98
543.08	1900.88
543.44	1911.39
543.79	1920.82
544.15	1930.50
544.51	1940.59
544.87	1950.72
545.22	1960.03
545.58	1968.94
545.94	1977.94
546.29	1986.54
546.65	1995.06
547.01	2003.39
547.36	2011.24
547.72	2019.20
548.07	2027.02
548.43	2034.89
548.79	2042.77
549.14	2050.97
549.50	2059.23
549.86	2067.21
550.21	2074.64
550.57	2082.46
550.92	2089.22
551.28	2096.86
551.64	2104.14
551.99	2111.75
552.35	2118.98
552.70	2125.95
553.06	2132.68
553.41	2138.95
553.77	2145.40
554.13	2151.85
554.48	2158.88
554.84	2165.98
555.19	2172.51
555.55	2178.91
555.90	2185.26
556.26	2192.10
556.61	2198.30
556.97	2203.34
557.32	2209.14
557.68	2215.73
558.03	2221.41
558.39	2226.93
558.74	2232.99
559.10	2238.48
559.45	2244.12
559.81	2249.62
560.16	2255.11
560.52	2260.91
560.87	2267.47
561.23	2273.59
561.58	2280.35
561.94	2285.61
562.29	2290.51
562.64	2296.59
563.00	2302.26
563.35	2307.85
563.71	2313.71
564.06	2319.45
564.42	2325.47
564.77	2330.72
565.12	2335.84
565.48	2340.93
565.83	2346.46
566.19	2351.77
566.54	2357.35
566.89	2361.95
567.25	2366.48
567.60	2372.34
567.96	2377.73
568.31	2382.20
568.66	2386.44
569.02	2390.30
569.37	2394.11
569.72	2398.34
570.08	2401.81
570.43	2404.93
570.78	2408.03
571.14	2410.62
571.49	2413.72
571.84	2417.21
572.20	2420.00
572.55	2423.03
572.90	2425.49
573.26	2428.20
573.61	2430.91
573.96	2432.95
574.31	2435.04
574.67	2437.00
575.02	2437.62
575.37	2438.99
575.72	2439.83
576.08	2441.19
576.43	2441.26
576.78	2441.74
577.13	2443.48
577.49	2444.64
577.84	2445.63
578.19	2446.86
578.54	2447.38
578.90	2448.09
579.25	2447.98
579.60	2447.94
579.95	2447.09
580.30	2447.16
580.66	2446.47
581.01	2444.75
581.36	2442.34
581.71	2440.87
582.06	2439.78
582.42	2438.98
582.77	2436.75
583.12	2435.10
583.47	2433.80
583.82	2433.34
584.17	2432.09
584.53	2429.83
584.88	2427.79
585.23	2425.86
585.58	2423.61
585.93	2421.45
586.28	2419.24
586.63	2416.74
586.98	2414.38
587.34	2412.52
587.69	2409.98
588.04	2407.96
588.39	2406.42
588.74	2403.91
589.09	2401.15
589.44	2397.83
589.79	2395.33
590.14	2393.34
590.49	2390.47
590.84	2386.55
591.19	2383.36
591.54	2380.06
591.89	2376.02
592.25	2372.62
592.60	2368.38
592.95	2364.27
593.30	2360.10
593.65	2355.58
594.00	2350.98
594.35	2347.98
594.70	2343.26
595.05	2338.60
595.40	2333.02
595.75	2327.13
596.10	2323.46
596.45	2318.53
596.80	2313.97
597.15	2308.59
597.50	2302.55
597.85	2297.52
598.19	2292.23
598.54	2286.23
598.89	2280.91
599.24	2276.40
599.59	2270.13
599.94	2264.42
600.29	2258.21
600.64	2252.25
600.99	2245.68
601.34	2240.24
601.69	2233.15
602.04	2226.61
602.39	2220.03
602.74	2213.93
603.08	2208.30
603.43	2201.75
603.78	2194.78
604.13	2187.45
604.48	2180.11
604.83	2173.97
605.18	2167.66
605.53	2160.70
605.87	2153.76
606.22	2147.03
606.57	2138.94
606.92	2131.20
607.27	2124.15
607.62	2117.54
607.96	2110.47
608.31	2103.72
608.66	2095.92
609.01	2088.20
609.36	2081.17
609.70	2073.39
610.05	2065.51
610.40	2057.19
610.75	2048.85
611.10	2041.04
611.44	2032.30
611.79	2023.64
612.14	2013.62
612.49	2002.74
612.83	1993.40
613.18	1984.08
613.53	1974.60
613.88	1965.07
614.22	1956.19
614.57	1946.24
614.92	1935.61
615.27	1925.37
615.61	1915.32
615.96	1905.62
616.31	1896.12
616.65	1886.66
617.00	1876.83
617.35	1867.16
617.70	1857.42
618.04	1847.22
618.39	1837.10
618.74	1827.34
619.08	1817.61
619.43	1808.92
619.78	1800.74
620.12	1792.05
620.47	1782.37
620.82	1771.95
621.16	1761.95
621.51	1751.96
621.85	1741.99
622.20	1731.60
622.55	1721.04
622.89	1711.07
623.24	1701.33
623.59	1691.39
623.93	1681.03
624.28	1671.20
624.62	1661.03
624.97	1650.83
625.32	1640.95
625.66	1631.93
626.01	1623.20
626.35	1613.76
626.70	1603.58
627.04	1593.44
627.39	1583.20
627.73	1573.80
628.08	1564.92
628.43	1555.29
628.77	1546.05
629.12	1537.13
629.46	1529.26
629.81	1520.78
630.15	1511.23
630.50	1501.31
630.84	1490.85
631.19	1481.07
631.53	1471.64
631.88	1461.40
632.22	1451.21
632.57	1441.77
632.91	1431.63
633.26	1421.60
633.60	1412.08
633.95	1402.78
634.29	1393.29
634.64	1383.94
634.98	1373.89
635.32	1364.45
635.67	1356.00
636.01	1346.69
636.36	1337.00
636.70	1327.48
637.05	1318.14
637.39	1309.16
637.73	1300.50
638.08	1292.84
638.42	1284.53
638.77	1275.72
639.11	1267.43
639.45	1259.56
639.80	1251.05
640.14	1242.29
640.49	1233.46
640.83	1224.50
641.17	1216.21
641.52	1208.02
641.86	1199.39
642.20	1191.53
642.55	1182.93
642.89	1173.91
643.23	1165.19
643.58	1156.95
643.92	1147.71
644.26	1138.81
644.61	1130.26
644.95	1121.36
645.29	1112.08
645.64	1102.89
645.98	1094.31
646.32	1086.27
646.66	1077.63
647.01	1069.12
647.35	1060.84
647.69	1052.45
648.04	1044.15
648.38	1035.20
648.72	1026.32
649.06	1017.70
649.41	1009.52
649.75	1001.42
650.09	993.45
650.43	985.31
650.78	976.97
651.12	969.22
651.46	961.83
651.80	954.50
652.14	947.19
652.49	939.58
652.83	932.12
653.17	924.37
653.51	916.72
653.85	909.45
654.20	902.24
654.54	894.77
654.88	887.41
655.22	880.02
655.56	872.95
655.90	866.18
656.25	859.48
656.59	852.47
656.93	845.43
657.27	838.31
657.61	831.30
657.95	825.04
658.29	819.14
658.64	812.98
658.98	806.41
659.32	799.73
659.66	793.42
660.00	787.01
660.34	780.94
660.68	774.81
661.02	768.43
661.36	762.41
661.70	756.52
662.05	750.85
662.39	745.37
662.73	739.86
663.07	734.32
663.41	728.69
663.75	722.85
664.09	717.06
664.43	711.51
664.77	706.19
665.11	700.32
665.45	694.37
665.79	688.48
666.13	682.81
666.47	677.26
666.81	671.74
667.15	666.31
667.49	661.03
667.83	655.59
668.17	650.33
668.51	645.16
668.85	640.22
669.19	635.24
669.53	630.15
669.87	624.99
670.21	620.20
670.55	615.35
670.89	610.84
671.23	606.47
671.57	602.07
671.91	597.71
672.25	593.55
672.58	589.29
672.92	585.14
673.26	581.14
673.60	577.20
673.94	573.40
674.28	569.75
674.62	565.96
674.96	562.26
675.30	558.68
675.64	554.96
675.97	551.27
676.31	547.62
676.65	543.94
676.99	540.50
677.33	536.64
677.67	532.98
678.01	529.12
678.34	525.46
678.68	521.90
679.02	518.27
679.36	514.53
679.70	510.82
680.04	507.20
680.37	503.71
680.71	500.28
681.05	496.97
681.39	493.66
681.73	490.44
682.06	487.33
682.40	484.17
682.74	480.91
683.08	477.60
683.42	474.34
683.75	471.30
684.09	468.23
684.43	465.32
684.77	462.36
685.10	459.46
685.44	456.46
685.78	453.50
686.12	450.65
686.45	447.86
686.79	445.22
687.13	442.64
687.46	439.99
687.80	437.33
688.14	434.46
688.48	431.80
688.81	429.06
689.15	426.45
689.49	423.77
689.82	421.18
690.16	418.61
690.50	416.12
690.83	413.57
691.17	411.00
691.51	408.56
691.84	406.26
692.18	404.01
692.52	401.79
692.85	399.61
693.19	397.40
693.52	395.22
693.86	392.96
694.20	390.76
694.53	388.55
694.87	386.31
695.21	384.16
695.54	381.97
695.88	379.80
696.21	377.59
696.55	375.46
696.88	373.42
697.22	371.40
697.56	369.47
697.89	367.61
698.23	365.76
698.56	363.94
698.90	362.08
699.23	360.16
699.57	358.26
699.90	356.38
700.24	354.54
700.58	352.71
700.91	351.03
701.25	349.42
701.58	347.79
701.92	346.20
702.25	344.61
702.59	342.93
702.92	341.31
703.26	339.73
703.59	338.29
703.93	336.95
704.26	335.54
704.60	334.04
704.93	332.50
705.26	331.02
705.60	329.49
705.93	327.99
706.27	326.63
706.60	325.33
706.94	324.09
707.27	322.71
707.61	321.36
707.94	319.97
708.27	318.44
708.61	316.95
708.94	315.53
709.28	314.23
709.61	312.97
709.94	311.77
710.28	310.50
710.61	309.23
710.95	307.76
711.28	306.63
711.61	305.43
711.95	304.31
712.28	303.12
712.61	301.92
712.95	300.90
713.28	299.85
713.61	298.72
713.95	297.53
714.28	296.48
714.61	295.39
714.95	294.35
715.28	293.30
715.61	292.28
715.95	291.33
716.28	290.30
716.61	289.33
716.95	288.32
717.28	287.42
717.61	286.45
717.94	285.61
718.28	284.60
718.61	283.67
718.94	282.71
719.27	281.85
719.61	281.03
719.94	280.11
720.27	279.11
720.60	278.23
720.94	277.38
721.27	276.63
721.60	275.94
721.93	275.22
722.27	274.57
722.60	273.87
722.93	273.14
723.26	272.53
723.59	271.80
723.93	271.13
724.26	270.45
724.59	269.80
724.92	269.16
725.25	268.59
725.59	268.04
725.92	267.53
726.25	266.89
726.58	266.32
726.91	265.72
727.24	265.19
727.57	264.62
727.91	264.02
728.24	263.43
728.57	262.82
728.90	262.25
729.23	261.66
729.56	261.25
729.89	260.70
730.22	260.08
730.55	259.53
730.89	259.00
731.22	258.47
731.55	257.95
731.88	257.43
732.21	256.86
732.54	256.29
732.87	255.75
733.20	255.30
733.53	254.80
733.86	254.38
734.19	253.88
734.52	253.45
734.85	253.14
735.18	252.67
735.51	252.30
735.84	251.84
736.17	251.46
736.50	250.87
736.83	250.72
737.16	250.34
737.49	249.95
737.82	249.59
738.15	249.22
738.48	248.81
738.81	248.41
739.14	247.99
739.47	247.58
739.80	247.19
740.13	246.80
740.46	246.45
740.79	245.97
741.12	245.62
741.45	245.22
741.78	244.78
742.11	244.51
742.44	244.12
742.77	243.82
743.10	243.42
743.43	243.13
743.75	242.51
744.08	242.42
744.41	242.07
744.74	241.68
745.07	241.29
745.40	241.04
745.73	240.79
746.06	240.47
746.39	240.19
746.71	239.87
747.04	239.54
747.37	239.21
747.70	238.94
748.03	238.64
748.36	238.39
748.68	238.10
749.01	237.72
749.34	237.45
749.67	237.17
750.00	236.92
750.33	236.77
750.65	236.53
750.98	236.03
751.31	235.77
751.64	235.56
751.97	235.42
752.29	235.11
752.62	234.76
752.95	234.50
753.28	234.24
753.60	233.99
753.93	233.83
754.26	233.57
754.59	233.31
754.91	233.06
755.24	232.83
755.57	232.60
755.90	232.37
756.22	232.15
756.55	231.88
756.88	231.61
757.20	231.27
757.53	231.01
757.86	230.80
758.19	230.64
758.51	230.40
758.84	230.13
759.17	229.93
759.49	229.79
759.82	229.73
760.15	229.57
760.47	229.37
760.80	229.11
761.13	228.95
761.45	228.76
761.78	228.61
762.11	228.41
762.43	228.19
762.76	228.03
763.08	227.87
763.41	227.73
763.74	227.62
764.06	227.45
764.39	227.27
764.71	227.12
765.04	226.91
765.37	226.78
765.69	226.63
766.02	226.48
766.34	226.29
766.67	226.04
767.00	225.93
767.32	225.93
767.65	225.93
767.97	225.78
768.30	225.68
768.62	225.54
768.95	225.36
769.27	225.27
769.60	225.16
769.92	224.99
770.25	224.83
770.57	224.67
770.90	224.57
771.22	224.47
771.55	224.34
771.87	224.24
772.20	224.10
772.52	224.17
772.85	224.30
773.17	224.21
773.50	224.11
773.82	223.99
774.15	223.75
774.47	223.52
774.80	223.44
775.12	223.33
775.45	223.23
775.77	223.17
776.09	223.05
776.42	222.95
776.74	222.91
777.07	222.81
777.39	222.70
777.72	222.58
778.04	222.50
778.36	222.38
778.69	222.32
779.01	222.23
779.33	221.96
779.66	221.64
779.98	221.56
780.31	221.50
780.63	221.49
780.95	221.42
781.28	221.33
781.60	221.24
781.92	221.16
782.25	221.05
782.57	220.97
782.89	220.92
783.22	220.84
783.54	220.73
783.86	220.70
784.19	220.63
784.51	220.63
784.83	220.54
785.16	220.50
785.48	220.45
785.80	220.42
786.12	220.36
