SpectraSuite Data File
++++++++++++++++++++++++++++++++++++
Date: Tue Jan 29 16:49:53 EST 2013
User: group
Dark Spectrum Present: No
Reference Spectrum Present: No
Number of Sampled Component Spectra: 1
Spectrometers: USB2E7196
Integration Time (usec): 65000 (USB2E7196)
Spectra Averaged: 100 (USB2E7196)
Boxcar Smoothing: 10 (USB2E7196)
Correct for Electrical Dark: No (USB2E7196)
Strobe/Lamp Enabled: No (USB2E7196)
Correct for Detector Non-linearity: No (USB2E7196)
Correct for Stray Light: No (USB2E7196)
Number of Pixels in Processed Spectrum: 2048
>>>>>Begin Processed Spectral Data<<<<<
339.09	0.00
339.48	201.22
339.86	203.40
340.24	204.23
340.63	206.07
341.01	210.35
341.39	208.11
341.78	210.32
342.16	211.50
342.54	211.71
342.93	200.82
343.31	210.99
343.69	211.58
344.07	212.04
344.46	212.51
344.84	212.92
345.22	213.08
345.60	213.40
345.99	213.61
346.37	213.76
346.75	213.89
347.13	213.94
347.52	213.99
347.90	214.13
348.28	214.13
348.66	214.24
349.05	214.20
349.43	214.28
349.81	214.35
350.19	214.37
350.57	214.47
350.96	214.56
351.34	214.64
351.72	214.71
352.10	214.82
352.48	214.87
352.87	214.90
353.25	214.94
353.63	214.96
354.01	214.99
354.39	215.05
354.77	215.12
355.15	215.25
355.54	215.29
355.92	215.27
356.30	215.34
356.68	215.53
357.06	215.64
357.44	215.64
357.82	215.73
358.20	215.84
358.58	215.89
358.97	215.95
359.35	216.04
359.73	216.12
360.11	216.18
360.49	216.26
360.87	216.30
361.25	216.41
361.63	216.51
362.01	216.58
362.39	216.57
362.77	216.60
363.15	216.63
363.53	216.66
363.91	216.71
364.29	216.75
364.67	216.58
365.05	216.60
365.43	216.68
365.81	216.71
366.19	216.80
366.57	216.88
366.95	216.90
367.33	216.86
367.71	216.89
368.09	216.92
368.47	216.89
368.85	216.87
369.23	216.89
369.61	216.82
369.99	216.86
370.37	216.93
370.75	217.03
371.13	216.95
371.51	216.87
371.89	216.87
372.27	216.86
372.65	216.84
373.03	216.79
373.41	216.71
373.78	216.62
374.16	216.48
374.54	216.40
374.92	216.32
375.30	216.28
375.68	216.17
376.06	216.14
376.44	216.08
376.82	216.04
377.19	216.01
377.57	215.94
377.95	215.83
378.33	215.74
378.71	215.58
379.09	215.59
379.47	215.58
379.84	215.52
380.22	215.45
380.60	215.36
380.98	215.31
381.36	215.26
381.73	215.22
382.11	215.23
382.49	215.16
382.87	215.15
383.25	215.10
383.62	215.32
384.00	215.25
384.38	215.24
384.76	215.26
385.13	215.28
385.51	215.25
385.89	215.19
386.27	215.18
386.64	215.18
387.02	215.11
387.40	215.08
387.78	215.04
388.15	215.05
388.53	215.03
388.91	215.02
389.29	215.02
389.66	215.01
390.04	214.97
390.42	215.01
390.79	214.99
391.17	214.98
391.55	214.74
391.92	214.72
392.30	214.74
392.68	214.68
393.05	214.68
393.43	214.69
393.81	214.72
394.18	214.67
394.56	214.69
394.94	214.76
395.31	214.75
395.69	214.82
396.06	214.84
396.44	214.87
396.82	214.90
397.19	215.00
397.57	215.02
397.95	215.06
398.32	215.02
398.70	215.05
399.07	215.16
399.45	215.20
399.82	215.22
400.20	215.27
400.58	215.34
400.95	215.29
401.33	215.41
401.70	215.61
402.08	215.73
402.45	215.80
402.83	215.92
403.20	216.07
403.58	216.19
403.95	216.31
404.33	216.45
404.71	216.58
405.08	216.87
405.46	217.07
405.83	217.27
406.21	217.49
406.58	217.74
406.96	217.94
407.33	218.20
407.70	218.53
408.08	218.98
408.45	219.36
408.83	219.78
409.20	220.11
409.58	220.42
409.95	220.88
410.33	221.39
410.70	221.79
411.08	222.35
411.45	222.94
411.82	223.55
412.20	224.25
412.57	225.11
412.95	225.62
413.32	226.46
413.69	227.30
414.07	228.22
414.44	229.21
414.82	230.23
415.19	231.45
415.56	232.63
415.94	233.84
416.31	235.28
416.68	236.67
417.06	238.34
417.43	239.89
417.81	241.64
418.18	243.46
418.55	245.44
418.93	247.47
419.30	249.55
419.67	251.77
420.04	254.08
420.42	256.47
420.79	259.33
421.16	262.11
421.54	265.03
421.91	268.01
422.28	271.12
422.66	274.43
423.03	277.68
423.40	281.09
423.77	284.72
424.15	288.34
424.52	292.20
424.89	296.37
425.26	300.44
425.64	304.40
426.01	308.72
426.38	313.24
426.75	317.79
427.13	322.55
427.50	327.56
427.87	332.80
428.24	338.05
428.61	343.08
428.99	348.60
429.36	354.62
429.73	360.59
430.10	366.49
430.47	372.63
430.85	379.00
431.22	385.68
431.59	392.80
431.96	399.69
432.33	407.19
432.70	414.39
433.08	422.93
433.45	431.00
433.82	438.98
434.19	447.86
434.56	456.65
434.93	465.04
435.30	473.36
435.68	482.48
436.05	491.46
436.42	500.44
436.79	508.65
437.16	517.52
437.53	526.84
437.90	536.09
438.27	545.10
438.64	554.31
439.01	562.91
439.38	570.52
439.75	577.88
440.13	586.38
440.50	594.42
440.87	600.86
441.24	607.54
441.61	614.91
441.98	620.34
442.35	626.69
442.72	633.04
443.09	639.14
443.46	642.89
443.83	645.46
444.20	647.57
444.57	650.73
444.94	652.16
445.31	653.62
445.68	655.04
446.05	655.68
446.42	654.97
446.79	654.04
447.16	652.99
447.53	652.27
447.90	648.98
448.27	645.70
448.64	641.12
449.01	637.80
449.37	631.94
449.74	626.25
450.11	619.30
450.48	611.88
450.85	604.37
451.22	597.94
451.59	591.77
451.96	586.00
452.33	578.14
452.70	571.02
453.07	562.54
453.43	553.91
453.80	545.54
454.17	537.45
454.54	529.86
454.91	521.60
455.28	513.52
455.65	506.06
456.02	498.54
456.38	492.11
456.75	484.18
457.12	477.54
457.49	470.94
457.86	464.73
458.23	459.28
458.59	453.30
458.96	447.21
459.33	441.91
459.70	436.49
460.07	432.20
460.43	427.29
460.80	422.64
461.17	418.58
461.54	414.31
461.91	410.30
462.27	406.17
462.64	402.78
463.01	398.99
463.38	395.29
463.74	391.59
464.11	388.33
464.48	385.48
464.85	382.35
465.21	379.99
465.58	377.34
465.95	374.24
466.32	371.66
466.68	369.04
467.05	366.38
467.42	363.87
467.78	361.14
468.15	358.56
468.52	356.64
468.88	354.07
469.25	351.84
469.62	349.98
469.98	348.00
470.35	346.11
470.72	344.35
471.08	342.46
471.45	340.91
471.82	339.36
472.18	337.66
472.55	336.45
472.92	335.01
473.28	333.76
473.65	332.58
474.02	331.42
474.38	330.54
474.75	329.76
475.11	328.86
475.48	328.29
475.85	327.79
476.21	327.27
476.58	326.93
476.94	326.71
477.31	326.35
477.67	326.04
478.04	325.90
478.41	325.88
478.77	326.05
479.14	326.00
479.50	326.14
479.87	326.42
480.23	326.75
480.60	326.95
480.96	327.20
481.33	327.76
481.69	328.29
482.06	328.80
482.42	329.30
482.79	329.94
483.15	330.68
483.52	331.60
483.88	332.48
484.25	333.41
484.61	334.40
484.98	335.47
485.34	336.82
485.71	338.23
486.07	339.65
486.44	340.97
486.80	342.61
487.17	344.28
487.53	346.13
487.90	347.99
488.26	350.07
488.62	352.28
488.99	354.35
489.35	356.55
489.72	358.93
490.08	361.41
490.44	363.99
490.81	366.74
491.17	369.49
491.54	372.44
491.90	375.50
492.26	378.75
492.63	382.16
492.99	385.68
493.36	389.24
493.72	393.10
494.08	397.11
494.45	401.32
494.81	405.68
495.17	410.11
495.54	414.81
495.90	419.59
496.26	424.50
496.63	429.67
496.99	435.08
497.35	440.63
497.72	446.46
498.08	452.33
498.44	458.40
498.80	464.82
499.17	471.34
499.53	478.09
499.89	484.98
500.26	491.98
500.62	499.06
500.98	506.47
501.34	513.90
501.71	521.66
502.07	529.42
502.43	537.35
502.79	545.51
503.16	553.87
503.52	562.46
503.88	571.14
504.24	580.08
504.60	589.15
504.97	598.40
505.33	607.69
505.69	617.63
506.05	627.45
506.41	637.26
506.78	647.32
507.14	657.52
507.50	667.94
507.86	678.61
508.22	689.31
508.59	699.95
508.95	711.06
509.31	722.25
509.67	733.74
510.03	745.17
510.39	756.76
510.75	768.53
511.12	780.41
511.48	792.47
511.84	804.66
512.20	816.91
512.56	829.56
512.92	842.33
513.28	855.00
513.64	867.77
514.00	880.60
514.37	893.52
514.73	906.61
515.09	919.68
515.45	932.63
515.81	945.74
516.17	959.20
516.53	972.48
516.89	985.61
517.25	998.77
517.61	1012.34
517.97	1025.82
518.33	1039.08
518.69	1052.69
519.05	1066.46
519.41	1080.26
519.77	1094.16
520.13	1107.43
520.49	1120.67
520.85	1133.96
521.21	1147.33
521.57	1161.03
521.93	1174.11
522.29	1187.86
522.65	1201.42
523.01	1214.96
523.37	1228.08
523.73	1241.42
524.09	1254.48
524.45	1267.94
524.81	1281.42
525.17	1294.77
525.53	1308.02
525.89	1321.40
526.25	1334.58
526.61	1347.47
526.97	1360.61
527.33	1373.47
527.68	1386.97
528.04	1400.46
528.40	1413.64
528.76	1426.96
529.12	1439.87
529.48	1453.24
529.84	1465.47
530.20	1478.36
530.56	1491.09
530.91	1504.50
531.27	1517.52
531.63	1530.49
531.99	1543.29
532.35	1555.50
532.71	1568.03
533.07	1581.01
533.42	1593.19
533.78	1605.36
534.14	1617.51
534.50	1628.81
534.86	1640.64
535.21	1651.66
535.57	1663.23
535.93	1674.54
536.29	1685.74
536.65	1697.37
537.00	1708.46
537.36	1720.19
537.72	1731.16
538.08	1742.59
538.44	1753.51
538.79	1764.64
539.15	1775.60
539.51	1786.44
539.87	1797.95
540.22	1808.78
540.58	1819.63
540.94	1830.67
541.29	1841.05
541.65	1850.97
542.01	1861.52
542.37	1871.55
542.72	1881.74
543.08	1891.53
543.44	1902.15
543.79	1911.50
544.15	1920.82
544.51	1930.80
544.87	1940.58
545.22	1950.05
545.58	1958.90
545.94	1967.87
546.29	1976.33
546.65	1984.71
547.01	1993.07
547.36	2000.87
547.72	2008.74
548.07	2016.45
548.43	2024.18
548.79	2032.11
549.14	2040.32
549.50	2048.75
549.86	2056.94
550.21	2064.47
550.57	2072.33
550.92	2079.05
551.28	2086.58
551.64	2093.89
551.99	2101.40
552.35	2108.66
552.70	2115.43
553.06	2122.25
553.41	2128.64
553.77	2135.25
554.13	2141.59
554.48	2148.50
554.84	2155.40
555.19	2161.91
555.55	2168.46
555.90	2174.79
556.26	2181.62
556.61	2187.72
556.97	2192.59
557.32	2198.17
557.68	2204.44
558.03	2210.21
558.39	2215.83
558.74	2221.84
559.10	2227.48
559.45	2232.99
559.81	2238.49
560.16	2243.98
560.52	2249.82
560.87	2256.28
561.23	2262.07
561.58	2268.78
561.94	2274.14
562.29	2278.95
562.64	2284.94
563.00	2290.37
563.35	2295.86
563.71	2301.53
564.06	2307.00
564.42	2312.94
564.77	2318.03
565.12	2323.24
565.48	2328.17
565.83	2333.38
566.19	2338.51
566.54	2343.77
566.89	2348.28
567.25	2352.77
567.60	2358.42
567.96	2363.28
568.31	2367.51
568.66	2371.67
569.02	2375.37
569.37	2378.87
569.72	2383.03
570.08	2386.36
570.43	2389.42
570.78	2392.45
571.14	2394.82
571.49	2397.79
571.84	2401.11
572.20	2403.96
572.55	2406.88
572.90	2409.02
573.26	2411.72
573.61	2414.35
573.96	2416.41
574.31	2418.47
574.67	2420.14
575.02	2420.66
575.37	2422.17
575.72	2422.82
576.08	2424.26
576.43	2424.35
576.78	2424.63
577.13	2426.02
577.49	2427.19
577.84	2428.18
578.19	2429.31
578.54	2429.71
578.90	2430.27
579.25	2430.16
579.60	2429.80
579.95	2428.86
580.30	2428.77
580.66	2427.96
581.01	2426.12
581.36	2423.55
581.71	2421.86
582.06	2420.54
582.42	2419.60
582.77	2417.07
583.12	2415.17
583.47	2413.42
583.82	2412.59
584.17	2411.20
584.53	2409.03
584.88	2406.73
585.23	2404.62
585.58	2401.95
585.93	2399.71
586.28	2397.33
586.63	2394.50
586.98	2392.10
587.34	2389.83
587.69	2387.22
588.04	2384.91
588.39	2383.27
588.74	2380.71
589.09	2377.98
589.44	2374.66
589.79	2372.05
590.14	2370.02
590.49	2367.10
590.84	2363.19
591.19	2359.74
591.54	2356.46
591.89	2352.25
592.25	2348.92
592.60	2344.60
592.95	2340.49
593.30	2336.20
593.65	2331.71
594.00	2327.35
594.35	2324.33
594.70	2319.79
595.05	2315.23
595.40	2309.76
595.75	2303.89
596.10	2300.10
596.45	2294.96
596.80	2290.38
597.15	2285.07
597.50	2279.07
597.85	2274.18
598.19	2269.02
598.54	2263.33
598.89	2258.04
599.24	2253.48
599.59	2247.07
599.94	2241.22
600.29	2235.13
600.64	2229.16
600.99	2222.28
601.34	2216.65
601.69	2209.58
602.04	2203.06
602.39	2196.30
602.74	2190.09
603.08	2184.59
603.43	2178.05
603.78	2171.23
604.13	2164.10
604.48	2156.69
604.83	2150.56
605.18	2144.23
605.53	2137.16
605.87	2130.27
606.22	2123.44
606.57	2115.57
606.92	2107.65
607.27	2100.64
607.62	2094.20
607.96	2087.19
608.31	2080.87
608.66	2073.10
609.01	2065.43
609.36	2058.26
609.70	2050.59
610.05	2042.73
610.40	2034.40
610.75	2025.95
611.10	2018.15
611.44	2009.18
611.79	2000.59
612.14	1990.58
612.49	1979.85
612.83	1970.55
613.18	1961.12
613.53	1951.90
613.88	1942.13
614.22	1933.79
614.57	1924.01
614.92	1913.36
615.27	1903.22
615.61	1893.01
615.96	1883.36
616.31	1873.91
616.65	1864.58
617.00	1855.06
617.35	1845.64
617.70	1835.88
618.04	1826.08
618.39	1816.17
618.74	1806.56
619.08	1796.88
619.43	1788.19
619.78	1780.11
620.12	1771.55
620.47	1762.11
620.82	1751.80
621.16	1742.12
621.51	1732.28
621.85	1722.54
622.20	1712.35
622.55	1701.83
622.89	1691.89
623.24	1682.27
623.59	1672.47
623.93	1662.44
624.28	1652.67
624.62	1642.64
624.97	1632.60
625.32	1622.82
625.66	1613.87
626.01	1605.28
626.35	1596.04
626.70	1586.22
627.04	1576.23
627.39	1566.23
627.73	1557.09
628.08	1548.25
628.43	1538.93
628.77	1529.71
629.12	1520.93
629.46	1513.02
629.81	1504.83
630.15	1495.57
630.50	1485.99
630.84	1475.54
631.19	1465.73
631.53	1456.54
631.88	1446.37
632.22	1436.34
632.57	1427.13
632.91	1417.09
633.26	1407.36
633.60	1397.93
633.95	1388.76
634.29	1379.38
634.64	1370.07
634.98	1360.17
635.32	1350.95
635.67	1342.66
636.01	1333.45
636.36	1323.71
636.70	1314.46
637.05	1305.14
637.39	1296.41
637.73	1287.85
638.08	1280.51
638.42	1272.51
638.77	1263.80
639.11	1255.77
639.45	1248.13
639.80	1239.67
640.14	1231.13
640.49	1222.36
640.83	1213.50
641.17	1205.34
641.52	1197.30
641.86	1188.98
642.20	1181.17
642.55	1172.68
642.89	1163.74
643.23	1155.16
643.58	1147.17
643.92	1138.15
644.26	1129.57
644.61	1121.14
644.95	1112.38
645.29	1103.05
645.64	1093.94
645.98	1085.44
646.32	1077.58
646.66	1069.13
647.01	1060.92
647.35	1052.85
647.69	1044.62
648.04	1036.52
648.38	1027.74
648.72	1018.93
649.06	1010.54
649.41	1002.37
649.75	994.44
650.09	986.63
650.43	978.70
650.78	970.36
651.12	962.78
651.46	955.45
651.80	948.31
652.14	941.07
652.49	933.69
652.83	926.32
653.17	918.71
653.51	911.05
653.85	903.80
654.20	896.58
654.54	889.16
654.88	881.91
655.22	874.79
655.56	867.85
655.90	861.18
656.25	854.43
656.59	847.68
656.93	840.68
657.27	833.57
657.61	826.56
657.95	820.58
658.29	814.65
658.64	808.57
658.98	801.99
659.32	795.47
659.66	789.31
660.00	783.06
660.34	776.98
660.68	770.85
661.02	764.49
661.36	758.49
661.70	752.74
662.05	747.13
662.39	741.59
662.73	736.20
663.07	730.83
663.41	725.21
663.75	719.46
664.09	713.81
664.43	708.40
664.77	703.09
665.11	697.28
665.45	691.37
665.79	685.52
666.13	679.87
666.47	674.39
666.81	669.00
667.15	663.52
667.49	658.42
667.83	653.20
668.17	648.00
668.51	642.91
668.85	637.97
669.19	633.06
669.53	628.05
669.87	622.92
670.21	618.10
670.55	613.43
670.89	608.96
671.23	604.62
671.57	600.19
671.91	595.86
672.25	591.66
672.58	587.47
672.92	583.38
673.26	579.49
673.60	575.59
673.94	571.71
674.28	568.14
674.62	564.34
674.96	560.53
675.30	557.06
675.64	553.35
675.97	549.75
676.31	546.15
676.65	542.61
676.99	539.17
677.33	535.30
677.67	531.66
678.01	527.80
678.34	524.13
678.68	520.60
679.02	516.98
679.36	513.29
679.70	509.64
680.04	506.04
680.37	502.51
680.71	499.14
681.05	495.92
681.39	492.68
681.73	489.45
682.06	486.45
682.40	483.29
682.74	480.09
683.08	476.81
683.42	473.57
683.75	470.53
684.09	467.45
684.43	464.69
684.77	461.75
685.10	458.92
685.44	456.04
685.78	453.12
686.12	450.31
686.45	447.61
686.79	444.95
687.13	442.47
687.46	439.86
687.80	437.14
688.14	434.27
688.48	431.51
688.81	428.80
689.15	426.21
689.49	423.61
689.82	420.98
690.16	418.36
690.50	415.86
690.83	413.30
691.17	410.70
691.51	408.16
691.84	405.85
692.18	403.57
692.52	401.25
692.85	399.08
693.19	396.96
693.52	394.74
693.86	392.50
694.20	390.26
694.53	388.13
694.87	385.97
695.21	383.84
695.54	381.68
695.88	379.48
696.21	377.23
696.55	375.06
696.88	373.05
697.22	371.05
697.56	369.14
697.89	367.24
698.23	365.48
698.56	363.67
698.90	361.89
699.23	359.96
699.57	358.11
699.90	356.23
700.24	354.39
700.58	352.61
700.91	350.91
701.25	349.29
701.58	347.65
701.92	345.99
702.25	344.36
702.59	342.70
702.92	341.18
703.26	339.64
703.59	338.15
703.93	336.86
704.26	335.41
704.60	333.90
704.93	332.37
705.26	330.86
705.60	329.40
705.93	327.86
706.27	326.53
706.60	325.29
706.94	324.04
707.27	322.62
707.61	321.26
707.94	319.88
708.27	318.35
708.61	316.86
708.94	315.45
709.28	314.15
709.61	312.93
709.94	311.66
710.28	310.42
710.61	309.23
710.95	307.79
711.28	306.71
711.61	305.51
711.95	304.38
712.28	303.16
712.61	301.92
712.95	300.86
713.28	299.81
713.61	298.57
713.95	297.39
714.28	296.33
714.61	295.27
714.95	294.22
715.28	293.17
715.61	292.13
715.95	291.15
716.28	290.12
716.61	289.13
716.95	288.12
717.28	287.15
717.61	286.17
717.94	285.25
718.28	284.21
718.61	283.29
718.94	282.35
719.27	281.49
719.61	280.68
719.94	279.79
720.27	278.79
720.60	277.97
720.94	277.15
721.27	276.38
721.60	275.71
721.93	275.00
722.27	274.34
722.60	273.69
722.93	272.98
723.26	272.36
723.59	271.65
723.93	271.00
724.26	270.33
724.59	269.65
724.92	269.03
725.25	268.45
725.59	267.86
725.92	267.34
726.25	266.77
726.58	266.20
726.91	265.57
727.24	265.03
727.57	264.45
727.91	263.81
728.24	263.25
728.57	262.63
728.90	262.06
729.23	261.44
729.56	260.96
729.89	260.42
730.22	259.79
730.55	259.22
730.89	258.66
731.22	258.11
731.55	257.61
731.88	257.09
732.21	256.56
732.54	256.02
732.87	255.48
733.20	254.97
733.53	254.49
733.86	254.01
734.19	253.49
734.52	253.08
734.85	252.84
735.18	252.33
735.51	251.98
735.84	251.54
736.17	251.18
736.50	250.65
736.83	250.46
737.16	250.10
737.49	249.74
737.82	249.34
738.15	248.97
738.48	248.62
738.81	248.22
739.14	247.80
739.47	247.39
739.80	247.01
740.13	246.64
740.46	246.21
740.79	245.85
741.12	245.48
741.45	245.08
741.78	244.57
742.11	244.29
742.44	243.87
742.77	243.57
743.10	243.18
743.43	242.86
743.75	242.31
744.08	242.20
744.41	241.82
744.74	241.48
745.07	241.11
745.40	240.75
745.73	240.49
746.06	240.15
746.39	239.86
746.71	239.55
747.04	239.18
747.37	238.85
747.70	238.56
748.03	238.29
748.36	238.00
748.68	237.72
749.01	237.39
749.34	237.07
749.67	236.75
750.00	236.51
750.33	236.39
750.65	236.12
750.98	235.58
751.31	235.34
751.64	235.10
751.97	234.98
752.29	234.72
752.62	234.36
752.95	234.13
753.28	233.85
753.60	233.57
753.93	233.39
754.26	233.18
754.59	232.90
754.91	232.65
755.24	232.42
755.57	232.17
755.90	231.92
756.22	231.70
756.55	231.49
756.88	231.22
757.20	230.81
757.53	230.55
757.86	230.36
758.19	230.16
758.51	229.92
758.84	229.59
759.17	229.38
759.49	229.19
759.82	229.10
760.15	228.96
760.47	228.76
760.80	228.52
761.13	228.36
761.45	228.14
761.78	227.94
762.11	227.75
762.43	227.57
762.76	227.40
763.08	227.24
763.41	227.05
763.74	226.89
764.06	226.74
764.39	226.61
764.71	226.43
765.04	226.27
765.37	226.14
765.69	226.01
766.02	225.86
766.34	225.75
766.67	225.52
767.00	225.42
767.32	225.41
767.65	225.41
767.97	225.26
768.30	225.17
768.62	225.06
768.95	224.93
769.27	224.82
769.60	224.74
769.92	224.60
770.25	224.43
770.57	224.29
770.90	224.16
771.22	224.03
771.55	223.94
771.87	223.82
772.20	223.68
772.52	223.76
772.85	223.86
773.17	223.76
773.50	223.67
773.82	223.50
774.15	223.29
774.47	223.08
774.80	222.98
775.12	222.86
775.45	222.75
775.77	222.66
776.09	222.56
776.42	222.45
776.74	222.40
777.07	222.33
777.39	222.26
777.72	222.14
778.04	222.07
778.36	221.98
778.69	221.91
779.01	221.87
779.33	221.56
779.66	221.25
779.98	221.15
780.31	221.05
780.63	221.07
780.95	221.05
781.28	220.99
781.60	220.88
781.92	220.84
782.25	220.77
782.57	220.70
782.89	220.61
783.22	220.55
783.54	220.44
783.86	220.40
784.19	220.32
784.51	220.38
784.83	220.31
785.16	220.22
785.48	220.16
785.80	220.10
786.12	220.08
