SpectraSuite Data File
++++++++++++++++++++++++++++++++++++
Date: Tue Jan 29 16:43:57 EST 2013
User: group
Dark Spectrum Present: No
Reference Spectrum Present: No
Number of Sampled Component Spectra: 1
Spectrometers: USB2E7196
Integration Time (usec): 65000 (USB2E7196)
Spectra Averaged: 100 (USB2E7196)
Boxcar Smoothing: 10 (USB2E7196)
Correct for Electrical Dark: No (USB2E7196)
Strobe/Lamp Enabled: No (USB2E7196)
Correct for Detector Non-linearity: No (USB2E7196)
Correct for Stray Light: No (USB2E7196)
Number of Pixels in Processed Spectrum: 2048
>>>>>Begin Processed Spectral Data<<<<<
339.09	0.00
339.48	201.37
339.86	203.16
340.24	204.52
340.63	205.98
341.01	210.59
341.39	208.88
341.78	210.55
342.16	212.36
342.54	212.25
342.93	201.10
343.31	211.28
343.69	211.83
344.07	212.29
344.46	212.76
344.84	213.17
345.22	213.38
345.60	213.64
345.99	213.83
346.37	213.94
346.75	214.02
347.13	214.06
347.52	214.14
347.90	214.26
348.28	214.30
348.66	214.41
349.05	214.35
349.43	214.39
349.81	214.44
350.19	214.49
350.57	214.58
350.96	214.68
351.34	214.78
351.72	214.90
352.10	215.01
352.48	215.07
352.87	215.12
353.25	215.17
353.63	215.21
354.01	215.27
354.39	215.33
354.77	215.42
355.15	215.55
355.54	215.57
355.92	215.57
356.30	215.66
356.68	215.84
357.06	215.92
357.44	215.95
357.82	215.99
358.20	216.08
358.58	216.13
358.97	216.19
359.35	216.26
359.73	216.35
360.11	216.37
360.49	216.43
360.87	216.48
361.25	216.54
361.63	216.66
362.01	216.72
362.39	216.74
362.77	216.79
363.15	216.79
363.53	216.85
363.91	216.90
364.29	216.92
364.67	216.75
365.05	216.79
365.43	216.84
365.81	216.88
366.19	216.98
366.57	217.03
366.95	217.05
367.33	217.00
367.71	217.01
368.09	217.09
368.47	217.08
368.85	217.09
369.23	217.10
369.61	217.06
369.99	217.12
370.37	217.17
370.75	217.28
371.13	217.23
371.51	217.21
371.89	217.21
372.27	217.19
372.65	217.16
373.03	217.14
373.41	217.11
373.78	217.05
374.16	216.90
374.54	216.82
374.92	216.74
375.30	216.72
375.68	216.63
376.06	216.57
376.44	216.55
376.82	216.51
377.19	216.44
377.57	216.36
377.95	216.23
378.33	216.16
378.71	215.97
379.09	215.97
379.47	215.94
379.84	215.87
380.22	215.81
380.60	215.74
380.98	215.67
381.36	215.64
381.73	215.59
382.11	215.58
382.49	215.54
382.87	215.53
383.25	215.47
383.62	215.70
384.00	215.61
384.38	215.59
384.76	215.59
385.13	215.65
385.51	215.61
385.89	215.58
386.27	215.54
386.64	215.56
387.02	215.52
387.40	215.44
387.78	215.40
388.15	215.41
388.53	215.38
388.91	215.34
389.29	215.30
389.66	215.30
390.04	215.27
390.42	215.28
390.79	215.21
391.17	215.20
391.55	214.94
391.92	214.97
392.30	214.96
392.68	214.88
393.05	214.87
393.43	214.88
393.81	214.83
394.18	214.80
394.56	214.77
394.94	214.82
395.31	214.84
395.69	214.91
396.06	214.94
396.44	214.98
396.82	215.02
397.19	215.17
397.57	215.20
397.95	215.28
398.32	215.27
398.70	215.36
399.07	215.46
399.45	215.47
399.82	215.48
400.20	215.49
400.58	215.60
400.95	215.55
401.33	215.64
401.70	215.92
402.08	216.00
402.45	216.11
402.83	216.22
403.20	216.34
403.58	216.44
403.95	216.59
404.33	216.74
404.71	216.88
405.08	217.10
405.46	217.26
405.83	217.44
406.21	217.66
406.58	217.88
406.96	218.10
407.33	218.37
407.70	218.71
408.08	219.20
408.45	219.54
408.83	219.95
409.20	220.29
409.58	220.56
409.95	221.06
410.33	221.58
410.70	222.02
411.08	222.56
411.45	223.14
411.82	223.73
412.20	224.43
412.57	225.27
412.95	225.89
413.32	226.70
413.69	227.53
414.07	228.45
414.44	229.50
414.82	230.54
415.19	231.78
415.56	232.96
415.94	234.13
416.31	235.54
416.68	236.96
417.06	238.61
417.43	240.20
417.81	241.93
418.18	243.71
418.55	245.68
418.93	247.76
419.30	249.88
419.67	252.10
420.04	254.40
420.42	256.82
420.79	259.63
421.16	262.49
421.54	265.43
421.91	268.47
422.28	271.54
422.66	274.87
423.03	278.14
423.40	281.49
423.77	285.17
424.15	288.85
424.52	292.71
424.89	296.87
425.26	300.96
425.64	304.91
426.01	309.22
426.38	313.73
426.75	318.37
427.13	323.14
427.50	328.17
427.87	333.42
428.24	338.66
428.61	343.68
428.99	349.21
429.36	355.30
429.73	361.21
430.10	367.20
430.47	373.34
430.85	379.72
431.22	386.55
431.59	393.72
431.96	400.65
432.33	408.25
432.70	415.60
433.08	424.17
433.45	432.26
433.82	440.36
434.19	449.39
434.56	458.08
434.93	466.55
435.30	474.88
435.68	484.11
436.05	493.20
436.42	502.18
436.79	510.49
437.16	519.27
437.53	528.61
437.90	537.72
438.27	546.75
438.64	556.04
439.01	564.62
439.38	572.27
439.75	579.70
440.13	588.18
440.50	596.22
440.87	602.67
441.24	609.47
441.61	616.82
441.98	622.16
442.35	628.57
442.72	634.91
443.09	641.04
443.46	644.82
443.83	647.38
444.20	649.64
444.57	652.76
444.94	654.32
445.31	655.82
445.68	657.33
446.05	657.98
446.42	657.20
446.79	656.31
447.16	655.23
447.53	654.42
447.90	651.18
448.27	647.88
448.64	643.30
449.01	639.91
449.37	634.01
449.74	628.31
450.11	621.44
450.48	614.01
450.85	606.52
451.22	599.98
451.59	593.78
451.96	587.95
452.33	580.01
452.70	572.83
453.07	564.24
453.43	555.53
453.80	547.12
454.17	539.04
454.54	531.40
454.91	523.15
455.28	515.06
455.65	507.49
456.02	499.86
456.38	493.45
456.75	485.48
457.12	478.85
457.49	472.29
457.86	465.96
458.23	460.47
458.59	454.44
458.96	448.37
459.33	442.99
459.70	437.46
460.07	433.15
460.43	428.16
460.80	423.54
461.17	419.55
461.54	415.30
461.91	411.24
462.27	407.06
462.64	403.58
463.01	399.76
463.38	395.99
463.74	392.29
464.11	389.01
464.48	386.14
464.85	383.02
465.21	380.56
465.58	377.94
465.95	374.81
466.32	372.16
466.68	369.55
467.05	366.93
467.42	364.37
467.78	361.67
468.15	359.06
468.52	357.15
468.88	354.62
469.25	352.36
469.62	350.53
469.98	348.60
470.35	346.76
470.72	345.01
471.08	343.21
471.45	341.67
471.82	340.09
472.18	338.38
472.55	337.14
472.92	335.69
473.28	334.44
473.65	333.26
474.02	332.16
474.38	331.23
474.75	330.45
475.11	329.63
475.48	329.07
475.85	328.64
476.21	328.13
476.58	327.74
476.94	327.55
477.31	327.25
477.67	326.92
478.04	326.72
478.41	326.71
478.77	326.87
479.14	326.78
479.50	326.89
479.87	327.20
480.23	327.50
480.60	327.83
480.96	328.08
481.33	328.62
481.69	329.15
482.06	329.66
482.42	330.14
482.79	330.73
483.15	331.47
483.52	332.38
483.88	333.29
484.25	334.26
484.61	335.23
484.98	336.23
485.34	337.55
485.71	338.96
486.07	340.39
486.44	341.69
486.80	343.37
487.17	345.05
487.53	346.86
487.90	348.73
488.26	350.71
488.62	352.95
488.99	355.11
489.35	357.31
489.72	359.73
490.08	362.26
490.44	364.83
490.81	367.56
491.17	370.27
491.54	373.18
491.90	376.21
492.26	379.46
492.63	382.91
492.99	386.43
493.36	390.10
493.72	394.01
494.08	398.09
494.45	402.28
494.81	406.65
495.17	411.11
495.54	415.90
495.90	420.73
496.26	425.63
496.63	430.79
496.99	436.20
497.35	441.80
497.72	447.64
498.08	453.60
498.44	459.73
498.80	466.16
499.17	472.74
499.53	479.46
499.89	486.41
500.26	493.43
500.62	500.51
500.98	507.95
501.34	515.44
501.71	523.16
502.07	530.99
502.43	539.00
502.79	547.26
503.16	555.62
503.52	564.26
503.88	572.94
504.24	581.99
504.60	591.12
504.97	600.38
505.33	609.71
505.69	619.65
506.05	629.56
506.41	639.47
506.78	649.49
507.14	659.70
507.50	670.16
507.86	680.86
508.22	691.65
508.59	702.33
508.95	713.40
509.31	724.73
509.67	736.26
510.03	747.78
510.39	759.41
510.75	771.26
511.12	783.18
511.48	795.39
511.84	807.59
512.20	819.93
512.56	832.63
512.92	845.42
513.28	858.07
513.64	870.78
514.00	883.76
514.37	896.81
514.73	909.97
515.09	922.94
515.45	935.92
515.81	949.02
516.17	962.49
516.53	975.75
516.89	988.90
517.25	1002.16
517.61	1015.64
517.97	1029.18
518.33	1042.34
518.69	1055.95
519.05	1069.72
519.41	1083.48
519.77	1097.40
520.13	1110.70
520.49	1123.96
520.85	1137.46
521.21	1150.95
521.57	1164.54
521.93	1177.65
522.29	1191.47
522.65	1205.24
523.01	1218.95
523.37	1232.26
523.73	1245.58
524.09	1258.85
524.45	1272.35
524.81	1285.95
525.17	1299.44
525.53	1312.67
525.89	1326.11
526.25	1339.30
526.61	1352.24
526.97	1365.36
527.33	1378.32
527.68	1391.94
528.04	1405.40
528.40	1418.56
528.76	1431.95
529.12	1445.03
529.48	1458.47
529.84	1470.82
530.20	1483.71
530.56	1496.35
530.91	1509.61
531.27	1522.51
531.63	1535.40
531.99	1548.21
532.35	1560.47
532.71	1572.88
533.07	1585.86
533.42	1598.20
533.78	1610.48
534.14	1622.64
534.50	1634.05
534.86	1645.81
535.21	1656.75
535.57	1668.42
535.93	1679.83
536.29	1691.03
536.65	1702.65
537.00	1713.75
537.36	1725.29
537.72	1736.35
538.08	1747.94
538.44	1759.07
538.79	1770.48
539.15	1781.47
539.51	1792.44
539.87	1803.86
540.22	1814.82
540.58	1825.87
540.94	1836.86
541.29	1847.24
541.65	1857.07
542.01	1867.70
542.37	1877.85
542.72	1888.06
543.08	1897.89
543.44	1908.36
543.79	1917.72
544.15	1927.11
544.51	1936.99
544.87	1947.01
545.22	1956.23
545.58	1965.19
545.94	1974.07
546.29	1982.46
546.65	1990.91
547.01	1999.23
547.36	2006.87
547.72	2014.73
548.07	2022.36
548.43	2030.18
548.79	2038.09
549.14	2046.30
549.50	2054.83
549.86	2062.84
550.21	2070.40
550.57	2078.20
550.92	2085.05
551.28	2092.61
551.64	2099.91
551.99	2107.58
552.35	2114.85
552.70	2121.87
553.06	2128.51
553.41	2134.82
553.77	2141.39
554.13	2147.72
554.48	2154.85
554.84	2162.17
555.19	2168.68
555.55	2175.17
555.90	2181.45
556.26	2188.20
556.61	2194.32
556.97	2199.11
557.32	2204.76
557.68	2211.30
558.03	2217.10
558.39	2222.46
558.74	2228.46
559.10	2234.01
559.45	2239.52
559.81	2244.92
560.16	2250.50
560.52	2256.32
560.87	2262.77
561.23	2268.71
561.58	2275.40
561.94	2280.48
562.29	2285.07
562.64	2291.12
563.00	2296.81
563.35	2302.36
563.71	2308.02
564.06	2313.65
564.42	2319.66
564.77	2324.80
565.12	2329.96
565.48	2334.97
565.83	2340.45
566.19	2345.74
566.54	2350.96
566.89	2355.45
567.25	2360.02
567.60	2365.56
567.96	2370.72
568.31	2375.26
568.66	2379.43
569.02	2383.19
569.37	2386.83
569.72	2391.12
570.08	2394.57
570.43	2397.58
570.78	2400.72
571.14	2403.18
571.49	2406.12
571.84	2409.46
572.20	2412.25
572.55	2415.13
572.90	2417.49
573.26	2420.12
573.61	2422.62
573.96	2424.77
574.31	2426.93
574.67	2428.71
575.02	2429.40
575.37	2430.75
575.72	2431.22
576.08	2432.59
576.43	2432.68
576.78	2432.99
577.13	2434.50
577.49	2435.51
577.84	2436.33
578.19	2437.50
578.54	2437.87
578.90	2438.40
579.25	2438.23
579.60	2437.84
579.95	2436.83
580.30	2436.54
580.66	2435.89
581.01	2434.15
581.36	2431.66
581.71	2429.99
582.06	2428.54
582.42	2427.45
582.77	2424.90
583.12	2423.07
583.47	2421.64
583.82	2420.84
584.17	2419.44
584.53	2417.15
584.88	2414.95
585.23	2412.90
585.58	2410.34
585.93	2408.35
586.28	2406.08
586.63	2403.39
586.98	2401.15
587.34	2398.82
587.69	2396.33
588.04	2393.94
588.39	2392.20
588.74	2389.50
589.09	2386.48
589.44	2383.30
589.79	2380.70
590.14	2378.61
590.49	2375.79
590.84	2371.68
591.19	2368.36
591.54	2365.08
591.89	2360.83
592.25	2357.50
592.60	2353.17
592.95	2349.04
593.30	2344.66
593.65	2340.16
594.00	2335.62
594.35	2332.51
594.70	2328.01
595.05	2323.46
595.40	2317.83
595.75	2312.05
596.10	2308.38
596.45	2303.70
596.80	2298.97
597.15	2293.60
597.50	2287.67
597.85	2282.64
598.19	2277.31
598.54	2271.59
598.89	2266.34
599.24	2261.85
599.59	2255.61
599.94	2249.77
600.29	2243.74
600.64	2237.79
600.99	2230.93
601.34	2225.39
601.69	2218.44
602.04	2211.97
602.39	2205.20
602.74	2199.13
603.08	2193.54
603.43	2187.05
603.78	2180.09
604.13	2173.14
604.48	2165.92
604.83	2159.72
605.18	2153.44
605.53	2146.54
605.87	2139.62
606.22	2132.66
606.57	2124.61
606.92	2116.50
607.27	2109.53
607.62	2102.69
607.96	2095.74
608.31	2089.36
608.66	2081.53
609.01	2073.77
609.36	2066.58
609.70	2058.90
610.05	2051.15
610.40	2042.78
610.75	2034.41
611.10	2026.62
611.44	2017.53
611.79	2008.71
612.14	1998.72
612.49	1988.02
612.83	1978.74
613.18	1969.20
613.53	1959.99
613.88	1950.37
614.22	1941.86
614.57	1931.82
614.92	1921.30
615.27	1911.03
615.61	1900.70
615.96	1891.08
616.31	1881.54
616.65	1872.06
617.00	1862.23
617.35	1852.49
617.70	1842.80
618.04	1832.72
618.39	1822.68
618.74	1813.12
619.08	1803.52
619.43	1794.94
619.78	1786.78
620.12	1778.23
620.47	1768.76
620.82	1758.37
621.16	1748.77
621.51	1738.85
621.85	1729.18
622.20	1718.89
622.55	1708.48
622.89	1698.74
623.24	1689.08
623.59	1679.22
623.93	1669.22
624.28	1659.55
624.62	1649.60
624.97	1639.38
625.32	1629.67
625.66	1620.64
626.01	1611.94
626.35	1602.66
626.70	1592.61
627.04	1582.49
627.39	1572.28
627.73	1563.11
628.08	1554.27
628.43	1544.52
628.77	1535.36
629.12	1526.56
629.46	1518.75
629.81	1510.45
630.15	1500.99
630.50	1491.26
630.84	1480.88
631.19	1471.06
631.53	1461.72
631.88	1451.50
632.22	1441.58
632.57	1432.36
632.91	1422.37
633.26	1412.63
633.60	1403.22
633.95	1394.00
634.29	1384.69
634.64	1375.44
634.98	1365.52
635.32	1356.22
635.67	1347.90
636.01	1338.67
636.36	1328.99
636.70	1319.56
637.05	1310.19
637.39	1301.31
637.73	1292.67
638.08	1285.19
638.42	1277.12
638.77	1268.44
639.11	1260.35
639.45	1252.59
639.80	1244.00
640.14	1235.31
640.49	1226.41
640.83	1217.52
641.17	1209.38
641.52	1201.21
641.86	1192.67
642.20	1184.85
642.55	1176.18
642.89	1167.26
643.23	1158.72
643.58	1150.59
643.92	1141.70
644.26	1133.03
644.61	1124.64
644.95	1115.85
645.29	1106.68
645.64	1097.49
645.98	1089.07
646.32	1081.21
646.66	1072.70
647.01	1064.50
647.35	1056.46
647.69	1048.17
648.04	1039.92
648.38	1031.07
648.72	1022.42
649.06	1014.00
649.41	1005.74
649.75	997.98
650.09	990.29
650.43	982.24
650.78	973.93
651.12	966.10
651.46	958.69
651.80	951.53
652.14	944.28
652.49	936.74
652.83	929.40
653.17	921.69
653.51	914.02
653.85	906.78
654.20	899.52
654.54	892.02
654.88	884.77
655.22	877.55
655.56	870.54
655.90	863.62
656.25	856.95
656.59	850.11
656.93	843.09
657.27	835.90
657.61	828.86
657.95	822.73
658.29	816.75
658.64	810.55
658.98	803.94
659.32	797.41
659.66	791.24
660.00	784.96
660.34	778.84
660.68	772.74
661.02	766.39
661.36	760.35
661.70	754.52
662.05	748.89
662.39	743.40
662.73	737.94
663.07	732.60
663.41	726.93
663.75	721.16
664.09	715.40
664.43	709.89
664.77	704.59
665.11	698.82
665.45	692.99
665.79	687.25
666.13	681.62
666.47	676.06
666.81	670.67
667.15	665.19
667.49	659.97
667.83	654.67
668.17	649.38
668.51	644.21
668.85	639.27
669.19	634.35
669.53	629.37
669.87	624.26
670.21	619.47
670.55	614.73
670.89	610.30
671.23	605.92
671.57	601.54
671.91	597.21
672.25	593.04
672.58	588.88
672.92	584.77
673.26	580.76
673.60	576.84
673.94	572.91
674.28	569.29
674.62	565.53
674.96	561.76
675.30	558.29
675.64	554.67
675.97	551.08
676.31	547.44
676.65	543.83
676.99	540.47
677.33	536.54
677.67	532.90
678.01	529.00
678.34	525.31
678.68	521.74
679.02	518.11
679.36	514.37
679.70	510.68
680.04	507.08
680.37	503.60
680.71	500.26
681.05	497.02
681.39	493.69
681.73	490.48
682.06	487.43
682.40	484.26
682.74	481.01
683.08	477.77
683.42	474.54
683.75	471.50
684.09	468.38
684.43	465.59
684.77	462.72
685.10	459.85
685.44	456.92
685.78	453.96
686.12	451.16
686.45	448.40
686.79	445.73
687.13	443.12
687.46	440.49
687.80	437.77
688.14	434.87
688.48	432.23
688.81	429.54
689.15	426.92
689.49	424.30
689.82	421.73
690.16	419.07
690.50	416.59
690.83	414.04
691.17	411.49
691.51	408.88
691.84	406.49
692.18	404.25
692.52	402.03
692.85	399.87
693.19	397.71
693.52	395.53
693.86	393.25
694.20	391.08
694.53	388.89
694.87	386.73
695.21	384.60
695.54	382.45
695.88	380.26
696.21	378.04
696.55	375.87
696.88	373.83
697.22	371.84
697.56	369.89
697.89	367.92
698.23	366.13
698.56	364.40
698.90	362.61
699.23	360.71
699.57	358.79
699.90	356.93
700.24	355.08
700.58	353.26
700.91	351.59
701.25	349.97
701.58	348.39
701.92	346.76
702.25	345.11
702.59	343.43
702.92	341.85
703.26	340.22
703.59	338.70
703.93	337.42
704.26	335.95
704.60	334.40
704.93	332.91
705.26	331.37
705.60	329.83
705.93	328.30
706.27	326.93
706.60	325.67
706.94	324.38
707.27	322.98
707.61	321.66
707.94	320.26
708.27	318.74
708.61	317.26
708.94	315.86
709.28	314.53
709.61	313.30
709.94	312.09
710.28	310.88
710.61	309.67
710.95	308.19
711.28	307.08
711.61	305.87
711.95	304.77
712.28	303.59
712.61	302.42
712.95	301.33
713.28	300.22
713.61	299.01
713.95	297.84
714.28	296.76
714.61	295.69
714.95	294.66
715.28	293.60
715.61	292.54
715.95	291.56
716.28	290.59
716.61	289.62
716.95	288.60
717.28	287.67
717.61	286.71
717.94	285.74
718.28	284.69
718.61	283.83
718.94	282.88
719.27	281.93
719.61	281.13
719.94	280.26
720.27	279.26
720.60	278.37
720.94	277.55
721.27	276.76
721.60	276.04
721.93	275.30
722.27	274.70
722.60	273.98
722.93	273.27
723.26	272.60
723.59	271.84
723.93	271.16
724.26	270.49
724.59	269.82
724.92	269.22
725.25	268.66
725.59	268.07
725.92	267.51
726.25	266.94
726.58	266.32
726.91	265.71
727.24	265.23
727.57	264.71
727.91	264.07
728.24	263.55
728.57	262.95
728.90	262.40
729.23	261.74
729.56	261.31
729.89	260.74
730.22	260.15
730.55	259.60
730.89	259.06
731.22	258.51
731.55	257.96
731.88	257.46
732.21	256.92
732.54	256.36
732.87	255.82
733.20	255.33
733.53	254.85
733.86	254.38
734.19	253.89
734.52	253.48
734.85	253.18
735.18	252.68
735.51	252.30
735.84	251.87
736.17	251.48
736.50	250.95
736.83	250.80
737.16	250.39
737.49	250.00
737.82	249.58
738.15	249.20
738.48	248.82
738.81	248.42
739.14	247.96
739.47	247.56
739.80	247.18
740.13	246.81
740.46	246.40
740.79	245.98
741.12	245.57
741.45	245.15
741.78	244.71
742.11	244.42
742.44	244.00
742.77	243.69
743.10	243.32
743.43	242.96
743.75	242.33
744.08	242.29
744.41	241.93
744.74	241.58
745.07	241.22
745.40	240.92
745.73	240.64
746.06	240.35
746.39	240.06
746.71	239.70
747.04	239.37
747.37	239.07
747.70	238.83
748.03	238.53
748.36	238.25
748.68	237.96
749.01	237.60
749.34	237.32
749.67	236.99
750.00	236.70
750.33	236.56
750.65	236.32
750.98	235.78
751.31	235.53
751.64	235.29
751.97	235.16
752.29	234.90
752.62	234.54
752.95	234.32
753.28	234.01
753.60	233.80
753.93	233.61
754.26	233.36
754.59	233.04
754.91	232.79
755.24	232.54
755.57	232.30
755.90	232.08
756.22	231.85
756.55	231.61
756.88	231.39
757.20	231.06
757.53	230.79
757.86	230.58
758.19	230.41
758.51	230.19
758.84	229.89
759.17	229.70
759.49	229.54
759.82	229.43
760.15	229.31
760.47	229.13
760.80	228.87
761.13	228.73
761.45	228.59
761.78	228.45
762.11	228.24
762.43	228.05
762.76	227.88
763.08	227.69
763.41	227.53
763.74	227.36
764.06	227.20
764.39	227.04
764.71	226.88
765.04	226.69
765.37	226.52
765.69	226.34
766.02	226.19
766.34	226.06
766.67	225.82
767.00	225.72
767.32	225.69
767.65	225.70
767.97	225.55
768.30	225.40
768.62	225.22
768.95	225.07
769.27	224.91
769.60	224.83
769.92	224.67
770.25	224.56
770.57	224.39
770.90	224.28
771.22	224.14
771.55	224.03
771.87	223.95
772.20	223.82
772.52	223.88
772.85	223.95
773.17	223.85
773.50	223.73
773.82	223.60
774.15	223.38
774.47	223.14
774.80	223.01
775.12	222.91
775.45	222.83
775.77	222.77
776.09	222.71
776.42	222.59
776.74	222.61
777.07	222.50
777.39	222.46
777.72	222.37
778.04	222.31
778.36	222.23
778.69	222.12
779.01	222.06
779.33	221.80
779.66	221.50
779.98	221.41
780.31	221.31
780.63	221.31
780.95	221.26
781.28	221.19
781.60	221.09
781.92	221.04
782.25	220.98
782.57	220.90
782.89	220.84
783.22	220.79
783.54	220.66
783.86	220.58
784.19	220.49
784.51	220.48
784.83	220.40
785.16	220.29
785.48	220.24
785.80	220.18
786.12	220.15
