SpectraSuite Data File
++++++++++++++++++++++++++++++++++++
Date: Tue Jan 29 15:55:24 EST 2013
User: group
Dark Spectrum Present: No
Reference Spectrum Present: No
Number of Sampled Component Spectra: 1
Spectrometers: USB2E7196
Integration Time (usec): 65000 (USB2E7196)
Spectra Averaged: 100 (USB2E7196)
Boxcar Smoothing: 10 (USB2E7196)
Correct for Electrical Dark: No (USB2E7196)
Strobe/Lamp Enabled: No (USB2E7196)
Correct for Detector Non-linearity: No (USB2E7196)
Correct for Stray Light: No (USB2E7196)
Number of Pixels in Processed Spectrum: 2048
>>>>>Begin Processed Spectral Data<<<<<
339.09	0.00
339.48	202.97
339.86	204.86
340.24	205.16
340.63	206.56
341.01	212.16
341.39	209.94
341.78	211.40
342.16	212.35
342.54	212.50
342.93	201.97
343.31	212.19
343.69	212.74
344.07	213.19
344.46	213.68
344.84	214.12
345.22	214.25
345.60	214.51
345.99	214.71
346.37	214.87
346.75	215.00
347.13	215.13
347.52	215.19
347.90	215.32
348.28	215.38
348.66	215.48
349.05	215.46
349.43	215.53
349.81	215.59
350.19	215.66
350.57	215.75
350.96	215.84
351.34	215.99
351.72	216.09
352.10	216.21
352.48	216.25
352.87	216.30
353.25	216.39
353.63	216.48
354.01	216.57
354.39	216.64
354.77	216.73
355.15	216.87
355.54	216.93
355.92	216.95
356.30	217.01
356.68	217.18
357.06	217.26
357.44	217.33
357.82	217.37
358.20	217.46
358.58	217.50
358.97	217.54
359.35	217.58
359.73	217.66
360.11	217.69
360.49	217.79
360.87	217.85
361.25	217.91
361.63	217.99
362.01	218.02
362.39	218.07
362.77	218.15
363.15	218.14
363.53	218.19
363.91	218.24
364.29	218.30
364.67	218.17
365.05	218.21
365.43	218.25
365.81	218.30
366.19	218.37
366.57	218.49
366.95	218.52
367.33	218.47
367.71	218.46
368.09	218.51
368.47	218.50
368.85	218.47
369.23	218.51
369.61	218.44
369.99	218.47
370.37	218.46
370.75	218.50
371.13	218.47
371.51	218.40
371.89	218.37
372.27	218.35
372.65	218.34
373.03	218.29
373.41	218.22
373.78	218.15
374.16	218.01
374.54	217.88
374.92	217.83
375.30	217.81
375.68	217.75
376.06	217.73
376.44	217.66
376.82	217.63
377.19	217.58
377.57	217.51
377.95	217.38
378.33	217.32
378.71	217.12
379.09	217.10
379.47	217.07
379.84	216.98
380.22	216.90
380.60	216.84
380.98	216.78
381.36	216.74
381.73	216.71
382.11	216.74
382.49	216.69
382.87	216.60
383.25	216.57
383.62	216.78
384.00	216.67
384.38	216.63
384.76	216.63
385.13	216.66
385.51	216.64
385.89	216.63
386.27	216.59
386.64	216.59
387.02	216.53
387.40	216.51
387.78	216.48
388.15	216.48
388.53	216.40
388.91	216.37
389.29	216.36
389.66	216.35
390.04	216.26
390.42	216.27
390.79	216.26
391.17	216.24
391.55	216.00
391.92	216.03
392.30	216.05
392.68	216.00
393.05	215.96
393.43	215.97
393.81	215.96
394.18	215.95
394.56	215.99
394.94	216.04
395.31	216.01
395.69	216.12
396.06	216.15
396.44	216.21
396.82	216.22
397.19	216.34
397.57	216.29
397.95	216.35
398.32	216.33
398.70	216.39
399.07	216.45
399.45	216.46
399.82	216.48
400.20	216.53
400.58	216.57
400.95	216.56
401.33	216.68
401.70	216.90
402.08	216.99
402.45	217.07
402.83	217.22
403.20	217.34
403.58	217.42
403.95	217.57
404.33	217.72
404.71	217.89
405.08	218.13
405.46	218.35
405.83	218.56
406.21	218.75
406.58	218.98
406.96	219.21
407.33	219.43
407.70	219.74
408.08	220.18
408.45	220.53
408.83	220.90
409.20	221.21
409.58	221.48
409.95	221.91
410.33	222.38
410.70	222.76
411.08	223.31
411.45	223.84
411.82	224.38
412.20	225.06
412.57	225.84
412.95	226.36
413.32	227.16
413.69	227.94
414.07	228.82
414.44	229.74
414.82	230.70
415.19	231.88
415.56	233.01
415.94	234.12
416.31	235.46
416.68	236.78
417.06	238.32
417.43	239.79
417.81	241.45
418.18	243.16
418.55	245.03
418.93	246.97
419.30	249.00
419.67	251.13
420.04	253.31
420.42	255.56
420.79	258.24
421.16	260.89
421.54	263.68
421.91	266.52
422.28	269.53
422.66	272.69
423.03	275.81
423.40	278.99
423.77	282.44
424.15	285.95
424.52	289.65
424.89	293.63
425.26	297.53
425.64	301.24
426.01	305.28
426.38	309.54
426.75	313.86
427.13	318.37
427.50	323.17
427.87	328.13
428.24	333.11
428.61	337.90
428.99	343.21
429.36	348.94
429.73	354.61
430.10	360.20
430.47	366.00
430.85	372.03
431.22	378.47
431.59	385.28
431.96	391.84
432.33	399.03
432.70	406.01
433.08	414.20
433.45	421.94
433.82	429.63
434.19	438.17
434.56	446.51
434.93	454.50
435.30	462.33
435.68	471.07
436.05	479.69
436.42	488.17
436.79	495.95
437.16	504.41
437.53	513.26
437.90	522.06
438.27	530.59
438.64	539.37
439.01	547.55
439.38	554.81
439.75	561.80
440.13	569.84
440.50	577.41
440.87	583.53
441.24	589.95
441.61	597.02
441.98	602.10
442.35	608.17
442.72	614.18
443.09	620.00
443.46	623.58
443.83	625.95
444.20	628.11
444.57	631.11
444.94	632.42
445.31	633.78
445.68	635.04
446.05	635.67
446.42	634.94
446.79	633.95
447.16	632.86
447.53	632.19
447.90	629.04
448.27	625.84
448.64	621.40
449.01	618.14
449.37	612.42
449.74	607.02
450.11	600.37
450.48	593.28
450.85	586.10
451.22	579.91
451.59	574.04
451.96	568.44
452.33	560.91
452.70	554.11
453.07	546.03
453.43	537.83
453.80	529.91
454.17	522.31
454.54	515.14
454.91	507.32
455.28	499.66
455.65	492.57
456.02	485.55
456.38	479.47
456.75	471.98
457.12	465.85
457.49	459.65
457.86	453.77
458.23	448.70
458.59	443.16
458.96	437.41
459.33	432.42
459.70	427.33
460.07	423.32
460.43	418.74
460.80	414.35
461.17	410.51
461.54	406.47
461.91	402.60
462.27	398.67
462.64	395.37
463.01	391.66
463.38	388.13
463.74	384.50
464.11	381.40
464.48	378.70
464.85	375.70
465.21	373.38
465.58	370.87
465.95	367.84
466.32	365.34
466.68	362.86
467.05	360.33
467.42	357.86
467.78	355.26
468.15	352.82
468.52	351.05
468.88	348.74
469.25	346.69
469.62	344.99
469.98	343.20
470.35	341.56
470.72	340.02
471.08	338.31
471.45	336.95
471.82	335.55
472.18	333.94
472.55	332.78
472.92	331.50
473.28	330.37
473.65	329.33
474.02	328.28
474.38	327.47
474.75	326.79
475.11	326.09
475.48	325.57
475.85	325.17
476.21	324.68
476.58	324.35
476.94	324.17
477.31	323.92
477.67	323.69
478.04	323.55
478.41	323.55
478.77	323.78
479.14	323.75
479.50	323.94
479.87	324.30
480.23	324.62
480.60	324.90
480.96	325.19
481.33	325.78
481.69	326.36
482.06	326.88
482.42	327.39
482.79	327.95
483.15	328.78
483.52	329.68
483.88	330.59
484.25	331.54
484.61	332.52
484.98	333.59
485.34	334.88
485.71	336.21
486.07	337.67
486.44	338.92
486.80	340.52
487.17	342.13
487.53	343.99
487.90	345.91
488.26	347.92
488.62	350.13
488.99	352.14
489.35	354.31
489.72	356.72
490.08	359.23
490.44	361.81
490.81	364.47
491.17	367.19
491.54	370.22
491.90	373.23
492.26	376.47
492.63	379.85
492.99	383.30
493.36	386.99
493.72	390.86
494.08	394.92
494.45	399.12
494.81	403.47
495.17	407.82
495.54	412.47
495.90	417.21
496.26	422.12
496.63	427.37
496.99	432.70
497.35	438.21
497.72	444.01
498.08	449.89
498.44	455.93
498.80	462.29
499.17	468.71
499.53	475.32
499.89	482.13
500.26	489.10
500.62	496.25
500.98	503.63
501.34	511.05
501.71	518.76
502.07	526.53
502.43	534.46
502.79	542.58
503.16	550.88
503.52	559.45
503.88	568.10
504.24	576.95
504.60	586.07
504.97	595.35
505.33	604.57
505.69	614.46
506.05	624.36
506.41	634.19
506.78	644.18
507.14	654.46
507.50	664.92
507.86	675.56
508.22	686.18
508.59	696.78
508.95	707.76
509.31	718.97
509.67	730.42
510.03	741.79
510.39	753.52
510.75	765.27
511.12	777.12
511.48	789.13
511.84	801.27
512.20	813.47
512.56	825.98
512.92	838.60
513.28	851.05
513.64	863.55
514.00	876.17
514.37	889.08
514.73	902.04
515.09	914.81
515.45	927.49
515.81	940.29
516.17	953.44
516.53	966.52
516.89	979.33
517.25	992.29
517.61	1005.61
517.97	1018.71
518.33	1031.72
518.69	1045.07
519.05	1058.58
519.41	1072.13
519.77	1085.86
520.13	1098.93
520.49	1111.92
520.85	1125.06
521.21	1138.29
521.57	1151.80
521.93	1164.54
522.29	1178.16
522.65	1191.58
523.01	1204.96
523.37	1218.04
523.73	1231.01
524.09	1243.89
524.45	1257.03
524.81	1270.08
525.17	1283.13
525.53	1295.96
525.89	1308.90
526.25	1321.65
526.61	1334.13
526.97	1346.76
527.33	1359.24
527.68	1372.21
528.04	1385.26
528.40	1398.02
528.76	1410.88
529.12	1423.40
529.48	1436.26
529.84	1447.98
530.20	1460.45
530.56	1472.72
530.91	1485.53
531.27	1498.10
531.63	1510.50
531.99	1522.96
532.35	1534.97
532.71	1546.87
533.07	1559.32
533.42	1571.18
533.78	1582.97
534.14	1594.69
534.50	1605.55
534.86	1616.65
535.21	1627.26
535.57	1638.45
535.93	1649.37
536.29	1660.03
536.65	1671.05
537.00	1681.60
537.36	1692.63
537.72	1703.17
538.08	1714.08
538.44	1724.62
538.79	1735.32
539.15	1745.72
539.51	1756.09
539.87	1766.91
540.22	1777.41
540.58	1788.02
540.94	1798.42
541.29	1808.30
541.65	1817.65
542.01	1827.85
542.37	1837.58
542.72	1847.35
543.08	1856.71
543.44	1866.86
543.79	1875.84
544.15	1884.96
544.51	1894.71
544.87	1904.11
545.22	1912.85
545.58	1921.29
545.94	1929.83
546.29	1937.98
546.65	1946.08
547.01	1953.77
547.36	1960.92
547.72	1968.30
548.07	1975.40
548.43	1982.90
548.79	1990.32
549.14	1998.10
549.50	2006.12
549.86	2013.67
550.21	2020.76
550.57	2028.12
550.92	2034.57
551.28	2041.78
551.64	2048.69
551.99	2055.93
552.35	2062.85
552.70	2069.39
553.06	2075.85
553.41	2081.79
553.77	2088.15
554.13	2094.33
554.48	2101.22
554.84	2108.28
555.19	2114.63
555.55	2120.94
555.90	2127.07
556.26	2133.72
556.61	2139.57
556.97	2144.25
557.32	2150.01
557.68	2156.22
558.03	2161.98
558.39	2166.97
558.74	2172.77
559.10	2178.34
559.45	2183.73
559.81	2189.18
560.16	2194.75
560.52	2200.60
560.87	2207.05
561.23	2212.93
561.58	2219.45
561.94	2224.72
562.29	2229.60
562.64	2235.78
563.00	2241.37
563.35	2246.96
563.71	2252.79
564.06	2258.54
564.42	2264.55
564.77	2269.52
565.12	2274.74
565.48	2279.94
565.83	2285.67
566.19	2291.26
566.54	2296.59
566.89	2301.22
567.25	2305.83
567.60	2311.64
567.96	2316.88
568.31	2321.41
568.66	2325.62
569.02	2329.71
569.37	2333.47
569.72	2337.80
570.08	2341.33
570.43	2344.59
570.78	2347.59
571.14	2350.21
571.49	2353.44
571.84	2357.19
572.20	2360.17
572.55	2363.29
572.90	2365.77
573.26	2368.80
573.61	2371.53
573.96	2373.90
574.31	2376.15
574.67	2378.30
575.02	2379.18
575.37	2380.88
575.72	2381.87
576.08	2383.53
576.43	2383.70
576.78	2384.47
577.13	2386.29
577.49	2387.66
577.84	2389.04
578.19	2390.89
578.54	2391.87
578.90	2393.01
579.25	2393.28
579.60	2393.62
579.95	2393.25
580.30	2393.44
580.66	2392.98
581.01	2391.49
581.36	2389.46
581.71	2388.39
582.06	2387.56
582.42	2387.07
582.77	2385.30
583.12	2383.96
583.47	2382.86
583.82	2382.65
584.17	2381.79
584.53	2379.98
584.88	2378.30
585.23	2376.96
585.58	2374.91
585.93	2373.13
586.28	2371.14
586.63	2368.82
586.98	2367.02
587.34	2365.51
587.69	2363.46
588.04	2361.70
588.39	2360.50
588.74	2358.35
589.09	2356.01
589.44	2353.12
589.79	2350.97
590.14	2349.24
590.49	2346.72
590.84	2343.29
591.19	2340.56
591.54	2337.68
591.89	2334.00
592.25	2331.03
592.60	2326.89
592.95	2323.20
593.30	2319.44
593.65	2315.19
594.00	2311.08
594.35	2308.31
594.70	2303.81
595.05	2299.53
595.40	2294.30
595.75	2288.89
596.10	2285.50
596.45	2280.73
596.80	2276.46
597.15	2271.40
597.50	2265.51
597.85	2260.74
598.19	2255.59
598.54	2249.89
598.89	2244.78
599.24	2240.34
599.59	2234.30
599.94	2228.79
600.29	2222.88
600.64	2216.78
600.99	2210.24
601.34	2204.79
601.69	2197.62
602.04	2191.34
602.39	2184.83
602.74	2178.89
603.08	2173.43
603.43	2166.99
603.78	2160.30
604.13	2153.21
604.48	2145.99
604.83	2140.11
605.18	2134.04
605.53	2127.36
605.87	2120.55
606.22	2113.84
606.57	2106.04
606.92	2098.19
607.27	2091.27
607.62	2084.75
607.96	2077.96
608.31	2071.54
608.66	2063.84
609.01	2056.53
609.36	2049.60
609.70	2041.95
610.05	2034.36
610.40	2026.10
610.75	2017.96
611.10	2010.34
611.44	2001.68
611.79	1993.19
612.14	1983.10
612.49	1972.45
612.83	1963.16
613.18	1954.03
613.53	1944.73
613.88	1935.32
614.22	1926.95
614.57	1917.23
614.92	1906.65
615.27	1896.52
615.61	1886.55
615.96	1877.05
616.31	1867.57
616.65	1858.10
617.00	1848.36
617.35	1838.66
617.70	1828.97
618.04	1818.92
618.39	1808.71
618.74	1799.05
619.08	1789.46
619.43	1780.88
619.78	1772.80
620.12	1764.05
620.47	1754.32
620.82	1743.99
621.16	1734.04
621.51	1723.94
621.85	1713.79
622.20	1703.33
622.55	1692.66
622.89	1682.79
623.24	1673.17
623.59	1663.31
623.93	1653.10
624.28	1643.35
624.62	1633.20
624.97	1622.88
625.32	1613.07
625.66	1604.38
626.01	1595.58
626.35	1586.08
626.70	1576.01
627.04	1565.81
627.39	1555.78
627.73	1546.44
628.08	1537.47
628.43	1527.85
628.77	1518.64
629.12	1509.84
629.46	1502.12
629.81	1493.78
630.15	1484.20
630.50	1474.21
630.84	1463.61
631.19	1453.78
631.53	1444.45
631.88	1434.21
632.22	1424.26
632.57	1414.82
632.91	1404.54
633.26	1394.60
633.60	1385.01
633.95	1375.71
634.29	1366.17
634.64	1356.74
634.98	1346.86
635.32	1337.55
635.67	1329.05
636.01	1319.73
636.36	1310.04
636.70	1300.44
637.05	1291.06
637.39	1282.02
637.73	1273.41
638.08	1265.96
638.42	1257.76
638.77	1248.86
639.11	1240.63
639.45	1232.79
639.80	1224.21
640.14	1215.51
640.49	1206.65
640.83	1197.91
641.17	1189.73
641.52	1181.54
641.86	1173.03
642.20	1165.03
642.55	1156.39
642.89	1147.57
643.23	1138.89
643.58	1130.76
643.92	1121.74
644.26	1113.08
644.61	1104.72
644.95	1095.90
645.29	1086.53
645.64	1077.37
645.98	1068.89
646.32	1061.00
646.66	1052.48
647.01	1044.12
647.35	1035.89
647.69	1027.53
648.04	1019.18
648.38	1010.33
648.72	1001.60
649.06	993.11
649.41	985.02
649.75	977.12
650.09	969.26
650.43	961.28
650.78	953.04
651.12	945.41
651.46	938.06
651.80	930.75
652.14	923.52
652.49	916.16
652.83	908.69
653.17	901.05
653.51	893.40
653.85	886.17
654.20	878.98
654.54	871.56
654.88	864.40
655.22	857.31
655.56	850.33
655.90	843.64
656.25	837.10
656.59	830.25
656.93	823.29
657.27	816.23
657.61	809.41
657.95	803.31
658.29	797.40
658.64	791.29
658.98	784.94
659.32	778.46
659.66	772.24
660.00	766.06
660.34	760.09
660.68	754.09
661.02	747.81
661.36	742.01
661.70	736.31
662.05	730.74
662.39	725.27
662.73	719.91
663.07	714.56
663.41	709.00
663.75	703.36
664.09	697.79
664.43	692.46
664.77	687.11
665.11	681.41
665.45	675.58
665.79	669.86
666.13	664.27
666.47	658.87
666.81	653.55
667.15	648.28
667.49	643.16
667.83	638.04
668.17	632.92
668.51	627.87
668.85	623.01
669.19	618.12
669.53	613.25
669.87	608.24
670.21	603.54
670.55	598.88
670.89	594.49
671.23	590.22
671.57	585.86
671.91	581.59
672.25	577.47
672.58	573.39
672.92	569.35
673.26	565.50
673.60	561.63
673.94	557.89
674.28	554.31
674.62	550.62
674.96	546.91
675.30	543.48
675.64	539.82
675.97	536.33
676.31	532.87
676.65	529.32
676.99	525.97
677.33	522.23
677.67	518.69
678.01	514.93
678.34	511.36
678.68	507.90
679.02	504.39
679.36	500.69
679.70	497.13
680.04	493.67
680.37	490.30
680.71	487.07
681.05	483.92
681.39	480.77
681.73	477.68
682.06	474.69
682.40	471.61
682.74	468.55
683.08	465.41
683.42	462.28
683.75	459.34
684.09	456.41
684.43	453.64
684.77	450.77
685.10	448.00
685.44	445.16
685.78	442.35
686.12	439.68
686.45	437.07
686.79	434.47
687.13	432.01
687.46	429.48
687.80	426.87
688.14	424.11
688.48	421.56
688.81	418.95
689.15	416.46
689.49	413.95
689.82	411.47
690.16	408.93
690.50	406.55
690.83	404.11
691.17	401.60
691.51	399.24
691.84	397.11
692.18	394.95
692.52	392.82
692.85	390.73
693.19	388.67
693.52	386.57
693.86	384.48
694.20	382.37
694.53	380.27
694.87	378.16
695.21	376.14
695.54	374.06
695.88	372.02
696.21	369.90
696.55	367.84
696.88	365.88
697.22	363.97
697.56	362.17
697.89	360.35
698.23	358.67
698.56	356.93
698.90	355.15
699.23	353.31
699.57	351.50
699.90	349.72
700.24	347.94
700.58	346.24
700.91	344.59
701.25	343.05
701.58	341.49
701.92	339.95
702.25	338.35
702.59	336.79
702.92	335.28
703.26	333.81
703.59	332.42
703.93	331.19
704.26	329.83
704.60	328.37
704.93	326.92
705.26	325.45
705.60	324.05
705.93	322.60
706.27	321.34
706.60	320.12
706.94	318.90
707.27	317.57
707.61	316.32
707.94	315.04
708.27	313.62
708.61	312.24
708.94	310.91
709.28	309.70
709.61	308.51
709.94	307.35
710.28	306.16
710.61	305.03
710.95	303.61
711.28	302.57
711.61	301.46
711.95	300.35
712.28	299.24
712.61	298.07
712.95	297.07
713.28	296.06
713.61	294.92
713.95	293.82
714.28	292.86
714.61	291.84
714.95	290.83
715.28	289.82
715.61	288.81
715.95	287.91
716.28	286.97
716.61	286.06
716.95	285.09
717.28	284.17
717.61	283.23
717.94	282.39
718.28	281.43
718.61	280.56
718.94	279.74
719.27	278.94
719.61	278.17
719.94	277.33
720.27	276.41
720.60	275.60
720.94	274.85
721.27	274.10
721.60	273.43
721.93	272.74
722.27	272.13
722.60	271.52
722.93	270.83
723.26	270.15
723.59	269.41
723.93	268.85
724.26	268.23
724.59	267.57
724.92	267.00
725.25	266.48
725.59	265.93
725.92	265.44
726.25	264.86
726.58	264.28
726.91	263.73
727.24	263.24
727.57	262.69
727.91	262.07
728.24	261.54
728.57	260.99
728.90	260.50
729.23	259.88
729.56	259.45
729.89	258.92
730.22	258.40
730.55	257.92
730.89	257.38
731.22	256.88
731.55	256.39
731.88	255.86
732.21	255.32
732.54	254.78
732.87	254.26
733.20	253.79
733.53	253.31
733.86	252.87
734.19	252.37
734.52	252.04
734.85	251.76
735.18	251.29
735.51	250.94
735.84	250.49
736.17	250.14
736.50	249.66
736.83	249.47
737.16	249.11
737.49	248.76
737.82	248.38
738.15	248.02
738.48	247.67
738.81	247.32
739.14	246.93
739.47	246.57
739.80	246.23
740.13	245.88
740.46	245.50
740.79	245.13
741.12	244.78
741.45	244.35
741.78	243.92
742.11	243.68
742.44	243.25
742.77	242.96
743.10	242.64
743.43	242.30
743.75	241.77
744.08	241.72
744.41	241.34
744.74	241.01
745.07	240.67
745.40	240.40
745.73	240.14
746.06	239.84
746.39	239.57
746.71	239.20
747.04	238.88
747.37	238.60
747.70	238.34
748.03	238.02
748.36	237.76
748.68	237.51
749.01	237.14
749.34	236.87
749.67	236.58
750.00	236.31
750.33	236.19
750.65	235.97
750.98	235.46
751.31	235.27
751.64	235.05
751.97	234.91
752.29	234.62
752.62	234.28
752.95	234.07
753.28	233.78
753.60	233.60
753.93	233.42
754.26	233.21
754.59	232.93
754.91	232.73
755.24	232.52
755.57	232.25
755.90	232.07
756.22	231.87
756.55	231.60
756.88	231.37
757.20	231.02
757.53	230.74
757.86	230.55
758.19	230.33
758.51	230.14
758.84	229.81
759.17	229.63
759.49	229.48
759.82	229.41
760.15	229.26
760.47	229.07
760.80	228.85
761.13	228.70
761.45	228.54
761.78	228.38
762.11	228.22
762.43	228.07
762.76	227.89
763.08	227.76
763.41	227.66
763.74	227.56
764.06	227.42
764.39	227.26
764.71	227.09
765.04	226.91
765.37	226.79
765.69	226.67
766.02	226.56
766.34	226.40
766.67	226.16
767.00	226.08
767.32	226.05
767.65	226.04
767.97	225.92
768.30	225.80
768.62	225.65
768.95	225.52
769.27	225.39
769.60	225.30
769.92	225.14
770.25	225.01
770.57	224.83
770.90	224.73
771.22	224.62
771.55	224.55
771.87	224.47
772.20	224.29
772.52	224.38
772.85	224.49
773.17	224.38
773.50	224.25
773.82	224.13
774.15	223.92
774.47	223.73
774.80	223.60
775.12	223.52
775.45	223.46
775.77	223.36
776.09	223.30
776.42	223.23
776.74	223.19
777.07	223.08
777.39	223.00
777.72	222.87
778.04	222.85
778.36	222.77
778.69	222.69
779.01	222.67
779.33	222.40
779.66	222.13
779.98	222.05
780.31	221.99
780.63	221.97
780.95	221.92
781.28	221.83
781.60	221.73
781.92	221.66
782.25	221.61
782.57	221.54
782.89	221.46
783.22	221.33
783.54	221.21
783.86	221.14
784.19	221.07
784.51	221.08
784.83	220.99
785.16	220.87
785.48	220.81
785.80	220.71
786.12	220.69
