SpectraSuite Data File
++++++++++++++++++++++++++++++++++++
Date: Tue Jan 29 15:54:43 EST 2013
User: group
Dark Spectrum Present: No
Reference Spectrum Present: No
Number of Sampled Component Spectra: 1
Spectrometers: USB2E7196
Integration Time (usec): 65000 (USB2E7196)
Spectra Averaged: 100 (USB2E7196)
Boxcar Smoothing: 10 (USB2E7196)
Correct for Electrical Dark: No (USB2E7196)
Strobe/Lamp Enabled: No (USB2E7196)
Correct for Detector Non-linearity: No (USB2E7196)
Correct for Stray Light: No (USB2E7196)
Number of Pixels in Processed Spectrum: 2048
>>>>>Begin Processed Spectral Data<<<<<
339.09	0.00
339.48	203.35
339.86	204.27
340.24	205.41
340.63	207.78
341.01	211.62
341.39	210.07
341.78	211.71
342.16	212.90
342.54	213.66
342.93	202.28
343.31	212.53
343.69	213.08
344.07	213.55
344.46	214.04
344.84	214.40
345.22	214.58
345.60	214.85
345.99	215.05
346.37	215.16
346.75	215.27
347.13	215.33
347.52	215.43
347.90	215.56
348.28	215.58
348.66	215.66
349.05	215.63
349.43	215.71
349.81	215.76
350.19	215.83
350.57	215.88
350.96	215.97
351.34	216.07
351.72	216.13
352.10	216.23
352.48	216.28
352.87	216.35
353.25	216.42
353.63	216.46
354.01	216.50
354.39	216.60
354.77	216.68
355.15	216.78
355.54	216.80
355.92	216.79
356.30	216.85
356.68	217.02
357.06	217.10
357.44	217.11
357.82	217.14
358.20	217.20
358.58	217.29
358.97	217.34
359.35	217.41
359.73	217.50
360.11	217.54
360.49	217.59
360.87	217.66
361.25	217.72
361.63	217.83
362.01	217.90
362.39	217.93
362.77	217.98
363.15	218.04
363.53	218.10
363.91	218.15
364.29	218.18
364.67	218.04
365.05	218.08
365.43	218.13
365.81	218.20
366.19	218.32
366.57	218.42
366.95	218.42
367.33	218.39
367.71	218.40
368.09	218.42
368.47	218.43
368.85	218.38
369.23	218.43
369.61	218.36
369.99	218.41
370.37	218.41
370.75	218.45
371.13	218.37
371.51	218.32
371.89	218.27
372.27	218.25
372.65	218.24
373.03	218.18
373.41	218.14
373.78	218.10
374.16	217.94
374.54	217.82
374.92	217.74
375.30	217.71
375.68	217.63
376.06	217.63
376.44	217.58
376.82	217.59
377.19	217.54
377.57	217.48
377.95	217.38
378.33	217.34
378.71	217.17
379.09	217.19
379.47	217.19
379.84	217.14
380.22	217.10
380.60	217.00
380.98	216.96
381.36	216.97
381.73	216.87
382.11	216.88
382.49	216.84
382.87	216.79
383.25	216.75
383.62	216.95
384.00	216.86
384.38	216.83
384.76	216.82
385.13	216.87
385.51	216.82
385.89	216.75
386.27	216.69
386.64	216.70
387.02	216.62
387.40	216.55
387.78	216.54
388.15	216.55
388.53	216.56
388.91	216.52
389.29	216.44
389.66	216.48
390.04	216.42
390.42	216.42
390.79	216.44
391.17	216.40
391.55	216.14
391.92	216.14
392.30	216.15
392.68	216.11
393.05	216.07
393.43	216.12
393.81	216.15
394.18	216.17
394.56	216.19
394.94	216.24
395.31	216.21
395.69	216.28
396.06	216.27
396.44	216.30
396.82	216.33
397.19	216.44
397.57	216.44
397.95	216.51
398.32	216.49
398.70	216.54
399.07	216.65
399.45	216.71
399.82	216.74
400.20	216.75
400.58	216.77
400.95	216.74
401.33	216.81
401.70	216.99
402.08	217.05
402.45	217.15
402.83	217.28
403.20	217.39
403.58	217.49
403.95	217.68
404.33	217.82
404.71	217.95
405.08	218.21
405.46	218.41
405.83	218.59
406.21	218.82
406.58	219.05
406.96	219.26
407.33	219.47
407.70	219.76
408.08	220.23
408.45	220.59
408.83	220.96
409.20	221.29
409.58	221.53
409.95	221.98
410.33	222.40
410.70	222.82
411.08	223.39
411.45	223.93
411.82	224.43
412.20	225.11
412.57	225.92
412.95	226.44
413.32	227.22
413.69	228.08
414.07	228.91
414.44	229.83
414.82	230.81
415.19	231.96
415.56	233.11
415.94	234.18
416.31	235.52
416.68	236.89
417.06	238.45
417.43	239.95
417.81	241.58
418.18	243.28
418.55	245.13
418.93	247.06
419.30	249.04
419.67	251.17
420.04	253.34
420.42	255.59
420.79	258.30
421.16	260.96
421.54	263.66
421.91	266.50
422.28	269.45
422.66	272.62
423.03	275.72
423.40	278.98
423.77	282.43
424.15	285.90
424.52	289.54
424.89	293.51
425.26	297.40
425.64	301.12
426.01	305.22
426.38	309.47
426.75	313.80
427.13	318.38
427.50	323.13
427.87	328.09
428.24	333.01
428.61	337.79
428.99	343.05
429.36	348.79
429.73	354.43
430.10	360.08
430.47	365.88
430.85	371.92
431.22	378.26
431.59	385.11
431.96	391.69
432.33	398.84
432.70	405.79
433.08	413.98
433.45	421.70
433.82	429.39
434.19	437.96
434.56	446.32
434.93	454.32
435.30	462.21
435.68	471.01
436.05	479.68
436.42	488.13
436.79	495.89
437.16	504.27
437.53	513.18
437.90	521.92
438.27	530.53
438.64	539.38
439.01	547.57
439.38	554.83
439.75	561.82
440.13	569.93
440.50	577.46
440.87	583.58
441.24	589.94
441.61	596.97
441.98	602.06
442.35	608.08
442.72	614.11
443.09	619.87
443.46	623.40
443.83	625.79
444.20	627.94
444.57	631.00
444.94	632.38
445.31	633.67
445.68	635.00
446.05	635.48
446.42	634.63
446.79	633.68
447.16	632.59
447.53	631.80
447.90	628.58
448.27	625.51
448.64	621.05
449.01	617.86
449.37	612.17
449.74	606.73
450.11	600.12
450.48	592.96
450.85	585.87
451.22	579.60
451.59	573.74
451.96	568.18
452.33	560.57
452.70	553.76
453.07	545.72
453.43	537.45
453.80	529.62
454.17	521.99
454.54	514.82
454.91	507.05
455.28	499.53
455.65	492.47
456.02	485.32
456.38	479.31
456.75	471.89
457.12	465.69
457.49	459.51
457.86	453.65
458.23	448.63
458.59	443.00
458.96	437.36
459.33	432.34
459.70	427.24
460.07	423.24
460.43	418.66
460.80	414.29
461.17	410.54
461.54	406.51
461.91	402.72
462.27	398.77
462.64	395.49
463.01	391.82
463.38	388.31
463.74	384.72
464.11	381.59
464.48	378.76
464.85	375.77
465.21	373.42
465.58	370.94
465.95	367.88
466.32	365.39
466.68	362.86
467.05	360.38
467.42	357.98
467.78	355.42
468.15	352.99
468.52	351.19
468.88	348.81
469.25	346.73
469.62	345.06
469.98	343.30
470.35	341.56
470.72	339.99
471.08	338.31
471.45	336.94
471.82	335.56
472.18	334.03
472.55	332.89
472.92	331.56
473.28	330.36
473.65	329.33
474.02	328.31
474.38	327.49
474.75	326.77
475.11	326.00
475.48	325.52
475.85	325.09
476.21	324.65
476.58	324.34
476.94	324.12
477.31	323.81
477.67	323.56
478.04	323.46
478.41	323.47
478.77	323.59
479.14	323.59
479.50	323.71
479.87	324.07
480.23	324.43
480.60	324.76
480.96	325.10
481.33	325.69
481.69	326.25
482.06	326.85
482.42	327.37
482.79	327.93
483.15	328.75
483.52	329.71
483.88	330.63
484.25	331.54
484.61	332.58
484.98	333.65
485.34	334.93
485.71	336.31
486.07	337.70
486.44	339.06
486.80	340.66
487.17	342.36
487.53	344.16
487.90	346.01
488.26	348.03
488.62	350.20
488.99	352.22
489.35	354.38
489.72	356.75
490.08	359.28
490.44	361.85
490.81	364.52
491.17	367.19
491.54	370.11
491.90	373.19
492.26	376.40
492.63	379.79
492.99	383.33
493.36	387.01
493.72	390.86
494.08	394.85
494.45	399.05
494.81	403.37
495.17	407.84
495.54	412.55
495.90	417.31
496.26	422.22
496.63	427.46
496.99	432.84
497.35	438.38
497.72	444.14
498.08	450.03
498.44	456.11
498.80	462.49
499.17	468.97
499.53	475.66
499.89	482.52
500.26	489.46
500.62	496.49
500.98	503.86
501.34	511.30
501.71	519.00
502.07	526.77
502.43	534.75
502.79	542.81
503.16	551.23
503.52	559.81
503.88	568.51
504.24	577.43
504.60	586.40
504.97	595.57
505.33	604.82
505.69	614.70
506.05	624.54
506.41	634.38
506.78	644.41
507.14	654.57
507.50	664.92
507.86	675.58
508.22	686.24
508.59	696.85
508.95	707.94
509.31	719.15
509.67	730.66
510.03	741.99
510.39	753.68
510.75	765.41
511.12	777.28
511.48	789.19
511.84	801.30
512.20	813.52
512.56	826.02
512.92	838.61
513.28	851.04
513.64	863.66
514.00	876.34
514.37	889.11
514.73	901.99
515.09	914.84
515.45	927.56
515.81	940.49
516.17	953.67
516.53	966.68
516.89	979.56
517.25	992.45
517.61	1005.75
517.97	1018.89
518.33	1031.78
518.69	1045.10
519.05	1058.70
519.41	1072.14
519.77	1085.89
520.13	1099.10
520.49	1112.01
520.85	1125.17
521.21	1138.23
521.57	1151.66
521.93	1164.54
522.29	1178.14
522.65	1191.54
523.01	1204.90
523.37	1217.75
523.73	1230.77
524.09	1243.64
524.45	1256.85
524.81	1269.96
525.17	1283.01
525.53	1295.79
525.89	1308.65
526.25	1321.49
526.61	1333.83
526.97	1346.51
527.33	1359.07
527.68	1371.98
528.04	1385.20
528.40	1397.99
528.76	1410.98
529.12	1423.47
529.48	1436.36
529.84	1448.14
530.20	1460.50
530.56	1472.79
530.91	1485.72
531.27	1498.20
531.63	1510.56
531.99	1522.81
532.35	1534.67
532.71	1546.69
533.07	1559.18
533.42	1571.00
533.78	1582.61
534.14	1594.40
534.50	1605.23
534.86	1616.31
535.21	1626.75
535.57	1637.75
535.93	1648.67
536.29	1659.36
536.65	1670.28
537.00	1680.81
537.36	1691.91
537.72	1702.47
538.08	1713.33
538.44	1723.71
538.79	1734.33
539.15	1744.78
539.51	1755.19
539.87	1766.13
540.22	1776.51
540.58	1787.12
540.94	1797.69
541.29	1807.60
541.65	1817.01
542.01	1827.39
542.37	1837.14
542.72	1846.93
543.08	1856.37
543.44	1866.48
543.79	1875.44
544.15	1884.55
544.51	1894.18
544.87	1903.57
545.22	1912.35
545.58	1920.87
545.94	1929.42
546.29	1937.55
546.65	1945.51
547.01	1953.33
547.36	1960.54
547.72	1967.77
548.07	1974.85
548.43	1982.18
548.79	1989.64
549.14	1997.40
549.50	2005.20
549.86	2012.61
550.21	2019.76
550.57	2027.08
550.92	2033.45
551.28	2040.50
551.64	2047.56
551.99	2054.73
552.35	2061.57
552.70	2068.14
553.06	2074.51
553.41	2080.68
553.77	2086.90
554.13	2093.16
554.48	2100.08
554.84	2106.93
555.19	2113.34
555.55	2119.62
555.90	2125.66
556.26	2132.34
556.61	2138.10
556.97	2142.84
557.32	2148.65
557.68	2155.03
558.03	2160.72
558.39	2165.87
558.74	2171.77
559.10	2177.20
559.45	2182.51
559.81	2187.99
560.16	2193.55
560.52	2199.43
560.87	2205.70
561.23	2211.65
561.58	2218.16
561.94	2223.19
562.29	2228.10
562.64	2234.32
563.00	2240.11
563.35	2245.83
563.71	2251.63
564.06	2257.23
564.42	2263.13
564.77	2268.19
565.12	2273.31
565.48	2278.44
565.83	2283.99
566.19	2289.49
566.54	2294.86
566.89	2299.70
567.25	2304.33
567.60	2309.93
567.96	2314.99
568.31	2319.65
568.66	2323.99
569.02	2327.93
569.37	2331.71
569.72	2335.99
570.08	2339.39
570.43	2342.50
570.78	2345.54
571.14	2348.04
571.49	2351.37
571.84	2355.01
572.20	2357.97
572.55	2361.10
572.90	2363.49
573.26	2366.69
573.61	2369.44
573.96	2371.68
574.31	2373.78
574.67	2375.89
575.02	2377.10
575.37	2378.73
575.72	2379.64
576.08	2381.24
576.43	2381.53
576.78	2382.42
577.13	2384.46
577.49	2385.73
577.84	2387.01
578.19	2388.82
578.54	2389.90
578.90	2390.99
579.25	2391.28
579.60	2391.57
579.95	2391.16
580.30	2391.51
580.66	2390.92
581.01	2389.59
581.36	2387.77
581.71	2386.83
582.06	2385.87
582.42	2385.22
582.77	2383.40
583.12	2382.06
583.47	2381.04
583.82	2381.06
584.17	2380.11
584.53	2378.19
584.88	2376.55
585.23	2375.01
585.58	2372.94
585.93	2371.03
586.28	2369.07
586.63	2366.90
586.98	2365.03
587.34	2363.50
587.69	2361.59
588.04	2359.97
588.39	2358.70
588.74	2356.50
589.09	2354.05
589.44	2351.32
589.79	2349.07
590.14	2347.43
590.49	2344.87
590.84	2341.38
591.19	2338.40
591.54	2335.42
591.89	2331.74
592.25	2328.76
592.60	2324.97
592.95	2321.12
593.30	2317.40
593.65	2313.35
594.00	2309.12
594.35	2306.35
594.70	2301.76
595.05	2297.30
595.40	2292.07
595.75	2286.66
596.10	2283.19
596.45	2278.62
596.80	2274.26
597.15	2269.26
597.50	2263.59
597.85	2258.77
598.19	2253.64
598.54	2247.95
598.89	2242.96
599.24	2238.54
599.59	2232.62
599.94	2226.94
600.29	2221.21
600.64	2215.27
600.99	2208.57
601.34	2203.17
601.69	2196.15
602.04	2190.02
602.39	2183.54
602.74	2177.42
603.08	2171.83
603.43	2165.44
603.78	2158.65
604.13	2151.61
604.48	2144.45
604.83	2138.37
605.18	2132.34
605.53	2125.65
605.87	2118.84
606.22	2112.05
606.57	2104.21
606.92	2096.43
607.27	2089.56
607.62	2082.96
607.96	2076.15
608.31	2069.94
608.66	2062.39
609.01	2054.94
609.36	2047.92
609.70	2040.31
610.05	2032.77
610.40	2024.65
610.75	2016.46
611.10	2008.83
611.44	2000.19
611.79	1991.59
612.14	1981.69
612.49	1971.10
612.83	1961.79
613.18	1952.61
613.53	1943.46
613.88	1933.99
614.22	1925.47
614.57	1915.78
614.92	1905.29
615.27	1895.05
615.61	1884.80
615.96	1875.17
616.31	1865.78
616.65	1856.27
617.00	1846.57
617.35	1836.85
617.70	1827.14
618.04	1817.03
618.39	1806.95
618.74	1797.33
619.08	1787.77
619.43	1779.14
619.78	1771.03
620.12	1762.51
620.47	1752.87
620.82	1742.49
621.16	1732.73
621.51	1722.73
621.85	1712.75
622.20	1702.37
622.55	1691.87
622.89	1682.07
623.24	1672.50
623.59	1662.67
623.93	1652.57
624.28	1642.78
624.62	1632.67
624.97	1622.47
625.32	1612.84
625.66	1603.92
626.01	1595.14
626.35	1585.67
626.70	1575.61
627.04	1565.39
627.39	1555.22
627.73	1545.85
628.08	1536.89
628.43	1527.38
628.77	1518.17
629.12	1509.25
629.46	1501.46
629.81	1493.09
630.15	1483.53
630.50	1473.66
630.84	1463.07
631.19	1453.19
631.53	1443.86
631.88	1433.79
632.22	1423.73
632.57	1414.33
632.91	1404.12
633.26	1394.19
633.60	1384.69
633.95	1375.41
634.29	1366.05
634.64	1356.71
634.98	1346.84
635.32	1337.63
635.67	1328.92
636.01	1319.63
636.36	1309.88
636.70	1300.32
637.05	1290.90
637.39	1281.96
637.73	1273.27
638.08	1265.72
638.42	1257.55
638.77	1248.76
639.11	1240.58
639.45	1232.64
639.80	1224.02
640.14	1215.40
640.49	1206.52
640.83	1197.73
641.17	1189.52
641.52	1181.41
641.86	1172.79
642.20	1164.85
642.55	1156.04
642.89	1147.17
643.23	1138.50
643.58	1130.36
643.92	1121.27
644.26	1112.66
644.61	1104.24
644.95	1095.43
645.29	1086.20
645.64	1076.97
645.98	1068.41
646.32	1060.35
646.66	1051.95
647.01	1043.59
647.35	1035.38
647.69	1027.02
648.04	1018.74
648.38	1009.81
648.72	1000.92
649.06	992.42
649.41	984.28
649.75	976.38
650.09	968.65
650.43	960.70
650.78	952.48
651.12	944.85
651.46	937.55
651.80	930.36
652.14	923.10
652.49	915.73
652.83	908.45
653.17	900.93
653.51	893.32
653.85	886.07
654.20	878.88
654.54	871.47
654.88	864.37
655.22	857.25
655.56	850.33
655.90	843.66
656.25	837.15
656.59	830.43
656.93	823.52
657.27	816.41
657.61	809.50
657.95	803.38
658.29	797.41
658.64	791.15
658.98	784.74
659.32	778.23
659.66	771.96
660.00	765.75
660.34	759.77
660.68	753.68
661.02	747.39
661.36	741.50
661.70	735.79
662.05	730.17
662.39	724.70
662.73	719.34
663.07	714.01
663.41	708.40
663.75	702.65
664.09	697.05
664.43	691.69
664.77	686.43
665.11	680.71
665.45	674.96
665.79	669.36
666.13	663.67
666.47	658.23
666.81	652.88
667.15	647.57
667.49	642.40
667.83	637.28
668.17	632.17
668.51	627.16
668.85	622.29
669.19	617.41
669.53	612.41
669.87	607.44
670.21	602.68
670.55	598.00
670.89	593.64
671.23	589.37
671.57	585.06
671.91	580.76
672.25	576.67
672.58	572.56
672.92	568.51
673.26	564.68
673.60	560.92
673.94	557.15
674.28	553.53
674.62	549.85
674.96	546.16
675.30	542.72
675.64	539.12
675.97	535.61
676.31	532.17
676.65	528.68
676.99	525.42
677.33	521.73
677.67	518.21
678.01	514.47
678.34	510.92
678.68	507.51
679.02	504.05
679.36	500.48
679.70	496.96
680.04	493.49
680.37	490.21
680.71	487.00
681.05	483.93
681.39	480.75
681.73	477.64
682.06	474.69
682.40	471.64
682.74	468.55
683.08	465.46
683.42	462.31
683.75	459.39
684.09	456.31
684.43	453.54
684.77	450.69
685.10	447.91
685.44	445.12
685.78	442.23
686.12	439.53
686.45	436.90
686.79	434.30
687.13	431.86
687.46	429.24
687.80	426.61
688.14	423.84
688.48	421.34
688.81	418.74
689.15	416.22
689.49	413.71
689.82	411.21
690.16	408.63
690.50	406.30
690.83	403.86
691.17	401.44
691.51	399.07
691.84	396.92
692.18	394.76
692.52	392.60
692.85	390.57
693.19	388.44
693.52	386.37
693.86	384.21
694.20	382.07
694.53	380.00
694.87	377.88
695.21	375.84
695.54	373.78
695.88	371.70
696.21	369.56
696.55	367.50
696.88	365.54
697.22	363.65
697.56	361.78
697.89	359.94
698.23	358.24
698.56	356.48
698.90	354.73
699.23	352.90
699.57	351.07
699.90	349.25
700.24	347.53
700.58	345.83
700.91	344.24
701.25	342.70
701.58	341.15
701.92	339.63
702.25	338.08
702.59	336.51
702.92	334.96
703.26	333.47
703.59	332.08
703.93	330.81
704.26	329.44
704.60	328.02
704.93	326.61
705.26	325.17
705.60	323.76
705.93	322.30
706.27	321.03
706.60	319.86
706.94	318.68
707.27	317.35
707.61	316.06
707.94	314.75
708.27	313.29
708.61	311.91
708.94	310.56
709.28	309.27
709.61	308.07
709.94	306.97
710.28	305.83
710.61	304.67
710.95	303.34
711.28	302.31
711.61	301.15
711.95	300.07
712.28	298.92
712.61	297.78
712.95	296.80
713.28	295.79
713.61	294.64
713.95	293.52
714.28	292.53
714.61	291.52
714.95	290.60
715.28	289.63
715.61	288.64
715.95	287.71
716.28	286.82
716.61	285.93
716.95	284.96
717.28	284.07
717.61	283.14
717.94	282.27
718.28	281.27
718.61	280.40
718.94	279.54
719.27	278.73
719.61	277.94
719.94	277.08
720.27	276.14
720.60	275.31
720.94	274.57
721.27	273.85
721.60	273.15
721.93	272.42
722.27	271.85
722.60	271.26
722.93	270.58
723.26	269.94
723.59	269.23
723.93	268.62
724.26	268.03
724.59	267.41
724.92	266.84
725.25	266.34
725.59	265.81
725.92	265.29
726.25	264.74
726.58	264.21
726.91	263.64
727.24	263.17
727.57	262.63
727.91	262.01
728.24	261.49
728.57	260.95
728.90	260.43
729.23	259.82
729.56	259.38
729.89	258.90
730.22	258.34
730.55	257.83
730.89	257.34
731.22	256.82
731.55	256.35
731.88	255.86
732.21	255.31
732.54	254.79
732.87	254.30
733.20	253.81
733.53	253.32
733.86	252.91
734.19	252.42
734.52	252.08
734.85	251.81
735.18	251.35
735.51	250.98
735.84	250.58
736.17	250.23
736.50	249.72
736.83	249.55
737.16	249.22
737.49	248.88
737.82	248.48
738.15	248.14
738.48	247.75
738.81	247.38
739.14	247.00
739.47	246.66
739.80	246.34
740.13	246.06
740.46	245.72
740.79	245.37
741.12	245.04
741.45	244.64
741.78	244.26
742.11	244.00
742.44	243.62
742.77	243.31
743.10	242.97
743.43	242.63
743.75	242.08
744.08	242.00
744.41	241.64
744.74	241.34
745.07	240.97
745.40	240.69
745.73	240.42
746.06	240.12
746.39	239.81
746.71	239.46
747.04	239.11
747.37	238.78
747.70	238.48
748.03	238.19
748.36	237.96
748.68	237.67
749.01	237.31
749.34	237.04
749.67	236.77
750.00	236.51
750.33	236.39
750.65	236.16
750.98	235.66
751.31	235.43
751.64	235.21
751.97	235.12
752.29	234.88
752.62	234.56
752.95	234.28
753.28	234.03
753.60	233.82
753.93	233.66
754.26	233.49
754.59	233.24
754.91	233.01
755.24	232.74
755.57	232.49
755.90	232.30
756.22	232.10
756.55	231.87
756.88	231.63
757.20	231.31
757.53	231.06
757.86	230.85
758.19	230.69
758.51	230.47
758.84	230.17
759.17	229.95
759.49	229.83
759.82	229.77
760.15	229.64
760.47	229.46
760.80	229.22
761.13	229.04
761.45	228.85
761.78	228.68
762.11	228.55
762.43	228.36
762.76	228.15
763.08	227.98
763.41	227.85
763.74	227.70
764.06	227.55
764.39	227.42
764.71	227.26
765.04	227.11
765.37	226.94
765.69	226.79
766.02	226.66
766.34	226.51
766.67	226.31
767.00	226.19
767.32	226.16
767.65	226.12
767.97	225.97
768.30	225.85
768.62	225.72
768.95	225.57
769.27	225.43
769.60	225.38
769.92	225.24
770.25	225.07
770.57	224.92
770.90	224.81
771.22	224.66
771.55	224.57
771.87	224.45
772.20	224.34
772.52	224.41
772.85	224.53
773.17	224.45
773.50	224.31
773.82	224.21
774.15	224.02
774.47	223.82
774.80	223.75
775.12	223.66
775.45	223.59
775.77	223.53
776.09	223.50
776.42	223.38
776.74	223.36
777.07	223.27
777.39	223.21
777.72	223.10
778.04	223.08
778.36	222.99
778.69	222.91
779.01	222.86
779.33	222.60
779.66	222.31
779.98	222.20
780.31	222.14
780.63	222.15
780.95	222.13
781.28	222.07
781.60	221.97
781.92	221.89
782.25	221.79
782.57	221.71
782.89	221.62
783.22	221.57
783.54	221.48
783.86	221.44
784.19	221.37
784.51	221.37
784.83	221.26
785.16	221.18
785.48	221.13
785.80	221.08
786.12	221.04
