SpectraSuite Data File
++++++++++++++++++++++++++++++++++++
Date: Tue Jan 29 16:03:27 EST 2013
User: group
Dark Spectrum Present: No
Reference Spectrum Present: No
Number of Sampled Component Spectra: 1
Spectrometers: USB2E7196
Integration Time (usec): 65000 (USB2E7196)
Spectra Averaged: 100 (USB2E7196)
Boxcar Smoothing: 10 (USB2E7196)
Correct for Electrical Dark: No (USB2E7196)
Strobe/Lamp Enabled: No (USB2E7196)
Correct for Detector Non-linearity: No (USB2E7196)
Correct for Stray Light: No (USB2E7196)
Number of Pixels in Processed Spectrum: 2048
>>>>>Begin Processed Spectral Data<<<<<
339.09	0.00
339.48	203.24
339.86	203.99
340.24	205.88
340.63	207.49
341.01	212.04
341.39	210.12
341.78	211.68
342.16	212.88
342.54	212.94
342.93	202.17
343.31	212.39
343.69	212.91
344.07	213.41
344.46	213.86
344.84	214.22
345.22	214.38
345.60	214.60
345.99	214.76
346.37	214.90
346.75	215.02
347.13	215.08
347.52	215.15
347.90	215.26
348.28	215.31
348.66	215.43
349.05	215.39
349.43	215.45
349.81	215.48
350.19	215.53
350.57	215.54
350.96	215.60
351.34	215.67
351.72	215.76
352.10	215.85
352.48	215.87
352.87	215.93
353.25	215.97
353.63	216.06
354.01	216.12
354.39	216.19
354.77	216.23
355.15	216.35
355.54	216.41
355.92	216.39
356.30	216.45
356.68	216.62
357.06	216.71
357.44	216.73
357.82	216.82
358.20	216.90
358.58	216.99
358.97	217.06
359.35	217.15
359.73	217.28
360.11	217.30
360.49	217.39
360.87	217.44
361.25	217.54
361.63	217.64
362.01	217.72
362.39	217.72
362.77	217.75
363.15	217.78
363.53	217.78
363.91	217.78
364.29	217.78
364.67	217.58
365.05	217.57
365.43	217.63
365.81	217.63
366.19	217.70
366.57	217.79
366.95	217.79
367.33	217.73
367.71	217.68
368.09	217.74
368.47	217.74
368.85	217.71
369.23	217.74
369.61	217.66
369.99	217.67
370.37	217.70
370.75	217.82
371.13	217.74
371.51	217.72
371.89	217.76
372.27	217.76
372.65	217.75
373.03	217.76
373.41	217.71
373.78	217.68
374.16	217.57
374.54	217.46
374.92	217.39
375.30	217.37
375.68	217.32
376.06	217.27
376.44	217.20
376.82	217.21
377.19	217.13
377.57	217.08
377.95	216.98
378.33	216.94
378.71	216.78
379.09	216.80
379.47	216.78
379.84	216.72
380.22	216.65
380.60	216.57
380.98	216.49
381.36	216.46
381.73	216.38
382.11	216.38
382.49	216.34
382.87	216.31
383.25	216.26
383.62	216.45
384.00	216.39
384.38	216.34
384.76	216.33
385.13	216.37
385.51	216.37
385.89	216.34
386.27	216.28
386.64	216.28
387.02	216.23
387.40	216.17
387.78	216.14
388.15	216.11
388.53	216.13
388.91	216.12
389.29	216.09
389.66	216.13
390.04	216.07
390.42	216.08
390.79	216.08
391.17	216.06
391.55	215.80
391.92	215.79
392.30	215.81
392.68	215.77
393.05	215.74
393.43	215.73
393.81	215.70
394.18	215.69
394.56	215.70
394.94	215.73
395.31	215.76
395.69	215.83
396.06	215.91
396.44	215.93
396.82	215.94
397.19	216.07
397.57	216.06
397.95	216.12
398.32	216.10
398.70	216.14
399.07	216.27
399.45	216.33
399.82	216.40
400.20	216.44
400.58	216.49
400.95	216.46
401.33	216.56
401.70	216.81
402.08	216.90
402.45	216.98
402.83	217.09
403.20	217.19
403.58	217.28
403.95	217.39
404.33	217.57
404.71	217.71
405.08	217.95
405.46	218.11
405.83	218.31
406.21	218.52
406.58	218.73
406.96	218.92
407.33	219.18
407.70	219.46
408.08	219.91
408.45	220.26
408.83	220.65
409.20	220.96
409.58	221.21
409.95	221.66
410.33	222.10
410.70	222.52
411.08	223.08
411.45	223.61
411.82	224.16
412.20	224.79
412.57	225.60
412.95	226.13
413.32	226.95
413.69	227.70
414.07	228.59
414.44	229.54
414.82	230.49
415.19	231.63
415.56	232.73
415.94	233.86
416.31	235.23
416.68	236.59
417.06	238.15
417.43	239.64
417.81	241.32
418.18	243.09
418.55	244.96
418.93	246.90
419.30	248.98
419.67	251.13
420.04	253.30
420.42	255.57
420.79	258.31
421.16	261.00
421.54	263.84
421.91	266.73
422.28	269.69
422.66	272.86
423.03	275.99
423.40	279.27
423.77	282.76
424.15	286.24
424.52	289.91
424.89	293.94
425.26	297.86
425.64	301.60
426.01	305.67
426.38	309.97
426.75	314.37
427.13	318.92
427.50	323.73
427.87	328.80
428.24	333.83
428.61	338.67
428.99	343.95
429.36	349.77
429.73	355.37
430.10	361.05
430.47	366.93
430.85	373.02
431.22	379.44
431.59	386.35
431.96	392.98
432.33	400.28
432.70	407.26
433.08	415.47
433.45	423.23
433.82	431.01
434.19	439.59
434.56	448.01
434.93	456.05
435.30	464.07
435.68	472.87
436.05	481.50
436.42	490.07
436.79	497.97
437.16	506.37
437.53	515.42
437.90	524.25
438.27	532.85
438.64	541.74
439.01	550.04
439.38	557.27
439.75	564.33
440.13	572.43
440.50	580.08
440.87	586.35
441.24	592.83
441.61	599.82
441.98	605.04
442.35	611.11
442.72	617.15
443.09	622.90
443.46	626.49
443.83	628.91
444.20	630.95
444.57	633.95
444.94	635.33
445.31	636.66
445.68	637.96
446.05	638.58
446.42	637.80
446.79	636.81
447.16	635.82
447.53	635.01
447.90	631.77
448.27	628.58
448.64	624.01
449.01	620.64
449.37	614.99
449.74	609.45
450.11	602.74
450.48	595.63
450.85	588.49
451.22	582.21
451.59	576.32
451.96	570.74
452.33	563.19
452.70	556.34
453.07	548.18
453.43	539.96
453.80	531.99
454.17	524.28
454.54	517.08
454.91	509.16
455.28	501.53
455.65	494.40
456.02	487.28
456.38	481.20
456.75	473.78
457.12	467.46
457.49	461.29
457.86	455.39
458.23	450.25
458.59	444.57
458.96	438.87
459.33	433.79
459.70	428.62
460.07	424.51
460.43	419.84
460.80	415.45
461.17	411.59
461.54	407.55
461.91	403.70
462.27	399.66
462.64	396.37
463.01	392.74
463.38	389.19
463.74	385.59
464.11	382.47
464.48	379.71
464.85	376.76
465.21	374.39
465.58	371.86
465.95	368.84
466.32	366.31
466.68	363.80
467.05	361.28
467.42	358.85
467.78	356.30
468.15	353.86
468.52	352.05
468.88	349.61
469.25	347.49
469.62	345.77
469.98	343.92
470.35	342.23
470.72	340.60
471.08	338.88
471.45	337.45
471.82	335.98
472.18	334.39
472.55	333.30
472.92	331.94
473.28	330.81
473.65	329.73
474.02	328.70
474.38	327.87
474.75	327.19
475.11	326.44
475.48	325.92
475.85	325.51
476.21	325.04
476.58	324.74
476.94	324.55
477.31	324.31
477.67	324.17
478.04	324.04
478.41	324.04
478.77	324.23
479.14	324.21
479.50	324.37
479.87	324.69
480.23	324.95
480.60	325.22
480.96	325.47
481.33	326.12
481.69	326.70
482.06	327.24
482.42	327.72
482.79	328.34
483.15	329.15
483.52	330.13
483.88	331.05
484.25	332.02
484.61	333.01
484.98	334.08
485.34	335.32
485.71	336.71
486.07	338.15
486.44	339.45
486.80	341.09
487.17	342.78
487.53	344.59
487.90	346.49
488.26	348.54
488.62	350.69
488.99	352.68
489.35	354.79
489.72	357.17
490.08	359.72
490.44	362.22
490.81	364.91
491.17	367.58
491.54	370.55
491.90	373.57
492.26	376.84
492.63	380.24
492.99	383.74
493.36	387.41
493.72	391.24
494.08	395.26
494.45	399.43
494.81	403.76
495.17	408.21
495.54	412.92
495.90	417.71
496.26	422.67
496.63	427.91
496.99	433.28
497.35	438.82
497.72	444.61
498.08	450.54
498.44	456.57
498.80	462.98
499.17	469.40
499.53	476.04
499.89	482.93
500.26	489.85
500.62	496.88
500.98	504.21
501.34	511.72
501.71	519.50
502.07	527.32
502.43	535.32
502.79	543.42
503.16	551.71
503.52	560.27
503.88	568.86
504.24	577.73
504.60	586.73
504.97	595.95
505.33	605.17
505.69	615.00
506.05	624.87
506.41	634.65
506.78	644.73
507.14	655.01
507.50	665.32
507.86	675.95
508.22	686.66
508.59	697.37
508.95	708.36
509.31	719.52
509.67	730.86
510.03	742.29
510.39	754.07
510.75	765.95
511.12	777.74
511.48	789.88
511.84	802.05
512.20	814.40
512.56	826.91
512.92	839.67
513.28	852.21
513.64	864.89
514.00	877.73
514.37	890.56
514.73	903.59
515.09	916.53
515.45	929.28
515.81	942.31
516.17	955.46
516.53	968.52
516.89	981.53
517.25	994.70
517.61	1007.97
517.97	1021.06
518.33	1034.02
518.69	1047.47
519.05	1060.91
519.41	1074.41
519.77	1088.05
520.13	1101.12
520.49	1114.11
520.85	1127.31
521.21	1140.45
521.57	1153.85
521.93	1166.74
522.29	1180.33
522.65	1193.81
523.01	1207.29
523.37	1220.18
523.73	1233.33
524.09	1246.27
524.45	1259.41
524.81	1272.54
525.17	1285.60
525.53	1298.58
525.89	1311.60
526.25	1324.50
526.61	1337.03
526.97	1349.89
527.33	1362.58
527.68	1375.85
528.04	1389.04
528.40	1401.89
528.76	1414.92
529.12	1427.59
529.48	1440.60
529.84	1452.50
530.20	1464.93
530.56	1477.30
530.91	1490.35
531.27	1502.94
531.63	1515.53
531.99	1527.99
532.35	1539.90
532.71	1552.05
533.07	1564.50
533.42	1576.46
533.78	1588.27
534.14	1600.18
534.50	1611.12
534.86	1622.46
535.21	1633.09
535.57	1644.20
535.93	1655.31
536.29	1666.11
536.65	1677.14
537.00	1687.93
537.36	1698.89
537.72	1709.57
538.08	1720.54
538.44	1731.14
538.79	1741.80
539.15	1752.31
539.51	1762.79
539.87	1773.91
540.22	1784.49
540.58	1795.18
540.94	1805.64
541.29	1815.47
541.65	1825.01
542.01	1835.32
542.37	1844.94
542.72	1854.89
543.08	1864.39
543.44	1874.42
543.79	1883.48
544.15	1892.71
544.51	1902.36
544.87	1911.99
545.22	1920.87
545.58	1929.58
545.94	1938.11
546.29	1946.42
546.65	1954.48
547.01	1962.47
547.36	1969.78
547.72	1977.17
548.07	1984.64
548.43	1992.20
548.79	1999.93
549.14	2007.83
549.50	2015.85
549.86	2023.40
550.21	2030.46
550.57	2037.81
550.92	2044.41
551.28	2051.75
551.64	2058.86
551.99	2066.19
552.35	2073.26
552.70	2079.96
553.06	2086.34
553.41	2092.52
553.77	2098.79
554.13	2105.00
554.48	2111.83
554.84	2118.81
555.19	2125.22
555.55	2131.69
555.90	2137.89
556.26	2144.41
556.61	2150.12
556.97	2154.98
557.32	2160.96
557.68	2167.39
558.03	2173.23
558.39	2178.23
558.74	2184.01
559.10	2189.62
559.45	2194.95
559.81	2200.36
560.16	2205.96
560.52	2211.92
560.87	2218.26
561.23	2224.25
561.58	2230.93
561.94	2236.13
562.29	2240.93
562.64	2247.16
563.00	2252.48
563.35	2258.10
563.71	2264.04
564.06	2269.75
564.42	2275.66
564.77	2280.79
565.12	2285.93
565.48	2291.09
565.83	2296.83
566.19	2302.45
566.54	2307.70
566.89	2312.55
567.25	2317.20
567.60	2323.01
567.96	2328.15
568.31	2332.84
568.66	2337.07
569.02	2341.01
569.37	2344.78
569.72	2349.21
570.08	2352.69
570.43	2355.90
570.78	2359.02
571.14	2361.71
571.49	2365.02
571.84	2368.73
572.20	2371.53
572.55	2374.75
572.90	2377.10
573.26	2380.12
573.61	2382.52
573.96	2384.93
574.31	2386.84
574.67	2388.91
575.02	2389.77
575.37	2391.19
575.72	2392.13
576.08	2393.90
576.43	2394.21
576.78	2395.08
577.13	2397.05
577.49	2398.24
577.84	2399.84
578.19	2401.59
578.54	2402.39
578.90	2403.58
579.25	2403.63
579.60	2403.90
579.95	2403.45
580.30	2403.91
580.66	2403.36
581.01	2402.08
581.36	2399.93
581.71	2399.02
582.06	2398.26
582.42	2397.59
582.77	2395.80
583.12	2394.38
583.47	2393.22
583.82	2392.90
584.17	2391.86
584.53	2389.76
584.88	2388.05
585.23	2386.08
585.58	2383.87
585.93	2381.89
586.28	2379.81
586.63	2377.68
586.98	2375.65
587.34	2373.81
587.69	2371.68
588.04	2370.03
588.39	2368.73
588.74	2366.48
589.09	2363.97
589.44	2361.00
589.79	2358.86
590.14	2356.98
590.49	2354.36
590.84	2350.85
591.19	2348.13
591.54	2344.98
591.89	2341.12
592.25	2338.04
592.60	2334.11
592.95	2330.05
593.30	2326.14
593.65	2321.90
594.00	2317.64
594.35	2314.70
594.70	2310.28
595.05	2305.63
595.40	2300.18
595.75	2294.62
596.10	2291.01
596.45	2286.24
596.80	2281.73
597.15	2276.45
597.50	2270.73
597.85	2265.86
598.19	2260.65
598.54	2254.87
598.89	2249.99
599.24	2245.59
599.59	2239.70
599.94	2234.11
600.29	2228.46
600.64	2222.63
600.99	2215.97
601.34	2210.68
601.69	2203.75
602.04	2197.40
602.39	2191.13
602.74	2185.22
603.08	2179.80
603.43	2173.41
603.78	2166.78
604.13	2159.75
604.48	2152.72
604.83	2146.86
605.18	2140.61
605.53	2133.69
605.87	2126.74
606.22	2119.96
606.57	2112.11
606.92	2104.22
607.27	2097.38
607.62	2090.74
607.96	2083.90
608.31	2077.45
608.66	2069.63
609.01	2062.22
609.36	2055.07
609.70	2047.40
610.05	2039.70
610.40	2031.55
610.75	2023.36
611.10	2015.66
611.44	2007.07
611.79	1998.41
612.14	1988.33
612.49	1977.87
612.83	1968.83
613.18	1959.65
613.53	1950.29
613.88	1940.71
614.22	1932.16
614.57	1922.21
614.92	1911.78
615.27	1901.68
615.61	1891.74
615.96	1882.16
616.31	1872.60
616.65	1863.34
617.00	1853.35
617.35	1843.71
617.70	1833.90
618.04	1823.80
618.39	1813.43
618.74	1803.66
619.08	1794.03
619.43	1785.48
619.78	1777.23
620.12	1768.43
620.47	1758.65
620.82	1748.30
621.16	1738.53
621.51	1728.59
621.85	1718.76
622.20	1708.24
622.55	1697.54
622.89	1687.65
623.24	1677.91
623.59	1668.10
623.93	1657.94
624.28	1648.28
624.62	1638.14
624.97	1627.77
625.32	1618.14
625.66	1609.39
626.01	1600.45
626.35	1590.88
626.70	1580.64
627.04	1570.55
627.39	1560.46
627.73	1551.22
628.08	1542.20
628.43	1532.63
628.77	1523.29
629.12	1514.38
629.46	1506.45
629.81	1498.05
630.15	1488.45
630.50	1478.56
630.84	1468.14
631.19	1458.26
631.53	1448.79
631.88	1438.54
632.22	1428.56
632.57	1419.11
632.91	1408.89
633.26	1399.09
633.60	1389.62
633.95	1380.33
634.29	1370.90
634.64	1361.53
634.98	1351.59
635.32	1342.26
635.67	1333.75
636.01	1324.57
636.36	1314.74
636.70	1305.27
637.05	1295.88
637.39	1286.84
637.73	1278.21
638.08	1270.68
638.42	1262.39
638.77	1253.62
639.11	1245.51
639.45	1237.67
639.80	1228.97
640.14	1220.37
640.49	1211.41
640.83	1202.67
641.17	1194.60
641.52	1186.30
641.86	1177.67
642.20	1169.84
642.55	1161.22
642.89	1152.34
643.23	1143.55
643.58	1135.42
643.92	1126.40
644.26	1117.71
644.61	1109.31
644.95	1100.47
645.29	1091.02
645.64	1081.81
645.98	1073.51
646.32	1065.43
646.66	1056.90
647.01	1048.51
647.35	1040.33
647.69	1032.01
648.04	1023.64
648.38	1014.64
648.72	1005.91
649.06	997.45
649.41	989.20
649.75	981.22
650.09	973.30
650.43	965.28
650.78	957.12
651.12	949.43
651.46	942.16
651.80	934.83
652.14	927.58
652.49	920.23
652.83	912.94
653.17	905.23
653.51	897.68
653.85	890.49
654.20	883.27
654.54	875.74
654.88	868.66
655.22	861.48
655.56	854.54
655.90	847.77
656.25	841.23
656.59	834.28
656.93	827.25
657.27	820.15
657.61	813.29
657.95	807.23
658.29	801.43
658.64	795.21
658.98	788.89
659.32	782.29
659.66	775.99
660.00	769.67
660.34	763.55
660.68	757.51
661.02	751.20
661.36	745.34
661.70	739.57
662.05	733.84
662.39	728.40
662.73	723.00
663.07	717.67
663.41	712.07
663.75	706.46
664.09	700.97
664.43	695.69
664.77	690.39
665.11	684.52
665.45	678.61
665.79	672.90
666.13	667.18
666.47	661.78
666.81	656.45
667.15	651.15
667.49	646.07
667.83	640.83
668.17	635.67
668.51	630.61
668.85	625.78
669.19	620.94
669.53	615.88
669.87	610.89
670.21	606.22
670.55	601.50
670.89	597.26
671.23	592.99
671.57	588.59
671.91	584.38
672.25	580.34
672.58	576.21
672.92	572.16
673.26	568.32
673.60	564.49
673.94	560.77
674.28	557.19
674.62	553.49
674.96	549.75
675.30	546.30
675.64	542.74
675.97	539.19
676.31	535.67
676.65	532.18
676.99	528.79
677.33	524.99
677.67	521.38
678.01	517.48
678.34	513.84
678.68	510.36
679.02	506.76
679.36	503.11
679.70	499.56
680.04	496.11
680.37	492.76
680.71	489.58
681.05	486.38
681.39	483.27
681.73	480.15
682.06	477.23
682.40	474.17
682.74	470.99
683.08	467.82
683.42	464.73
683.75	461.83
684.09	458.84
684.43	456.02
684.77	453.16
685.10	450.38
685.44	447.56
685.78	444.74
686.12	442.05
686.45	439.37
686.79	436.82
687.13	434.26
687.46	431.66
687.80	429.01
688.14	426.21
688.48	423.61
688.81	420.94
689.15	418.41
689.49	415.82
689.82	413.38
690.16	410.85
690.50	408.41
690.83	405.92
691.17	403.44
691.51	401.09
691.84	398.91
692.18	396.74
692.52	394.55
692.85	392.43
693.19	390.29
693.52	388.12
693.86	385.89
694.20	383.82
694.53	381.69
694.87	379.47
695.21	377.40
695.54	375.27
695.88	373.21
696.21	371.02
696.55	368.96
696.88	366.95
697.22	365.04
697.56	363.19
697.89	361.39
698.23	359.70
698.56	357.93
698.90	356.18
699.23	354.27
699.57	352.45
699.90	350.62
700.24	348.87
700.58	347.19
700.91	345.58
701.25	344.02
701.58	342.49
701.92	340.97
702.25	339.43
702.59	337.87
702.92	336.36
703.26	334.88
703.59	333.44
703.93	332.19
704.26	330.80
704.60	329.33
704.93	327.87
705.26	326.35
705.60	324.92
705.93	323.48
706.27	322.22
706.60	321.00
706.94	319.75
707.27	318.43
707.61	317.10
707.94	315.79
708.27	314.30
708.61	312.91
708.94	311.58
709.28	310.37
709.61	309.12
709.94	307.91
710.28	306.72
710.61	305.58
710.95	304.16
711.28	303.10
711.61	301.89
711.95	300.80
712.28	299.66
712.61	298.50
712.95	297.43
713.28	296.40
713.61	295.28
713.95	294.19
714.28	293.21
714.61	292.22
714.95	291.24
715.28	290.26
715.61	289.27
715.95	288.34
716.28	287.35
716.61	286.41
716.95	285.47
717.28	284.54
717.61	283.62
717.94	282.76
718.28	281.74
718.61	280.91
718.94	280.05
719.27	279.23
719.61	278.47
719.94	277.59
720.27	276.63
720.60	275.83
720.94	275.09
721.27	274.32
721.60	273.67
721.93	272.96
722.27	272.37
722.60	271.70
722.93	271.00
723.26	270.41
723.59	269.77
723.93	269.16
724.26	268.55
724.59	267.90
724.92	267.37
725.25	266.90
725.59	266.36
725.92	265.81
726.25	265.26
726.58	264.68
726.91	264.16
727.24	263.67
727.57	263.12
727.91	262.55
728.24	262.05
728.57	261.44
728.90	260.92
729.23	260.31
729.56	259.89
729.89	259.38
730.22	258.80
730.55	258.28
730.89	257.77
731.22	257.26
731.55	256.77
731.88	256.29
732.21	255.78
732.54	255.29
732.87	254.79
733.20	254.33
733.53	253.86
733.86	253.41
734.19	252.98
734.52	252.58
734.85	252.27
735.18	251.81
735.51	251.46
735.84	251.04
736.17	250.66
736.50	250.14
736.83	250.00
737.16	249.65
737.49	249.28
737.82	248.89
738.15	248.56
738.48	248.19
738.81	247.76
739.14	247.33
739.47	246.92
739.80	246.58
740.13	246.21
740.46	245.82
740.79	245.48
741.12	245.07
741.45	244.72
741.78	244.32
742.11	244.01
742.44	243.66
742.77	243.36
743.10	243.01
743.43	242.67
743.75	242.11
744.08	242.00
744.41	241.62
744.74	241.27
745.07	240.89
745.40	240.64
745.73	240.39
746.06	240.08
746.39	239.83
746.71	239.50
747.04	239.15
747.37	238.86
747.70	238.56
748.03	238.32
748.36	238.04
748.68	237.72
749.01	237.41
749.34	237.11
749.67	236.84
750.00	236.60
750.33	236.49
750.65	236.24
750.98	235.77
751.31	235.55
751.64	235.34
751.97	235.23
752.29	234.93
752.62	234.56
752.95	234.33
753.28	234.03
753.60	233.80
753.93	233.69
754.26	233.49
754.59	233.21
754.91	232.95
755.24	232.70
755.57	232.45
755.90	232.19
756.22	231.92
756.55	231.65
756.88	231.41
757.20	231.06
757.53	230.80
757.86	230.60
758.19	230.42
758.51	230.18
758.84	229.90
759.17	229.74
759.49	229.60
759.82	229.49
760.15	229.35
760.47	229.17
760.80	228.91
761.13	228.75
761.45	228.57
761.78	228.41
762.11	228.24
762.43	228.08
762.76	227.95
763.08	227.85
763.41	227.70
763.74	227.57
764.06	227.42
764.39	227.27
764.71	227.10
765.04	226.95
765.37	226.81
765.69	226.66
766.02	226.48
766.34	226.33
766.67	226.18
767.00	226.11
767.32	226.09
767.65	226.10
767.97	225.96
768.30	225.88
768.62	225.75
768.95	225.65
769.27	225.53
769.60	225.42
769.92	225.27
770.25	225.14
770.57	224.96
770.90	224.84
771.22	224.73
771.55	224.61
771.87	224.51
772.20	224.40
772.52	224.46
772.85	224.63
773.17	224.53
773.50	224.37
773.82	224.23
774.15	224.00
774.47	223.78
774.80	223.67
775.12	223.53
775.45	223.47
775.77	223.36
776.09	223.25
776.42	223.17
776.74	223.16
777.07	223.04
777.39	223.01
777.72	222.89
778.04	222.85
778.36	222.77
778.69	222.66
779.01	222.58
779.33	222.35
779.66	222.06
779.98	221.96
780.31	221.95
780.63	221.95
780.95	221.92
781.28	221.85
781.60	221.76
781.92	221.70
782.25	221.60
782.57	221.56
782.89	221.53
783.22	221.45
783.54	221.32
783.86	221.27
784.19	221.20
784.51	221.23
784.83	221.11
785.16	221.07
785.48	221.01
785.80	220.97
786.12	220.93
