SpectraSuite Data File
++++++++++++++++++++++++++++++++++++
Date: Tue Jan 29 16:08:55 EST 2013
User: group
Dark Spectrum Present: No
Reference Spectrum Present: No
Number of Sampled Component Spectra: 1
Spectrometers: USB2E7196
Integration Time (usec): 65000 (USB2E7196)
Spectra Averaged: 100 (USB2E7196)
Boxcar Smoothing: 10 (USB2E7196)
Correct for Electrical Dark: No (USB2E7196)
Strobe/Lamp Enabled: No (USB2E7196)
Correct for Detector Non-linearity: No (USB2E7196)
Correct for Stray Light: No (USB2E7196)
Number of Pixels in Processed Spectrum: 2048
>>>>>Begin Processed Spectral Data<<<<<
339.09	0.00
339.48	202.63
339.86	203.65
340.24	205.37
340.63	206.51
341.01	211.20
341.39	210.02
341.78	211.58
342.16	212.31
342.54	212.54
342.93	201.77
343.31	211.93
343.69	212.48
344.07	212.98
344.46	213.43
344.84	213.85
345.22	214.03
345.60	214.30
345.99	214.46
346.37	214.61
346.75	214.72
347.13	214.80
347.52	214.87
347.90	214.99
348.28	215.02
348.66	215.05
349.05	215.02
349.43	215.12
349.81	215.22
350.19	215.30
350.57	215.34
350.96	215.40
351.34	215.54
351.72	215.65
352.10	215.75
352.48	215.84
352.87	215.86
353.25	215.93
353.63	215.97
354.01	216.03
354.39	216.09
354.77	216.17
355.15	216.32
355.54	216.34
355.92	216.34
356.30	216.42
356.68	216.64
357.06	216.69
357.44	216.71
357.82	216.74
358.20	216.79
358.58	216.85
358.97	216.91
359.35	216.97
359.73	217.04
360.11	217.09
360.49	217.12
360.87	217.19
361.25	217.23
361.63	217.31
362.01	217.36
362.39	217.37
362.77	217.39
363.15	217.40
363.53	217.41
363.91	217.44
364.29	217.48
364.67	217.29
365.05	217.32
365.43	217.35
365.81	217.42
366.19	217.54
366.57	217.65
366.95	217.67
367.33	217.65
367.71	217.66
368.09	217.70
368.47	217.70
368.85	217.68
369.23	217.73
369.61	217.67
369.99	217.72
370.37	217.76
370.75	217.89
371.13	217.85
371.51	217.85
371.89	217.85
372.27	217.83
372.65	217.83
373.03	217.82
373.41	217.76
373.78	217.72
374.16	217.57
374.54	217.47
374.92	217.40
375.30	217.36
375.68	217.30
376.06	217.29
376.44	217.24
376.82	217.22
377.19	217.16
377.57	217.11
377.95	217.01
378.33	216.95
378.71	216.75
379.09	216.73
379.47	216.72
379.84	216.64
380.22	216.57
380.60	216.51
380.98	216.45
381.36	216.42
381.73	216.33
382.11	216.34
382.49	216.29
382.87	216.24
383.25	216.21
383.62	216.41
384.00	216.33
384.38	216.32
384.76	216.35
385.13	216.39
385.51	216.36
385.89	216.34
386.27	216.30
386.64	216.32
387.02	216.31
387.40	216.23
387.78	216.23
388.15	216.23
388.53	216.21
388.91	216.20
389.29	216.13
389.66	216.15
390.04	216.10
390.42	216.14
390.79	216.14
391.17	216.12
391.55	215.83
391.92	215.81
392.30	215.81
392.68	215.74
393.05	215.74
393.43	215.75
393.81	215.74
394.18	215.71
394.56	215.74
394.94	215.76
395.31	215.78
395.69	215.89
396.06	215.93
396.44	215.97
396.82	215.98
397.19	216.14
397.57	216.16
397.95	216.23
398.32	216.17
398.70	216.23
399.07	216.31
399.45	216.37
399.82	216.40
400.20	216.45
400.58	216.49
400.95	216.46
401.33	216.59
401.70	216.82
402.08	216.93
402.45	216.99
402.83	217.11
403.20	217.22
403.58	217.26
403.95	217.39
404.33	217.53
404.71	217.67
405.08	217.90
405.46	218.09
405.83	218.24
406.21	218.45
406.58	218.68
406.96	218.91
407.33	219.18
407.70	219.46
408.08	219.88
408.45	220.26
408.83	220.64
409.20	220.93
409.58	221.17
409.95	221.61
410.33	222.10
410.70	222.50
411.08	223.03
411.45	223.59
411.82	224.15
412.20	224.84
412.57	225.63
412.95	226.17
413.32	226.97
413.69	227.77
414.07	228.64
414.44	229.62
414.82	230.64
415.19	231.77
415.56	232.90
415.94	234.03
416.31	235.38
416.68	236.76
417.06	238.32
417.43	239.80
417.81	241.47
418.18	243.16
418.55	245.08
418.93	247.05
419.30	249.09
419.67	251.22
420.04	253.41
420.42	255.71
420.79	258.47
421.16	261.10
421.54	263.95
421.91	266.87
422.28	269.83
422.66	272.96
423.03	276.07
423.40	279.34
423.77	282.81
424.15	286.36
424.52	290.07
424.89	294.10
425.26	298.09
425.64	301.87
426.01	306.03
426.38	310.31
426.75	314.66
427.13	319.23
427.50	324.06
427.87	329.07
428.24	334.08
428.61	338.89
428.99	344.27
429.36	350.02
429.73	355.66
430.10	361.29
430.47	367.15
430.85	373.27
431.22	379.73
431.59	386.64
431.96	393.21
432.33	400.45
432.70	407.44
433.08	415.66
433.45	423.42
433.82	431.15
434.19	439.69
434.56	448.16
434.93	456.21
435.30	464.22
435.68	473.05
436.05	481.74
436.42	490.29
436.79	498.05
437.16	506.53
437.53	515.48
437.90	524.38
438.27	533.04
438.64	541.93
439.01	550.19
439.38	557.46
439.75	564.53
440.13	572.64
440.50	580.31
440.87	586.48
441.24	592.94
441.61	600.01
441.98	605.25
442.35	611.33
442.72	617.44
443.09	623.28
443.46	626.89
443.83	629.35
444.20	631.51
444.57	634.60
444.94	636.01
445.31	637.34
445.68	638.62
446.05	639.22
446.42	638.45
446.79	637.50
447.16	636.52
447.53	635.73
447.90	632.50
448.27	629.29
448.64	624.80
449.01	621.54
449.37	615.82
449.74	610.34
450.11	603.62
450.48	596.47
450.85	589.20
451.22	582.88
451.59	576.91
451.96	571.22
452.33	563.63
452.70	556.76
453.07	548.62
453.43	540.35
453.80	532.36
454.17	524.67
454.54	517.40
454.91	509.49
455.28	501.85
455.65	494.70
456.02	487.55
456.38	481.46
456.75	473.90
457.12	467.61
457.49	461.40
457.86	455.47
458.23	450.27
458.59	444.57
458.96	438.84
459.33	433.74
459.70	428.66
460.07	424.61
460.43	419.91
460.80	415.60
461.17	411.72
461.54	407.64
461.91	403.76
462.27	399.80
462.64	396.49
463.01	392.85
463.38	389.26
463.74	385.67
464.11	382.54
464.48	379.78
464.85	376.72
465.21	374.35
465.58	371.83
465.95	368.82
466.32	366.37
466.68	363.85
467.05	361.33
467.42	358.84
467.78	356.21
468.15	353.74
468.52	351.89
468.88	349.52
469.25	347.48
469.62	345.79
469.98	343.90
470.35	342.18
470.72	340.57
471.08	338.90
471.45	337.47
471.82	336.07
472.18	334.52
472.55	333.43
472.92	332.08
473.28	330.95
473.65	329.85
474.02	328.82
474.38	328.00
474.75	327.32
475.11	326.57
475.48	326.05
475.85	325.63
476.21	325.14
476.58	324.81
476.94	324.54
477.31	324.23
477.67	324.01
478.04	323.86
478.41	323.82
478.77	323.99
479.14	323.98
479.50	324.12
479.87	324.44
480.23	324.79
480.60	325.06
480.96	325.34
481.33	325.99
481.69	326.51
482.06	327.03
482.42	327.55
482.79	328.17
483.15	328.99
483.52	329.98
483.88	330.87
484.25	331.87
484.61	332.89
484.98	333.94
485.34	335.27
485.71	336.62
486.07	338.06
486.44	339.37
486.80	340.99
487.17	342.62
487.53	344.41
487.90	346.29
488.26	348.37
488.62	350.50
488.99	352.49
489.35	354.63
489.72	357.00
490.08	359.49
490.44	362.06
490.81	364.73
491.17	367.39
491.54	370.41
491.90	373.40
492.26	376.60
492.63	380.07
492.99	383.56
493.36	387.22
493.72	391.07
494.08	395.10
494.45	399.29
494.81	403.62
495.17	408.02
495.54	412.70
495.90	417.43
496.26	422.39
496.63	427.64
496.99	433.05
497.35	438.61
497.72	444.42
498.08	450.29
498.44	456.36
498.80	462.78
499.17	469.22
499.53	475.90
499.89	482.83
500.26	489.72
500.62	496.79
500.98	504.17
501.34	511.59
501.71	519.30
502.07	527.09
502.43	535.08
502.79	543.21
503.16	551.49
503.52	560.12
503.88	568.76
504.24	577.66
504.60	586.69
504.97	595.86
505.33	605.05
505.69	614.87
506.05	624.75
506.41	634.58
506.78	644.62
507.14	654.87
507.50	665.21
507.86	675.81
508.22	686.58
508.59	697.22
508.95	708.31
509.31	719.51
509.67	730.86
510.03	742.25
510.39	753.92
510.75	765.80
511.12	777.55
511.48	789.57
511.84	801.76
512.20	814.01
512.56	826.53
512.92	839.21
513.28	851.79
513.64	864.36
514.00	877.03
514.37	889.87
514.73	902.79
515.09	915.67
515.45	928.41
515.81	941.24
516.17	954.47
516.53	967.45
516.89	980.47
517.25	993.46
517.61	1006.79
517.97	1019.96
518.33	1032.86
518.69	1046.21
519.05	1059.74
519.41	1073.21
519.77	1086.77
520.13	1099.98
520.49	1113.00
520.85	1126.18
521.21	1139.38
521.57	1152.93
521.93	1165.84
522.29	1179.43
522.65	1192.86
523.01	1206.28
523.37	1219.23
523.73	1232.24
524.09	1245.24
524.45	1258.33
524.81	1271.53
525.17	1284.56
525.53	1297.48
525.89	1310.53
526.25	1323.45
526.61	1336.04
526.97	1348.78
527.33	1361.58
527.68	1374.71
528.04	1387.94
528.40	1400.76
528.76	1413.74
529.12	1426.27
529.48	1439.26
529.84	1451.19
530.20	1463.64
530.56	1476.03
530.91	1489.01
531.27	1501.67
531.63	1514.15
531.99	1526.64
532.35	1538.60
532.71	1550.59
533.07	1563.12
533.42	1575.15
533.78	1586.87
534.14	1598.71
534.50	1609.63
534.86	1620.89
535.21	1631.34
535.57	1642.44
535.93	1653.47
536.29	1664.39
536.65	1675.42
537.00	1686.09
537.36	1697.20
537.72	1707.82
538.08	1718.80
538.44	1729.35
538.79	1740.05
539.15	1750.55
539.51	1760.85
539.87	1771.97
540.22	1782.49
540.58	1793.09
540.94	1803.54
541.29	1813.53
541.65	1822.97
542.01	1833.26
542.37	1842.96
542.72	1853.06
543.08	1862.64
543.44	1872.73
543.79	1881.72
544.15	1890.97
544.51	1900.66
544.87	1910.17
545.22	1919.07
545.58	1927.69
545.94	1936.34
546.29	1944.56
546.65	1952.70
547.01	1960.73
547.36	1968.08
547.72	1975.72
548.07	1983.24
548.43	1990.72
548.79	1998.45
549.14	2006.41
549.50	2014.60
549.86	2022.15
550.21	2029.09
550.57	2036.54
550.92	2043.20
551.28	2050.39
551.64	2057.50
551.99	2064.71
552.35	2071.82
552.70	2078.57
553.06	2085.01
553.41	2091.20
553.77	2097.63
554.13	2103.81
554.48	2110.81
554.84	2117.72
555.19	2124.14
555.55	2130.29
555.90	2136.50
556.26	2143.04
556.61	2148.77
556.97	2153.39
557.32	2159.28
557.68	2165.73
558.03	2171.28
558.39	2176.30
558.74	2182.22
559.10	2187.63
559.45	2193.08
559.81	2198.43
560.16	2204.12
560.52	2210.05
560.87	2216.30
561.23	2222.13
561.58	2228.89
561.94	2233.95
562.29	2238.83
562.64	2244.91
563.00	2250.52
563.35	2256.06
563.71	2261.97
564.06	2267.67
564.42	2273.75
564.77	2278.89
565.12	2284.16
565.48	2289.44
565.83	2295.25
566.19	2300.73
566.54	2306.13
566.89	2310.81
567.25	2315.46
567.60	2321.14
567.96	2326.32
568.31	2330.97
568.66	2335.26
569.02	2339.11
569.37	2342.90
569.72	2347.39
570.08	2350.88
570.43	2354.09
570.78	2357.29
571.14	2359.92
571.49	2363.17
571.84	2366.72
572.20	2369.51
572.55	2372.61
572.90	2374.97
573.26	2377.86
573.61	2380.37
573.96	2382.57
574.31	2384.74
574.67	2386.82
575.02	2387.70
575.37	2389.08
575.72	2390.01
576.08	2391.58
576.43	2392.00
576.78	2392.86
577.13	2394.66
577.49	2396.06
577.84	2397.48
578.19	2399.09
578.54	2399.95
578.90	2401.07
579.25	2401.16
579.60	2401.56
579.95	2401.06
580.30	2401.44
580.66	2400.78
581.01	2399.26
581.36	2397.34
581.71	2396.01
582.06	2395.17
582.42	2394.66
582.77	2392.86
583.12	2391.45
583.47	2390.37
583.82	2389.90
584.17	2388.64
584.53	2386.62
584.88	2384.69
585.23	2382.86
585.58	2380.78
585.93	2378.70
586.28	2376.55
586.63	2374.37
586.98	2372.28
587.34	2370.47
587.69	2368.24
588.04	2366.52
588.39	2365.29
588.74	2363.04
589.09	2360.70
589.44	2357.69
589.79	2355.19
590.14	2353.41
590.49	2350.60
590.84	2347.08
591.19	2344.31
591.54	2341.21
591.89	2337.23
592.25	2334.16
592.60	2330.12
592.95	2326.16
593.30	2322.23
593.65	2317.99
594.00	2313.68
594.35	2310.61
594.70	2305.97
595.05	2301.41
595.40	2296.03
595.75	2290.64
596.10	2287.00
596.45	2282.27
596.80	2277.77
597.15	2272.63
597.50	2266.80
597.85	2262.09
598.19	2256.90
598.54	2251.07
598.89	2246.10
599.24	2241.61
599.59	2235.59
599.94	2230.08
600.29	2224.34
600.64	2218.45
600.99	2211.91
601.34	2206.63
601.69	2199.94
602.04	2193.75
602.39	2187.40
602.74	2181.49
603.08	2175.92
603.43	2169.43
603.78	2162.72
604.13	2155.68
604.48	2148.60
604.83	2142.60
605.18	2136.42
605.53	2129.47
605.87	2122.48
606.22	2115.73
606.57	2107.92
606.92	2100.15
607.27	2093.21
607.62	2086.42
607.96	2079.49
608.31	2072.97
608.66	2065.18
609.01	2057.60
609.36	2050.58
609.70	2042.90
610.05	2035.23
610.40	2027.07
610.75	2019.00
611.10	2011.33
611.44	2002.68
611.79	1993.95
612.14	1984.00
612.49	1973.49
612.83	1964.34
613.18	1955.32
613.53	1946.06
613.88	1936.74
614.22	1928.07
614.57	1918.13
614.92	1907.72
615.27	1897.76
615.61	1887.80
615.96	1878.23
616.31	1868.62
616.65	1859.31
617.00	1849.46
617.35	1839.80
617.70	1830.14
618.04	1820.07
618.39	1809.71
618.74	1800.08
619.08	1790.48
619.43	1781.82
619.78	1773.68
620.12	1764.91
620.47	1755.08
620.82	1744.78
621.16	1734.89
621.51	1725.03
621.85	1715.21
622.20	1704.79
622.55	1694.08
622.89	1684.29
623.24	1674.60
623.59	1664.86
623.93	1654.71
624.28	1645.11
624.62	1635.04
624.97	1624.65
625.32	1615.08
625.66	1606.47
626.01	1597.57
626.35	1588.08
626.70	1577.90
627.04	1567.85
627.39	1557.90
627.73	1548.58
628.08	1539.59
628.43	1530.06
628.77	1520.79
629.12	1511.97
629.46	1504.13
629.81	1495.71
630.15	1486.08
630.50	1476.23
630.84	1465.80
631.19	1455.87
631.53	1446.37
631.88	1436.09
632.22	1426.12
632.57	1416.58
632.91	1406.29
633.26	1396.47
633.60	1386.99
633.95	1377.68
634.29	1368.29
634.64	1359.02
634.98	1349.33
635.32	1339.95
635.67	1331.38
636.01	1322.21
636.36	1312.37
636.70	1302.86
637.05	1293.54
637.39	1284.55
637.73	1275.94
638.08	1268.40
638.42	1260.12
638.77	1251.32
639.11	1243.08
639.45	1235.23
639.80	1226.62
640.14	1218.13
640.49	1209.20
640.83	1200.45
641.17	1192.44
641.52	1184.09
641.86	1175.40
642.20	1167.36
642.55	1158.93
642.89	1150.01
643.23	1141.26
643.58	1133.26
643.92	1124.25
644.26	1115.70
644.61	1107.28
644.95	1098.55
645.29	1089.17
645.64	1080.11
645.98	1071.81
646.32	1063.91
646.66	1055.50
647.01	1047.18
647.35	1038.91
647.69	1030.61
648.04	1022.31
648.38	1013.49
648.72	1004.77
649.06	996.38
649.41	988.31
649.75	980.41
650.09	972.69
650.43	964.68
650.78	956.44
651.12	948.79
651.46	941.43
651.80	934.18
652.14	926.89
652.49	919.41
652.83	912.09
653.17	904.40
653.51	896.82
653.85	889.55
654.20	882.40
654.54	874.91
654.88	867.74
655.22	860.69
655.56	853.70
655.90	846.90
656.25	840.24
656.59	833.25
656.93	826.24
657.27	819.10
657.61	812.29
657.95	806.24
658.29	800.34
658.64	794.16
658.98	787.82
659.32	781.27
659.66	775.18
660.00	768.87
660.34	762.91
660.68	756.92
661.02	750.70
661.36	744.81
661.70	739.14
662.05	733.58
662.39	728.14
662.73	722.84
663.07	717.52
663.41	712.06
663.75	706.48
664.09	700.82
664.43	695.50
664.77	690.17
665.11	684.39
665.45	678.55
665.79	672.78
666.13	667.06
666.47	661.69
666.81	656.34
667.15	651.07
667.49	645.88
667.83	640.63
668.17	635.45
668.51	630.37
668.85	625.54
669.19	620.70
669.53	615.71
669.87	610.71
670.21	606.05
670.55	601.33
670.89	597.03
671.23	592.90
671.57	588.54
671.91	584.30
672.25	580.21
672.58	576.11
672.92	572.13
673.26	568.26
673.60	564.44
673.94	560.67
674.28	557.09
674.62	553.44
674.96	549.78
675.30	546.28
675.64	542.74
675.97	539.19
676.31	535.61
676.65	532.04
676.99	528.56
677.33	524.80
677.67	521.25
678.01	517.42
678.34	513.75
678.68	510.33
679.02	506.79
679.36	503.17
679.70	499.66
680.04	496.23
680.37	492.87
680.71	489.58
681.05	486.44
681.39	483.28
681.73	480.11
682.06	477.13
682.40	474.13
682.74	470.89
683.08	467.73
683.42	464.61
683.75	461.71
684.09	458.76
684.43	455.95
684.77	453.01
685.10	450.21
685.44	447.41
685.78	444.47
686.12	441.79
686.45	439.14
686.79	436.53
687.13	434.04
687.46	431.45
687.80	428.83
688.14	426.07
688.48	423.50
688.81	420.94
689.15	418.42
689.49	415.84
689.82	413.43
690.16	410.92
690.50	408.54
690.83	406.07
691.17	403.59
691.51	401.25
691.84	399.12
692.18	396.92
692.52	394.71
692.85	392.63
693.19	390.45
693.52	388.31
693.86	386.14
694.20	383.96
694.53	381.91
694.87	379.75
695.21	377.64
695.54	375.47
695.88	373.34
696.21	371.16
696.55	369.10
696.88	367.09
697.22	365.18
697.56	363.31
697.89	361.47
698.23	359.78
698.56	358.00
698.90	356.24
699.23	354.39
699.57	352.54
699.90	350.73
700.24	349.00
700.58	347.25
700.91	345.62
701.25	344.13
701.58	342.57
701.92	341.07
702.25	339.53
702.59	338.02
702.92	336.54
703.26	335.03
703.59	333.61
703.93	332.36
704.26	330.94
704.60	329.51
704.93	328.04
705.26	326.55
705.60	325.10
705.93	323.64
706.27	322.35
706.60	321.17
706.94	320.00
707.27	318.63
707.61	317.33
707.94	316.08
708.27	314.58
708.61	313.14
708.94	311.79
709.28	310.50
709.61	309.23
709.94	308.04
710.28	306.84
710.61	305.67
710.95	304.24
711.28	303.18
711.61	301.99
711.95	300.95
712.28	299.82
712.61	298.66
712.95	297.61
713.28	296.62
713.61	295.47
713.95	294.29
714.28	293.30
714.61	292.28
714.95	291.24
715.28	290.21
715.61	289.23
715.95	288.30
716.28	287.40
716.61	286.48
716.95	285.48
717.28	284.57
717.61	283.67
717.94	282.80
718.28	281.78
718.61	280.94
718.94	279.99
719.27	279.17
719.61	278.40
719.94	277.56
720.27	276.64
720.60	275.81
720.94	275.09
721.27	274.37
721.60	273.72
721.93	273.04
722.27	272.47
722.60	271.85
722.93	271.18
723.26	270.55
723.59	269.86
723.93	269.29
724.26	268.71
724.59	268.07
724.92	267.50
725.25	266.98
725.59	266.41
725.92	265.94
726.25	265.37
726.58	264.79
726.91	264.21
727.24	263.67
727.57	263.12
727.91	262.51
728.24	261.95
728.57	261.34
728.90	260.78
729.23	260.16
729.56	259.72
729.89	259.18
730.22	258.62
730.55	258.10
730.89	257.54
731.22	257.01
731.55	256.49
731.88	256.03
732.21	255.50
732.54	254.96
732.87	254.48
733.20	253.98
733.53	253.53
733.86	253.09
734.19	252.61
734.52	252.23
734.85	251.94
735.18	251.50
735.51	251.15
735.84	250.73
736.17	250.33
736.50	249.80
736.83	249.64
737.16	249.23
737.49	248.87
737.82	248.50
738.15	248.17
738.48	247.81
738.81	247.41
739.14	247.00
739.47	246.63
739.80	246.22
740.13	245.92
740.46	245.49
740.79	245.10
741.12	244.77
741.45	244.41
741.78	243.97
742.11	243.70
742.44	243.34
742.77	243.06
743.10	242.76
743.43	242.41
743.75	241.86
744.08	241.82
744.41	241.49
744.74	241.14
745.07	240.73
745.40	240.45
745.73	240.19
746.06	239.89
746.39	239.63
746.71	239.30
747.04	238.96
747.37	238.70
747.70	238.46
748.03	238.16
748.36	237.92
748.68	237.67
749.01	237.29
749.34	236.99
749.67	236.71
750.00	236.42
750.33	236.30
750.65	236.04
750.98	235.52
751.31	235.27
751.64	235.04
751.97	234.92
752.29	234.65
752.62	234.34
752.95	234.11
753.28	233.86
753.60	233.64
753.93	233.49
754.26	233.29
754.59	233.01
754.91	232.78
755.24	232.52
755.57	232.26
755.90	232.05
756.22	231.86
756.55	231.63
756.88	231.40
757.20	231.11
757.53	230.88
757.86	230.65
758.19	230.48
758.51	230.28
758.84	229.99
759.17	229.80
759.49	229.63
759.82	229.55
760.15	229.36
760.47	229.19
760.80	228.94
761.13	228.75
761.45	228.57
761.78	228.37
762.11	228.21
762.43	228.06
762.76	227.91
763.08	227.74
763.41	227.56
763.74	227.43
764.06	227.27
764.39	227.12
764.71	227.00
765.04	226.83
765.37	226.71
765.69	226.57
766.02	226.42
766.34	226.26
766.67	226.03
767.00	225.95
767.32	225.93
767.65	225.92
767.97	225.82
768.30	225.70
768.62	225.63
768.95	225.45
769.27	225.32
769.60	225.22
769.92	225.05
770.25	224.91
770.57	224.75
770.90	224.62
771.22	224.49
771.55	224.37
771.87	224.27
772.20	224.14
772.52	224.18
772.85	224.34
773.17	224.23
773.50	224.13
773.82	224.02
774.15	223.80
774.47	223.58
774.80	223.44
775.12	223.37
775.45	223.25
775.77	223.20
776.09	223.13
776.42	223.07
776.74	223.05
777.07	222.98
777.39	222.92
777.72	222.83
778.04	222.75
778.36	222.65
778.69	222.55
779.01	222.49
779.33	222.24
779.66	221.91
779.98	221.84
780.31	221.78
780.63	221.76
780.95	221.73
781.28	221.65
781.60	221.55
781.92	221.48
782.25	221.42
782.57	221.35
782.89	221.27
783.22	221.17
783.54	221.07
783.86	221.03
784.19	220.94
784.51	220.93
784.83	220.86
785.16	220.80
785.48	220.76
785.80	220.70
786.12	220.67
