SpectraSuite Data File
++++++++++++++++++++++++++++++++++++
Date: Tue Jan 29 16:01:13 EST 2013
User: group
Dark Spectrum Present: No
Reference Spectrum Present: No
Number of Sampled Component Spectra: 1
Spectrometers: USB2E7196
Integration Time (usec): 65000 (USB2E7196)
Spectra Averaged: 100 (USB2E7196)
Boxcar Smoothing: 10 (USB2E7196)
Correct for Electrical Dark: No (USB2E7196)
Strobe/Lamp Enabled: No (USB2E7196)
Correct for Detector Non-linearity: No (USB2E7196)
Correct for Stray Light: No (USB2E7196)
Number of Pixels in Processed Spectrum: 2048
>>>>>Begin Processed Spectral Data<<<<<
339.09	0.00
339.48	202.89
339.86	204.10
340.24	205.55
340.63	207.31
341.01	211.16
341.39	209.57
341.78	210.73
342.16	212.97
342.54	212.59
342.93	201.98
343.31	212.18
343.69	212.71
344.07	213.16
344.46	213.63
344.84	214.01
345.22	214.22
345.60	214.49
345.99	214.73
346.37	214.86
346.75	214.96
347.13	215.05
347.52	215.11
347.90	215.22
348.28	215.25
348.66	215.32
349.05	215.32
349.43	215.41
349.81	215.46
350.19	215.52
350.57	215.59
350.96	215.67
351.34	215.77
351.72	215.87
352.10	216.00
352.48	216.06
352.87	216.11
353.25	216.20
353.63	216.26
354.01	216.31
354.39	216.40
354.77	216.53
355.15	216.67
355.54	216.72
355.92	216.72
356.30	216.79
356.68	216.99
357.06	217.05
357.44	217.09
357.82	217.14
358.20	217.23
358.58	217.30
358.97	217.37
359.35	217.49
359.73	217.60
360.11	217.69
360.49	217.76
360.87	217.83
361.25	217.85
361.63	217.99
362.01	218.06
362.39	218.05
362.77	218.07
363.15	218.06
363.53	218.10
363.91	218.16
364.29	218.18
364.67	218.00
365.05	218.04
365.43	218.04
365.81	218.12
366.19	218.22
366.57	218.31
366.95	218.31
367.33	218.26
367.71	218.24
368.09	218.26
368.47	218.22
368.85	218.19
369.23	218.23
369.61	218.15
369.99	218.19
370.37	218.22
370.75	218.31
371.13	218.27
371.51	218.18
371.89	218.16
372.27	218.15
372.65	218.14
373.03	218.12
373.41	218.08
373.78	218.02
374.16	217.87
374.54	217.78
374.92	217.72
375.30	217.70
375.68	217.65
376.06	217.61
376.44	217.58
376.82	217.54
377.19	217.50
377.57	217.44
377.95	217.32
378.33	217.22
378.71	217.06
379.09	217.04
379.47	217.04
379.84	217.00
380.22	216.92
380.60	216.84
380.98	216.79
381.36	216.74
381.73	216.63
382.11	216.62
382.49	216.55
382.87	216.50
383.25	216.44
383.62	216.60
384.00	216.51
384.38	216.46
384.76	216.50
385.13	216.54
385.51	216.50
385.89	216.45
386.27	216.44
386.64	216.44
387.02	216.40
387.40	216.37
387.78	216.34
388.15	216.33
388.53	216.32
388.91	216.26
389.29	216.22
389.66	216.27
390.04	216.24
390.42	216.25
390.79	216.25
391.17	216.22
391.55	215.97
391.92	215.99
392.30	216.00
392.68	215.94
393.05	215.90
393.43	215.92
393.81	215.93
394.18	215.91
394.56	215.91
394.94	215.94
395.31	215.93
395.69	216.00
396.06	216.04
396.44	216.08
396.82	216.09
397.19	216.26
397.57	216.20
397.95	216.25
398.32	216.22
398.70	216.24
399.07	216.35
399.45	216.39
399.82	216.41
400.20	216.44
400.58	216.47
400.95	216.46
401.33	216.54
401.70	216.76
402.08	216.83
402.45	216.90
402.83	217.02
403.20	217.16
403.58	217.25
403.95	217.40
404.33	217.55
404.71	217.70
405.08	217.95
405.46	218.12
405.83	218.30
406.21	218.49
406.58	218.77
406.96	219.02
407.33	219.28
407.70	219.60
408.08	220.06
408.45	220.43
408.83	220.81
409.20	221.13
409.58	221.40
409.95	221.85
410.33	222.36
410.70	222.75
411.08	223.25
411.45	223.77
411.82	224.28
412.20	224.96
412.57	225.75
412.95	226.25
413.32	227.07
413.69	227.87
414.07	228.77
414.44	229.70
414.82	230.62
415.19	231.79
415.56	232.93
415.94	234.05
416.31	235.39
416.68	236.74
417.06	238.28
417.43	239.74
417.81	241.40
418.18	243.07
418.55	244.99
418.93	246.94
419.30	248.99
419.67	251.15
420.04	253.35
420.42	255.67
420.79	258.43
421.16	261.13
421.54	263.93
421.91	266.82
422.28	269.78
422.66	272.94
423.03	276.01
423.40	279.22
423.77	282.66
424.15	286.19
424.52	289.89
424.89	293.96
425.26	297.93
425.64	301.68
426.01	305.83
426.38	310.09
426.75	314.51
427.13	319.07
427.50	323.89
427.87	328.87
428.24	333.86
428.61	338.63
428.99	343.97
429.36	349.77
429.73	355.43
430.10	361.13
430.47	366.99
430.85	373.05
431.22	379.56
431.59	386.46
431.96	393.02
432.33	400.22
432.70	407.14
433.08	415.34
433.45	423.13
433.82	430.88
434.19	439.50
434.56	447.83
434.93	455.87
435.30	463.81
435.68	472.63
436.05	481.22
436.42	489.85
436.79	497.62
437.16	506.06
437.53	515.00
437.90	523.79
438.27	532.42
438.64	541.40
439.01	549.59
439.38	556.87
439.75	563.96
440.13	572.05
440.50	579.72
440.87	585.92
441.24	592.30
441.61	599.32
441.98	604.44
442.35	610.55
442.72	616.55
443.09	622.40
443.46	625.93
443.83	628.37
444.20	630.46
444.57	633.56
444.94	634.90
445.31	636.26
445.68	637.66
446.05	638.27
446.42	637.39
446.79	636.42
447.16	635.33
447.53	634.49
447.90	631.24
448.27	628.06
448.64	623.51
449.01	620.26
449.37	614.62
449.74	609.13
450.11	602.41
450.48	595.35
450.85	588.13
451.22	581.90
451.59	576.01
451.96	570.36
452.33	562.72
452.70	555.91
453.07	547.77
453.43	539.43
453.80	531.41
454.17	523.80
454.54	516.54
454.91	508.73
455.28	501.13
455.65	494.10
456.02	486.95
456.38	480.91
456.75	473.42
457.12	467.07
457.49	460.88
457.86	455.01
458.23	449.85
458.59	444.17
458.96	438.45
459.33	433.36
459.70	428.24
460.07	424.24
460.43	419.56
460.80	415.12
461.17	411.31
461.54	407.29
461.91	403.41
462.27	399.49
462.64	396.16
463.01	392.53
463.38	388.90
463.74	385.32
464.11	382.20
464.48	379.44
464.85	376.47
465.21	374.09
465.58	371.60
465.95	368.57
466.32	366.11
466.68	363.59
467.05	361.09
467.42	358.63
467.78	356.06
468.15	353.66
468.52	351.88
468.88	349.45
469.25	347.37
469.62	345.68
469.98	343.84
470.35	342.15
470.72	340.54
471.08	338.87
471.45	337.45
471.82	336.02
472.18	334.46
472.55	333.33
472.92	332.07
473.28	330.92
473.65	329.86
474.02	328.80
474.38	327.97
474.75	327.28
475.11	326.52
475.48	325.92
475.85	325.48
476.21	325.05
476.58	324.77
476.94	324.59
477.31	324.28
477.67	324.08
478.04	323.98
478.41	324.01
478.77	324.19
479.14	324.16
479.50	324.26
479.87	324.56
480.23	324.91
480.60	325.16
480.96	325.41
481.33	326.05
481.69	326.66
482.06	327.21
482.42	327.73
482.79	328.39
483.15	329.27
483.52	330.19
483.88	331.08
484.25	332.01
484.61	332.99
484.98	334.10
485.34	335.41
485.71	336.74
486.07	338.20
486.44	339.57
486.80	341.22
487.17	342.93
487.53	344.74
487.90	346.63
488.26	348.66
488.62	350.83
488.99	352.88
489.35	355.05
489.72	357.42
490.08	359.97
490.44	362.47
490.81	365.16
491.17	367.87
491.54	370.87
491.90	373.89
492.26	377.14
492.63	380.56
492.99	384.03
493.36	387.71
493.72	391.50
494.08	395.43
494.45	399.59
494.81	403.95
495.17	408.41
495.54	413.10
495.90	417.90
496.26	422.83
496.63	427.97
496.99	433.29
497.35	438.88
497.72	444.61
498.08	450.49
498.44	456.51
498.80	462.85
499.17	469.25
499.53	475.95
499.89	482.85
500.26	489.80
500.62	496.87
500.98	504.21
501.34	511.72
501.71	519.51
502.07	527.32
502.43	535.36
502.79	543.41
503.16	551.70
503.52	560.20
503.88	568.89
504.24	577.82
504.60	586.84
504.97	596.01
505.33	605.30
505.69	615.20
506.05	625.18
506.41	635.04
506.78	645.10
507.14	655.26
507.50	665.58
507.86	676.16
508.22	686.87
508.59	697.54
508.95	708.44
509.31	719.63
509.67	731.11
510.03	742.42
510.39	754.20
510.75	765.97
511.12	777.88
511.48	789.93
511.84	802.10
512.20	814.40
512.56	826.94
512.92	839.67
513.28	852.22
513.64	864.78
514.00	877.50
514.37	890.36
514.73	903.33
515.09	916.26
515.45	929.05
515.81	941.98
516.17	955.24
516.53	968.36
516.89	981.26
517.25	994.18
517.61	1007.49
517.97	1020.66
518.33	1033.70
518.69	1047.19
519.05	1060.69
519.41	1074.09
519.77	1087.76
520.13	1100.88
520.49	1113.93
520.85	1127.05
521.21	1140.20
521.57	1153.65
521.93	1166.54
522.29	1180.19
522.65	1193.68
523.01	1207.09
523.37	1220.06
523.73	1233.05
524.09	1246.07
524.45	1259.36
524.81	1272.58
525.17	1285.82
525.53	1298.75
525.89	1311.72
526.25	1324.48
526.61	1337.15
526.97	1350.04
527.33	1362.66
527.68	1375.89
528.04	1389.04
528.40	1401.92
528.76	1414.98
529.12	1427.63
529.48	1440.67
529.84	1452.67
530.20	1465.06
530.56	1477.39
530.91	1490.37
531.27	1503.05
531.63	1515.52
531.99	1527.94
532.35	1539.96
532.71	1551.93
533.07	1564.43
533.42	1576.32
533.78	1588.13
534.14	1599.83
534.50	1610.79
534.86	1622.11
535.21	1632.64
535.57	1643.66
535.93	1654.72
536.29	1665.62
536.65	1676.65
537.00	1687.27
537.36	1698.25
537.72	1708.89
538.08	1719.91
538.44	1730.44
538.79	1741.10
539.15	1751.55
539.51	1761.87
539.87	1772.85
540.22	1783.38
540.58	1794.00
540.94	1804.60
541.29	1814.52
541.65	1824.13
542.01	1834.47
542.37	1844.16
542.72	1854.17
543.08	1863.79
543.44	1873.87
543.79	1882.79
544.15	1891.94
544.51	1901.69
544.87	1911.29
545.22	1920.19
545.58	1928.78
545.94	1937.44
546.29	1945.73
546.65	1953.94
547.01	1962.07
547.36	1969.40
547.72	1976.92
548.07	1984.45
548.43	1992.04
548.79	1999.69
549.14	2007.47
549.50	2015.28
549.86	2022.87
550.21	2029.78
550.57	2037.07
550.92	2043.55
551.28	2050.98
551.64	2058.15
551.99	2065.39
552.35	2072.28
552.70	2078.91
553.06	2085.33
553.41	2091.44
553.77	2097.81
554.13	2103.95
554.48	2110.80
554.84	2117.72
555.19	2124.08
555.55	2130.23
555.90	2136.41
556.26	2143.07
556.61	2148.76
556.97	2153.75
557.32	2159.59
557.68	2166.12
558.03	2171.91
558.39	2177.19
558.74	2182.97
559.10	2188.56
559.45	2194.16
559.81	2199.68
560.16	2205.26
560.52	2211.22
560.87	2217.64
561.23	2223.61
561.58	2230.29
561.94	2235.36
562.29	2240.30
562.64	2246.47
563.00	2252.06
563.35	2257.66
563.71	2263.50
564.06	2269.33
564.42	2275.29
564.77	2280.41
565.12	2285.59
565.48	2290.83
565.83	2296.37
566.19	2301.97
566.54	2307.35
566.89	2312.00
567.25	2316.74
567.60	2322.49
567.96	2327.86
568.31	2332.43
568.66	2336.56
569.02	2340.46
569.37	2344.25
569.72	2348.70
570.08	2352.20
570.43	2355.48
570.78	2358.50
571.14	2361.19
571.49	2364.39
571.84	2368.00
572.20	2370.77
572.55	2373.98
572.90	2376.16
573.26	2379.42
573.61	2381.72
573.96	2383.99
574.31	2386.00
574.67	2388.03
575.02	2389.11
575.37	2390.54
575.72	2391.57
576.08	2393.26
576.43	2393.80
576.78	2394.80
577.13	2396.68
577.49	2398.03
577.84	2399.68
578.19	2401.35
578.54	2402.15
578.90	2403.32
579.25	2403.54
579.60	2404.10
579.95	2403.69
580.30	2404.41
580.66	2403.72
581.01	2402.26
581.36	2400.43
581.71	2399.41
582.06	2398.51
582.42	2397.97
582.77	2396.13
583.12	2394.86
583.47	2393.81
583.82	2393.37
584.17	2392.27
584.53	2390.10
584.88	2388.30
585.23	2386.41
585.58	2384.34
585.93	2382.22
586.28	2380.27
586.63	2378.07
586.98	2376.05
587.34	2374.31
587.69	2372.04
588.04	2370.42
588.39	2369.39
588.74	2366.96
589.09	2364.56
589.44	2361.76
589.79	2359.38
590.14	2357.63
590.49	2354.84
590.84	2351.19
591.19	2348.33
591.54	2345.08
591.89	2341.38
592.25	2338.20
592.60	2334.08
592.95	2329.98
593.30	2326.22
593.65	2321.85
594.00	2317.60
594.35	2314.60
594.70	2310.03
595.05	2305.39
595.40	2299.89
595.75	2294.44
596.10	2290.96
596.45	2286.13
596.80	2281.63
597.15	2276.35
597.50	2270.49
597.85	2265.70
598.19	2260.59
598.54	2254.96
598.89	2250.16
599.24	2245.78
599.59	2239.73
599.94	2234.27
600.29	2228.75
600.64	2222.85
600.99	2216.31
601.34	2210.92
601.69	2204.00
602.04	2197.63
602.39	2191.36
602.74	2185.40
603.08	2179.83
603.43	2173.32
603.78	2166.53
604.13	2159.41
604.48	2152.48
604.83	2146.53
605.18	2140.18
605.53	2133.42
605.87	2126.38
606.22	2119.60
606.57	2111.75
606.92	2104.09
607.27	2097.12
607.62	2090.53
607.96	2083.57
608.31	2077.14
608.66	2069.48
609.01	2062.06
609.36	2055.08
609.70	2047.33
610.05	2039.67
610.40	2031.42
610.75	2023.19
611.10	2015.76
611.44	2007.24
611.79	1998.41
612.14	1988.35
612.49	1978.02
612.83	1968.86
613.18	1959.84
613.53	1950.53
613.88	1940.90
614.22	1932.42
614.57	1922.53
614.92	1912.06
615.27	1902.14
615.61	1892.26
615.96	1882.66
616.31	1873.11
616.65	1863.82
617.00	1853.87
617.35	1844.20
617.70	1834.57
618.04	1824.57
618.39	1814.15
618.74	1804.32
619.08	1794.91
619.43	1786.28
619.78	1778.08
620.12	1769.14
620.47	1759.16
620.82	1748.78
621.16	1739.17
621.51	1729.09
621.85	1719.15
622.20	1708.57
622.55	1697.89
622.89	1687.96
623.24	1678.17
623.59	1668.39
623.93	1658.22
624.28	1648.67
624.62	1638.56
624.97	1628.18
625.32	1618.49
625.66	1609.82
626.01	1600.92
626.35	1591.38
626.70	1581.21
627.04	1570.93
627.39	1561.00
627.73	1551.77
628.08	1542.66
628.43	1532.93
628.77	1523.69
629.12	1514.82
629.46	1507.00
629.81	1498.56
630.15	1488.84
630.50	1479.00
630.84	1468.48
631.19	1458.50
631.53	1448.91
631.88	1438.76
632.22	1428.82
632.57	1419.45
632.91	1409.07
633.26	1399.30
633.60	1389.78
633.95	1380.50
634.29	1371.07
634.64	1361.73
634.98	1352.00
635.32	1342.67
635.67	1334.13
636.01	1324.93
636.36	1315.11
636.70	1305.55
637.05	1296.20
637.39	1287.22
637.73	1278.54
638.08	1270.93
638.42	1262.53
638.77	1253.83
639.11	1245.54
639.45	1237.64
639.80	1228.87
640.14	1220.22
640.49	1211.19
640.83	1202.28
641.17	1194.28
641.52	1186.10
641.86	1177.36
642.20	1169.36
642.55	1160.86
642.89	1152.01
643.23	1143.22
643.58	1135.18
643.92	1125.99
644.26	1117.25
644.61	1108.87
644.95	1100.19
645.29	1090.79
645.64	1081.71
645.98	1073.35
646.32	1065.33
646.66	1056.82
647.01	1048.48
647.35	1040.35
647.69	1031.97
648.04	1023.62
648.38	1014.56
648.72	1005.82
649.06	997.44
649.41	989.26
649.75	981.24
650.09	973.25
650.43	965.23
650.78	957.01
651.12	949.42
651.46	942.12
651.80	934.83
652.14	927.37
652.49	919.96
652.83	912.62
653.17	904.93
653.51	897.42
653.85	890.18
654.20	882.97
654.54	875.38
654.88	868.39
655.22	861.26
655.56	854.33
655.90	847.48
656.25	840.83
656.59	833.79
656.93	826.85
657.27	819.88
657.61	813.09
657.95	806.97
658.29	801.14
658.64	794.96
658.98	788.46
659.32	781.99
659.66	775.74
660.00	769.41
660.34	763.39
660.68	757.37
661.02	751.09
661.36	745.18
661.70	739.51
662.05	733.83
662.39	728.35
662.73	723.04
663.07	717.68
663.41	712.17
663.75	706.56
664.09	700.97
664.43	695.60
664.77	690.21
665.11	684.37
665.45	678.49
665.79	672.68
666.13	667.04
666.47	661.64
666.81	656.35
667.15	651.14
667.49	646.01
667.83	640.70
668.17	635.52
668.51	630.46
668.85	625.65
669.19	620.84
669.53	615.90
669.87	610.83
670.21	606.18
670.55	601.43
670.89	597.14
671.23	592.92
671.57	588.57
671.91	584.32
672.25	580.30
672.58	576.18
672.92	572.20
673.26	568.39
673.60	564.50
673.94	560.71
674.28	557.13
674.62	553.38
674.96	549.72
675.30	546.26
675.64	542.69
675.97	539.14
676.31	535.51
676.65	531.96
676.99	528.51
677.33	524.71
677.67	521.06
678.01	517.24
678.34	513.65
678.68	510.17
679.02	506.57
679.36	502.94
679.70	499.41
680.04	495.97
680.37	492.59
680.71	489.35
681.05	486.25
681.39	483.04
681.73	479.94
682.06	476.99
682.40	473.92
682.74	470.73
683.08	467.56
683.42	464.48
683.75	461.55
684.09	458.62
684.43	455.88
684.77	453.09
685.10	450.29
685.44	447.40
685.78	444.56
686.12	441.90
686.45	439.21
686.79	436.56
687.13	434.09
687.46	431.46
687.80	428.82
688.14	426.02
688.48	423.48
688.81	420.84
689.15	418.28
689.49	415.72
689.82	413.23
690.16	410.66
690.50	408.21
690.83	405.74
691.17	403.26
691.51	400.82
691.84	398.63
692.18	396.51
692.52	394.31
692.85	392.22
693.19	390.14
693.52	388.03
693.86	385.81
694.20	383.66
694.53	381.62
694.87	379.41
695.21	377.32
695.54	375.19
695.88	373.10
696.21	370.92
696.55	368.80
696.88	366.81
697.22	364.90
697.56	363.11
697.89	361.29
698.23	359.61
698.56	357.85
698.90	356.09
699.23	354.16
699.57	352.33
699.90	350.51
700.24	348.74
700.58	346.99
700.91	345.44
701.25	343.93
701.58	342.39
701.92	340.88
702.25	339.36
702.59	337.75
702.92	336.24
703.26	334.80
703.59	333.42
703.93	332.19
704.26	330.80
704.60	329.31
704.93	327.85
705.26	326.36
705.60	324.98
705.93	323.51
706.27	322.28
706.60	321.03
706.94	319.80
707.27	318.39
707.61	317.11
707.94	315.78
708.27	314.29
708.61	312.84
708.94	311.53
709.28	310.28
709.61	309.11
709.94	307.92
710.28	306.70
710.61	305.51
710.95	304.11
711.28	303.06
711.61	301.90
711.95	300.84
712.28	299.69
712.61	298.55
712.95	297.53
713.28	296.53
713.61	295.43
713.95	294.35
714.28	293.41
714.61	292.40
714.95	291.45
715.28	290.46
715.61	289.45
715.95	288.50
716.28	287.55
716.61	286.60
716.95	285.69
717.28	284.77
717.61	283.84
717.94	283.03
718.28	282.03
718.61	281.18
718.94	280.26
719.27	279.45
719.61	278.64
719.94	277.78
720.27	276.85
720.60	276.03
720.94	275.22
721.27	274.45
721.60	273.73
721.93	273.00
722.27	272.42
722.60	271.80
722.93	271.14
723.26	270.50
723.59	269.84
723.93	269.22
724.26	268.60
724.59	268.02
724.92	267.41
725.25	266.91
725.59	266.39
725.92	265.91
726.25	265.32
726.58	264.77
726.91	264.22
727.24	263.70
727.57	263.17
727.91	262.58
728.24	262.07
728.57	261.55
728.90	261.01
729.23	260.38
729.56	259.99
729.89	259.45
730.22	258.87
730.55	258.36
730.89	257.83
731.22	257.32
731.55	256.79
731.88	256.29
732.21	255.73
732.54	255.21
732.87	254.69
733.20	254.21
733.53	253.71
733.86	253.27
734.19	252.80
734.52	252.41
734.85	252.15
735.18	251.70
735.51	251.31
735.84	250.90
736.17	250.57
736.50	250.03
736.83	249.90
737.16	249.58
737.49	249.18
737.82	248.80
738.15	248.46
738.48	248.09
738.81	247.70
739.14	247.29
739.47	246.88
739.80	246.53
740.13	246.20
740.46	245.80
740.79	245.40
741.12	245.05
741.45	244.69
741.78	244.27
742.11	244.00
742.44	243.66
742.77	243.36
743.10	243.01
743.43	242.71
743.75	242.14
744.08	242.05
744.41	241.71
744.74	241.36
745.07	241.03
745.40	240.76
745.73	240.50
746.06	240.20
746.39	239.93
746.71	239.56
747.04	239.22
747.37	238.94
747.70	238.69
748.03	238.40
748.36	238.13
748.68	237.85
749.01	237.49
749.34	237.15
749.67	236.85
750.00	236.58
750.33	236.43
750.65	236.19
750.98	235.70
751.31	235.48
751.64	235.28
751.97	235.13
752.29	234.83
752.62	234.50
752.95	234.24
753.28	233.98
753.60	233.79
753.93	233.64
754.26	233.44
754.59	233.18
754.91	232.95
755.24	232.69
755.57	232.39
755.90	232.21
756.22	232.03
756.55	231.79
756.88	231.54
757.20	231.21
757.53	230.97
757.86	230.73
758.19	230.53
758.51	230.28
758.84	229.98
759.17	229.78
759.49	229.63
759.82	229.58
760.15	229.43
760.47	229.23
760.80	228.99
761.13	228.85
761.45	228.66
761.78	228.46
762.11	228.29
762.43	228.17
762.76	227.99
763.08	227.81
763.41	227.66
763.74	227.54
764.06	227.36
764.39	227.20
764.71	227.06
765.04	226.92
765.37	226.75
765.69	226.64
766.02	226.50
766.34	226.30
766.67	226.08
767.00	226.00
767.32	225.97
767.65	225.98
767.97	225.83
768.30	225.73
768.62	225.63
768.95	225.50
769.27	225.36
769.60	225.24
769.92	225.10
770.25	224.98
770.57	224.81
770.90	224.70
771.22	224.58
771.55	224.49
771.87	224.36
772.20	224.26
772.52	224.33
772.85	224.48
773.17	224.42
773.50	224.32
773.82	224.17
774.15	223.99
774.47	223.76
774.80	223.67
775.12	223.57
775.45	223.49
775.77	223.41
776.09	223.35
776.42	223.29
776.74	223.27
777.07	223.18
777.39	223.10
777.72	222.99
778.04	222.95
778.36	222.87
778.69	222.82
779.01	222.77
779.33	222.49
779.66	222.17
779.98	222.09
780.31	222.01
780.63	222.04
780.95	222.00
781.28	221.93
781.60	221.80
781.92	221.72
782.25	221.64
782.57	221.57
782.89	221.46
783.22	221.37
783.54	221.25
783.86	221.21
784.19	221.16
784.51	221.18
784.83	221.09
785.16	220.98
785.48	220.92
785.80	220.91
786.12	220.85
