SpectraSuite Data File
++++++++++++++++++++++++++++++++++++
Date: Tue Jan 29 15:59:18 EST 2013
User: group
Dark Spectrum Present: No
Reference Spectrum Present: No
Number of Sampled Component Spectra: 1
Spectrometers: USB2E7196
Integration Time (usec): 65000 (USB2E7196)
Spectra Averaged: 100 (USB2E7196)
Boxcar Smoothing: 10 (USB2E7196)
Correct for Electrical Dark: No (USB2E7196)
Strobe/Lamp Enabled: No (USB2E7196)
Correct for Detector Non-linearity: No (USB2E7196)
Correct for Stray Light: No (USB2E7196)
Number of Pixels in Processed Spectrum: 2048
>>>>>Begin Processed Spectral Data<<<<<
339.09	0.00
339.48	202.92
339.86	204.21
340.24	205.19
340.63	207.32
341.01	211.23
341.39	209.67
341.78	211.54
342.16	212.69
342.54	213.53
342.93	202.05
343.31	212.27
343.69	212.81
344.07	213.26
344.46	213.73
344.84	214.12
345.22	214.32
345.60	214.61
345.99	214.81
346.37	214.94
346.75	214.99
347.13	215.07
347.52	215.12
347.90	215.29
348.28	215.31
348.66	215.37
349.05	215.30
349.43	215.39
349.81	215.46
350.19	215.47
350.57	215.52
350.96	215.61
351.34	215.70
351.72	215.78
352.10	215.92
352.48	215.97
352.87	216.00
353.25	216.03
353.63	216.08
354.01	216.15
354.39	216.22
354.77	216.32
355.15	216.46
355.54	216.50
355.92	216.46
356.30	216.52
356.68	216.72
357.06	216.81
357.44	216.81
357.82	216.84
358.20	216.96
358.58	217.06
358.97	217.08
359.35	217.19
359.73	217.31
360.11	217.34
360.49	217.40
360.87	217.45
361.25	217.54
361.63	217.63
362.01	217.66
362.39	217.65
362.77	217.72
363.15	217.71
363.53	217.79
363.91	217.83
364.29	217.90
364.67	217.71
365.05	217.73
365.43	217.78
365.81	217.83
366.19	217.92
366.57	217.99
366.95	218.00
367.33	217.95
367.71	217.90
368.09	217.98
368.47	217.98
368.85	217.97
369.23	218.02
369.61	217.95
369.99	218.02
370.37	218.06
370.75	218.13
371.13	218.12
371.51	218.05
371.89	218.05
372.27	218.03
372.65	218.03
373.03	218.02
373.41	217.98
373.78	217.93
374.16	217.80
374.54	217.68
374.92	217.62
375.30	217.57
375.68	217.50
376.06	217.44
376.44	217.37
376.82	217.33
377.19	217.27
377.57	217.21
377.95	217.06
378.33	216.97
378.71	216.81
379.09	216.75
379.47	216.74
379.84	216.68
380.22	216.60
380.60	216.51
380.98	216.43
381.36	216.37
381.73	216.29
382.11	216.29
382.49	216.28
382.87	216.24
383.25	216.19
383.62	216.40
384.00	216.30
384.38	216.31
384.76	216.34
385.13	216.37
385.51	216.35
385.89	216.33
386.27	216.30
386.64	216.31
387.02	216.28
387.40	216.22
387.78	216.19
388.15	216.19
388.53	216.20
388.91	216.23
389.29	216.19
389.66	216.22
390.04	216.16
390.42	216.19
390.79	216.21
391.17	216.20
391.55	215.97
391.92	215.96
392.30	215.96
392.68	215.89
393.05	215.83
393.43	215.83
393.81	215.83
394.18	215.84
394.56	215.80
394.94	215.85
395.31	215.82
395.69	215.92
396.06	215.92
396.44	215.91
396.82	215.90
397.19	216.01
397.57	216.02
397.95	216.10
398.32	216.03
398.70	216.05
399.07	216.14
399.45	216.18
399.82	216.25
400.20	216.24
400.58	216.31
400.95	216.31
401.33	216.42
401.70	216.62
402.08	216.71
402.45	216.84
402.83	216.92
403.20	217.08
403.58	217.13
403.95	217.27
404.33	217.42
404.71	217.56
405.08	217.83
405.46	218.00
405.83	218.17
406.21	218.38
406.58	218.62
406.96	218.83
407.33	219.09
407.70	219.40
408.08	219.91
408.45	220.25
408.83	220.64
409.20	220.95
409.58	221.24
409.95	221.68
410.33	222.16
410.70	222.58
411.08	223.10
411.45	223.67
411.82	224.28
412.20	224.94
412.57	225.77
412.95	226.31
413.32	227.12
413.69	227.94
414.07	228.82
414.44	229.71
414.82	230.69
415.19	231.81
415.56	232.94
415.94	234.05
416.31	235.45
416.68	236.80
417.06	238.35
417.43	239.86
417.81	241.54
418.18	243.26
418.55	245.13
418.93	247.08
419.30	249.11
419.67	251.20
420.04	253.41
420.42	255.67
420.79	258.38
421.16	261.03
421.54	263.80
421.91	266.67
422.28	269.70
422.66	272.88
423.03	276.02
423.40	279.21
423.77	282.66
424.15	286.14
424.52	289.80
424.89	293.82
425.26	297.73
425.64	301.47
426.01	305.58
426.38	309.89
426.75	314.28
427.13	318.79
427.50	323.62
427.87	328.64
428.24	333.67
428.61	338.44
428.99	343.78
429.36	349.54
429.73	355.22
430.10	360.88
430.47	366.71
430.85	372.79
431.22	379.28
431.59	386.11
431.96	392.67
432.33	399.96
432.70	406.91
433.08	415.15
433.45	422.88
433.82	430.57
434.19	439.13
434.56	447.53
434.93	455.60
435.30	463.51
435.68	472.26
436.05	480.83
436.42	489.44
436.79	497.28
437.16	505.71
437.53	514.62
437.90	523.40
438.27	531.99
438.64	540.88
439.01	549.07
439.38	556.36
439.75	563.44
440.13	571.48
440.50	579.13
440.87	585.22
441.24	591.59
441.61	598.72
441.98	603.90
442.35	609.90
442.72	615.89
443.09	621.73
443.46	625.30
443.83	627.71
444.20	629.79
444.57	632.83
444.94	634.20
445.31	635.63
445.68	636.95
446.05	637.52
446.42	636.70
446.79	635.84
447.16	634.77
447.53	633.93
447.90	630.66
448.27	627.45
448.64	622.96
449.01	619.76
449.37	614.00
449.74	608.57
450.11	601.91
450.48	594.84
450.85	587.62
451.22	581.42
451.59	575.55
451.96	569.90
452.33	562.29
452.70	555.49
453.07	547.33
453.43	539.04
453.80	531.15
454.17	523.49
454.54	516.18
454.91	508.34
455.28	500.77
455.65	493.73
456.02	486.60
456.38	480.56
456.75	473.07
457.12	466.76
457.49	460.48
457.86	454.59
458.23	449.52
458.59	443.93
458.96	438.15
459.33	433.11
459.70	427.98
460.07	423.92
460.43	419.20
460.80	414.78
461.17	410.96
461.54	406.93
461.91	403.06
462.27	399.13
462.64	395.85
463.01	392.21
463.38	388.66
463.74	385.07
464.11	381.95
464.48	379.21
464.85	376.28
465.21	373.94
465.58	371.43
465.95	368.39
466.32	365.84
466.68	363.43
467.05	360.92
467.42	358.50
467.78	355.97
468.15	353.60
468.52	351.78
468.88	349.41
469.25	347.29
469.62	345.61
469.98	343.73
470.35	342.03
470.72	340.40
471.08	338.70
471.45	337.29
471.82	335.87
472.18	334.29
472.55	333.13
472.92	331.83
473.28	330.71
473.65	329.62
474.02	328.59
474.38	327.69
474.75	326.97
475.11	326.22
475.48	325.63
475.85	325.19
476.21	324.75
476.58	324.47
476.94	324.25
477.31	323.98
477.67	323.80
478.04	323.67
478.41	323.67
478.77	323.85
479.14	323.86
479.50	324.03
479.87	324.35
480.23	324.69
480.60	324.96
480.96	325.26
481.33	325.88
481.69	326.47
482.06	327.00
482.42	327.49
482.79	328.14
483.15	329.00
483.52	330.00
483.88	330.90
484.25	331.82
484.61	332.86
484.98	333.94
485.34	335.21
485.71	336.58
486.07	338.04
486.44	339.37
486.80	340.90
487.17	342.58
487.53	344.38
487.90	346.24
488.26	348.24
488.62	350.38
488.99	352.41
489.35	354.58
489.72	356.96
490.08	359.50
490.44	362.00
490.81	364.64
491.17	367.31
491.54	370.29
491.90	373.33
492.26	376.60
492.63	379.98
492.99	383.49
493.36	387.15
493.72	390.97
494.08	394.96
494.45	399.21
494.81	403.53
495.17	407.99
495.54	412.70
495.90	417.50
496.26	422.41
496.63	427.60
496.99	432.90
497.35	438.46
497.72	444.27
498.08	450.18
498.44	456.28
498.80	462.70
499.17	469.08
499.53	475.72
499.89	482.53
500.26	489.50
500.62	496.51
500.98	503.91
501.34	511.37
501.71	519.21
502.07	526.98
502.43	534.99
502.79	543.11
503.16	551.40
503.52	559.97
503.88	568.59
504.24	577.49
504.60	586.59
504.97	595.85
505.33	605.14
505.69	614.97
506.05	624.81
506.41	634.58
506.78	644.64
507.14	654.90
507.50	665.39
507.86	676.01
508.22	686.78
508.59	697.43
508.95	708.45
509.31	719.62
509.67	731.05
510.03	742.39
510.39	754.11
510.75	765.99
511.12	777.83
511.48	789.94
511.84	802.14
512.20	814.40
512.56	826.89
512.92	839.56
513.28	852.06
513.64	864.69
514.00	877.40
514.37	890.27
514.73	903.31
515.09	916.10
515.45	928.92
515.81	941.77
516.17	954.94
516.53	968.00
516.89	980.92
517.25	993.91
517.61	1007.28
517.97	1020.47
518.33	1033.40
518.69	1046.74
519.05	1060.26
519.41	1073.66
519.77	1087.31
520.13	1100.44
520.49	1113.38
520.85	1126.65
521.21	1139.84
521.57	1153.34
521.93	1166.29
522.29	1179.80
522.65	1193.23
523.01	1206.56
523.37	1219.58
523.73	1232.64
524.09	1245.55
524.45	1258.65
524.81	1271.93
525.17	1285.01
525.53	1297.84
525.89	1310.85
526.25	1323.64
526.61	1336.16
526.97	1349.01
527.33	1361.58
527.68	1374.81
528.04	1388.02
528.40	1400.89
528.76	1413.90
529.12	1426.41
529.48	1439.44
529.84	1451.36
530.20	1463.83
530.56	1476.15
530.91	1489.15
531.27	1501.79
531.63	1514.32
531.99	1526.88
532.35	1538.78
532.71	1550.84
533.07	1563.45
533.42	1575.39
533.78	1587.27
534.14	1599.08
534.50	1610.02
534.86	1621.29
535.21	1631.84
535.57	1642.93
535.93	1653.91
536.29	1664.64
536.65	1675.86
537.00	1686.44
537.36	1697.48
537.72	1708.24
538.08	1719.27
538.44	1729.82
538.79	1740.47
539.15	1750.96
539.51	1761.19
539.87	1772.21
540.22	1782.68
540.58	1793.16
540.94	1803.77
541.29	1813.80
541.65	1823.27
542.01	1833.58
542.37	1843.32
542.72	1853.18
543.08	1862.77
543.44	1872.84
543.79	1881.99
544.15	1891.15
544.51	1900.82
544.87	1910.34
545.22	1919.04
545.58	1927.82
545.94	1936.35
546.29	1944.66
546.65	1952.77
547.01	1960.89
547.36	1968.28
547.72	1975.78
548.07	1983.35
548.43	1990.71
548.79	1998.28
549.14	2006.22
549.50	2014.27
549.86	2021.88
550.21	2028.97
550.57	2036.30
550.92	2042.73
551.28	2049.94
551.64	2057.00
551.99	2064.30
552.35	2071.29
552.70	2077.95
553.06	2084.13
553.41	2090.14
553.77	2096.41
554.13	2102.71
554.48	2109.59
554.84	2116.44
555.19	2122.77
555.55	2128.90
555.90	2135.11
556.26	2141.75
556.61	2147.52
556.97	2152.41
557.32	2158.09
557.68	2164.38
558.03	2170.05
558.39	2175.26
558.74	2181.12
559.10	2186.56
559.45	2192.04
559.81	2197.45
560.16	2202.94
560.52	2208.81
560.87	2215.24
561.23	2221.20
561.58	2227.68
561.94	2232.68
562.29	2237.57
562.64	2243.84
563.00	2249.41
563.35	2255.03
563.71	2260.91
564.06	2266.49
564.42	2272.48
564.77	2277.78
565.12	2283.00
565.48	2288.39
565.83	2294.05
566.19	2299.72
566.54	2305.18
566.89	2309.88
567.25	2314.60
567.60	2320.42
567.96	2325.87
568.31	2330.45
568.66	2334.79
569.02	2338.71
569.37	2342.68
569.72	2347.12
570.08	2350.47
570.43	2353.65
570.78	2356.74
571.14	2359.43
571.49	2362.71
571.84	2366.27
572.20	2369.13
572.55	2372.35
572.90	2374.56
573.26	2377.72
573.61	2380.16
573.96	2382.47
574.31	2384.54
574.67	2386.53
575.02	2387.51
575.37	2388.95
575.72	2389.95
576.08	2391.61
576.43	2392.10
576.78	2392.98
577.13	2394.97
577.49	2396.38
577.84	2398.05
578.19	2399.59
578.54	2400.55
578.90	2401.82
579.25	2402.01
579.60	2402.41
579.95	2401.97
580.30	2402.43
580.66	2401.88
581.01	2400.42
581.36	2398.60
581.71	2397.50
582.06	2396.84
582.42	2396.19
582.77	2394.34
583.12	2393.15
583.47	2392.03
583.82	2391.73
584.17	2390.64
584.53	2388.53
584.88	2386.83
585.23	2385.00
585.58	2383.09
585.93	2380.93
586.28	2378.71
586.63	2376.49
586.98	2374.62
587.34	2372.97
587.69	2370.89
588.04	2369.13
588.39	2367.92
588.74	2365.58
589.09	2363.23
589.44	2360.45
589.79	2358.31
590.14	2356.75
590.49	2354.05
590.84	2350.50
591.19	2347.67
591.54	2344.56
591.89	2340.72
592.25	2337.61
592.60	2333.51
592.95	2329.55
593.30	2325.68
593.65	2321.57
594.00	2317.31
594.35	2314.21
594.70	2309.65
595.05	2305.12
595.40	2299.69
595.75	2294.28
596.10	2290.59
596.45	2285.84
596.80	2281.22
597.15	2276.04
597.50	2270.17
597.85	2265.28
598.19	2260.11
598.54	2254.45
598.89	2249.48
599.24	2245.02
599.59	2239.04
599.94	2233.68
600.29	2227.89
600.64	2222.10
600.99	2215.65
601.34	2210.25
601.69	2203.29
602.04	2197.05
602.39	2190.61
602.74	2184.80
603.08	2179.38
603.43	2173.00
603.78	2166.32
604.13	2159.20
604.48	2152.18
604.83	2146.11
605.18	2139.92
605.53	2133.02
605.87	2125.98
606.22	2119.24
606.57	2111.56
606.92	2103.81
607.27	2096.82
607.62	2090.18
607.96	2083.12
608.31	2076.44
608.66	2068.74
609.01	2061.31
609.36	2054.22
609.70	2046.54
610.05	2038.78
610.40	2030.54
610.75	2022.40
611.10	2014.85
611.44	2006.27
611.79	1997.51
612.14	1987.59
612.49	1977.14
612.83	1968.14
613.18	1959.01
613.53	1949.64
613.88	1940.04
614.22	1931.43
614.57	1921.50
614.92	1911.13
615.27	1901.21
615.61	1891.46
615.96	1881.90
616.31	1872.39
616.65	1863.08
617.00	1853.28
617.35	1843.72
617.70	1833.97
618.04	1823.89
618.39	1813.52
618.74	1803.88
619.08	1794.39
619.43	1785.65
619.78	1777.57
620.12	1768.73
620.47	1758.94
620.82	1748.65
621.16	1738.97
621.51	1728.95
621.85	1719.07
622.20	1708.50
622.55	1697.85
622.89	1687.86
623.24	1678.20
623.59	1668.41
623.93	1658.31
624.28	1648.69
624.62	1638.40
624.97	1628.08
625.32	1618.36
625.66	1609.69
626.01	1600.69
626.35	1591.20
626.70	1581.19
627.04	1570.86
627.39	1560.76
627.73	1551.55
628.08	1542.44
628.43	1532.80
628.77	1523.60
629.12	1514.72
629.46	1506.90
629.81	1498.44
630.15	1488.76
630.50	1478.77
630.84	1468.28
631.19	1458.19
631.53	1448.66
631.88	1438.49
632.22	1428.51
632.57	1419.04
632.91	1408.65
633.26	1398.95
633.60	1389.39
633.95	1379.98
634.29	1370.58
634.64	1361.07
634.98	1351.19
635.32	1341.98
635.67	1333.30
636.01	1324.03
636.36	1314.21
636.70	1304.68
637.05	1295.36
637.39	1286.42
637.73	1277.82
638.08	1270.22
638.42	1261.98
638.77	1253.12
639.11	1244.92
639.45	1236.99
639.80	1228.31
640.14	1219.68
640.49	1210.63
640.83	1201.73
641.17	1193.56
641.52	1185.30
641.86	1176.81
642.20	1168.85
642.55	1160.21
642.89	1151.46
643.23	1142.71
643.58	1134.61
643.92	1125.45
644.26	1116.79
644.61	1108.38
644.95	1099.60
645.29	1090.29
645.64	1081.17
645.98	1072.79
646.32	1064.75
646.66	1056.24
647.01	1047.93
647.35	1039.78
647.69	1031.32
648.04	1022.95
648.38	1013.99
648.72	1005.30
649.06	996.78
649.41	988.61
649.75	980.58
650.09	972.60
650.43	964.50
650.78	956.24
651.12	948.70
651.46	941.29
651.80	933.94
652.14	926.56
652.49	919.08
652.83	911.77
653.17	904.16
653.51	896.58
653.85	889.35
654.20	882.03
654.54	874.56
654.88	867.52
655.22	860.42
655.56	853.55
655.90	846.67
656.25	840.12
656.59	833.11
656.93	826.16
657.27	819.13
657.61	812.34
657.95	806.35
658.29	800.51
658.64	794.35
658.98	788.03
659.32	781.57
659.66	775.36
660.00	769.00
660.34	762.92
660.68	756.84
661.02	750.49
661.36	744.67
661.70	738.94
662.05	733.28
662.39	727.88
662.73	722.55
663.07	717.27
663.41	711.74
663.75	706.23
664.09	700.71
664.43	695.38
664.77	690.04
665.11	684.17
665.45	678.29
665.79	672.56
666.13	666.86
666.47	661.34
666.81	656.01
667.15	650.76
667.49	645.60
667.83	640.42
668.17	635.31
668.51	630.25
668.85	625.30
669.19	620.47
669.53	615.43
669.87	610.35
670.21	605.61
670.55	600.86
670.89	596.43
671.23	592.20
671.57	587.88
671.91	583.62
672.25	579.56
672.58	575.44
672.92	571.41
673.26	567.52
673.60	563.75
673.94	559.98
674.28	556.35
674.62	552.72
674.96	549.06
675.30	545.57
675.64	541.97
675.97	538.48
676.31	534.94
676.65	531.40
676.99	528.02
677.33	524.23
677.67	520.62
678.01	516.82
678.34	513.15
678.68	509.59
679.02	506.03
679.36	502.44
679.70	498.83
680.04	495.38
680.37	492.07
680.71	488.76
681.05	485.61
681.39	482.48
681.73	479.31
682.06	476.32
682.40	473.28
682.74	470.12
683.08	466.97
683.42	463.84
683.75	460.96
684.09	457.94
684.43	455.23
684.77	452.39
685.10	449.64
685.44	446.83
685.78	444.02
686.12	441.31
686.45	438.58
686.79	436.01
687.13	433.49
687.46	430.88
687.80	428.26
688.14	425.47
688.48	422.90
688.81	420.31
689.15	417.80
689.49	415.25
689.82	412.77
690.16	410.24
690.50	407.89
690.83	405.37
691.17	402.97
691.51	400.55
691.84	398.37
692.18	396.18
692.52	394.00
692.85	391.88
693.19	389.82
693.52	387.73
693.86	385.57
694.20	383.43
694.53	381.36
694.87	379.25
695.21	377.18
695.54	375.03
695.88	372.92
696.21	370.75
696.55	368.69
696.88	366.68
697.22	364.76
697.56	362.84
697.89	361.05
698.23	359.34
698.56	357.57
698.90	355.86
699.23	353.99
699.57	352.19
699.90	350.44
700.24	348.67
700.58	346.97
700.91	345.39
701.25	343.87
701.58	342.31
701.92	340.76
702.25	339.21
702.59	337.67
702.92	336.21
703.26	334.71
703.59	333.28
703.93	332.05
704.26	330.68
704.60	329.22
704.93	327.78
705.26	326.29
705.60	324.86
705.93	323.33
706.27	322.06
706.60	320.84
706.94	319.58
707.27	318.18
707.61	316.91
707.94	315.57
708.27	314.12
708.61	312.70
708.94	311.37
709.28	310.14
709.61	308.88
709.94	307.69
710.28	306.54
710.61	305.36
710.95	303.96
711.28	302.91
711.61	301.71
711.95	300.62
712.28	299.51
712.61	298.39
712.95	297.40
713.28	296.38
713.61	295.22
713.95	294.09
714.28	293.16
714.61	292.08
714.95	291.12
715.28	290.12
715.61	289.16
715.95	288.27
716.28	287.32
716.61	286.41
716.95	285.44
717.28	284.51
717.61	283.62
717.94	282.79
718.28	281.78
718.61	281.02
718.94	280.13
719.27	279.27
719.61	278.49
719.94	277.60
720.27	276.67
720.60	275.88
720.94	275.14
721.27	274.40
721.60	273.74
721.93	272.99
722.27	272.37
722.60	271.72
722.93	271.00
723.26	270.39
723.59	269.72
723.93	269.13
724.26	268.47
724.59	267.82
724.92	267.23
725.25	266.76
725.59	266.19
725.92	265.66
726.25	265.10
726.58	264.51
726.91	263.97
727.24	263.46
727.57	262.94
727.91	262.33
728.24	261.80
728.57	261.21
728.90	260.71
729.23	260.07
729.56	259.63
729.89	259.12
730.22	258.52
730.55	257.97
730.89	257.45
731.22	256.91
731.55	256.45
731.88	255.91
732.21	255.33
732.54	254.80
732.87	254.29
733.20	253.80
733.53	253.31
733.86	252.87
734.19	252.38
734.52	251.95
734.85	251.70
735.18	251.22
735.51	250.89
735.84	250.47
736.17	250.14
736.50	249.63
736.83	249.48
737.16	249.13
737.49	248.83
737.82	248.44
738.15	248.14
738.48	247.73
738.81	247.35
739.14	246.97
739.47	246.57
739.80	246.20
740.13	245.89
740.46	245.54
740.79	245.16
741.12	244.86
741.45	244.50
741.78	244.06
742.11	243.79
742.44	243.39
742.77	243.10
743.10	242.73
743.43	242.38
743.75	241.82
744.08	241.73
744.41	241.38
744.74	241.05
745.07	240.66
745.40	240.40
745.73	240.17
746.06	239.84
746.39	239.56
746.71	239.25
747.04	238.90
747.37	238.61
747.70	238.35
748.03	238.05
748.36	237.77
748.68	237.46
749.01	237.15
749.34	236.88
749.67	236.57
750.00	236.35
750.33	236.25
750.65	236.03
750.98	235.50
751.31	235.28
751.64	235.06
751.97	234.97
752.29	234.70
752.62	234.36
752.95	234.13
753.28	233.88
753.60	233.65
753.93	233.54
754.26	233.33
754.59	233.05
754.91	232.81
755.24	232.62
755.57	232.41
755.90	232.16
756.22	231.94
756.55	231.71
756.88	231.44
757.20	231.09
757.53	230.78
757.86	230.62
758.19	230.38
758.51	230.12
758.84	229.79
759.17	229.63
759.49	229.50
759.82	229.46
760.15	229.30
760.47	229.11
760.80	228.82
761.13	228.65
761.45	228.48
761.78	228.32
762.11	228.11
762.43	227.91
762.76	227.75
763.08	227.61
763.41	227.48
763.74	227.39
764.06	227.25
764.39	227.12
764.71	226.99
765.04	226.85
765.37	226.75
765.69	226.61
766.02	226.45
766.34	226.29
766.67	226.07
767.00	225.97
767.32	225.98
767.65	225.98
767.97	225.87
768.30	225.76
768.62	225.64
768.95	225.50
769.27	225.39
769.60	225.32
769.92	225.15
770.25	224.99
770.57	224.76
770.90	224.64
771.22	224.54
771.55	224.39
771.87	224.26
772.20	224.14
772.52	224.21
772.85	224.37
773.17	224.27
773.50	224.15
773.82	224.02
774.15	223.80
774.47	223.62
774.80	223.47
775.12	223.40
775.45	223.29
775.77	223.24
776.09	223.17
776.42	223.09
776.74	223.08
777.07	223.01
777.39	222.99
777.72	222.89
778.04	222.84
778.36	222.75
778.69	222.70
779.01	222.63
779.33	222.39
779.66	222.05
779.98	221.94
780.31	221.86
780.63	221.88
780.95	221.83
781.28	221.72
781.60	221.63
781.92	221.57
782.25	221.51
782.57	221.43
782.89	221.35
783.22	221.26
783.54	221.15
783.86	221.11
784.19	221.03
784.51	221.03
784.83	220.93
785.16	220.88
785.48	220.81
785.80	220.73
786.12	220.71
