SpectraSuite Data File
++++++++++++++++++++++++++++++++++++
Date: Tue Jan 29 16:25:20 EST 2013
User: group
Dark Spectrum Present: No
Reference Spectrum Present: No
Number of Sampled Component Spectra: 1
Spectrometers: USB2E7196
Integration Time (usec): 65000 (USB2E7196)
Spectra Averaged: 100 (USB2E7196)
Boxcar Smoothing: 10 (USB2E7196)
Correct for Electrical Dark: No (USB2E7196)
Strobe/Lamp Enabled: No (USB2E7196)
Correct for Detector Non-linearity: No (USB2E7196)
Correct for Stray Light: No (USB2E7196)
Number of Pixels in Processed Spectrum: 2048
>>>>>Begin Processed Spectral Data<<<<<
339.09	0.00
339.48	203.01
339.86	203.75
340.24	204.83
340.63	207.16
341.01	210.67
341.39	209.91
341.78	210.65
342.16	212.65
342.54	212.16
342.93	201.57
343.31	211.76
343.69	212.26
344.07	212.73
344.46	213.17
344.84	213.54
345.22	213.74
345.60	213.96
345.99	214.16
346.37	214.28
346.75	214.40
347.13	214.44
347.52	214.49
347.90	214.60
348.28	214.64
348.66	214.68
349.05	214.62
349.43	214.68
349.81	214.72
350.19	214.76
350.57	214.84
350.96	214.91
351.34	214.98
351.72	215.06
352.10	215.14
352.48	215.19
352.87	215.21
353.25	215.25
353.63	215.28
354.01	215.33
354.39	215.38
354.77	215.43
355.15	215.56
355.54	215.59
355.92	215.59
356.30	215.63
356.68	215.83
357.06	215.90
357.44	215.95
357.82	216.00
358.20	216.10
358.58	216.13
358.97	216.19
359.35	216.29
359.73	216.38
360.11	216.46
360.49	216.54
360.87	216.61
361.25	216.69
361.63	216.82
362.01	216.84
362.39	216.88
362.77	216.97
363.15	216.97
363.53	217.02
363.91	217.11
364.29	217.18
364.67	217.02
365.05	217.09
365.43	217.15
365.81	217.21
366.19	217.31
366.57	217.45
366.95	217.47
367.33	217.47
367.71	217.49
368.09	217.53
368.47	217.51
368.85	217.52
369.23	217.55
369.61	217.47
369.99	217.58
370.37	217.60
370.75	217.63
371.13	217.59
371.51	217.53
371.89	217.50
372.27	217.48
372.65	217.50
373.03	217.47
373.41	217.40
373.78	217.35
374.16	217.22
374.54	217.08
374.92	217.04
375.30	217.01
375.68	216.94
376.06	216.91
376.44	216.88
376.82	216.85
377.19	216.82
377.57	216.80
377.95	216.69
378.33	216.64
378.71	216.49
379.09	216.50
379.47	216.51
379.84	216.44
380.22	216.37
380.60	216.29
380.98	216.25
381.36	216.22
381.73	216.20
382.11	216.20
382.49	216.18
382.87	216.07
383.25	216.00
383.62	216.19
384.00	216.09
384.38	216.06
384.76	216.08
385.13	216.11
385.51	216.08
385.89	216.03
386.27	216.01
386.64	216.05
387.02	216.00
387.40	215.96
387.78	215.97
388.15	215.95
388.53	215.91
388.91	215.87
389.29	215.81
389.66	215.80
390.04	215.75
390.42	215.76
390.79	215.78
391.17	215.80
391.55	215.59
391.92	215.61
392.30	215.62
392.68	215.52
393.05	215.50
393.43	215.48
393.81	215.49
394.18	215.44
394.56	215.42
394.94	215.46
395.31	215.43
395.69	215.49
396.06	215.54
396.44	215.59
396.82	215.58
397.19	215.74
397.57	215.72
397.95	215.77
398.32	215.77
398.70	215.82
399.07	215.89
399.45	215.87
399.82	215.91
400.20	215.94
400.58	216.02
400.95	215.99
401.33	216.08
401.70	216.32
402.08	216.42
402.45	216.53
402.83	216.64
403.20	216.77
403.58	216.83
403.95	216.98
404.33	217.12
404.71	217.28
405.08	217.54
405.46	217.74
405.83	217.96
406.21	218.14
406.58	218.36
406.96	218.59
407.33	218.91
407.70	219.19
408.08	219.64
408.45	220.01
408.83	220.39
409.20	220.72
409.58	220.96
409.95	221.45
410.33	221.90
410.70	222.34
411.08	222.89
411.45	223.45
411.82	224.03
412.20	224.69
412.57	225.53
412.95	226.04
413.32	226.86
413.69	227.65
414.07	228.58
414.44	229.58
414.82	230.57
415.19	231.71
415.56	232.90
415.94	234.12
416.31	235.51
416.68	236.90
417.06	238.53
417.43	240.10
417.81	241.81
418.18	243.59
418.55	245.54
418.93	247.51
419.30	249.63
419.67	251.84
420.04	254.14
420.42	256.50
420.79	259.35
421.16	262.17
421.54	265.02
421.91	268.00
422.28	271.11
422.66	274.39
423.03	277.59
423.40	280.94
423.77	284.47
424.15	288.11
424.52	292.01
424.89	296.16
425.26	300.24
425.64	304.12
426.01	308.43
426.38	312.88
426.75	317.48
427.13	322.21
427.50	327.16
427.87	332.33
428.24	337.48
428.61	342.44
428.99	347.90
429.36	353.88
429.73	359.73
430.10	365.55
430.47	371.65
430.85	378.00
431.22	384.70
431.59	391.82
431.96	398.63
432.33	406.05
432.70	413.31
433.08	421.71
433.45	429.75
433.82	437.72
434.19	446.61
434.56	455.21
434.93	463.42
435.30	471.68
435.68	480.74
436.05	489.68
436.42	498.55
436.79	506.75
437.16	515.52
437.53	524.76
437.90	533.88
438.27	542.75
438.64	551.90
439.01	560.38
439.38	567.90
439.75	575.17
440.13	583.53
440.50	591.38
440.87	597.82
441.24	604.35
441.61	611.65
441.98	616.92
442.35	623.23
442.72	629.58
443.09	635.61
443.46	639.38
443.83	641.89
444.20	644.18
444.57	647.23
444.94	648.68
445.31	650.14
445.68	651.56
446.05	652.19
446.42	651.39
446.79	650.46
447.16	649.43
447.53	648.69
447.90	645.39
448.27	642.12
448.64	637.47
449.01	634.23
449.37	628.29
449.74	622.59
450.11	615.75
450.48	608.39
450.85	600.91
451.22	594.47
451.59	588.37
451.96	582.42
452.33	574.57
452.70	567.48
453.07	558.99
453.43	550.34
453.80	542.07
454.17	534.10
454.54	526.53
454.91	518.39
455.28	510.45
455.65	503.08
456.02	495.62
456.38	489.36
456.75	481.51
457.12	474.97
457.49	468.57
457.86	462.40
458.23	457.03
458.59	451.14
458.96	445.08
459.33	439.85
459.70	434.50
460.07	430.26
460.43	425.37
460.80	420.83
461.17	416.85
461.54	412.68
461.91	408.67
462.27	404.56
462.64	401.11
463.01	397.32
463.38	393.61
463.74	389.97
464.11	386.72
464.48	383.92
464.85	380.89
465.21	378.48
465.58	375.82
465.95	372.65
466.32	370.06
466.68	367.51
467.05	364.88
467.42	362.38
467.78	359.66
468.15	357.19
468.52	355.28
468.88	352.81
469.25	350.59
469.62	348.82
469.98	346.94
470.35	345.10
470.72	343.45
471.08	341.67
471.45	340.11
471.82	338.57
472.18	336.92
472.55	335.68
472.92	334.29
473.28	333.17
473.65	332.09
474.02	331.01
474.38	330.14
474.75	329.42
475.11	328.61
475.48	328.07
475.85	327.57
476.21	327.10
476.58	326.77
476.94	326.57
477.31	326.24
477.67	326.00
478.04	325.88
478.41	325.77
478.77	325.95
479.14	325.95
479.50	326.12
479.87	326.41
480.23	326.73
480.60	326.98
480.96	327.24
481.33	327.83
481.69	328.38
482.06	328.90
482.42	329.34
482.79	329.94
483.15	330.77
483.52	331.74
483.88	332.64
484.25	333.62
484.61	334.58
484.98	335.68
485.34	336.93
485.71	338.30
486.07	339.78
486.44	341.10
486.80	342.69
487.17	344.30
487.53	346.15
487.90	348.02
488.26	350.04
488.62	352.25
488.99	354.26
489.35	356.43
489.72	358.80
490.08	361.39
490.44	363.97
490.81	366.66
491.17	369.42
491.54	372.37
491.90	375.37
492.26	378.64
492.63	382.07
492.99	385.61
493.36	389.28
493.72	393.15
494.08	397.17
494.45	401.43
494.81	405.89
495.17	410.33
495.54	415.13
495.90	419.98
496.26	424.85
496.63	430.13
496.99	435.57
497.35	441.17
497.72	446.96
498.08	452.89
498.44	459.05
498.80	465.47
499.17	472.01
499.53	478.81
499.89	485.78
500.26	492.76
500.62	499.89
500.98	507.32
501.34	514.88
501.71	522.69
502.07	530.50
502.43	538.53
502.79	546.75
503.16	555.10
503.52	563.77
503.88	572.52
504.24	581.58
504.60	590.70
504.97	600.00
505.33	609.35
505.69	619.30
506.05	629.29
506.41	639.21
506.78	649.33
507.14	659.63
507.50	670.15
507.86	680.97
508.22	691.86
508.59	702.59
508.95	713.75
509.31	725.13
509.67	736.70
510.03	748.22
510.39	760.03
510.75	771.99
511.12	783.96
511.48	796.21
511.84	808.49
512.20	820.88
512.56	833.68
512.92	846.59
513.28	859.33
513.64	872.10
514.00	885.13
514.37	898.20
514.73	911.38
515.09	924.44
515.45	937.45
515.81	950.58
516.17	964.12
516.53	977.47
516.89	990.64
517.25	1003.99
517.61	1017.59
517.97	1031.08
518.33	1044.34
518.69	1058.01
519.05	1071.79
519.41	1085.60
519.77	1099.60
520.13	1112.97
520.49	1126.25
520.85	1139.72
521.21	1153.15
521.57	1166.92
521.93	1180.15
522.29	1194.06
522.65	1207.87
523.01	1221.59
523.37	1234.85
523.73	1248.25
524.09	1261.54
524.45	1275.08
524.81	1288.64
525.17	1302.12
525.53	1315.42
525.89	1328.78
526.25	1342.05
526.61	1355.11
526.97	1368.30
527.33	1381.43
527.68	1395.02
528.04	1408.65
528.40	1422.04
528.76	1435.61
529.12	1448.49
529.48	1461.96
529.84	1474.35
530.20	1487.31
530.56	1499.96
530.91	1513.46
531.27	1526.52
531.63	1539.41
531.99	1552.25
532.35	1564.67
532.71	1577.24
533.07	1590.28
533.42	1602.71
533.78	1614.86
534.14	1627.03
534.50	1638.41
534.86	1650.00
535.21	1661.01
535.57	1672.70
535.93	1683.91
536.29	1695.10
536.65	1706.66
537.00	1717.74
537.36	1729.22
537.72	1740.27
538.08	1751.84
538.44	1762.71
538.79	1773.75
539.15	1784.79
539.51	1795.76
539.87	1807.05
540.22	1817.93
540.58	1829.02
540.94	1839.93
541.29	1850.29
541.65	1860.19
542.01	1870.69
542.37	1880.78
542.72	1891.03
543.08	1900.82
543.44	1911.51
543.79	1920.81
544.15	1930.27
544.51	1940.27
544.87	1950.23
545.22	1959.49
545.58	1968.46
545.94	1977.43
546.29	1986.13
546.65	1994.41
547.01	2002.53
547.36	2010.26
547.72	2018.01
548.07	2025.45
548.43	2033.31
548.79	2041.30
549.14	2049.36
549.50	2057.93
549.86	2065.98
550.21	2073.42
550.57	2081.10
550.92	2087.78
551.28	2095.37
551.64	2102.76
551.99	2110.31
552.35	2117.53
552.70	2124.38
553.06	2131.02
553.41	2137.59
553.77	2144.08
554.13	2150.55
554.48	2157.67
554.84	2164.92
555.19	2171.47
555.55	2178.25
555.90	2184.60
556.26	2191.63
556.61	2197.92
556.97	2202.67
557.32	2208.51
557.68	2215.07
558.03	2220.97
558.39	2226.48
558.74	2232.63
559.10	2238.23
559.45	2243.88
559.81	2249.26
560.16	2254.91
560.52	2260.85
560.87	2267.19
561.23	2273.37
561.58	2280.08
561.94	2285.49
562.29	2290.22
562.64	2296.43
563.00	2302.02
563.35	2307.75
563.71	2313.38
564.06	2318.97
564.42	2325.19
564.77	2330.35
565.12	2335.60
565.48	2340.71
565.83	2346.33
566.19	2351.54
566.54	2357.08
566.89	2361.72
567.25	2366.51
567.60	2372.22
567.96	2377.45
568.31	2382.02
568.66	2386.08
569.02	2390.05
569.37	2393.90
569.72	2398.27
570.08	2401.82
570.43	2404.96
570.78	2408.17
571.14	2410.87
571.49	2414.17
571.84	2417.70
572.20	2420.62
572.55	2423.66
572.90	2426.01
573.26	2428.77
573.61	2431.42
573.96	2433.71
574.31	2435.81
574.67	2437.70
575.02	2438.58
575.37	2440.07
575.72	2440.82
576.08	2442.41
576.43	2442.57
576.78	2442.96
577.13	2444.60
577.49	2445.86
577.84	2446.91
578.19	2448.27
578.54	2448.74
578.90	2449.47
579.25	2449.34
579.60	2449.39
579.95	2448.78
580.30	2448.98
580.66	2448.30
581.01	2446.77
581.36	2444.29
581.71	2442.79
582.06	2441.75
582.42	2440.82
582.77	2438.55
583.12	2437.01
583.47	2435.69
583.82	2435.18
584.17	2434.01
584.53	2431.93
584.88	2429.92
585.23	2428.10
585.58	2425.67
585.93	2423.81
586.28	2421.72
586.63	2419.31
586.98	2417.13
587.34	2415.09
587.69	2412.62
588.04	2410.64
588.39	2409.21
588.74	2406.76
589.09	2404.17
589.44	2400.96
589.79	2398.61
590.14	2396.84
590.49	2393.90
590.84	2390.02
591.19	2386.92
591.54	2383.73
591.89	2379.79
592.25	2376.45
592.60	2372.35
592.95	2368.27
593.30	2363.99
593.65	2359.55
594.00	2355.18
594.35	2352.05
594.70	2347.49
595.05	2342.91
595.40	2337.35
595.75	2331.46
596.10	2327.77
596.45	2322.90
596.80	2318.50
597.15	2313.18
597.50	2307.09
597.85	2302.25
598.19	2297.14
598.54	2291.33
598.89	2286.06
599.24	2281.52
599.59	2275.28
599.94	2269.30
600.29	2263.40
600.64	2257.44
600.99	2250.43
601.34	2244.90
601.69	2237.97
602.04	2231.49
602.39	2224.79
602.74	2218.64
603.08	2213.13
603.43	2206.58
603.78	2199.62
604.13	2192.42
604.48	2185.09
604.83	2179.04
605.18	2172.70
605.53	2165.61
605.87	2158.58
606.22	2151.82
606.57	2143.74
606.92	2135.74
607.27	2128.72
607.62	2121.98
607.96	2114.83
608.31	2108.59
608.66	2100.75
609.01	2092.96
609.36	2085.80
609.70	2078.19
610.05	2070.50
610.40	2062.12
610.75	2053.84
611.10	2046.18
611.44	2037.08
611.79	2028.46
612.14	2018.34
612.49	2007.52
612.83	1998.13
613.18	1988.73
613.53	1979.30
613.88	1969.68
614.22	1961.06
614.57	1951.15
614.92	1940.46
615.27	1930.13
615.61	1919.79
615.96	1910.06
616.31	1900.40
616.65	1890.86
617.00	1880.96
617.35	1871.25
617.70	1861.46
618.04	1851.28
618.39	1841.00
618.74	1831.49
619.08	1821.62
619.43	1812.93
619.78	1804.64
620.12	1796.04
620.47	1786.40
620.82	1775.92
621.16	1766.05
621.51	1756.05
621.85	1746.03
622.20	1735.61
622.55	1725.08
622.89	1715.09
623.24	1705.27
623.59	1695.34
623.93	1685.15
624.28	1675.25
624.62	1664.89
624.97	1654.51
625.32	1644.67
625.66	1635.66
626.01	1626.73
626.35	1617.35
626.70	1607.05
627.04	1596.86
627.39	1586.52
627.73	1577.07
628.08	1568.05
628.43	1558.38
628.77	1549.06
629.12	1540.19
629.46	1532.16
629.81	1523.76
630.15	1514.12
630.50	1504.24
630.84	1493.70
631.19	1483.72
631.53	1474.36
631.88	1464.18
632.22	1454.04
632.57	1444.50
632.91	1434.36
633.26	1424.40
633.60	1414.66
633.95	1405.35
634.29	1395.80
634.64	1386.42
634.98	1376.39
635.32	1366.92
635.67	1358.30
636.01	1348.90
636.36	1339.11
636.70	1329.55
637.05	1320.05
637.39	1311.02
637.73	1302.26
638.08	1294.62
638.42	1286.36
638.77	1277.54
639.11	1269.15
639.45	1261.26
639.80	1252.64
640.14	1243.75
640.49	1234.74
640.83	1225.90
641.17	1217.57
641.52	1209.42
641.86	1200.72
642.20	1192.78
642.55	1184.07
642.89	1175.10
643.23	1166.38
643.58	1158.09
643.92	1148.94
644.26	1140.08
644.61	1131.57
644.95	1122.66
645.29	1113.35
645.64	1103.97
645.98	1095.21
646.32	1087.25
646.66	1078.61
647.01	1070.11
647.35	1061.87
647.69	1053.45
648.04	1045.01
648.38	1036.06
648.72	1027.13
649.06	1018.53
649.41	1010.23
649.75	1002.18
650.09	994.16
650.43	986.11
650.78	977.64
651.12	969.88
651.46	962.42
651.80	955.03
652.14	947.69
652.49	940.05
652.83	932.63
653.17	924.93
653.51	917.19
653.85	909.87
654.20	902.60
654.54	894.97
654.88	887.64
655.22	880.36
655.56	873.32
655.90	866.41
656.25	859.69
656.59	852.68
656.93	845.55
657.27	838.32
657.61	831.15
657.95	824.96
658.29	818.99
658.64	812.78
658.98	806.27
659.32	799.60
659.66	793.32
660.00	786.89
660.34	780.67
660.68	774.46
661.02	768.08
661.36	762.07
661.70	756.27
662.05	750.55
662.39	745.00
662.73	739.49
663.07	734.04
663.41	728.43
663.75	722.69
664.09	716.94
664.43	711.46
664.77	706.08
665.11	700.35
665.45	694.35
665.79	688.50
666.13	682.70
666.47	677.16
666.81	671.71
667.15	666.26
667.49	661.03
667.83	655.71
668.17	650.30
668.51	645.11
668.85	640.07
669.19	635.15
669.53	630.03
669.87	624.86
670.21	620.06
670.55	615.23
670.89	610.70
671.23	606.38
671.57	601.99
671.91	597.59
672.25	593.30
672.58	589.06
672.92	584.90
673.26	580.96
673.60	577.03
673.94	573.05
674.28	569.40
674.62	565.59
674.96	561.78
675.30	558.28
675.64	554.57
675.97	550.92
676.31	547.18
676.65	543.57
676.99	540.12
677.33	536.22
677.67	532.51
678.01	528.61
678.34	524.89
678.68	521.29
679.02	517.72
679.36	513.98
679.70	510.32
680.04	506.72
680.37	503.20
680.71	499.79
681.05	496.59
681.39	493.26
681.73	490.03
682.06	487.00
682.40	483.89
682.74	480.69
683.08	477.41
683.42	474.21
683.75	471.13
684.09	468.03
684.43	465.23
684.77	462.29
685.10	459.38
685.44	456.42
685.78	453.40
686.12	450.55
686.45	447.75
686.79	445.05
687.13	442.48
687.46	439.77
687.80	437.05
688.14	434.15
688.48	431.50
688.81	428.78
689.15	426.17
689.49	423.53
689.82	420.88
690.16	418.27
690.50	415.80
690.83	413.28
691.17	410.64
691.51	408.09
691.84	405.75
692.18	403.59
692.52	401.32
692.85	399.24
693.19	397.05
693.52	394.88
693.86	392.61
694.20	390.34
694.53	388.20
694.87	386.02
695.21	383.88
695.54	381.71
695.88	379.51
696.21	377.26
696.55	375.06
696.88	373.01
697.22	371.02
697.56	369.08
697.89	367.15
698.23	365.41
698.56	363.58
698.90	361.78
699.23	359.83
699.57	357.99
699.90	356.04
700.24	354.20
700.58	352.41
700.91	350.75
701.25	349.21
701.58	347.60
701.92	345.96
702.25	344.32
702.59	342.64
702.92	341.06
703.26	339.45
703.59	338.01
703.93	336.74
704.26	335.31
704.60	333.79
704.93	332.30
705.26	330.80
705.60	329.32
705.93	327.78
706.27	326.41
706.60	325.06
706.94	323.83
707.27	322.45
707.61	321.10
707.94	319.70
708.27	318.16
708.61	316.68
708.94	315.27
709.28	313.98
709.61	312.73
709.94	311.56
710.28	310.35
710.61	309.15
710.95	307.71
711.28	306.62
711.61	305.40
711.95	304.21
712.28	303.02
712.61	301.82
712.95	300.75
713.28	299.70
713.61	298.55
713.95	297.42
714.28	296.40
714.61	295.32
714.95	294.30
715.28	293.29
715.61	292.27
715.95	291.33
716.28	290.34
716.61	289.37
716.95	288.36
717.28	287.42
717.61	286.38
717.94	285.47
718.28	284.42
718.61	283.49
718.94	282.63
719.27	281.74
719.61	280.90
719.94	280.04
720.27	279.07
720.60	278.23
720.94	277.38
721.27	276.60
721.60	275.94
721.93	275.23
722.27	274.55
722.60	273.85
722.93	273.10
723.26	272.44
723.59	271.75
723.93	271.12
724.26	270.46
724.59	269.85
724.92	269.27
725.25	268.67
725.59	268.12
725.92	267.56
726.25	266.99
726.58	266.43
726.91	265.83
727.24	265.26
727.57	264.70
727.91	264.08
728.24	263.51
728.57	262.88
728.90	262.28
729.23	261.67
729.56	261.25
729.89	260.72
730.22	260.12
730.55	259.59
730.89	259.04
731.22	258.50
731.55	257.96
731.88	257.41
732.21	256.84
732.54	256.31
732.87	255.80
733.20	255.31
733.53	254.82
733.86	254.35
734.19	253.88
734.52	253.45
734.85	253.14
735.18	252.65
735.51	252.29
735.84	251.86
736.17	251.48
736.50	250.94
736.83	250.84
737.16	250.50
737.49	250.05
737.82	249.63
738.15	249.24
738.48	248.87
738.81	248.45
739.14	248.07
739.47	247.71
739.80	247.35
740.13	247.00
740.46	246.61
740.79	246.19
741.12	245.84
741.45	245.45
741.78	245.04
742.11	244.76
742.44	244.37
742.77	244.09
743.10	243.75
743.43	243.39
743.75	242.76
744.08	242.65
744.41	242.32
744.74	241.96
745.07	241.60
745.40	241.27
745.73	241.02
746.06	240.68
746.39	240.34
746.71	239.95
747.04	239.58
747.37	239.27
747.70	238.99
748.03	238.68
748.36	238.43
748.68	238.08
749.01	237.75
749.34	237.43
749.67	237.13
750.00	236.85
750.33	236.73
750.65	236.46
750.98	235.90
751.31	235.67
751.64	235.43
751.97	235.28
752.29	235.03
752.62	234.71
752.95	234.47
753.28	234.24
753.60	233.98
753.93	233.83
754.26	233.60
754.59	233.33
754.91	233.05
755.24	232.78
755.57	232.57
755.90	232.32
756.22	232.08
756.55	231.81
756.88	231.54
757.20	231.18
757.53	230.94
757.86	230.74
758.19	230.53
758.51	230.29
758.84	229.97
759.17	229.73
759.49	229.57
759.82	229.49
760.15	229.34
760.47	229.16
760.80	228.89
761.13	228.73
761.45	228.52
761.78	228.35
762.11	228.16
762.43	227.97
762.76	227.80
763.08	227.67
763.41	227.52
763.74	227.36
764.06	227.21
764.39	227.07
764.71	226.97
765.04	226.81
765.37	226.68
765.69	226.56
766.02	226.42
766.34	226.24
766.67	226.00
767.00	225.88
767.32	225.86
767.65	225.85
767.97	225.68
768.30	225.61
768.62	225.51
768.95	225.37
769.27	225.25
769.60	225.12
769.92	224.96
770.25	224.78
770.57	224.62
770.90	224.48
771.22	224.35
771.55	224.19
771.87	224.09
772.20	223.97
772.52	224.04
772.85	224.22
773.17	224.10
773.50	224.01
773.82	223.89
774.15	223.67
774.47	223.47
774.80	223.37
775.12	223.25
775.45	223.14
775.77	223.08
776.09	223.01
776.42	222.94
776.74	222.91
777.07	222.84
777.39	222.80
777.72	222.68
778.04	222.63
778.36	222.53
778.69	222.45
779.01	222.41
779.33	222.12
779.66	221.80
779.98	221.76
780.31	221.67
780.63	221.68
780.95	221.66
781.28	221.58
781.60	221.52
781.92	221.47
782.25	221.39
782.57	221.29
782.89	221.22
783.22	221.14
783.54	221.03
783.86	221.01
784.19	220.92
784.51	220.95
784.83	220.85
785.16	220.78
785.48	220.74
785.80	220.64
786.12	220.64
