SpectraSuite Data File
++++++++++++++++++++++++++++++++++++
Date: Tue Jan 29 16:06:22 EST 2013
User: group
Dark Spectrum Present: No
Reference Spectrum Present: No
Number of Sampled Component Spectra: 1
Spectrometers: USB2E7196
Integration Time (usec): 65000 (USB2E7196)
Spectra Averaged: 100 (USB2E7196)
Boxcar Smoothing: 10 (USB2E7196)
Correct for Electrical Dark: No (USB2E7196)
Strobe/Lamp Enabled: No (USB2E7196)
Correct for Detector Non-linearity: No (USB2E7196)
Correct for Stray Light: No (USB2E7196)
Number of Pixels in Processed Spectrum: 2048
>>>>>Begin Processed Spectral Data<<<<<
339.09	0.00
339.48	202.35
339.86	204.10
340.24	205.78
340.63	207.32
341.01	211.53
341.39	209.68
341.78	210.88
342.16	212.82
342.54	212.35
342.93	201.83
343.31	212.05
343.69	212.59
344.07	213.05
344.46	213.47
344.84	213.87
345.22	214.02
345.60	214.28
345.99	214.49
346.37	214.58
346.75	214.71
347.13	214.77
347.52	214.83
347.90	214.97
348.28	215.01
348.66	215.09
349.05	215.06
349.43	215.17
349.81	215.21
350.19	215.28
350.57	215.33
350.96	215.42
351.34	215.48
351.72	215.62
352.10	215.74
352.48	215.81
352.87	215.83
353.25	215.91
353.63	215.95
354.01	216.04
354.39	216.17
354.77	216.25
355.15	216.38
355.54	216.42
355.92	216.41
356.30	216.45
356.68	216.66
357.06	216.76
357.44	216.77
357.82	216.83
358.20	216.91
358.58	216.99
358.97	217.06
359.35	217.17
359.73	217.24
360.11	217.29
360.49	217.33
360.87	217.39
361.25	217.46
361.63	217.60
362.01	217.60
362.39	217.62
362.77	217.66
363.15	217.67
363.53	217.72
363.91	217.76
364.29	217.77
364.67	217.60
365.05	217.61
365.43	217.65
365.81	217.68
366.19	217.76
366.57	217.83
366.95	217.82
367.33	217.77
367.71	217.77
368.09	217.80
368.47	217.79
368.85	217.80
369.23	217.83
369.61	217.72
369.99	217.81
370.37	217.78
370.75	217.88
371.13	217.83
371.51	217.75
371.89	217.78
372.27	217.80
372.65	217.77
373.03	217.76
373.41	217.68
373.78	217.62
374.16	217.47
374.54	217.38
374.92	217.31
375.30	217.27
375.68	217.15
376.06	217.10
376.44	217.09
376.82	217.05
377.19	216.98
377.57	216.92
377.95	216.80
378.33	216.78
378.71	216.58
379.09	216.58
379.47	216.57
379.84	216.50
380.22	216.42
380.60	216.36
380.98	216.29
381.36	216.24
381.73	216.19
382.11	216.23
382.49	216.17
382.87	216.12
383.25	216.08
383.62	216.33
384.00	216.27
384.38	216.22
384.76	216.23
385.13	216.28
385.51	216.26
385.89	216.19
386.27	216.13
386.64	216.17
387.02	216.10
387.40	216.07
387.78	216.02
388.15	216.02
388.53	215.99
388.91	215.96
389.29	215.96
389.66	216.01
390.04	215.96
390.42	216.00
390.79	216.02
391.17	216.03
391.55	215.80
391.92	215.79
392.30	215.81
392.68	215.73
393.05	215.69
393.43	215.68
393.81	215.71
394.18	215.72
394.56	215.72
394.94	215.76
395.31	215.74
395.69	215.87
396.06	215.90
396.44	215.95
396.82	215.96
397.19	216.10
397.57	216.05
397.95	216.12
398.32	216.07
398.70	216.13
399.07	216.24
399.45	216.26
399.82	216.28
400.20	216.31
400.58	216.39
400.95	216.38
401.33	216.50
401.70	216.70
402.08	216.79
402.45	216.88
402.83	217.02
403.20	217.14
403.58	217.19
403.95	217.33
404.33	217.47
404.71	217.63
405.08	217.86
405.46	218.04
405.83	218.21
406.21	218.41
406.58	218.63
406.96	218.81
407.33	219.07
407.70	219.39
408.08	219.83
408.45	220.17
408.83	220.57
409.20	220.91
409.58	221.15
409.95	221.60
410.33	222.06
410.70	222.46
411.08	223.03
411.45	223.61
411.82	224.17
412.20	224.85
412.57	225.64
412.95	226.20
413.32	226.99
413.69	227.79
414.07	228.68
414.44	229.58
414.82	230.58
415.19	231.70
415.56	232.81
415.94	233.95
416.31	235.27
416.68	236.60
417.06	238.16
417.43	239.69
417.81	241.37
418.18	243.11
418.55	245.00
418.93	246.90
419.30	248.89
419.67	251.04
420.04	253.21
420.42	255.52
420.79	258.25
421.16	260.96
421.54	263.76
421.91	266.66
422.28	269.67
422.66	272.83
423.03	275.97
423.40	279.25
423.77	282.72
424.15	286.28
424.52	289.98
424.89	294.00
425.26	297.95
425.64	301.66
426.01	305.76
426.38	310.05
426.75	314.47
427.13	319.07
427.50	323.88
427.87	328.95
428.24	333.94
428.61	338.73
428.99	344.11
429.36	349.92
429.73	355.59
430.10	361.24
430.47	367.14
430.85	373.25
431.22	379.72
431.59	386.60
431.96	393.23
432.33	400.55
432.70	407.56
433.08	415.77
433.45	423.56
433.82	431.33
434.19	439.92
434.56	448.32
434.93	456.41
435.30	464.40
435.68	473.19
436.05	481.85
436.42	490.43
436.79	498.23
437.16	506.69
437.53	515.66
437.90	524.45
438.27	533.07
438.64	541.94
439.01	550.15
439.38	557.46
439.75	564.47
440.13	572.58
440.50	580.21
440.87	586.42
441.24	592.88
441.61	599.96
441.98	605.10
442.35	611.19
442.72	617.19
443.09	623.02
443.46	626.62
443.83	629.01
444.20	631.10
444.57	634.10
444.94	635.45
445.31	636.77
445.68	638.15
446.05	638.73
446.42	637.99
446.79	637.08
447.16	635.99
447.53	635.28
447.90	632.01
448.27	628.85
448.64	624.31
449.01	621.01
449.37	615.30
449.74	609.88
450.11	603.19
450.48	596.01
450.85	588.77
451.22	582.49
451.59	576.59
451.96	570.98
452.33	563.40
452.70	556.56
453.07	548.43
453.43	540.14
453.80	532.16
454.17	524.44
454.54	517.20
454.91	509.34
455.28	501.64
455.65	494.48
456.02	487.24
456.38	481.14
456.75	473.61
457.12	467.27
457.49	461.01
457.86	455.09
458.23	450.03
458.59	444.40
458.96	438.65
459.33	433.55
459.70	428.44
460.07	424.41
460.43	419.73
460.80	415.34
461.17	411.51
461.54	407.49
461.91	403.60
462.27	399.60
462.64	396.27
463.01	392.60
463.38	389.05
463.74	385.47
464.11	382.35
464.48	379.62
464.85	376.68
465.21	374.33
465.58	371.85
465.95	368.79
466.32	366.27
466.68	363.77
467.05	361.33
467.42	358.85
467.78	356.23
468.15	353.78
468.52	351.97
468.88	349.58
469.25	347.42
469.62	345.73
469.98	343.88
470.35	342.17
470.72	340.57
471.08	338.88
471.45	337.45
471.82	336.01
472.18	334.41
472.55	333.22
472.92	331.93
473.28	330.73
473.65	329.64
474.02	328.61
474.38	327.76
474.75	327.03
475.11	326.29
475.48	325.76
475.85	325.33
476.21	324.83
476.58	324.50
476.94	324.31
477.31	324.04
477.67	323.83
478.04	323.71
478.41	323.72
478.77	323.90
479.14	323.93
479.50	324.14
479.87	324.46
480.23	324.85
480.60	325.09
480.96	325.40
481.33	326.02
481.69	326.60
482.06	327.11
482.42	327.62
482.79	328.18
483.15	328.98
483.52	329.93
483.88	330.86
484.25	331.83
484.61	332.88
484.98	333.94
485.34	335.25
485.71	336.60
486.07	337.99
486.44	339.29
486.80	340.89
487.17	342.57
487.53	344.39
487.90	346.24
488.26	348.23
488.62	350.34
488.99	352.37
489.35	354.48
489.72	356.87
490.08	359.41
490.44	362.00
490.81	364.70
491.17	367.38
491.54	370.36
491.90	373.43
492.26	376.63
492.63	380.05
492.99	383.53
493.36	387.24
493.72	391.17
494.08	395.22
494.45	399.38
494.81	403.67
495.17	408.14
495.54	412.83
495.90	417.65
496.26	422.62
496.63	427.83
496.99	433.21
497.35	438.80
497.72	444.57
498.08	450.49
498.44	456.57
498.80	463.05
499.17	469.50
499.53	476.13
499.89	482.97
500.26	489.85
500.62	496.87
500.98	504.23
501.34	511.60
501.71	519.27
502.07	527.07
502.43	535.04
502.79	543.05
503.16	551.37
503.52	559.95
503.88	568.68
504.24	577.60
504.60	586.62
504.97	595.77
505.33	605.03
505.69	614.86
506.05	624.70
506.41	634.49
506.78	644.52
507.14	654.76
507.50	665.16
507.86	675.85
508.22	686.70
508.59	697.36
508.95	708.35
509.31	719.63
509.67	731.01
510.03	742.46
510.39	754.26
510.75	766.06
511.12	777.89
511.48	789.86
511.84	802.03
512.20	814.26
512.56	826.90
512.92	839.65
513.28	852.14
513.64	864.81
514.00	877.53
514.37	890.41
514.73	903.38
515.09	916.30
515.45	929.05
515.81	941.90
516.17	955.03
516.53	968.19
516.89	981.07
517.25	994.13
517.61	1007.47
517.97	1020.60
518.33	1033.57
518.69	1046.98
519.05	1060.52
519.41	1073.90
519.77	1087.61
520.13	1100.60
520.49	1113.48
520.85	1126.71
521.21	1139.82
521.57	1153.27
521.93	1166.18
522.29	1179.77
522.65	1193.14
523.01	1206.49
523.37	1219.48
523.73	1232.51
524.09	1245.37
524.45	1258.63
524.81	1271.79
525.17	1284.87
525.53	1297.77
525.89	1310.81
526.25	1323.64
526.61	1336.30
526.97	1349.18
527.33	1361.86
527.68	1375.15
528.04	1388.46
528.40	1401.38
528.76	1414.48
529.12	1427.21
529.48	1440.18
529.84	1452.11
530.20	1464.68
530.56	1477.01
530.91	1489.98
531.27	1502.71
531.63	1515.27
531.99	1527.70
532.35	1539.71
532.71	1551.90
533.07	1564.46
533.42	1576.41
533.78	1588.23
534.14	1599.98
534.50	1610.95
534.86	1622.33
535.21	1632.91
535.57	1643.94
535.93	1654.84
536.29	1665.68
536.65	1676.69
537.00	1687.34
537.36	1698.32
537.72	1708.95
538.08	1720.03
538.44	1730.68
538.79	1741.31
539.15	1751.85
539.51	1762.16
539.87	1773.19
540.22	1783.58
540.58	1794.29
540.94	1804.85
541.29	1814.73
541.65	1824.19
542.01	1834.38
542.37	1844.12
542.72	1853.95
543.08	1863.54
543.44	1873.62
543.79	1882.63
544.15	1891.89
544.51	1901.72
544.87	1911.54
545.22	1920.49
545.58	1929.18
545.94	1937.82
546.29	1946.07
546.65	1954.17
547.01	1962.33
547.36	1969.75
547.72	1977.27
548.07	1984.53
548.43	1992.02
548.79	1999.89
549.14	2007.83
549.50	2016.02
549.86	2023.53
550.21	2030.71
550.57	2038.02
550.92	2044.61
551.28	2051.86
551.64	2058.89
551.99	2066.01
552.35	2072.78
552.70	2079.23
553.06	2085.67
553.41	2091.70
553.77	2098.23
554.13	2104.38
554.48	2111.14
554.84	2118.10
555.19	2124.39
555.55	2130.98
555.90	2137.10
556.26	2143.62
556.61	2149.27
556.97	2154.17
557.32	2160.01
557.68	2166.35
558.03	2172.19
558.39	2177.40
558.74	2183.20
559.10	2188.72
559.45	2194.30
559.81	2199.83
560.16	2205.44
560.52	2211.27
560.87	2217.59
561.23	2223.43
561.58	2230.22
561.94	2235.41
562.29	2240.15
562.64	2246.41
563.00	2251.85
563.35	2257.58
563.71	2263.35
564.06	2269.18
564.42	2274.96
564.77	2280.04
565.12	2285.19
565.48	2290.33
565.83	2295.99
566.19	2301.61
566.54	2306.91
566.89	2311.58
567.25	2316.23
567.60	2322.16
567.96	2327.51
568.31	2332.08
568.66	2336.35
569.02	2340.26
569.37	2344.02
569.72	2348.47
570.08	2351.91
570.43	2355.02
570.78	2358.07
571.14	2360.82
571.49	2363.98
571.84	2367.74
572.20	2370.72
572.55	2373.93
572.90	2376.12
573.26	2379.16
573.61	2381.67
573.96	2383.99
574.31	2386.02
574.67	2387.99
575.02	2389.03
575.37	2390.50
575.72	2391.61
576.08	2393.18
576.43	2393.50
576.78	2394.24
577.13	2396.15
577.49	2397.39
577.84	2398.95
578.19	2400.65
578.54	2401.41
578.90	2402.67
579.25	2402.67
579.60	2402.92
579.95	2402.39
580.30	2403.14
580.66	2402.60
581.01	2401.10
581.36	2399.03
581.71	2397.99
582.06	2397.25
582.42	2396.50
582.77	2394.48
583.12	2393.02
583.47	2392.02
583.82	2391.79
584.17	2390.83
584.53	2388.61
584.88	2386.92
585.23	2385.04
585.58	2382.90
585.93	2380.82
586.28	2378.66
586.63	2376.56
586.98	2374.54
587.34	2372.90
587.69	2370.61
588.04	2368.80
588.39	2367.54
588.74	2365.24
589.09	2362.64
589.44	2359.73
589.79	2357.38
590.14	2355.78
590.49	2353.09
590.84	2349.49
591.19	2346.57
591.54	2343.34
591.89	2339.60
592.25	2336.43
592.60	2332.42
592.95	2328.43
593.30	2324.59
593.65	2320.32
594.00	2316.05
594.35	2313.11
594.70	2308.55
595.05	2304.07
595.40	2298.65
595.75	2293.14
596.10	2289.63
596.45	2285.00
596.80	2280.49
597.15	2275.29
597.50	2269.48
597.85	2264.74
598.19	2259.64
598.54	2253.97
598.89	2249.27
599.24	2244.78
599.59	2238.81
599.94	2233.27
600.29	2227.53
600.64	2221.73
600.99	2215.16
601.34	2209.75
601.69	2202.66
602.04	2196.33
602.39	2189.80
602.74	2183.90
603.08	2178.57
603.43	2172.16
603.78	2165.48
604.13	2158.50
604.48	2151.51
604.83	2145.42
605.18	2138.96
605.53	2132.00
605.87	2124.86
606.22	2117.88
606.57	2110.06
606.92	2102.32
607.27	2095.34
607.62	2088.65
607.96	2081.73
608.31	2075.11
608.66	2067.47
609.01	2060.13
609.36	2053.11
609.70	2045.37
610.05	2037.80
610.40	2029.48
610.75	2021.29
611.10	2013.78
611.44	2004.95
611.79	1996.15
612.14	1986.15
612.49	1975.87
612.83	1966.71
613.18	1957.64
613.53	1948.41
613.88	1938.95
614.22	1930.32
614.57	1920.33
614.92	1909.94
615.27	1899.88
615.61	1890.00
615.96	1880.29
616.31	1870.65
616.65	1861.24
617.00	1851.47
617.35	1841.75
617.70	1832.07
618.04	1822.03
618.39	1811.51
618.74	1801.94
619.08	1792.54
619.43	1783.88
619.78	1775.69
620.12	1767.03
620.47	1757.16
620.82	1746.89
621.16	1737.09
621.51	1727.15
621.85	1717.47
622.20	1706.92
622.55	1696.30
622.89	1686.58
623.24	1676.93
623.59	1667.26
623.93	1657.06
624.28	1647.40
624.62	1637.11
624.97	1626.83
625.32	1617.18
625.66	1608.40
626.01	1599.60
626.35	1590.05
626.70	1579.97
627.04	1569.70
627.39	1559.60
627.73	1550.46
628.08	1541.34
628.43	1531.83
628.77	1522.54
629.12	1513.63
629.46	1505.65
629.81	1497.19
630.15	1487.51
630.50	1477.57
630.84	1467.09
631.19	1457.33
631.53	1447.81
631.88	1437.76
632.22	1427.70
632.57	1418.35
632.91	1408.12
633.26	1398.21
633.60	1388.64
633.95	1379.26
634.29	1369.94
634.64	1360.46
634.98	1350.66
635.32	1341.40
635.67	1332.79
636.01	1323.67
636.36	1313.80
636.70	1304.51
637.05	1295.06
637.39	1286.05
637.73	1277.41
638.08	1269.78
638.42	1261.49
638.77	1252.80
639.11	1244.56
639.45	1236.68
639.80	1227.85
640.14	1219.21
640.49	1210.32
640.83	1201.56
641.17	1193.50
641.52	1185.19
641.86	1176.66
642.20	1168.66
642.55	1160.16
642.89	1151.35
643.23	1142.56
643.58	1134.48
643.92	1125.40
644.26	1116.81
644.61	1108.37
644.95	1099.68
645.29	1090.46
645.64	1081.22
645.98	1072.81
646.32	1064.86
646.66	1056.26
647.01	1047.90
647.35	1039.81
647.69	1031.42
648.04	1023.02
648.38	1014.12
648.72	1005.41
649.06	996.94
649.41	988.78
649.75	980.78
650.09	972.93
650.43	964.88
650.78	956.65
651.12	948.90
651.46	941.53
651.80	934.31
652.14	926.93
652.49	919.50
652.83	912.21
653.17	904.52
653.51	896.94
653.85	889.80
654.20	882.57
654.54	875.02
654.88	867.85
655.22	860.71
655.56	853.72
655.90	846.95
656.25	840.35
656.59	833.37
656.93	826.34
657.27	819.21
657.61	812.32
657.95	806.32
658.29	800.58
658.64	794.50
658.98	788.04
659.32	781.55
659.66	775.29
660.00	769.00
660.34	763.00
660.68	756.90
661.02	750.69
661.36	744.94
661.70	739.21
662.05	733.62
662.39	728.15
662.73	722.94
663.07	717.64
663.41	712.11
663.75	706.55
664.09	701.01
664.43	695.64
664.77	690.40
665.11	684.66
665.45	678.75
665.79	672.97
666.13	667.32
666.47	661.91
666.81	656.58
667.15	651.34
667.49	646.14
667.83	641.00
668.17	635.78
668.51	630.62
668.85	625.73
669.19	620.87
669.53	615.98
669.87	610.86
670.21	606.10
670.55	601.39
670.89	597.06
671.23	592.82
671.57	588.49
671.91	584.19
672.25	580.08
672.58	576.04
672.92	572.07
673.26	568.24
673.60	564.43
673.94	560.68
674.28	557.06
674.62	553.36
674.96	549.70
675.30	546.30
675.64	542.78
675.97	539.30
676.31	535.75
676.65	532.20
676.99	528.78
677.33	525.01
677.67	521.46
678.01	517.63
678.34	514.02
678.68	510.55
679.02	507.00
679.36	503.31
679.70	499.69
680.04	496.20
680.37	492.81
680.71	489.56
681.05	486.40
681.39	483.29
681.73	480.15
682.06	477.11
682.40	474.00
682.74	470.77
683.08	467.59
683.42	464.51
683.75	461.53
684.09	458.59
684.43	455.80
684.77	452.89
685.10	450.13
685.44	447.30
685.78	444.43
686.12	441.76
686.45	439.07
686.79	436.46
687.13	433.96
687.46	431.39
687.80	428.76
688.14	425.94
688.48	423.34
688.81	420.78
689.15	418.28
689.49	415.77
689.82	413.28
690.16	410.76
690.50	408.34
690.83	405.90
691.17	403.42
691.51	401.07
691.84	398.94
692.18	396.74
692.52	394.51
692.85	392.45
693.19	390.33
693.52	388.27
693.86	386.12
694.20	384.03
694.53	381.94
694.87	379.77
695.21	377.71
695.54	375.57
695.88	373.42
696.21	371.22
696.55	369.10
696.88	367.11
697.22	365.22
697.56	363.36
697.89	361.54
698.23	359.85
698.56	358.13
698.90	356.34
699.23	354.44
699.57	352.66
699.90	350.83
700.24	349.05
700.58	347.29
700.91	345.65
701.25	344.09
701.58	342.52
701.92	340.97
702.25	339.40
702.59	337.81
702.92	336.32
703.26	334.86
703.59	333.45
703.93	332.22
704.26	330.80
704.60	329.31
704.93	327.85
705.26	326.35
705.60	324.88
705.93	323.42
706.27	322.14
706.60	320.90
706.94	319.68
707.27	318.35
707.61	317.04
707.94	315.72
708.27	314.24
708.61	312.80
708.94	311.49
709.28	310.25
709.61	309.05
709.94	307.92
710.28	306.72
710.61	305.57
710.95	304.23
711.28	303.16
711.61	302.01
711.95	300.91
712.28	299.73
712.61	298.59
712.95	297.53
713.28	296.51
713.61	295.35
713.95	294.23
714.28	293.22
714.61	292.27
714.95	291.25
715.28	290.23
715.61	289.26
715.95	288.34
716.28	287.38
716.61	286.48
716.95	285.48
717.28	284.59
717.61	283.65
717.94	282.76
718.28	281.77
718.61	280.91
718.94	280.03
719.27	279.24
719.61	278.47
719.94	277.65
720.27	276.73
720.60	275.96
720.94	275.19
721.27	274.46
721.60	273.76
721.93	273.11
722.27	272.52
722.60	271.91
722.93	271.21
723.26	270.59
723.59	269.91
723.93	269.28
724.26	268.65
724.59	268.04
724.92	267.47
725.25	266.97
725.59	266.45
725.92	265.96
726.25	265.41
726.58	264.87
726.91	264.28
727.24	263.77
727.57	263.22
727.91	262.64
728.24	262.10
728.57	261.49
728.90	260.98
729.23	260.39
729.56	259.93
729.89	259.39
730.22	258.80
730.55	258.25
730.89	257.72
731.22	257.19
731.55	256.69
731.88	256.19
732.21	255.65
732.54	255.10
732.87	254.55
733.20	254.05
733.53	253.55
733.86	253.13
734.19	252.65
734.52	252.25
734.85	251.96
735.18	251.51
735.51	251.15
735.84	250.72
736.17	250.32
736.50	249.80
736.83	249.71
737.16	249.37
737.49	249.03
737.82	248.67
738.15	248.34
738.48	247.96
738.81	247.60
739.14	247.17
739.47	246.85
739.80	246.52
740.13	246.20
740.46	245.79
740.79	245.41
741.12	245.06
741.45	244.70
741.78	244.27
742.11	243.99
742.44	243.62
742.77	243.32
743.10	242.99
743.43	242.62
743.75	242.02
744.08	241.94
744.41	241.57
744.74	241.18
745.07	240.81
745.40	240.54
745.73	240.26
746.06	239.97
746.39	239.65
746.71	239.29
747.04	238.94
747.37	238.63
747.70	238.34
748.03	238.04
748.36	237.75
748.68	237.44
749.01	237.10
749.34	236.78
749.67	236.50
750.00	236.22
750.33	236.15
750.65	235.91
750.98	235.42
751.31	235.22
751.64	235.04
751.97	234.93
752.29	234.65
752.62	234.32
752.95	234.05
753.28	233.81
753.60	233.59
753.93	233.45
754.26	233.25
754.59	232.97
754.91	232.76
755.24	232.52
755.57	232.30
755.90	232.07
756.22	231.87
756.55	231.63
756.88	231.40
757.20	231.07
757.53	230.80
757.86	230.57
758.19	230.39
758.51	230.14
758.84	229.84
759.17	229.62
759.49	229.48
759.82	229.44
760.15	229.30
760.47	229.11
760.80	228.86
761.13	228.74
761.45	228.59
761.78	228.40
762.11	228.24
762.43	228.06
762.76	227.91
763.08	227.79
763.41	227.65
763.74	227.49
764.06	227.32
764.39	227.16
764.71	227.06
765.04	226.85
765.37	226.73
765.69	226.60
766.02	226.48
766.34	226.31
766.67	226.09
767.00	225.95
767.32	225.95
767.65	225.93
767.97	225.79
768.30	225.69
768.62	225.58
768.95	225.43
769.27	225.31
769.60	225.22
769.92	225.05
770.25	224.90
770.57	224.76
770.90	224.61
771.22	224.51
771.55	224.39
771.87	224.34
772.20	224.20
772.52	224.23
772.85	224.36
773.17	224.27
773.50	224.16
773.82	224.01
774.15	223.81
774.47	223.58
774.80	223.43
775.12	223.31
775.45	223.22
775.77	223.12
776.09	223.04
776.42	222.95
776.74	222.93
777.07	222.83
777.39	222.77
777.72	222.69
778.04	222.60
778.36	222.49
778.69	222.40
779.01	222.37
779.33	222.11
779.66	221.82
779.98	221.68
780.31	221.61
780.63	221.66
780.95	221.62
781.28	221.56
781.60	221.48
781.92	221.42
782.25	221.36
782.57	221.33
782.89	221.26
783.22	221.19
783.54	221.07
783.86	221.03
784.19	220.94
784.51	220.95
784.83	220.92
785.16	220.87
785.48	220.78
785.80	220.71
786.12	220.68
