SpectraSuite Data File
++++++++++++++++++++++++++++++++++++
Date: Tue Jan 29 16:32:01 EST 2013
User: group
Dark Spectrum Present: No
Reference Spectrum Present: No
Number of Sampled Component Spectra: 1
Spectrometers: USB2E7196
Integration Time (usec): 65000 (USB2E7196)
Spectra Averaged: 100 (USB2E7196)
Boxcar Smoothing: 10 (USB2E7196)
Correct for Electrical Dark: No (USB2E7196)
Strobe/Lamp Enabled: No (USB2E7196)
Correct for Detector Non-linearity: No (USB2E7196)
Correct for Stray Light: No (USB2E7196)
Number of Pixels in Processed Spectrum: 2048
>>>>>Begin Processed Spectral Data<<<<<
339.09	0.00
339.48	201.53
339.86	203.25
340.24	203.90
340.63	206.11
341.01	210.31
341.39	208.71
341.78	210.00
342.16	211.90
342.54	211.76
342.93	200.90
343.31	211.06
343.69	211.63
344.07	212.08
344.46	212.58
344.84	212.98
345.22	213.17
345.60	213.44
345.99	213.64
346.37	213.77
346.75	213.88
347.13	213.97
347.52	214.05
347.90	214.18
348.28	214.23
348.66	214.32
349.05	214.32
349.43	214.36
349.81	214.41
350.19	214.42
350.57	214.49
350.96	214.58
351.34	214.68
351.72	214.79
352.10	214.91
352.48	214.97
352.87	215.02
353.25	215.08
353.63	215.16
354.01	215.25
354.39	215.34
354.77	215.41
355.15	215.55
355.54	215.61
355.92	215.61
356.30	215.72
356.68	215.96
357.06	216.07
357.44	216.15
357.82	216.26
358.20	216.41
358.58	216.49
358.97	216.57
359.35	216.69
359.73	216.81
360.11	216.90
360.49	216.94
360.87	217.04
361.25	217.13
361.63	217.28
362.01	217.35
362.39	217.41
362.77	217.49
363.15	217.54
363.53	217.58
363.91	217.62
364.29	217.66
364.67	217.48
365.05	217.54
365.43	217.57
365.81	217.58
366.19	217.69
366.57	217.80
366.95	217.82
367.33	217.78
367.71	217.77
368.09	217.79
368.47	217.83
368.85	217.81
369.23	217.81
369.61	217.72
369.99	217.77
370.37	217.75
370.75	217.83
371.13	217.77
371.51	217.75
371.89	217.77
372.27	217.75
372.65	217.73
373.03	217.68
373.41	217.64
373.78	217.61
374.16	217.46
374.54	217.36
374.92	217.30
375.30	217.29
375.68	217.20
376.06	217.17
376.44	217.13
376.82	217.10
377.19	217.06
377.57	217.01
377.95	216.88
378.33	216.83
378.71	216.68
379.09	216.63
379.47	216.59
379.84	216.50
380.22	216.44
380.60	216.34
380.98	216.29
381.36	216.24
381.73	216.18
382.11	216.17
382.49	216.11
382.87	216.02
383.25	215.96
383.62	216.17
384.00	216.09
384.38	216.05
384.76	216.05
385.13	216.06
385.51	215.98
385.89	215.91
386.27	215.88
386.64	215.86
387.02	215.80
387.40	215.74
387.78	215.72
388.15	215.67
388.53	215.64
388.91	215.61
389.29	215.57
389.66	215.53
390.04	215.46
390.42	215.49
390.79	215.49
391.17	215.46
391.55	215.20
391.92	215.17
392.30	215.14
392.68	215.06
393.05	215.04
393.43	215.08
393.81	215.13
394.18	215.11
394.56	215.09
394.94	215.14
395.31	215.15
395.69	215.22
396.06	215.26
396.44	215.29
396.82	215.30
397.19	215.44
397.57	215.46
397.95	215.52
398.32	215.49
398.70	215.54
399.07	215.65
399.45	215.67
399.82	215.72
400.20	215.78
400.58	215.87
400.95	215.87
401.33	215.96
401.70	216.16
402.08	216.23
402.45	216.33
402.83	216.47
403.20	216.61
403.58	216.67
403.95	216.83
404.33	217.02
404.71	217.21
405.08	217.43
405.46	217.61
405.83	217.79
406.21	218.00
406.58	218.22
406.96	218.40
407.33	218.68
407.70	218.97
408.08	219.40
408.45	219.71
408.83	220.09
409.20	220.41
409.58	220.66
409.95	221.12
410.33	221.61
410.70	222.01
411.08	222.54
411.45	223.11
411.82	223.68
412.20	224.34
412.57	225.17
412.95	225.77
413.32	226.59
413.69	227.46
414.07	228.36
414.44	229.37
414.82	230.39
415.19	231.61
415.56	232.81
415.94	234.00
416.31	235.44
416.68	236.83
417.06	238.45
417.43	240.00
417.81	241.75
418.18	243.54
418.55	245.50
418.93	247.52
419.30	249.61
419.67	251.86
420.04	254.12
420.42	256.47
420.79	259.29
421.16	262.05
421.54	264.96
421.91	267.98
422.28	271.08
422.66	274.38
423.03	277.60
423.40	280.97
423.77	284.55
424.15	288.20
424.52	292.07
424.89	296.31
425.26	300.43
425.64	304.29
426.01	308.57
426.38	313.04
426.75	317.60
427.13	322.36
427.50	327.30
427.87	332.49
428.24	337.72
428.61	342.71
428.99	348.24
429.36	354.22
429.73	360.10
430.10	365.97
430.47	372.04
430.85	378.31
431.22	385.02
431.59	392.08
431.96	398.96
432.33	406.37
432.70	413.55
433.08	422.04
433.45	430.11
433.82	438.17
434.19	447.06
434.56	455.78
434.93	464.10
435.30	472.40
435.68	481.53
436.05	490.52
436.42	499.38
436.79	507.52
437.16	516.28
437.53	525.48
437.90	534.57
438.27	543.49
438.64	552.73
439.01	561.28
439.38	568.91
439.75	576.23
440.13	584.72
440.50	592.70
440.87	599.11
441.24	605.67
441.61	612.93
441.98	618.31
442.35	624.64
442.72	631.00
443.09	637.09
443.46	640.78
443.83	643.27
444.20	645.49
444.57	648.66
444.94	650.13
445.31	651.62
445.68	653.07
446.05	653.70
446.42	652.94
446.79	651.91
447.16	650.83
447.53	649.97
447.90	646.69
448.27	643.35
448.64	638.72
449.01	635.45
449.37	629.53
449.74	623.87
450.11	616.96
450.48	609.50
450.85	602.00
451.22	595.61
451.59	589.47
451.96	583.64
452.33	575.75
452.70	568.62
453.07	560.14
453.43	551.54
453.80	543.25
454.17	535.25
454.54	527.72
454.91	519.54
455.28	511.59
455.65	504.16
456.02	496.66
456.38	490.34
456.75	482.51
457.12	476.01
457.49	469.53
457.86	463.31
458.23	457.92
458.59	451.99
458.96	445.98
459.33	440.66
459.70	435.26
460.07	431.06
460.43	426.20
460.80	421.63
461.17	417.65
461.54	413.46
461.91	409.42
462.27	405.37
462.64	401.93
463.01	398.16
463.38	394.41
463.74	390.72
464.11	387.46
464.48	384.62
464.85	381.52
465.21	379.06
465.58	376.50
465.95	373.34
466.32	370.70
466.68	368.10
467.05	365.53
467.42	362.99
467.78	360.28
468.15	357.73
468.52	355.79
468.88	353.27
469.25	351.07
469.62	349.27
469.98	347.32
470.35	345.52
470.72	343.82
471.08	342.04
471.45	340.53
471.82	338.99
472.18	337.29
472.55	336.05
472.92	334.62
473.28	333.32
473.65	332.21
474.02	331.13
474.38	330.21
474.75	329.43
475.11	328.56
475.48	327.97
475.85	327.48
476.21	327.00
476.58	326.61
476.94	326.36
477.31	326.01
477.67	325.73
478.04	325.54
478.41	325.48
478.77	325.64
479.14	325.59
479.50	325.77
479.87	326.06
480.23	326.40
480.60	326.66
480.96	327.00
481.33	327.59
481.69	328.15
482.06	328.62
482.42	329.16
482.79	329.82
483.15	330.61
483.52	331.53
483.88	332.41
484.25	333.38
484.61	334.42
484.98	335.53
485.34	336.83
485.71	338.23
486.07	339.67
486.44	341.03
486.80	342.65
487.17	344.31
487.53	346.18
487.90	348.10
488.26	350.15
488.62	352.27
488.99	354.35
489.35	356.53
489.72	358.96
490.08	361.47
490.44	364.02
490.81	366.74
491.17	369.46
491.54	372.43
491.90	375.51
492.26	378.73
492.63	382.13
492.99	385.66
493.36	389.28
493.72	393.20
494.08	397.21
494.45	401.43
494.81	405.80
495.17	410.23
495.54	414.93
495.90	419.77
496.26	424.72
496.63	429.98
496.99	435.41
497.35	441.04
497.72	446.89
498.08	452.84
498.44	458.91
498.80	465.36
499.17	471.86
499.53	478.60
499.89	485.53
500.26	492.54
500.62	499.62
500.98	507.09
501.34	514.54
501.71	522.31
502.07	530.15
502.43	538.23
502.79	546.44
503.16	554.89
503.52	563.50
503.88	572.30
504.24	581.21
504.60	590.26
504.97	599.43
505.33	608.74
505.69	618.64
506.05	628.66
506.41	638.56
506.78	648.71
507.14	659.06
507.50	669.58
507.86	680.31
508.22	691.08
508.59	701.81
508.95	713.03
509.31	724.25
509.67	735.82
510.03	747.35
510.39	759.14
510.75	770.99
511.12	782.95
511.48	795.06
511.84	807.34
512.20	819.83
512.56	832.60
512.92	845.44
513.28	858.20
513.64	871.02
514.00	883.94
514.37	897.01
514.73	910.21
515.09	923.28
515.45	936.19
515.81	949.39
516.17	962.88
516.53	976.16
516.89	989.43
517.25	1002.66
517.61	1016.22
517.97	1029.75
518.33	1043.00
518.69	1056.65
519.05	1070.55
519.41	1084.39
519.77	1098.33
520.13	1111.75
520.49	1125.12
520.85	1138.54
521.21	1151.98
521.57	1165.81
521.93	1178.96
522.29	1192.78
522.65	1206.56
523.01	1220.42
523.37	1233.76
523.73	1247.20
524.09	1260.46
524.45	1274.09
524.81	1287.68
525.17	1301.15
525.53	1314.38
525.89	1327.83
526.25	1341.12
526.61	1354.02
526.97	1367.12
527.33	1380.16
527.68	1393.70
528.04	1407.29
528.40	1420.47
528.76	1433.99
529.12	1447.01
529.48	1460.57
529.84	1472.85
530.20	1485.64
530.56	1498.33
530.91	1511.68
531.27	1524.58
531.63	1537.43
531.99	1550.14
532.35	1562.52
532.71	1575.02
533.07	1588.03
533.42	1600.43
533.78	1612.58
534.14	1624.71
534.50	1636.15
534.86	1647.92
535.21	1658.95
535.57	1670.62
535.93	1682.05
536.29	1693.12
536.65	1704.63
537.00	1715.66
537.36	1727.23
537.72	1738.35
538.08	1749.89
538.44	1760.96
538.79	1772.29
539.15	1783.33
539.51	1794.36
539.87	1805.77
540.22	1816.65
540.58	1827.71
540.94	1838.63
541.29	1849.06
541.65	1858.95
542.01	1869.60
542.37	1879.71
542.72	1889.98
543.08	1899.77
543.44	1910.46
543.79	1919.91
544.15	1929.46
544.51	1939.52
544.87	1949.44
545.22	1958.66
545.58	1967.61
545.94	1976.62
546.29	1985.26
546.65	1993.79
547.01	2002.15
547.36	2009.98
547.72	2017.81
548.07	2025.49
548.43	2033.35
548.79	2041.31
549.14	2049.65
549.50	2058.20
549.86	2066.24
550.21	2073.75
550.57	2081.50
550.92	2088.41
551.28	2096.04
551.64	2103.34
551.99	2110.81
552.35	2118.17
552.70	2125.24
553.06	2131.97
553.41	2138.28
553.77	2144.74
554.13	2151.19
554.48	2158.25
554.84	2165.36
555.19	2172.06
555.55	2178.62
555.90	2184.89
556.26	2191.71
556.61	2197.81
556.97	2202.63
557.32	2208.39
557.68	2214.77
558.03	2220.58
558.39	2225.92
558.74	2231.87
559.10	2237.41
559.45	2242.91
559.81	2248.34
560.16	2254.02
560.52	2259.84
560.87	2266.38
561.23	2272.29
561.58	2279.05
561.94	2284.13
562.29	2288.79
562.64	2294.84
563.00	2300.39
563.35	2306.12
563.71	2311.92
564.06	2317.49
564.42	2323.53
564.77	2328.61
565.12	2334.01
565.48	2339.19
565.83	2344.80
566.19	2350.40
566.54	2355.87
566.89	2360.67
567.25	2365.29
567.60	2370.90
567.96	2376.11
568.31	2380.52
568.66	2384.91
569.02	2388.79
569.37	2392.57
569.72	2397.08
570.08	2400.63
570.43	2403.79
570.78	2406.90
571.14	2409.36
571.49	2412.57
571.84	2416.07
572.20	2418.97
572.55	2421.84
572.90	2424.07
573.26	2426.74
573.61	2429.13
573.96	2431.20
574.31	2433.32
574.67	2435.30
575.02	2436.02
575.37	2437.42
575.72	2438.12
576.08	2439.53
576.43	2439.55
576.78	2439.98
577.13	2441.57
577.49	2442.83
577.84	2443.83
578.19	2445.11
578.54	2445.65
578.90	2446.41
579.25	2446.36
579.60	2446.26
579.95	2445.41
580.30	2445.52
580.66	2444.71
581.01	2443.01
581.36	2440.73
581.71	2439.07
582.06	2437.83
582.42	2436.91
582.77	2434.69
583.12	2432.98
583.47	2431.60
583.82	2430.94
584.17	2429.68
584.53	2427.45
584.88	2425.20
585.23	2423.30
585.58	2420.89
585.93	2418.82
586.28	2416.47
586.63	2413.88
586.98	2411.70
587.34	2409.68
587.69	2407.16
588.04	2405.10
588.39	2403.47
588.74	2401.01
589.09	2398.19
589.44	2394.82
589.79	2392.14
590.14	2390.06
590.49	2387.16
590.84	2383.09
591.19	2379.91
591.54	2376.56
591.89	2372.43
592.25	2369.02
592.60	2364.66
592.95	2360.55
593.30	2356.36
593.65	2351.95
594.00	2347.37
594.35	2344.21
594.70	2339.54
595.05	2334.92
595.40	2329.27
595.75	2323.46
596.10	2319.75
596.45	2314.84
596.80	2310.22
597.15	2305.12
597.50	2299.24
597.85	2294.25
598.19	2288.98
598.54	2283.15
598.89	2277.99
599.24	2273.44
599.59	2267.19
599.94	2261.34
600.29	2255.33
600.64	2249.40
600.99	2242.59
601.34	2237.07
601.69	2230.17
602.04	2223.74
602.39	2217.05
602.74	2211.05
603.08	2205.54
603.43	2198.88
603.78	2192.13
604.13	2185.14
604.48	2177.71
604.83	2171.56
605.18	2165.28
605.53	2158.31
605.87	2151.10
606.22	2144.18
606.57	2136.24
606.92	2128.34
607.27	2121.39
607.62	2114.68
607.96	2107.57
608.31	2101.03
608.66	2093.16
609.01	2085.30
609.36	2078.11
609.70	2070.40
610.05	2062.48
610.40	2054.06
610.75	2045.63
611.10	2037.89
611.44	2028.85
611.79	2020.13
612.14	2010.04
612.49	1999.40
612.83	1990.17
613.18	1981.03
613.53	1971.60
613.88	1961.87
614.22	1953.26
614.57	1943.35
614.92	1932.59
615.27	1922.42
615.61	1912.20
615.96	1902.63
616.31	1893.07
616.65	1883.73
617.00	1873.74
617.35	1864.02
617.70	1854.36
618.04	1844.42
618.39	1834.14
618.74	1824.45
619.08	1814.92
619.43	1806.08
619.78	1797.88
620.12	1789.17
620.47	1779.43
620.82	1769.10
621.16	1759.25
621.51	1749.21
621.85	1739.29
622.20	1728.98
622.55	1718.23
622.89	1708.33
623.24	1698.60
623.59	1688.74
623.93	1678.51
624.28	1668.85
624.62	1658.78
624.97	1648.46
625.32	1638.51
625.66	1629.58
626.01	1620.87
626.35	1611.40
626.70	1601.40
627.04	1591.22
627.39	1581.01
627.73	1571.77
628.08	1562.81
628.43	1553.21
628.77	1544.00
629.12	1535.12
629.46	1527.32
629.81	1519.00
630.15	1509.40
630.50	1499.54
630.84	1488.98
631.19	1479.03
631.53	1469.63
631.88	1459.48
632.22	1449.38
632.57	1439.99
632.91	1429.82
633.26	1419.85
633.60	1410.23
633.95	1400.89
634.29	1391.26
634.64	1382.04
634.98	1371.99
635.32	1362.69
635.67	1354.25
636.01	1344.91
636.36	1335.04
636.70	1325.35
637.05	1315.95
637.39	1307.00
637.73	1298.29
638.08	1290.75
638.42	1282.50
638.77	1273.68
639.11	1265.39
639.45	1257.51
639.80	1248.98
640.14	1240.30
640.49	1231.50
640.83	1222.64
641.17	1214.42
641.52	1206.20
641.86	1197.45
642.20	1189.57
642.55	1180.85
642.89	1171.91
643.23	1163.16
643.58	1155.13
643.92	1146.08
644.26	1137.30
644.61	1128.91
644.95	1120.04
645.29	1110.69
645.64	1101.43
645.98	1092.89
646.32	1084.89
646.66	1076.35
647.01	1067.98
647.35	1059.75
647.69	1051.32
648.04	1042.97
648.38	1034.11
648.72	1025.34
649.06	1016.80
649.41	1008.56
649.75	1000.53
650.09	992.63
650.43	984.65
650.78	976.20
651.12	968.52
651.46	961.04
651.80	953.71
652.14	946.40
652.49	938.87
652.83	931.58
653.17	923.86
653.51	916.23
653.85	908.98
654.20	901.63
654.54	894.08
654.88	886.78
655.22	879.51
655.56	872.40
655.90	865.57
656.25	858.85
656.59	851.84
656.93	844.84
657.27	837.56
657.61	830.47
657.95	824.29
658.29	818.28
658.64	812.16
658.98	805.58
659.32	798.93
659.66	792.68
660.00	786.31
660.34	780.18
660.68	774.02
661.02	767.62
661.36	761.55
661.70	755.66
662.05	749.98
662.39	744.51
662.73	739.07
663.07	733.62
663.41	728.02
663.75	722.32
664.09	716.58
664.43	711.09
664.77	705.74
665.11	699.93
665.45	693.92
665.79	687.99
666.13	682.26
666.47	676.78
666.81	671.25
667.15	665.73
667.49	660.46
667.83	655.10
668.17	649.79
668.51	644.69
668.85	639.79
669.19	634.85
669.53	629.70
669.87	624.57
670.21	619.80
670.55	615.02
670.89	610.57
671.23	606.29
671.57	601.90
671.91	597.55
672.25	593.28
672.58	589.14
672.92	585.06
673.26	581.09
673.60	577.21
673.94	573.37
674.28	569.76
674.62	565.99
674.96	562.21
675.30	558.71
675.64	555.03
675.97	551.31
676.31	547.67
676.65	544.04
676.99	540.58
677.33	536.64
677.67	532.94
678.01	529.04
678.34	525.29
678.68	521.77
679.02	518.10
679.36	514.39
679.70	510.69
680.04	507.12
680.37	503.63
680.71	500.18
681.05	496.91
681.39	493.58
681.73	490.40
682.06	487.29
682.40	484.10
682.74	480.84
683.08	477.57
683.42	474.33
683.75	471.30
684.09	468.24
684.43	465.44
684.77	462.45
685.10	459.52
685.44	456.58
685.78	453.57
686.12	450.77
686.45	448.00
686.79	445.31
687.13	442.69
687.46	439.99
687.80	437.29
688.14	434.44
688.48	431.73
688.81	429.00
689.15	426.45
689.49	423.79
689.82	421.24
690.16	418.61
690.50	416.10
690.83	413.52
691.17	410.93
691.51	408.38
691.84	406.11
692.18	403.90
692.52	401.65
692.85	399.47
693.19	397.33
693.52	395.12
693.86	392.89
694.20	390.67
694.53	388.52
694.87	386.30
695.21	384.15
695.54	381.97
695.88	379.77
696.21	377.49
696.55	375.39
696.88	373.29
697.22	371.31
697.56	369.40
697.89	367.52
698.23	365.72
698.56	363.89
698.90	362.11
699.23	360.15
699.57	358.23
699.90	356.36
700.24	354.50
700.58	352.73
700.91	351.00
701.25	349.42
701.58	347.82
701.92	346.22
702.25	344.59
702.59	342.97
702.92	341.40
703.26	339.82
703.59	338.30
703.93	337.02
704.26	335.58
704.60	334.02
704.93	332.49
705.26	330.97
705.60	329.50
705.93	327.95
706.27	326.59
706.60	325.33
706.94	324.10
707.27	322.67
707.61	321.29
707.94	319.91
708.27	318.39
708.61	316.92
708.94	315.53
709.28	314.21
709.61	312.96
709.94	311.73
710.28	310.52
710.61	309.33
710.95	307.85
711.28	306.74
711.61	305.56
711.95	304.43
712.28	303.20
712.61	301.97
712.95	300.90
713.28	299.88
713.61	298.70
713.95	297.50
714.28	296.47
714.61	295.42
714.95	294.45
715.28	293.41
715.61	292.40
715.95	291.39
716.28	290.39
716.61	289.44
716.95	288.43
717.28	287.49
717.61	286.52
717.94	285.63
718.28	284.64
718.61	283.76
718.94	282.84
719.27	281.97
719.61	281.17
719.94	280.25
720.27	279.20
720.60	278.31
720.94	277.49
721.27	276.72
721.60	276.01
721.93	275.28
722.27	274.64
722.60	273.94
722.93	273.20
723.26	272.57
723.59	271.82
723.93	271.19
724.26	270.51
724.59	269.85
724.92	269.22
725.25	268.63
725.59	268.03
725.92	267.48
726.25	266.90
726.58	266.29
726.91	265.73
727.24	265.22
727.57	264.66
727.91	264.04
728.24	263.45
728.57	262.85
728.90	262.27
729.23	261.63
729.56	261.19
729.89	260.68
730.22	260.06
730.55	259.50
730.89	258.96
731.22	258.44
731.55	257.91
731.88	257.41
732.21	256.84
732.54	256.30
732.87	255.78
733.20	255.29
733.53	254.82
733.86	254.38
734.19	253.90
734.52	253.48
734.85	253.21
735.18	252.76
735.51	252.37
735.84	251.92
736.17	251.52
736.50	250.97
736.83	250.75
737.16	250.37
737.49	249.98
737.82	249.56
738.15	249.16
738.48	248.80
738.81	248.37
739.14	247.96
739.47	247.54
739.80	247.17
740.13	246.81
740.46	246.38
740.79	245.94
741.12	245.55
741.45	245.16
741.78	244.69
742.11	244.40
742.44	244.00
742.77	243.69
743.10	243.35
743.43	243.00
743.75	242.45
744.08	242.38
744.41	242.03
744.74	241.70
745.07	241.36
745.40	241.02
745.73	240.83
746.06	240.50
746.39	240.23
746.71	239.86
747.04	239.52
747.37	239.21
747.70	238.92
748.03	238.61
748.36	238.36
748.68	238.05
749.01	237.68
749.34	237.42
749.67	237.12
750.00	236.84
750.33	236.74
750.65	236.51
750.98	235.99
751.31	235.77
751.64	235.50
751.97	235.34
752.29	235.05
752.62	234.65
752.95	234.41
753.28	234.12
753.60	233.90
753.93	233.74
754.26	233.53
754.59	233.29
754.91	233.06
755.24	232.82
755.57	232.54
755.90	232.32
756.22	232.05
756.55	231.80
756.88	231.54
757.20	231.17
757.53	230.90
757.86	230.67
758.19	230.45
758.51	230.24
758.84	229.92
759.17	229.73
759.49	229.60
759.82	229.50
760.15	229.33
760.47	229.10
760.80	228.83
761.13	228.68
761.45	228.47
761.78	228.30
762.11	228.13
762.43	227.97
762.76	227.79
763.08	227.65
763.41	227.50
763.74	227.36
764.06	227.18
764.39	227.04
764.71	226.88
765.04	226.72
765.37	226.56
765.69	226.41
766.02	226.25
766.34	226.08
766.67	225.88
767.00	225.78
767.32	225.77
767.65	225.78
767.97	225.65
768.30	225.55
768.62	225.41
768.95	225.26
769.27	225.14
769.60	225.06
769.92	224.92
770.25	224.79
770.57	224.63
770.90	224.55
771.22	224.36
771.55	224.25
771.87	224.15
772.20	224.02
772.52	224.11
772.85	224.27
773.17	224.13
773.50	224.01
773.82	223.85
774.15	223.66
774.47	223.44
774.80	223.30
775.12	223.18
775.45	223.06
775.77	222.96
776.09	222.86
776.42	222.76
776.74	222.73
777.07	222.61
777.39	222.56
777.72	222.44
778.04	222.43
778.36	222.31
778.69	222.24
779.01	222.16
779.33	221.89
779.66	221.57
779.98	221.52
780.31	221.42
780.63	221.45
780.95	221.42
781.28	221.34
781.60	221.25
781.92	221.16
782.25	221.09
782.57	221.00
782.89	220.94
783.22	220.84
783.54	220.73
783.86	220.65
784.19	220.54
784.51	220.53
784.83	220.42
785.16	220.37
785.48	220.30
785.80	220.23
786.12	220.17
