SpectraSuite Data File
++++++++++++++++++++++++++++++++++++
Date: Tue Jan 29 16:44:04 EST 2013
User: group
Dark Spectrum Present: No
Reference Spectrum Present: No
Number of Sampled Component Spectra: 1
Spectrometers: USB2E7196
Integration Time (usec): 65000 (USB2E7196)
Spectra Averaged: 100 (USB2E7196)
Boxcar Smoothing: 10 (USB2E7196)
Correct for Electrical Dark: No (USB2E7196)
Strobe/Lamp Enabled: No (USB2E7196)
Correct for Detector Non-linearity: No (USB2E7196)
Correct for Stray Light: No (USB2E7196)
Number of Pixels in Processed Spectrum: 2048
>>>>>Begin Processed Spectral Data<<<<<
339.09	0.00
339.48	201.39
339.86	202.68
340.24	204.40
340.63	205.80
341.01	211.40
341.39	208.62
341.78	210.35
342.16	211.97
342.54	211.96
342.93	201.03
343.31	211.19
343.69	211.76
344.07	212.27
344.46	212.72
344.84	213.13
345.22	213.27
345.60	213.58
345.99	213.75
346.37	213.88
346.75	214.01
347.13	214.09
347.52	214.18
347.90	214.30
348.28	214.37
348.66	214.43
349.05	214.42
349.43	214.50
349.81	214.58
350.19	214.64
350.57	214.74
350.96	214.87
351.34	214.99
351.72	215.08
352.10	215.18
352.48	215.27
352.87	215.34
353.25	215.42
353.63	215.48
354.01	215.59
354.39	215.67
354.77	215.74
355.15	215.87
355.54	215.90
355.92	215.90
356.30	216.02
356.68	216.25
357.06	216.33
357.44	216.40
357.82	216.45
358.20	216.56
358.58	216.59
358.97	216.63
359.35	216.72
359.73	216.83
360.11	216.87
360.49	216.93
360.87	216.97
361.25	217.01
361.63	217.11
362.01	217.14
362.39	217.15
362.77	217.21
363.15	217.19
363.53	217.26
363.91	217.29
364.29	217.26
364.67	217.04
365.05	217.06
365.43	217.07
365.81	217.13
366.19	217.21
366.57	217.32
366.95	217.32
367.33	217.27
367.71	217.25
368.09	217.30
368.47	217.31
368.85	217.29
369.23	217.30
369.61	217.21
369.99	217.24
370.37	217.26
370.75	217.32
371.13	217.30
371.51	217.23
371.89	217.22
372.27	217.19
372.65	217.17
373.03	217.15
373.41	217.09
373.78	217.02
374.16	216.88
374.54	216.78
374.92	216.75
375.30	216.68
375.68	216.62
376.06	216.60
376.44	216.56
376.82	216.54
377.19	216.48
377.57	216.42
377.95	216.34
378.33	216.27
378.71	216.09
379.09	216.06
379.47	216.04
379.84	215.96
380.22	215.88
380.60	215.79
380.98	215.71
381.36	215.66
381.73	215.61
382.11	215.59
382.49	215.54
382.87	215.46
383.25	215.43
383.62	215.63
384.00	215.53
384.38	215.46
384.76	215.48
385.13	215.56
385.51	215.55
385.89	215.48
386.27	215.46
386.64	215.51
387.02	215.44
387.40	215.42
387.78	215.42
388.15	215.42
388.53	215.42
388.91	215.39
389.29	215.36
389.66	215.37
390.04	215.32
390.42	215.32
390.79	215.34
391.17	215.35
391.55	215.09
391.92	215.08
392.30	215.10
392.68	215.05
393.05	215.02
393.43	215.02
393.81	215.03
394.18	215.00
394.56	214.98
394.94	215.06
395.31	215.02
395.69	215.11
396.06	215.16
396.44	215.22
396.82	215.21
397.19	215.35
397.57	215.33
397.95	215.40
398.32	215.39
398.70	215.42
399.07	215.49
399.45	215.55
399.82	215.60
400.20	215.65
400.58	215.71
400.95	215.70
401.33	215.81
401.70	216.03
402.08	216.12
402.45	216.22
402.83	216.35
403.20	216.49
403.58	216.55
403.95	216.67
404.33	216.80
404.71	216.98
405.08	217.20
405.46	217.39
405.83	217.59
406.21	217.79
406.58	218.04
406.96	218.26
407.33	218.52
407.70	218.80
408.08	219.27
408.45	219.61
408.83	219.96
409.20	220.28
409.58	220.55
409.95	221.03
410.33	221.51
410.70	221.94
411.08	222.50
411.45	223.09
411.82	223.70
412.20	224.38
412.57	225.21
412.95	225.79
413.32	226.64
413.69	227.48
414.07	228.36
414.44	229.34
414.82	230.39
415.19	231.59
415.56	232.81
415.94	233.99
416.31	235.43
416.68	236.86
417.06	238.48
417.43	240.06
417.81	241.81
418.18	243.58
418.55	245.48
418.93	247.53
419.30	249.62
419.67	251.85
420.04	254.19
420.42	256.58
420.79	259.41
421.16	262.19
421.54	265.07
421.91	268.15
422.28	271.24
422.66	274.53
423.03	277.77
423.40	281.11
423.77	284.69
424.15	288.35
424.52	292.19
424.89	296.39
425.26	300.45
425.64	304.34
426.01	308.64
426.38	313.16
426.75	317.70
427.13	322.44
427.50	327.43
427.87	332.61
428.24	337.81
428.61	342.84
428.99	348.37
429.36	354.44
429.73	360.30
430.10	366.25
430.47	372.42
430.85	378.77
431.22	385.51
431.59	392.67
431.96	399.50
432.33	407.05
432.70	414.30
433.08	422.86
433.45	430.93
433.82	438.97
434.19	447.90
434.56	456.66
434.93	464.99
435.30	473.30
435.68	482.50
436.05	491.50
436.42	500.46
436.79	508.63
437.16	517.41
437.53	526.76
437.90	535.90
438.27	544.82
438.64	553.98
439.01	562.52
439.38	570.08
439.75	577.45
440.13	585.85
440.50	593.82
440.87	600.26
441.24	606.99
441.61	614.43
441.98	619.83
442.35	626.21
442.72	632.62
443.09	638.74
443.46	642.46
443.83	645.02
444.20	647.22
444.57	650.50
444.94	652.00
445.31	653.47
445.68	654.90
446.05	655.49
446.42	654.87
446.79	653.94
447.16	652.90
447.53	652.15
447.90	648.88
448.27	645.66
448.64	641.08
449.01	637.73
449.37	631.84
449.74	626.16
450.11	619.16
450.48	611.73
450.85	604.21
451.22	597.74
451.59	591.60
451.96	585.77
452.33	577.81
452.70	570.70
453.07	562.15
453.43	553.52
453.80	545.26
454.17	537.16
454.54	529.55
454.91	521.32
455.28	513.30
455.65	505.85
456.02	498.31
456.38	491.89
456.75	483.92
457.12	477.27
457.49	470.70
457.86	464.50
458.23	459.11
458.59	453.19
458.96	447.13
459.33	441.76
459.70	436.32
460.07	432.04
460.43	427.11
460.80	422.50
461.17	418.49
461.54	414.22
461.91	410.13
462.27	406.07
462.64	402.64
463.01	398.84
463.38	395.12
463.74	391.34
464.11	388.08
464.48	385.33
464.85	382.20
465.21	379.80
465.58	377.22
465.95	374.01
466.32	371.35
466.68	368.71
467.05	366.11
467.42	363.55
467.78	360.79
468.15	358.17
468.52	356.25
468.88	353.75
469.25	351.52
469.62	349.73
469.98	347.77
470.35	345.95
470.72	344.23
471.08	342.44
471.45	340.96
471.82	339.44
472.18	337.73
472.55	336.50
472.92	335.04
473.28	333.78
473.65	332.66
474.02	331.55
474.38	330.65
474.75	329.90
475.11	329.07
475.48	328.53
475.85	328.08
476.21	327.57
476.58	327.20
476.94	326.97
477.31	326.69
477.67	326.40
478.04	326.23
478.41	326.20
478.77	326.31
479.14	326.23
479.50	326.33
479.87	326.58
480.23	326.91
480.60	327.12
480.96	327.37
481.33	327.97
481.69	328.54
482.06	329.06
482.42	329.51
482.79	330.12
483.15	330.88
483.52	331.85
483.88	332.74
484.25	333.64
484.61	334.63
484.98	335.64
485.34	336.97
485.71	338.35
486.07	339.77
486.44	341.12
486.80	342.78
487.17	344.45
487.53	346.33
487.90	348.17
488.26	350.28
488.62	352.47
488.99	354.50
489.35	356.70
489.72	359.12
490.08	361.67
490.44	364.22
490.81	366.97
491.17	369.61
491.54	372.62
491.90	375.66
492.26	378.90
492.63	382.29
492.99	385.73
493.36	389.41
493.72	393.28
494.08	397.25
494.45	401.44
494.81	405.82
495.17	410.26
495.54	415.01
495.90	419.79
496.26	424.71
496.63	429.93
496.99	435.23
497.35	440.80
497.72	446.60
498.08	452.54
498.44	458.62
498.80	465.04
499.17	471.45
499.53	478.22
499.89	485.15
500.26	492.18
500.62	499.35
500.98	506.72
501.34	514.14
501.71	521.89
502.07	529.73
502.43	537.72
502.79	545.84
503.16	554.18
503.52	562.79
503.88	571.51
504.24	580.45
504.60	589.54
504.97	598.78
505.33	608.10
505.69	617.96
506.05	627.79
506.41	637.74
506.78	647.84
507.14	658.02
507.50	668.50
507.86	679.21
508.22	689.96
508.59	700.63
508.95	711.78
509.31	723.02
509.67	734.50
510.03	745.86
510.39	757.64
510.75	769.46
511.12	781.34
511.48	793.41
511.84	805.67
512.20	818.02
512.56	830.65
512.92	843.40
513.28	856.06
513.64	868.89
514.00	881.68
514.37	894.67
514.73	907.85
515.09	920.83
515.45	933.85
515.81	946.89
516.17	960.30
516.53	973.54
516.89	986.71
517.25	999.88
517.61	1013.55
517.97	1026.86
518.33	1040.03
518.69	1053.71
519.05	1067.53
519.41	1081.23
519.77	1095.20
520.13	1108.59
520.49	1121.94
520.85	1135.37
521.21	1148.76
521.57	1162.56
521.93	1175.76
522.29	1189.48
522.65	1203.09
523.01	1216.69
523.37	1230.04
523.73	1243.40
524.09	1256.68
524.45	1270.24
524.81	1283.93
525.17	1297.29
525.53	1310.68
525.89	1324.12
526.25	1337.27
526.61	1350.22
526.97	1363.43
527.33	1376.40
527.68	1389.84
528.04	1403.47
528.40	1416.70
528.76	1430.16
529.12	1443.09
529.48	1456.46
529.84	1468.86
530.20	1481.82
530.56	1494.48
530.91	1507.60
531.27	1520.61
531.63	1533.33
531.99	1546.05
532.35	1558.25
532.71	1570.77
533.07	1583.73
533.42	1596.06
533.78	1608.27
534.14	1620.34
534.50	1631.63
534.86	1643.27
535.21	1654.34
535.57	1665.93
535.93	1677.17
536.29	1688.27
536.65	1699.82
537.00	1710.93
537.36	1722.37
537.72	1733.38
538.08	1744.87
538.44	1756.13
538.79	1767.30
539.15	1778.39
539.51	1789.34
539.87	1800.82
540.22	1811.85
540.58	1822.88
540.94	1833.83
541.29	1844.07
541.65	1853.97
542.01	1864.56
542.37	1874.70
542.72	1884.90
543.08	1894.65
543.44	1905.34
543.79	1914.78
544.15	1924.27
544.51	1934.21
544.87	1944.19
545.22	1953.51
545.58	1962.51
545.94	1971.27
546.29	1979.85
546.65	1988.40
547.01	1996.68
547.36	2004.46
547.72	2012.22
548.07	2019.84
548.43	2027.69
548.79	2035.75
549.14	2043.95
549.50	2052.50
549.86	2060.58
550.21	2068.08
550.57	2075.87
550.92	2082.67
551.28	2090.25
551.64	2097.51
551.99	2105.09
552.35	2112.37
552.70	2119.29
553.06	2125.88
553.41	2132.36
553.77	2138.92
554.13	2145.24
554.48	2152.21
554.84	2159.30
555.19	2165.96
555.55	2172.47
555.90	2178.86
556.26	2185.74
556.61	2191.85
556.97	2196.69
557.32	2202.41
557.68	2208.82
558.03	2214.52
558.39	2219.85
558.74	2225.78
559.10	2231.41
559.45	2236.95
559.81	2242.38
560.16	2247.88
560.52	2253.88
560.87	2260.26
561.23	2266.08
561.58	2272.76
561.94	2278.13
562.29	2282.72
562.64	2288.67
563.00	2294.35
563.35	2299.77
563.71	2305.44
564.06	2311.11
564.42	2317.00
564.77	2322.14
565.12	2327.24
565.48	2332.31
565.83	2337.81
566.19	2343.09
566.54	2348.30
566.89	2352.85
567.25	2357.46
567.60	2363.17
567.96	2368.15
568.31	2372.60
568.66	2376.88
569.02	2380.60
569.37	2384.10
569.72	2388.45
570.08	2391.80
570.43	2394.81
570.78	2397.87
571.14	2400.30
571.49	2403.42
571.84	2406.82
572.20	2409.58
572.55	2412.52
572.90	2414.88
573.26	2417.49
573.61	2419.97
573.96	2422.11
574.31	2424.12
574.67	2425.89
575.02	2426.60
575.37	2428.08
575.72	2428.70
576.08	2430.13
576.43	2430.39
576.78	2430.80
577.13	2432.15
577.49	2433.16
577.84	2433.93
578.19	2435.05
578.54	2435.49
578.90	2435.83
579.25	2435.62
579.60	2435.37
579.95	2434.49
580.30	2434.22
580.66	2433.48
581.01	2431.66
581.36	2429.18
581.71	2427.50
582.06	2426.20
582.42	2425.21
582.77	2422.65
583.12	2420.92
583.47	2419.25
583.82	2418.49
584.17	2417.05
584.53	2414.80
584.88	2412.58
585.23	2410.68
585.58	2408.35
585.93	2406.25
586.28	2403.95
586.63	2401.30
586.98	2398.88
587.34	2396.77
587.69	2394.17
588.04	2391.93
588.39	2390.32
588.74	2387.81
589.09	2384.91
589.44	2381.62
589.79	2378.82
590.14	2376.74
590.49	2373.76
590.84	2369.79
591.19	2366.53
591.54	2363.23
591.89	2359.19
592.25	2355.82
592.60	2351.55
592.95	2347.28
593.30	2342.80
593.65	2338.37
594.00	2333.78
594.35	2330.72
594.70	2326.03
595.05	2321.54
595.40	2315.91
595.75	2310.11
596.10	2306.22
596.45	2301.35
596.80	2296.57
597.15	2291.50
597.50	2285.58
597.85	2280.60
598.19	2275.31
598.54	2269.30
598.89	2263.97
599.24	2259.24
599.59	2253.04
599.94	2247.02
600.29	2241.03
600.64	2235.26
600.99	2228.40
601.34	2222.99
601.69	2216.07
602.04	2209.66
602.39	2202.95
602.74	2196.85
603.08	2191.27
603.43	2184.74
603.78	2177.87
604.13	2170.82
604.48	2163.31
604.83	2157.08
605.18	2150.76
605.53	2143.76
605.87	2136.70
606.22	2129.99
606.57	2122.12
606.92	2114.22
607.27	2107.32
607.62	2100.62
607.96	2093.60
608.31	2087.28
608.66	2079.44
609.01	2071.77
609.36	2064.65
609.70	2056.88
610.05	2049.10
610.40	2040.74
610.75	2032.43
611.10	2024.78
611.44	2015.94
611.79	2007.32
612.14	1997.35
612.49	1986.62
612.83	1977.34
613.18	1968.18
613.53	1958.84
613.88	1949.26
614.22	1940.61
614.57	1930.75
614.92	1920.09
615.27	1909.70
615.61	1899.46
615.96	1889.99
616.31	1880.42
616.65	1870.93
617.00	1861.22
617.35	1851.66
617.70	1842.07
618.04	1832.10
618.39	1821.96
618.74	1812.36
619.08	1802.74
619.43	1794.11
619.78	1786.03
620.12	1777.56
620.47	1768.02
620.82	1757.56
621.16	1747.77
621.51	1737.92
621.85	1728.07
622.20	1717.84
622.55	1707.40
622.89	1697.41
623.24	1687.65
623.59	1677.96
623.93	1667.90
624.28	1658.12
624.62	1648.07
624.97	1637.77
625.32	1628.04
625.66	1619.14
626.01	1610.44
626.35	1601.17
626.70	1591.13
627.04	1581.00
627.39	1570.86
627.73	1561.60
628.08	1552.81
628.43	1543.35
628.77	1534.10
629.12	1525.28
629.46	1517.51
629.81	1509.34
630.15	1499.99
630.50	1490.26
630.84	1479.68
631.19	1469.91
631.53	1460.82
631.88	1450.68
632.22	1440.75
632.57	1431.45
632.91	1421.45
633.26	1411.56
633.60	1402.00
633.95	1392.84
634.29	1383.55
634.64	1374.29
634.98	1364.30
635.32	1355.13
635.67	1346.68
636.01	1337.55
636.36	1327.91
636.70	1318.34
637.05	1308.95
637.39	1300.11
637.73	1291.49
638.08	1284.03
638.42	1275.79
638.77	1266.93
639.11	1258.77
639.45	1251.10
639.80	1242.60
640.14	1233.89
640.49	1225.17
640.83	1216.30
641.17	1208.11
641.52	1199.98
641.86	1191.44
642.20	1183.68
642.55	1175.09
642.89	1166.13
643.23	1157.44
643.58	1149.35
643.92	1140.49
644.26	1131.77
644.61	1123.43
644.95	1114.72
645.29	1105.55
645.64	1096.46
645.98	1088.07
646.32	1080.20
646.66	1071.61
647.01	1063.27
647.35	1055.13
647.69	1046.78
648.04	1038.66
648.38	1029.88
648.72	1021.15
649.06	1012.73
649.41	1004.56
649.75	996.62
650.09	988.94
650.43	981.06
650.78	972.76
651.12	965.08
651.46	957.75
651.80	950.49
652.14	943.11
652.49	935.64
652.83	928.35
653.17	920.64
653.51	913.03
653.85	905.83
654.20	898.67
654.54	891.34
654.88	884.14
655.22	876.81
655.56	869.81
655.90	862.92
656.25	856.18
656.59	849.30
656.93	842.31
657.27	835.13
657.61	828.02
657.95	821.94
658.29	815.94
658.64	809.86
658.98	803.34
659.32	796.82
659.66	790.56
660.00	784.28
660.34	778.20
660.68	772.04
661.02	765.68
661.36	759.64
661.70	753.69
662.05	748.06
662.39	742.62
662.73	737.20
663.07	731.91
663.41	726.33
663.75	720.60
664.09	714.84
664.43	709.33
664.77	704.02
665.11	698.20
665.45	692.32
665.79	686.48
666.13	680.79
666.47	675.31
666.81	669.93
667.15	664.48
667.49	659.33
667.83	654.04
668.17	648.75
668.51	643.67
668.85	638.79
669.19	633.85
669.53	628.85
669.87	623.66
670.21	618.79
670.55	614.11
670.89	609.59
671.23	605.32
671.57	600.97
671.91	596.65
672.25	592.48
672.58	588.29
672.92	584.22
673.26	580.35
673.60	576.42
673.94	572.47
674.28	568.86
674.62	565.04
674.96	561.30
675.30	557.82
675.64	554.09
675.97	550.47
676.31	546.83
676.65	543.24
676.99	539.86
677.33	536.00
677.67	532.32
678.01	528.48
678.34	524.81
678.68	521.28
679.02	517.67
679.36	513.96
679.70	510.22
680.04	506.63
680.37	503.08
680.71	499.76
681.05	496.53
681.39	493.20
681.73	490.01
682.06	486.97
682.40	483.84
682.74	480.63
683.08	477.39
683.42	474.15
683.75	471.06
684.09	468.06
684.43	465.28
684.77	462.32
685.10	459.43
685.44	456.49
685.78	453.54
686.12	450.73
686.45	448.00
686.79	445.39
687.13	442.80
687.46	440.15
687.80	437.44
688.14	434.57
688.48	431.91
688.81	429.18
689.15	426.56
689.49	423.93
689.82	421.40
690.16	418.76
690.50	416.30
690.83	413.78
691.17	411.15
691.51	408.63
691.84	406.29
692.18	404.05
692.52	401.78
692.85	399.61
693.19	397.41
693.52	395.16
693.86	392.91
694.20	390.69
694.53	388.51
694.87	386.25
695.21	384.13
695.54	381.91
695.88	379.69
696.21	377.48
696.55	375.33
696.88	373.25
697.22	371.20
697.56	369.26
697.89	367.32
698.23	365.53
698.56	363.73
698.90	361.96
699.23	360.06
699.57	358.21
699.90	356.32
700.24	354.51
700.58	352.76
700.91	351.06
701.25	349.48
701.58	347.89
701.92	346.32
702.25	344.71
702.59	343.06
702.92	341.58
703.26	339.98
703.59	338.48
703.93	337.15
704.26	335.73
704.60	334.21
704.93	332.72
705.26	331.16
705.60	329.62
705.93	328.04
706.27	326.69
706.60	325.37
706.94	324.10
707.27	322.65
707.61	321.27
707.94	319.93
708.27	318.40
708.61	316.89
708.94	315.45
709.28	314.12
709.61	312.86
709.94	311.58
710.28	310.40
710.61	309.16
710.95	307.70
711.28	306.59
711.61	305.39
711.95	304.24
712.28	303.04
712.61	301.87
712.95	300.80
713.28	299.73
713.61	298.54
713.95	297.41
714.28	296.41
714.61	295.34
714.95	294.24
715.28	293.22
715.61	292.22
715.95	291.29
716.28	290.30
716.61	289.33
716.95	288.30
717.28	287.32
717.61	286.34
717.94	285.45
718.28	284.41
718.61	283.53
718.94	282.63
719.27	281.79
719.61	280.95
719.94	280.13
720.27	279.15
720.60	278.28
720.94	277.46
721.27	276.66
721.60	275.99
721.93	275.31
722.27	274.65
722.60	273.99
722.93	273.26
723.26	272.63
723.59	271.91
723.93	271.29
724.26	270.61
724.59	269.98
724.92	269.37
725.25	268.84
725.59	268.25
725.92	267.71
726.25	267.12
726.58	266.52
726.91	265.88
727.24	265.36
727.57	264.80
727.91	264.15
728.24	263.61
728.57	262.97
728.90	262.36
729.23	261.74
729.56	261.28
729.89	260.73
730.22	260.07
730.55	259.55
730.89	259.01
731.22	258.49
731.55	257.96
731.88	257.40
732.21	256.83
732.54	256.29
732.87	255.75
733.20	255.24
733.53	254.76
733.86	254.29
734.19	253.78
734.52	253.36
734.85	253.12
735.18	252.64
735.51	252.27
735.84	251.84
736.17	251.45
736.50	250.88
736.83	250.73
737.16	250.38
737.49	249.97
737.82	249.57
738.15	249.19
738.48	248.79
738.81	248.40
739.14	247.98
739.47	247.59
739.80	247.23
740.13	246.91
740.46	246.51
740.79	246.10
741.12	245.71
741.45	245.32
741.78	244.83
742.11	244.54
742.44	244.11
742.77	243.86
743.10	243.49
743.43	243.10
743.75	242.51
744.08	242.45
744.41	242.09
744.74	241.72
745.07	241.33
745.40	241.03
745.73	240.77
746.06	240.42
746.39	240.09
746.71	239.72
747.04	239.36
747.37	239.01
747.70	238.75
748.03	238.47
748.36	238.23
748.68	237.94
749.01	237.60
749.34	237.36
749.67	237.04
750.00	236.77
750.33	236.66
750.65	236.41
750.98	235.89
751.31	235.66
751.64	235.43
751.97	235.32
752.29	235.01
752.62	234.69
752.95	234.45
753.28	234.16
753.60	233.93
753.93	233.77
754.26	233.56
754.59	233.27
754.91	233.02
755.24	232.71
755.57	232.44
755.90	232.17
756.22	231.91
756.55	231.63
756.88	231.34
757.20	231.00
757.53	230.76
757.86	230.51
758.19	230.29
758.51	230.05
758.84	229.76
759.17	229.59
759.49	229.42
759.82	229.37
760.15	229.26
760.47	229.05
760.80	228.77
761.13	228.63
761.45	228.43
761.78	228.26
762.11	228.09
762.43	227.94
762.76	227.81
763.08	227.66
763.41	227.52
763.74	227.42
764.06	227.25
764.39	227.09
764.71	226.97
765.04	226.81
765.37	226.68
765.69	226.50
766.02	226.33
766.34	226.17
766.67	225.91
767.00	225.78
767.32	225.76
767.65	225.74
767.97	225.59
768.30	225.48
768.62	225.32
768.95	225.17
769.27	225.03
769.60	224.90
769.92	224.70
770.25	224.52
770.57	224.32
770.90	224.20
771.22	224.05
771.55	223.92
771.87	223.81
772.20	223.66
772.52	223.73
772.85	223.90
773.17	223.79
773.50	223.69
773.82	223.57
774.15	223.36
774.47	223.14
774.80	223.00
775.12	222.85
775.45	222.77
775.77	222.71
776.09	222.64
776.42	222.59
776.74	222.55
777.07	222.47
777.39	222.41
777.72	222.30
778.04	222.23
778.36	222.14
778.69	222.07
779.01	222.01
779.33	221.75
779.66	221.39
779.98	221.31
780.31	221.22
780.63	221.24
780.95	221.22
781.28	221.19
781.60	221.10
781.92	221.06
782.25	221.01
782.57	220.96
782.89	220.86
783.22	220.77
783.54	220.69
783.86	220.67
784.19	220.62
784.51	220.63
784.83	220.54
785.16	220.46
785.48	220.39
785.80	220.32
786.12	220.29
