SpectraSuite Data File
++++++++++++++++++++++++++++++++++++
Date: Tue Jan 29 16:14:37 EST 2013
User: group
Dark Spectrum Present: No
Reference Spectrum Present: No
Number of Sampled Component Spectra: 1
Spectrometers: USB2E7196
Integration Time (usec): 65000 (USB2E7196)
Spectra Averaged: 100 (USB2E7196)
Boxcar Smoothing: 10 (USB2E7196)
Correct for Electrical Dark: No (USB2E7196)
Strobe/Lamp Enabled: No (USB2E7196)
Correct for Detector Non-linearity: No (USB2E7196)
Correct for Stray Light: No (USB2E7196)
Number of Pixels in Processed Spectrum: 2048
>>>>>Begin Processed Spectral Data<<<<<
339.09	0.00
339.48	202.99
339.86	203.84
340.24	205.49
340.63	206.34
341.01	211.20
341.39	208.93
341.78	211.63
342.16	212.05
342.54	212.36
342.93	201.69
343.31	211.84
343.69	212.36
344.07	212.79
344.46	213.22
344.84	213.61
345.22	213.78
345.60	214.06
345.99	214.22
346.37	214.36
346.75	214.48
347.13	214.55
347.52	214.59
347.90	214.71
348.28	214.75
348.66	214.83
349.05	214.78
349.43	214.83
349.81	214.87
350.19	214.93
350.57	214.98
350.96	215.06
351.34	215.21
351.72	215.31
352.10	215.43
352.48	215.49
352.87	215.56
353.25	215.62
353.63	215.71
354.01	215.74
354.39	215.84
354.77	215.91
355.15	216.06
355.54	216.11
355.92	216.11
356.30	216.19
356.68	216.39
357.06	216.48
357.44	216.52
357.82	216.57
358.20	216.64
358.58	216.73
358.97	216.83
359.35	216.94
359.73	217.05
360.11	217.14
360.49	217.22
360.87	217.28
361.25	217.35
361.63	217.45
362.01	217.57
362.39	217.60
362.77	217.66
363.15	217.69
363.53	217.80
363.91	217.86
364.29	217.89
364.67	217.74
365.05	217.77
365.43	217.83
365.81	217.88
366.19	217.99
366.57	218.07
366.95	218.07
367.33	218.02
367.71	218.01
368.09	218.07
368.47	218.06
368.85	218.10
369.23	218.12
369.61	218.06
369.99	218.08
370.37	218.07
370.75	218.17
371.13	218.10
371.51	217.99
371.89	217.99
372.27	218.00
372.65	218.01
373.03	217.98
373.41	217.93
373.78	217.88
374.16	217.75
374.54	217.66
374.92	217.63
375.30	217.58
375.68	217.51
376.06	217.46
376.44	217.41
376.82	217.39
377.19	217.34
377.57	217.29
377.95	217.21
378.33	217.18
378.71	217.02
379.09	217.02
379.47	217.02
379.84	216.95
380.22	216.86
380.60	216.81
380.98	216.74
381.36	216.70
381.73	216.65
382.11	216.64
382.49	216.61
382.87	216.55
383.25	216.53
383.62	216.73
384.00	216.62
384.38	216.60
384.76	216.57
385.13	216.62
385.51	216.57
385.89	216.51
386.27	216.46
386.64	216.43
387.02	216.35
387.40	216.31
387.78	216.28
388.15	216.25
388.53	216.19
388.91	216.18
389.29	216.17
389.66	216.16
390.04	216.11
390.42	216.12
390.79	216.11
391.17	216.10
391.55	215.84
391.92	215.86
392.30	215.88
392.68	215.85
393.05	215.80
393.43	215.81
393.81	215.80
394.18	215.79
394.56	215.78
394.94	215.85
395.31	215.83
395.69	215.91
396.06	215.96
396.44	215.99
396.82	215.99
397.19	216.10
397.57	216.12
397.95	216.18
398.32	216.12
398.70	216.18
399.07	216.21
399.45	216.26
399.82	216.27
400.20	216.25
400.58	216.31
400.95	216.30
401.33	216.41
401.70	216.62
402.08	216.72
402.45	216.83
402.83	216.95
403.20	217.09
403.58	217.15
403.95	217.30
404.33	217.46
404.71	217.60
405.08	217.82
405.46	217.95
405.83	218.15
406.21	218.36
406.58	218.55
406.96	218.79
407.33	219.04
407.70	219.35
408.08	219.83
408.45	220.15
408.83	220.52
409.20	220.85
409.58	221.14
409.95	221.59
410.33	222.04
410.70	222.46
411.08	222.97
411.45	223.54
411.82	224.08
412.20	224.73
412.57	225.53
412.95	226.07
413.32	226.90
413.69	227.68
414.07	228.52
414.44	229.50
414.82	230.49
415.19	231.62
415.56	232.76
415.94	233.89
416.31	235.26
416.68	236.63
417.06	238.20
417.43	239.67
417.81	241.33
418.18	243.03
418.55	244.91
418.93	246.91
419.30	248.94
419.67	251.10
420.04	253.29
420.42	255.59
420.79	258.32
421.16	261.01
421.54	263.83
421.91	266.78
422.28	269.76
422.66	272.91
423.03	276.04
423.40	279.29
423.77	282.79
424.15	286.28
424.52	289.95
424.89	293.95
425.26	297.89
425.64	301.68
426.01	305.82
426.38	310.13
426.75	314.52
427.13	319.10
427.50	323.86
427.87	328.89
428.24	333.94
428.61	338.75
428.99	344.09
429.36	349.88
429.73	355.58
430.10	361.28
430.47	367.14
430.85	373.23
431.22	379.68
431.59	386.53
431.96	393.14
432.33	400.45
432.70	407.47
433.08	415.66
433.45	423.41
433.82	431.16
434.19	439.74
434.56	448.12
434.93	456.13
435.30	464.22
435.68	473.07
436.05	481.75
436.42	490.34
436.79	498.15
437.16	506.66
437.53	515.61
437.90	524.43
438.27	533.09
438.64	541.99
439.01	550.27
439.38	557.60
439.75	564.70
440.13	572.79
440.50	580.47
440.87	586.73
441.24	593.09
441.61	600.22
441.98	605.41
442.35	611.45
442.72	617.55
443.09	623.33
443.46	626.91
443.83	629.25
444.20	631.36
444.57	634.41
444.94	635.80
445.31	637.11
445.68	638.42
446.05	639.03
446.42	638.26
446.79	637.28
447.16	636.21
447.53	635.43
447.90	632.23
448.27	629.01
448.64	624.48
449.01	621.36
449.37	615.63
449.74	610.13
450.11	603.48
450.48	596.34
450.85	589.19
451.22	582.91
451.59	577.02
451.96	571.37
452.33	563.81
452.70	556.94
453.07	548.75
453.43	540.47
453.80	532.41
454.17	524.75
454.54	517.49
454.91	509.70
455.28	502.03
455.65	494.86
456.02	487.68
456.38	481.66
456.75	474.08
457.12	467.80
457.49	461.52
457.86	455.64
458.23	450.52
458.59	444.77
458.96	439.01
459.33	433.92
459.70	428.81
460.07	424.70
460.43	420.02
460.80	415.69
461.17	411.84
461.54	407.85
461.91	403.94
462.27	400.03
462.64	396.63
463.01	393.00
463.38	389.40
463.74	385.82
464.11	382.64
464.48	379.85
464.85	376.79
465.21	374.50
465.58	371.92
465.95	368.90
466.32	366.38
466.68	363.84
467.05	361.38
467.42	358.94
467.78	356.37
468.15	353.92
468.52	352.06
468.88	349.67
469.25	347.54
469.62	345.85
469.98	343.95
470.35	342.21
470.72	340.57
471.08	338.85
471.45	337.43
471.82	335.97
472.18	334.42
472.55	333.34
472.92	332.00
473.28	330.88
473.65	329.79
474.02	328.70
474.38	327.91
474.75	327.21
475.11	326.43
475.48	325.87
475.85	325.38
476.21	324.91
476.58	324.58
476.94	324.37
477.31	324.07
477.67	323.87
478.04	323.77
478.41	323.76
478.77	323.97
479.14	323.96
479.50	324.09
479.87	324.37
480.23	324.64
480.60	324.92
480.96	325.18
481.33	325.77
481.69	326.40
482.06	326.94
482.42	327.41
482.79	328.01
483.15	328.81
483.52	329.82
483.88	330.77
484.25	331.74
484.61	332.82
484.98	333.87
485.34	335.18
485.71	336.59
486.07	338.02
486.44	339.35
486.80	340.93
487.17	342.69
487.53	344.51
487.90	346.41
488.26	348.39
488.62	350.55
488.99	352.55
489.35	354.69
489.72	357.05
490.08	359.58
490.44	362.13
490.81	364.83
491.17	367.50
491.54	370.39
491.90	373.38
492.26	376.59
492.63	379.98
492.99	383.43
493.36	387.09
493.72	390.96
494.08	394.95
494.45	399.18
494.81	403.48
495.17	407.92
495.54	412.60
495.90	417.43
496.26	422.32
496.63	427.51
496.99	432.83
497.35	438.37
497.72	444.11
498.08	449.97
498.44	456.00
498.80	462.40
499.17	468.92
499.53	475.62
499.89	482.46
500.26	489.37
500.62	496.46
500.98	503.79
501.34	511.15
501.71	518.89
502.07	526.59
502.43	534.53
502.79	542.62
503.16	550.92
503.52	559.42
503.88	568.03
504.24	576.94
504.60	585.99
504.97	595.16
505.33	604.39
505.69	614.23
506.05	624.08
506.41	633.85
506.78	643.84
507.14	653.95
507.50	664.33
507.86	674.99
508.22	685.61
508.59	696.13
508.95	707.19
509.31	718.31
509.67	729.72
510.03	741.03
510.39	752.69
510.75	764.51
511.12	776.37
511.48	788.44
511.84	800.59
512.20	812.76
512.56	825.28
512.92	837.96
513.28	850.43
513.64	863.07
514.00	875.72
514.37	888.48
514.73	901.48
515.09	914.24
515.45	926.95
515.81	939.83
516.17	953.10
516.53	966.14
516.89	979.09
517.25	991.99
517.61	1005.41
517.97	1018.60
518.33	1031.39
518.69	1044.77
519.05	1058.24
519.41	1071.64
519.77	1085.38
520.13	1098.48
520.49	1111.37
520.85	1124.51
521.21	1137.69
521.57	1151.05
521.93	1163.98
522.29	1177.53
522.65	1191.05
523.01	1204.38
523.37	1217.37
523.73	1230.44
524.09	1243.30
524.45	1256.42
524.81	1269.72
525.17	1282.68
525.53	1295.42
525.89	1308.57
526.25	1321.36
526.61	1333.96
526.97	1346.87
527.33	1359.35
527.68	1372.58
528.04	1385.74
528.40	1398.56
528.76	1411.50
529.12	1424.18
529.48	1437.16
529.84	1449.13
530.20	1461.54
530.56	1473.93
530.91	1486.80
531.27	1499.27
531.63	1511.87
531.99	1524.34
532.35	1536.29
532.71	1548.43
533.07	1561.16
533.42	1573.01
533.78	1584.71
534.14	1596.38
534.50	1607.19
534.86	1618.58
535.21	1629.17
535.57	1640.33
535.93	1651.48
536.29	1662.32
536.65	1673.43
537.00	1684.02
537.36	1695.00
537.72	1705.67
538.08	1716.70
538.44	1727.41
538.79	1738.18
539.15	1748.61
539.51	1758.91
539.87	1769.89
540.22	1780.35
540.58	1790.94
540.94	1801.54
541.29	1811.50
541.65	1821.00
542.01	1831.37
542.37	1841.23
542.72	1850.98
543.08	1860.63
543.44	1870.68
543.79	1879.64
544.15	1888.85
544.51	1898.56
544.87	1908.01
545.22	1916.86
545.58	1925.48
545.94	1933.98
546.29	1942.19
546.65	1950.34
547.01	1958.52
547.36	1965.96
547.72	1973.40
548.07	1980.67
548.43	1988.19
548.79	1995.94
549.14	2003.82
549.50	2011.88
549.86	2019.23
550.21	2026.36
550.57	2033.74
550.92	2040.27
551.28	2047.57
551.64	2054.71
551.99	2062.14
552.35	2069.31
552.70	2075.96
553.06	2082.45
553.41	2088.57
553.77	2094.83
554.13	2100.86
554.48	2107.69
554.84	2114.62
555.19	2121.00
555.55	2127.48
555.90	2133.59
556.26	2140.17
556.61	2146.11
556.97	2150.89
557.32	2156.74
557.68	2163.04
558.03	2168.66
558.39	2173.88
558.74	2179.65
559.10	2185.00
559.45	2190.29
559.81	2195.69
560.16	2201.25
560.52	2207.18
560.87	2213.45
561.23	2219.56
561.58	2226.25
561.94	2231.31
562.29	2236.05
562.64	2242.24
563.00	2247.69
563.35	2253.23
563.71	2259.09
564.06	2264.63
564.42	2270.45
564.77	2275.65
565.12	2280.99
565.48	2286.15
565.83	2291.64
566.19	2297.14
566.54	2302.62
566.89	2307.27
567.25	2311.67
567.60	2317.30
567.96	2322.40
568.31	2327.22
568.66	2331.35
569.02	2335.24
569.37	2339.03
569.72	2343.47
570.08	2347.02
570.43	2350.11
570.78	2353.37
571.14	2355.82
571.49	2359.07
571.84	2362.63
572.20	2365.49
572.55	2368.62
572.90	2370.88
573.26	2373.97
573.61	2376.56
573.96	2378.69
574.31	2380.74
574.67	2382.83
575.02	2383.94
575.37	2385.38
575.72	2386.10
576.08	2387.69
576.43	2388.08
576.78	2388.89
577.13	2390.67
577.49	2391.79
577.84	2393.19
578.19	2394.73
578.54	2395.50
578.90	2396.53
579.25	2396.56
579.60	2396.76
579.95	2396.05
580.30	2396.42
580.66	2395.72
581.01	2394.25
581.36	2392.04
581.71	2390.86
582.06	2390.06
582.42	2389.31
582.77	2387.37
583.12	2385.99
583.47	2385.00
583.82	2384.65
584.17	2383.50
584.53	2381.47
584.88	2379.60
585.23	2377.71
585.58	2375.60
585.93	2373.69
586.28	2371.64
586.63	2369.54
586.98	2367.56
587.34	2365.88
587.69	2363.73
588.04	2361.91
588.39	2360.54
588.74	2358.41
589.09	2356.03
589.44	2353.02
589.79	2350.54
590.14	2348.77
590.49	2346.19
590.84	2342.40
591.19	2339.38
591.54	2336.21
591.89	2332.29
592.25	2329.32
592.60	2325.38
592.95	2321.32
593.30	2317.32
593.65	2313.11
594.00	2308.78
594.35	2305.76
594.70	2301.23
595.05	2296.57
595.40	2291.33
595.75	2285.92
596.10	2282.39
596.45	2277.55
596.80	2273.12
597.15	2268.11
597.50	2262.28
597.85	2257.26
598.19	2252.11
598.54	2246.43
598.89	2241.46
599.24	2237.17
599.59	2231.14
599.94	2225.55
600.29	2219.85
600.64	2214.07
600.99	2207.53
601.34	2202.39
601.69	2195.46
602.04	2189.18
602.39	2182.85
602.74	2176.77
603.08	2171.23
603.43	2164.78
603.78	2158.11
604.13	2151.02
604.48	2143.87
604.83	2137.86
605.18	2131.76
605.53	2124.93
605.87	2118.00
606.22	2111.26
606.57	2103.35
606.92	2095.50
607.27	2088.69
607.62	2081.94
607.96	2074.90
608.31	2068.38
608.66	2060.42
609.01	2052.92
609.36	2045.83
609.70	2038.09
610.05	2030.38
610.40	2022.24
610.75	2014.09
611.10	2006.41
611.44	1997.80
611.79	1989.20
612.14	1979.24
612.49	1968.83
612.83	1959.74
613.18	1950.80
613.53	1941.56
613.88	1932.02
614.22	1923.42
614.57	1913.50
614.92	1903.09
615.27	1893.02
615.61	1883.07
615.96	1873.44
616.31	1863.87
616.65	1854.66
617.00	1844.90
617.35	1835.42
617.70	1825.69
618.04	1815.64
618.39	1805.41
618.74	1795.79
619.08	1786.14
619.43	1777.55
619.78	1769.29
620.12	1760.65
620.47	1750.74
620.82	1740.47
621.16	1730.78
621.51	1720.94
621.85	1711.13
622.20	1700.69
622.55	1690.24
622.89	1680.27
623.24	1670.71
623.59	1660.98
623.93	1650.83
624.28	1641.26
624.62	1631.04
624.97	1620.77
625.32	1611.10
625.66	1602.34
626.01	1593.65
626.35	1584.34
626.70	1574.18
627.04	1564.07
627.39	1553.91
627.73	1544.64
628.08	1535.68
628.43	1526.11
628.77	1516.85
629.12	1508.05
629.46	1500.30
629.81	1491.87
630.15	1482.37
630.50	1472.52
630.84	1462.19
631.19	1452.33
631.53	1442.95
631.88	1433.03
632.22	1423.01
632.57	1413.54
632.91	1403.41
633.26	1393.46
633.60	1383.93
633.95	1374.72
634.29	1365.34
634.64	1356.03
634.98	1346.25
635.32	1336.91
635.67	1328.40
636.01	1319.27
636.36	1309.48
636.70	1299.95
637.05	1290.70
637.39	1281.81
637.73	1273.23
638.08	1265.73
638.42	1257.41
638.77	1248.63
639.11	1240.28
639.45	1232.58
639.80	1224.04
640.14	1215.53
640.49	1206.71
640.83	1197.93
641.17	1189.85
641.52	1181.71
641.86	1173.12
642.20	1165.34
642.55	1156.85
642.89	1148.06
643.23	1139.38
643.58	1131.42
643.92	1122.44
644.26	1113.86
644.61	1105.45
644.95	1096.73
645.29	1087.54
645.64	1078.61
645.98	1070.29
646.32	1062.45
646.66	1054.04
647.01	1045.78
647.35	1037.64
647.69	1029.32
648.04	1021.01
648.38	1012.19
648.72	1003.44
649.06	995.11
649.41	986.96
649.75	978.97
650.09	971.10
650.43	963.05
650.78	954.81
651.12	947.26
651.46	939.84
651.80	932.61
652.14	925.43
652.49	917.87
652.83	910.51
653.17	902.83
653.51	895.23
653.85	887.95
654.20	880.85
654.54	873.35
654.88	866.21
655.22	859.15
655.56	852.23
655.90	845.49
656.25	838.85
656.59	831.98
656.93	825.02
657.27	817.98
657.61	811.18
657.95	805.09
658.29	799.25
658.64	793.27
658.98	786.95
659.32	780.42
659.66	774.28
660.00	767.97
660.34	762.00
660.68	756.02
661.02	749.74
661.36	743.86
661.70	738.16
662.05	732.65
662.39	727.28
662.73	721.94
663.07	716.67
663.41	711.22
663.75	705.63
664.09	700.15
664.43	694.86
664.77	689.54
665.11	683.80
665.45	677.92
665.79	672.17
666.13	666.51
666.47	661.13
666.81	655.82
667.15	650.60
667.49	645.44
667.83	640.21
668.17	635.11
668.51	630.08
668.85	625.27
669.19	620.42
669.53	615.46
669.87	610.46
670.21	605.77
670.55	601.08
670.89	596.71
671.23	592.42
671.57	588.12
671.91	583.97
672.25	579.92
672.58	575.85
672.92	571.83
673.26	568.00
673.60	564.18
673.94	560.33
674.28	556.79
674.62	553.11
674.96	549.48
675.30	546.00
675.64	542.38
675.97	538.75
676.31	535.15
676.65	531.60
676.99	528.20
677.33	524.42
677.67	520.84
678.01	517.03
678.34	513.44
678.68	509.97
679.02	506.35
679.36	502.63
679.70	499.07
680.04	495.61
680.37	492.19
680.71	488.93
681.05	485.87
681.39	482.65
681.73	479.58
682.06	476.56
682.40	473.46
682.74	470.32
683.08	467.22
683.42	464.15
683.75	461.29
684.09	458.37
684.43	455.58
684.77	452.73
685.10	449.96
685.44	447.13
685.78	444.20
686.12	441.52
686.45	438.93
686.79	436.29
687.13	433.80
687.46	431.24
687.80	428.66
688.14	425.81
688.48	423.32
688.81	420.67
689.15	418.16
689.49	415.69
689.82	413.22
690.16	410.71
690.50	408.30
690.83	405.79
691.17	403.25
691.51	400.89
691.84	398.72
692.18	396.54
692.52	394.37
692.85	392.30
693.19	390.20
693.52	388.03
693.86	385.91
694.20	383.74
694.53	381.66
694.87	379.50
695.21	377.46
695.54	375.26
695.88	373.12
696.21	370.97
696.55	368.89
696.88	366.87
697.22	364.92
697.56	363.08
697.89	361.24
698.23	359.50
698.56	357.73
698.90	356.00
699.23	354.15
699.57	352.35
699.90	350.55
700.24	348.81
700.58	347.14
700.91	345.51
701.25	343.97
701.58	342.46
701.92	340.93
702.25	339.35
702.59	337.80
702.92	336.32
703.26	334.83
703.59	333.42
703.93	332.21
704.26	330.82
704.60	329.31
704.93	327.86
705.26	326.43
705.60	324.99
705.93	323.45
706.27	322.14
706.60	320.90
706.94	319.70
707.27	318.33
707.61	317.03
707.94	315.72
708.27	314.25
708.61	312.79
708.94	311.42
709.28	310.21
709.61	308.98
709.94	307.84
710.28	306.69
710.61	305.49
710.95	304.08
711.28	303.08
711.61	301.93
711.95	300.86
712.28	299.68
712.61	298.53
712.95	297.55
713.28	296.54
713.61	295.39
713.95	294.26
714.28	293.26
714.61	292.21
714.95	291.18
715.28	290.19
715.61	289.21
715.95	288.32
716.28	287.39
716.61	286.45
716.95	285.45
717.28	284.50
717.61	283.56
717.94	282.70
718.28	281.67
718.61	280.84
718.94	279.91
719.27	279.09
719.61	278.32
719.94	277.50
720.27	276.53
720.60	275.74
720.94	274.94
721.27	274.21
721.60	273.58
721.93	272.91
722.27	272.32
722.60	271.67
722.93	270.94
723.26	270.31
723.59	269.65
723.93	269.05
724.26	268.45
724.59	267.81
724.92	267.26
725.25	266.72
725.59	266.11
725.92	265.64
726.25	265.06
726.58	264.48
726.91	263.87
727.24	263.35
727.57	262.82
727.91	262.25
728.24	261.71
728.57	261.08
728.90	260.52
729.23	259.92
729.56	259.51
729.89	258.99
730.22	258.40
730.55	257.90
730.89	257.38
731.22	256.82
731.55	256.33
731.88	255.79
732.21	255.29
732.54	254.82
732.87	254.32
733.20	253.87
733.53	253.42
733.86	252.97
734.19	252.54
734.52	252.13
734.85	251.88
735.18	251.42
735.51	251.11
735.84	250.71
736.17	250.31
736.50	249.74
736.83	249.60
737.16	249.27
737.49	248.88
737.82	248.50
738.15	248.16
738.48	247.84
738.81	247.47
739.14	247.04
739.47	246.65
739.80	246.27
740.13	245.97
740.46	245.57
740.79	245.20
741.12	244.84
741.45	244.47
741.78	244.04
742.11	243.78
742.44	243.40
742.77	243.11
743.10	242.77
743.43	242.49
743.75	241.92
744.08	241.88
744.41	241.53
744.74	241.19
745.07	240.85
745.40	240.54
745.73	240.33
746.06	240.02
746.39	239.74
746.71	239.41
747.04	239.05
747.37	238.75
747.70	238.48
748.03	238.19
748.36	237.94
748.68	237.60
749.01	237.28
749.34	236.96
749.67	236.64
750.00	236.41
750.33	236.26
750.65	236.00
750.98	235.44
751.31	235.20
751.64	234.99
751.97	234.87
752.29	234.61
752.62	234.20
752.95	233.97
753.28	233.72
753.60	233.51
753.93	233.35
754.26	233.15
754.59	232.86
754.91	232.60
755.24	232.34
755.57	232.14
755.90	231.92
756.22	231.71
756.55	231.48
756.88	231.20
757.20	230.90
757.53	230.64
757.86	230.44
758.19	230.24
758.51	230.03
758.84	229.75
759.17	229.58
759.49	229.43
759.82	229.37
760.15	229.22
760.47	229.01
760.80	228.75
761.13	228.61
761.45	228.44
761.78	228.30
762.11	228.17
762.43	227.98
762.76	227.80
763.08	227.68
763.41	227.53
763.74	227.41
764.06	227.26
764.39	227.14
764.71	226.97
765.04	226.81
765.37	226.66
765.69	226.49
766.02	226.31
766.34	226.16
766.67	225.93
767.00	225.83
767.32	225.82
767.65	225.85
767.97	225.69
768.30	225.59
768.62	225.46
768.95	225.30
769.27	225.17
769.60	225.07
769.92	224.91
770.25	224.76
770.57	224.60
770.90	224.48
771.22	224.35
771.55	224.28
771.87	224.20
772.20	224.06
772.52	224.15
772.85	224.29
773.17	224.21
773.50	224.09
773.82	223.93
774.15	223.72
774.47	223.49
774.80	223.40
775.12	223.29
775.45	223.22
775.77	223.14
776.09	223.07
776.42	222.97
776.74	222.98
777.07	222.88
777.39	222.79
777.72	222.68
778.04	222.64
778.36	222.54
778.69	222.47
779.01	222.37
779.33	222.12
779.66	221.83
779.98	221.74
780.31	221.66
780.63	221.67
780.95	221.63
781.28	221.53
781.60	221.43
781.92	221.37
782.25	221.29
782.57	221.22
782.89	221.15
783.22	221.09
783.54	220.94
783.86	220.89
784.19	220.85
784.51	220.87
784.83	220.76
785.16	220.69
785.48	220.62
785.80	220.61
786.12	220.53
