SpectraSuite Data File
++++++++++++++++++++++++++++++++++++
Date: Tue Jan 29 16:53:40 EST 2013
User: group
Dark Spectrum Present: No
Reference Spectrum Present: No
Number of Sampled Component Spectra: 1
Spectrometers: USB2E7196
Integration Time (usec): 65000 (USB2E7196)
Spectra Averaged: 100 (USB2E7196)
Boxcar Smoothing: 10 (USB2E7196)
Correct for Electrical Dark: No (USB2E7196)
Strobe/Lamp Enabled: No (USB2E7196)
Correct for Detector Non-linearity: No (USB2E7196)
Correct for Stray Light: No (USB2E7196)
Number of Pixels in Processed Spectrum: 2048
>>>>>Begin Processed Spectral Data<<<<<
339.09	0.00
339.48	201.76
339.86	202.97
340.24	205.28
340.63	205.73
341.01	210.23
341.39	208.80
341.78	210.22
342.16	211.64
342.54	211.69
342.93	200.94
343.31	211.08
343.69	211.59
344.07	212.05
344.46	212.46
344.84	212.86
345.22	213.04
345.60	213.30
345.99	213.51
346.37	213.62
346.75	213.72
347.13	213.78
347.52	213.87
347.90	214.00
348.28	214.02
348.66	214.10
349.05	214.10
349.43	214.15
349.81	214.21
350.19	214.27
350.57	214.36
350.96	214.46
351.34	214.59
351.72	214.75
352.10	214.87
352.48	214.91
352.87	214.99
353.25	215.08
353.63	215.11
354.01	215.15
354.39	215.25
354.77	215.35
355.15	215.45
355.54	215.47
355.92	215.44
356.30	215.55
356.68	215.75
357.06	215.83
357.44	215.88
357.82	215.93
358.20	216.01
358.58	216.07
358.97	216.13
359.35	216.21
359.73	216.29
360.11	216.34
360.49	216.40
360.87	216.42
361.25	216.46
361.63	216.57
362.01	216.64
362.39	216.64
362.77	216.67
363.15	216.72
363.53	216.73
363.91	216.81
364.29	216.81
364.67	216.62
365.05	216.66
365.43	216.69
365.81	216.71
366.19	216.80
366.57	216.88
366.95	216.86
367.33	216.79
367.71	216.73
368.09	216.77
368.47	216.77
368.85	216.76
369.23	216.79
369.61	216.72
369.99	216.78
370.37	216.77
370.75	216.85
371.13	216.78
371.51	216.76
371.89	216.74
372.27	216.71
372.65	216.72
373.03	216.67
373.41	216.61
373.78	216.55
374.16	216.40
374.54	216.32
374.92	216.27
375.30	216.25
375.68	216.20
376.06	216.17
376.44	216.13
376.82	216.10
377.19	216.08
377.57	216.02
377.95	215.91
378.33	215.85
378.71	215.72
379.09	215.74
379.47	215.73
379.84	215.63
380.22	215.56
380.60	215.47
380.98	215.44
381.36	215.40
381.73	215.35
382.11	215.37
382.49	215.33
382.87	215.22
383.25	215.19
383.62	215.40
384.00	215.32
384.38	215.29
384.76	215.32
385.13	215.36
385.51	215.34
385.89	215.27
386.27	215.28
386.64	215.28
387.02	215.22
387.40	215.20
387.78	215.20
388.15	215.20
388.53	215.18
388.91	215.13
389.29	215.09
389.66	215.10
390.04	215.02
390.42	215.04
390.79	215.08
391.17	215.08
391.55	214.83
391.92	214.81
392.30	214.81
392.68	214.73
393.05	214.69
393.43	214.68
393.81	214.75
394.18	214.70
394.56	214.68
394.94	214.73
395.31	214.68
395.69	214.79
396.06	214.80
396.44	214.82
396.82	214.83
397.19	214.99
397.57	215.00
397.95	215.06
398.32	215.02
398.70	215.07
399.07	215.12
399.45	215.15
399.82	215.22
400.20	215.26
400.58	215.33
400.95	215.30
401.33	215.41
401.70	215.60
402.08	215.68
402.45	215.76
402.83	215.86
403.20	216.00
403.58	216.03
403.95	216.21
404.33	216.37
404.71	216.56
405.08	216.79
405.46	216.97
405.83	217.16
406.21	217.36
406.58	217.61
406.96	217.85
407.33	218.11
407.70	218.39
408.08	218.86
408.45	219.20
408.83	219.58
409.20	219.91
409.58	220.18
409.95	220.66
410.33	221.16
410.70	221.62
411.08	222.18
411.45	222.77
411.82	223.34
412.20	224.05
412.57	224.87
412.95	225.47
413.32	226.29
413.69	227.13
414.07	228.05
414.44	229.05
414.82	230.07
415.19	231.28
415.56	232.48
415.94	233.68
416.31	235.09
416.68	236.51
417.06	238.14
417.43	239.71
417.81	241.47
418.18	243.28
418.55	245.20
418.93	247.26
419.30	249.37
419.67	251.62
420.04	253.88
420.42	256.24
420.79	259.03
421.16	261.85
421.54	264.78
421.91	267.81
422.28	270.89
422.66	274.20
423.03	277.47
423.40	280.93
423.77	284.55
424.15	288.24
424.52	292.12
424.89	296.31
425.26	300.41
425.64	304.31
426.01	308.64
426.38	313.13
426.75	317.65
427.13	322.45
427.50	327.48
427.87	332.74
428.24	337.98
428.61	343.01
428.99	348.52
429.36	354.61
429.73	360.53
430.10	366.47
430.47	372.58
430.85	378.91
431.22	385.62
431.59	392.75
431.96	399.64
432.33	407.14
432.70	414.40
433.08	422.99
433.45	431.12
433.82	439.16
434.19	448.06
434.56	456.86
434.93	465.21
435.30	473.47
435.68	482.62
436.05	491.65
436.42	500.63
436.79	508.89
437.16	517.64
437.53	526.96
437.90	536.20
438.27	545.25
438.64	554.52
439.01	563.07
439.38	570.69
439.75	578.06
440.13	586.56
440.50	594.56
440.87	600.99
441.24	607.66
441.61	615.02
441.98	620.51
442.35	626.84
442.72	633.24
443.09	639.41
443.46	643.19
443.83	645.72
444.20	647.99
444.57	651.10
444.94	652.58
445.31	654.07
445.68	655.41
446.05	655.98
446.42	655.26
446.79	654.31
447.16	653.31
447.53	652.58
447.90	649.21
448.27	646.01
448.64	641.39
449.01	638.11
449.37	632.26
449.74	626.57
450.11	619.70
450.48	612.25
450.85	604.77
451.22	598.26
451.59	592.10
451.96	586.22
452.33	578.34
452.70	571.23
453.07	562.68
453.43	554.07
453.80	545.76
454.17	537.68
454.54	530.13
454.91	521.88
455.28	513.81
455.65	506.36
456.02	498.75
456.38	492.32
456.75	484.31
457.12	477.62
457.49	470.94
457.86	464.65
458.23	459.21
458.59	453.18
458.96	447.12
459.33	441.77
459.70	436.29
460.07	432.00
460.43	427.07
460.80	422.44
461.17	418.39
461.54	414.17
461.91	410.12
462.27	405.92
462.64	402.39
463.01	398.54
463.38	394.84
463.74	391.11
464.11	387.86
464.48	385.03
464.85	381.95
465.21	379.60
465.58	376.95
465.95	373.81
466.32	371.20
466.68	368.57
467.05	365.97
467.42	363.41
467.78	360.73
468.15	358.16
468.52	356.24
468.88	353.70
469.25	351.45
469.62	349.61
469.98	347.66
470.35	345.84
470.72	344.14
471.08	342.29
471.45	340.77
471.82	339.22
472.18	337.54
472.55	336.34
472.92	334.84
473.28	333.62
473.65	332.42
474.02	331.29
474.38	330.39
474.75	329.60
475.11	328.80
475.48	328.16
475.85	327.65
476.21	327.15
476.58	326.80
476.94	326.52
477.31	326.21
477.67	325.93
478.04	325.77
478.41	325.75
478.77	325.91
479.14	325.84
479.50	325.96
479.87	326.21
480.23	326.50
480.60	326.75
480.96	327.03
481.33	327.66
481.69	328.20
482.06	328.77
482.42	329.30
482.79	329.89
483.15	330.69
483.52	331.65
483.88	332.49
484.25	333.46
484.61	334.47
484.98	335.46
485.34	336.79
485.71	338.17
486.07	339.59
486.44	340.91
486.80	342.52
487.17	344.14
487.53	346.00
487.90	347.85
488.26	349.95
488.62	352.10
488.99	354.13
489.35	356.31
489.72	358.63
490.08	361.11
490.44	363.68
490.81	366.33
491.17	369.01
491.54	371.98
491.90	375.02
492.26	378.21
492.63	381.62
492.99	385.07
493.36	388.73
493.72	392.57
494.08	396.59
494.45	400.80
494.81	405.19
495.17	409.57
495.54	414.25
495.90	419.00
496.26	423.88
496.63	429.03
496.99	434.40
497.35	439.96
497.72	445.73
498.08	451.67
498.44	457.81
498.80	464.23
499.17	470.71
499.53	477.35
499.89	484.33
500.26	491.31
500.62	498.35
500.98	505.72
501.34	513.20
501.71	520.87
502.07	528.66
502.43	536.62
502.79	544.77
503.16	553.14
503.52	561.76
503.88	570.42
504.24	579.40
504.60	588.42
504.97	597.63
505.33	606.88
505.69	616.67
506.05	626.48
506.41	636.34
506.78	646.37
507.14	656.62
507.50	667.00
507.86	677.69
508.22	688.45
508.59	698.96
508.95	709.95
509.31	721.21
509.67	732.67
510.03	744.04
510.39	755.66
510.75	767.43
511.12	779.22
511.48	791.36
511.84	803.47
512.20	815.81
512.56	828.43
512.92	841.21
513.28	853.91
513.64	866.55
514.00	879.28
514.37	892.21
514.73	905.30
515.09	918.26
515.45	931.17
515.81	944.25
516.17	957.70
516.53	970.95
516.89	984.02
517.25	997.14
517.61	1010.71
517.97	1024.15
518.33	1037.25
518.69	1050.79
519.05	1064.41
519.41	1078.10
519.77	1092.03
520.13	1105.36
520.49	1118.49
520.85	1131.77
521.21	1145.20
521.57	1158.90
521.93	1172.00
522.29	1185.68
522.65	1199.33
523.01	1212.87
523.37	1226.04
523.73	1239.43
524.09	1252.62
524.45	1266.12
524.81	1279.65
525.17	1293.02
525.53	1306.24
525.89	1319.68
526.25	1332.86
526.61	1345.79
526.97	1358.92
527.33	1371.92
527.68	1385.42
528.04	1399.08
528.40	1412.30
528.76	1425.72
529.12	1438.69
529.48	1452.05
529.84	1464.49
530.20	1477.37
530.56	1490.12
530.91	1503.38
531.27	1516.29
531.63	1529.19
531.99	1542.00
532.35	1554.19
532.71	1566.62
533.07	1579.54
533.42	1591.87
533.78	1604.09
534.14	1616.17
534.50	1627.42
534.86	1639.05
535.21	1649.83
535.57	1661.40
535.93	1672.70
536.29	1683.81
536.65	1695.42
537.00	1706.38
537.36	1717.82
537.72	1728.73
538.08	1740.13
538.44	1751.25
538.79	1762.41
539.15	1773.40
539.51	1784.15
539.87	1795.60
540.22	1806.49
540.58	1817.52
540.94	1828.54
541.29	1838.90
541.65	1848.83
542.01	1859.55
542.37	1869.59
542.72	1879.81
543.08	1889.55
543.44	1900.20
543.79	1909.49
544.15	1918.87
544.51	1929.00
544.87	1938.94
545.22	1948.31
545.58	1957.30
545.94	1966.25
546.29	1974.76
546.65	1983.06
547.01	1991.41
547.36	1999.20
547.72	2006.95
548.07	2014.60
548.43	2022.21
548.79	2030.12
549.14	2038.27
549.50	2046.79
549.86	2054.79
550.21	2062.39
550.57	2070.10
550.92	2076.95
551.28	2084.57
551.64	2091.80
551.99	2099.22
552.35	2106.34
552.70	2113.17
553.06	2119.74
553.41	2126.01
553.77	2132.51
554.13	2138.94
554.48	2145.92
554.84	2152.94
555.19	2159.52
555.55	2165.92
555.90	2172.26
556.26	2179.09
556.61	2185.17
556.97	2189.83
557.32	2195.53
557.68	2201.91
558.03	2207.76
558.39	2213.05
558.74	2219.01
559.10	2224.70
559.45	2230.17
559.81	2235.66
560.16	2241.23
560.52	2247.16
560.87	2253.43
561.23	2259.31
561.58	2265.76
561.94	2271.01
562.29	2275.63
562.64	2281.69
563.00	2287.30
563.35	2292.73
563.71	2298.32
564.06	2304.04
564.42	2310.08
564.77	2315.15
565.12	2320.32
565.48	2325.29
565.83	2330.62
566.19	2335.78
566.54	2340.91
566.89	2345.39
567.25	2349.88
567.60	2355.44
567.96	2360.29
568.31	2364.80
568.66	2368.98
569.02	2372.82
569.37	2376.39
569.72	2380.81
570.08	2384.12
570.43	2387.09
570.78	2390.23
571.14	2392.59
571.49	2395.57
571.84	2398.81
572.20	2401.65
572.55	2404.55
572.90	2406.71
573.26	2409.41
573.61	2411.94
573.96	2413.94
574.31	2415.99
574.67	2417.67
575.02	2418.27
575.37	2419.82
575.72	2420.32
576.08	2421.67
576.43	2421.75
576.78	2422.03
577.13	2423.28
577.49	2424.36
577.84	2425.27
578.19	2426.22
578.54	2426.60
578.90	2427.09
579.25	2426.84
579.60	2426.43
579.95	2425.38
580.30	2425.18
580.66	2424.30
581.01	2422.41
581.36	2419.78
581.71	2418.12
582.06	2416.75
582.42	2415.77
582.77	2413.07
583.12	2411.15
583.47	2409.45
583.82	2408.71
584.17	2407.27
584.53	2405.01
584.88	2402.54
585.23	2400.32
585.58	2397.90
585.93	2395.83
586.28	2393.30
586.63	2390.63
586.98	2388.26
587.34	2386.03
587.69	2383.32
588.04	2381.03
588.39	2379.31
588.74	2376.86
589.09	2373.97
589.44	2370.57
589.79	2367.75
590.14	2365.63
590.49	2362.84
590.84	2358.78
591.19	2355.26
591.54	2351.97
591.89	2347.71
592.25	2344.28
592.60	2340.12
592.95	2335.89
593.30	2331.68
593.65	2327.32
594.00	2322.74
594.35	2319.65
594.70	2315.11
595.05	2310.65
595.40	2305.13
595.75	2299.30
596.10	2295.57
596.45	2290.61
596.80	2286.06
597.15	2280.91
597.50	2275.06
597.85	2269.92
598.19	2264.75
598.54	2259.10
598.89	2253.68
599.24	2249.07
599.59	2242.94
599.94	2236.94
600.29	2230.94
600.64	2224.89
600.99	2217.99
601.34	2212.57
601.69	2205.50
602.04	2198.95
602.39	2192.14
602.74	2186.00
603.08	2180.41
603.43	2173.88
603.78	2167.08
604.13	2159.94
604.48	2152.61
604.83	2146.52
605.18	2140.32
605.53	2133.51
605.87	2126.49
606.22	2119.77
606.57	2112.00
606.92	2104.12
607.27	2097.20
607.62	2090.57
607.96	2083.53
608.31	2077.22
608.66	2069.37
609.01	2061.74
609.36	2054.59
609.70	2046.87
610.05	2039.08
610.40	2030.79
610.75	2022.42
611.10	2014.66
611.44	2005.83
611.79	1997.19
612.14	1987.25
612.49	1976.60
612.83	1967.24
613.18	1958.00
613.53	1948.74
613.88	1939.09
614.22	1930.46
614.57	1920.75
614.92	1910.23
615.27	1899.98
615.61	1889.81
615.96	1880.26
616.31	1870.75
616.65	1861.51
617.00	1851.95
617.35	1842.43
617.70	1832.85
618.04	1823.02
618.39	1813.01
618.74	1803.59
619.08	1793.97
619.43	1785.35
619.78	1777.15
620.12	1768.63
620.47	1759.10
620.82	1748.78
621.16	1739.19
621.51	1729.39
621.85	1719.54
622.20	1709.35
622.55	1699.03
622.89	1689.12
623.24	1679.60
623.59	1669.96
623.93	1659.93
624.28	1650.23
624.62	1640.19
624.97	1630.03
625.32	1620.23
625.66	1611.28
626.01	1602.47
626.35	1593.25
626.70	1583.35
627.04	1573.49
627.39	1563.48
627.73	1554.35
628.08	1545.61
628.43	1536.17
628.77	1527.10
629.12	1518.30
629.46	1510.50
629.81	1502.33
630.15	1492.96
630.50	1483.23
630.84	1472.84
631.19	1463.02
631.53	1453.91
631.88	1443.84
632.22	1433.95
632.57	1424.77
632.91	1414.98
633.26	1405.28
633.60	1395.93
633.95	1386.73
634.29	1377.38
634.64	1368.10
634.98	1358.29
635.32	1349.18
635.67	1340.81
636.01	1331.65
636.36	1322.18
636.70	1312.76
637.05	1303.41
637.39	1294.67
637.73	1286.17
638.08	1278.66
638.42	1270.61
638.77	1261.87
639.11	1253.79
639.45	1246.06
639.80	1237.69
640.14	1228.87
640.49	1220.14
640.83	1211.25
641.17	1203.18
641.52	1195.11
641.86	1186.71
642.20	1178.82
642.55	1170.12
642.89	1161.31
643.23	1152.84
643.58	1144.68
643.92	1135.86
644.26	1127.22
644.61	1118.86
644.95	1110.09
645.29	1101.05
645.64	1092.09
645.98	1083.71
646.32	1075.82
646.66	1067.44
647.01	1059.21
647.35	1051.34
647.69	1043.13
648.04	1034.95
648.38	1026.14
648.72	1017.40
649.06	1009.10
649.41	1001.00
649.75	993.30
650.09	985.56
650.43	977.55
650.78	969.23
651.12	961.50
651.46	954.19
651.80	947.00
652.14	939.81
652.49	932.33
652.83	925.01
653.17	917.37
653.51	909.81
653.85	902.56
654.20	895.36
654.54	887.92
654.88	880.67
655.22	873.57
655.56	866.67
655.90	859.96
656.25	853.27
656.59	846.44
656.93	839.44
657.27	832.29
657.61	825.25
657.95	819.27
658.29	813.34
658.64	807.26
658.98	800.76
659.32	794.29
659.66	788.12
660.00	781.82
660.34	775.76
660.68	769.76
661.02	763.51
661.36	757.48
661.70	751.68
662.05	746.20
662.39	740.73
662.73	735.33
663.07	729.98
663.41	724.38
663.75	718.65
664.09	712.93
664.43	707.54
664.77	702.28
665.11	696.53
665.45	690.72
665.79	684.87
666.13	679.27
666.47	673.80
666.81	668.36
667.15	662.96
667.49	657.75
667.83	652.47
668.17	647.23
668.51	642.14
668.85	637.23
669.19	632.30
669.53	627.33
669.87	622.24
670.21	617.45
670.55	612.76
670.89	608.34
671.23	604.08
671.57	599.72
671.91	595.47
672.25	591.31
672.58	587.16
672.92	583.17
673.26	579.18
673.60	575.29
673.94	571.41
674.28	567.73
674.62	564.14
674.96	560.35
675.30	556.87
675.64	553.18
675.97	549.60
676.31	545.94
676.65	542.34
676.99	538.90
677.33	535.02
677.67	531.39
678.01	527.54
678.34	523.82
678.68	520.30
679.02	516.74
679.36	513.10
679.70	509.47
680.04	505.86
680.37	502.41
680.71	499.07
681.05	495.90
681.39	492.66
681.73	489.43
682.06	486.40
682.40	483.26
682.74	480.06
683.08	476.84
683.42	473.59
683.75	470.51
684.09	467.42
684.43	464.66
684.77	461.73
685.10	458.88
685.44	455.93
685.78	452.97
686.12	450.09
686.45	447.31
686.79	444.63
687.13	442.06
687.46	439.43
687.80	436.67
688.14	433.81
688.48	431.16
688.81	428.38
689.15	425.80
689.49	423.20
689.82	420.66
690.16	418.01
690.50	415.61
690.83	413.11
691.17	410.59
691.51	408.02
691.84	405.71
692.18	403.48
692.52	401.28
692.85	399.10
693.19	396.97
693.52	394.81
693.86	392.55
694.20	390.35
694.53	388.21
694.87	386.08
695.21	383.92
695.54	381.75
695.88	379.59
696.21	377.37
696.55	375.21
696.88	373.12
697.22	371.17
697.56	369.21
697.89	367.27
698.23	365.48
698.56	363.67
698.90	361.87
699.23	359.96
699.57	358.11
699.90	356.19
700.24	354.36
700.58	352.51
700.91	350.84
701.25	349.25
701.58	347.65
701.92	345.95
702.25	344.35
702.59	342.69
702.92	341.13
703.26	339.53
703.59	338.00
703.93	336.75
704.26	335.31
704.60	333.80
704.93	332.36
705.26	330.84
705.60	329.39
705.93	327.85
706.27	326.45
706.60	325.12
706.94	323.92
707.27	322.52
707.61	321.17
707.94	319.83
708.27	318.32
708.61	316.81
708.94	315.49
709.28	314.19
709.61	312.94
709.94	311.74
710.28	310.51
710.61	309.32
710.95	307.88
711.28	306.71
711.61	305.52
711.95	304.32
712.28	303.09
712.61	301.88
712.95	300.82
713.28	299.80
713.61	298.64
713.95	297.46
714.28	296.44
714.61	295.42
714.95	294.38
715.28	293.35
715.61	292.31
715.95	291.28
716.28	290.27
716.61	289.30
716.95	288.23
717.28	287.28
717.61	286.30
717.94	285.34
718.28	284.30
718.61	283.36
718.94	282.44
719.27	281.59
719.61	280.75
719.94	279.86
720.27	278.85
720.60	277.98
720.94	277.18
721.27	276.37
721.60	275.65
721.93	274.90
722.27	274.20
722.60	273.51
722.93	272.83
723.26	272.15
723.59	271.42
723.93	270.80
724.26	270.15
724.59	269.48
724.92	268.89
725.25	268.34
725.59	267.75
725.92	267.19
726.25	266.60
726.58	266.01
726.91	265.37
727.24	264.84
727.57	264.28
727.91	263.67
728.24	263.08
728.57	262.47
728.90	261.93
729.23	261.30
729.56	260.87
729.89	260.32
730.22	259.77
730.55	259.24
730.89	258.70
731.22	258.15
731.55	257.65
731.88	257.11
732.21	256.57
732.54	256.03
732.87	255.48
733.20	255.01
733.53	254.53
733.86	254.12
734.19	253.60
734.52	253.17
734.85	252.85
735.18	252.42
735.51	252.05
735.84	251.57
736.17	251.18
736.50	250.61
736.83	250.45
737.16	250.03
737.49	249.65
737.82	249.25
738.15	248.89
738.48	248.51
738.81	248.15
739.14	247.72
739.47	247.32
739.80	247.00
740.13	246.66
740.46	246.26
740.79	245.86
741.12	245.48
741.45	245.05
741.78	244.54
742.11	244.23
742.44	243.84
742.77	243.53
743.10	243.19
743.43	242.86
743.75	242.27
744.08	242.18
744.41	241.79
744.74	241.41
745.07	241.02
745.40	240.71
745.73	240.42
746.06	240.06
746.39	239.78
746.71	239.44
747.04	239.05
747.37	238.71
747.70	238.47
748.03	238.20
748.36	237.96
748.68	237.69
749.01	237.31
749.34	236.99
749.67	236.71
750.00	236.42
750.33	236.29
750.65	236.02
750.98	235.50
751.31	235.26
751.64	235.00
751.97	234.88
752.29	234.60
752.62	234.24
752.95	234.02
753.28	233.72
753.60	233.46
753.93	233.28
754.26	233.06
754.59	232.74
754.91	232.47
755.24	232.22
755.57	231.99
755.90	231.77
756.22	231.55
756.55	231.29
756.88	231.06
757.20	230.69
757.53	230.43
757.86	230.22
758.19	230.04
758.51	229.87
758.84	229.56
759.17	229.36
759.49	229.23
759.82	229.14
760.15	229.00
760.47	228.82
760.80	228.54
761.13	228.38
761.45	228.18
761.78	227.98
762.11	227.81
762.43	227.61
762.76	227.44
763.08	227.26
763.41	227.12
763.74	226.96
764.06	226.83
764.39	226.67
764.71	226.53
765.04	226.32
765.37	226.13
765.69	225.98
766.02	225.82
766.34	225.63
766.67	225.38
767.00	225.27
767.32	225.23
767.65	225.27
767.97	225.14
768.30	224.99
768.62	224.87
768.95	224.73
769.27	224.59
769.60	224.50
769.92	224.37
770.25	224.18
770.57	224.02
770.90	223.89
771.22	223.78
771.55	223.66
771.87	223.58
772.20	223.48
772.52	223.54
772.85	223.66
773.17	223.58
773.50	223.46
773.82	223.32
774.15	223.12
774.47	222.87
774.80	222.75
775.12	222.66
775.45	222.57
775.77	222.48
776.09	222.43
776.42	222.32
776.74	222.27
777.07	222.20
777.39	222.12
777.72	222.01
778.04	221.93
778.36	221.81
778.69	221.70
779.01	221.64
779.33	221.38
779.66	221.07
779.98	220.98
780.31	220.96
780.63	220.96
780.95	220.90
781.28	220.83
781.60	220.75
781.92	220.69
782.25	220.61
782.57	220.56
782.89	220.45
783.22	220.36
783.54	220.26
783.86	220.20
784.19	220.12
784.51	220.10
784.83	220.01
785.16	219.95
785.48	219.87
785.80	219.80
786.12	219.72
