SpectraSuite Data File
++++++++++++++++++++++++++++++++++++
Date: Tue Jan 29 16:23:53 EST 2013
User: group
Dark Spectrum Present: No
Reference Spectrum Present: No
Number of Sampled Component Spectra: 1
Spectrometers: USB2E7196
Integration Time (usec): 65000 (USB2E7196)
Spectra Averaged: 100 (USB2E7196)
Boxcar Smoothing: 10 (USB2E7196)
Correct for Electrical Dark: No (USB2E7196)
Strobe/Lamp Enabled: No (USB2E7196)
Correct for Detector Non-linearity: No (USB2E7196)
Correct for Stray Light: No (USB2E7196)
Number of Pixels in Processed Spectrum: 2048
>>>>>Begin Processed Spectral Data<<<<<
339.09	0.00
339.48	202.09
339.86	202.92
340.24	205.07
340.63	206.55
341.01	210.85
341.39	209.63
341.78	211.45
342.16	211.75
342.54	212.43
342.93	201.47
343.31	211.67
343.69	212.25
344.07	212.74
344.46	213.19
344.84	213.58
345.22	213.75
345.60	214.01
345.99	214.17
346.37	214.32
346.75	214.42
347.13	214.53
347.52	214.61
347.90	214.71
348.28	214.73
348.66	214.82
349.05	214.81
349.43	214.87
349.81	214.95
350.19	214.98
350.57	215.03
350.96	215.11
351.34	215.19
351.72	215.27
352.10	215.39
352.48	215.46
352.87	215.50
353.25	215.61
353.63	215.65
354.01	215.73
354.39	215.80
354.77	215.89
355.15	216.02
355.54	216.05
355.92	216.08
356.30	216.16
356.68	216.36
357.06	216.42
357.44	216.46
357.82	216.50
358.20	216.61
358.58	216.67
358.97	216.73
359.35	216.87
359.73	216.95
360.11	216.99
360.49	217.04
360.87	217.11
361.25	217.14
361.63	217.26
362.01	217.29
362.39	217.34
362.77	217.37
363.15	217.39
363.53	217.43
363.91	217.48
364.29	217.50
364.67	217.31
365.05	217.34
365.43	217.37
365.81	217.42
366.19	217.49
366.57	217.57
366.95	217.59
367.33	217.51
367.71	217.52
368.09	217.57
368.47	217.59
368.85	217.57
369.23	217.62
369.61	217.55
369.99	217.62
370.37	217.64
370.75	217.72
371.13	217.67
371.51	217.63
371.89	217.62
372.27	217.62
372.65	217.61
373.03	217.57
373.41	217.54
373.78	217.49
374.16	217.35
374.54	217.25
374.92	217.20
375.30	217.19
375.68	217.10
376.06	217.04
376.44	216.98
376.82	216.97
377.19	216.92
377.57	216.86
377.95	216.74
378.33	216.67
378.71	216.50
379.09	216.49
379.47	216.44
379.84	216.35
380.22	216.28
380.60	216.18
380.98	216.12
381.36	216.05
381.73	215.99
382.11	215.99
382.49	215.97
382.87	215.88
383.25	215.82
383.62	216.03
384.00	215.95
384.38	215.93
384.76	215.89
385.13	215.91
385.51	215.87
385.89	215.82
386.27	215.79
386.64	215.78
387.02	215.69
387.40	215.70
387.78	215.70
388.15	215.69
388.53	215.68
388.91	215.65
389.29	215.63
389.66	215.66
390.04	215.62
390.42	215.62
390.79	215.64
391.17	215.62
391.55	215.40
391.92	215.38
392.30	215.41
392.68	215.39
393.05	215.37
393.43	215.35
393.81	215.38
394.18	215.34
394.56	215.33
394.94	215.39
395.31	215.35
395.69	215.40
396.06	215.41
396.44	215.44
396.82	215.47
397.19	215.59
397.57	215.60
397.95	215.64
398.32	215.63
398.70	215.66
399.07	215.76
399.45	215.78
399.82	215.85
400.20	215.86
400.58	215.90
400.95	215.87
401.33	215.99
401.70	216.18
402.08	216.28
402.45	216.39
402.83	216.52
403.20	216.64
403.58	216.73
403.95	216.91
404.33	217.08
404.71	217.21
405.08	217.45
405.46	217.64
405.83	217.85
406.21	218.03
406.58	218.26
406.96	218.48
407.33	218.74
407.70	219.04
408.08	219.50
408.45	219.89
408.83	220.31
409.20	220.66
409.58	220.93
409.95	221.40
410.33	221.88
410.70	222.31
411.08	222.85
411.45	223.44
411.82	223.99
412.20	224.65
412.57	225.50
412.95	226.10
413.32	226.89
413.69	227.70
414.07	228.62
414.44	229.59
414.82	230.58
415.19	231.76
415.56	232.94
415.94	234.09
416.31	235.47
416.68	236.84
417.06	238.43
417.43	240.00
417.81	241.71
418.18	243.45
418.55	245.36
418.93	247.40
419.30	249.49
419.67	251.73
420.04	254.05
420.42	256.40
420.79	259.17
421.16	261.99
421.54	264.87
421.91	267.82
422.28	270.91
422.66	274.18
423.03	277.43
423.40	280.78
423.77	284.38
424.15	288.03
424.52	291.86
424.89	295.98
425.26	300.02
425.64	303.88
426.01	308.22
426.38	312.66
426.75	317.17
427.13	321.85
427.50	326.81
427.87	331.91
428.24	337.10
428.61	342.08
428.99	347.56
429.36	353.57
429.73	359.44
430.10	365.33
430.47	371.39
430.85	377.62
431.22	384.30
431.59	391.36
431.96	398.13
432.33	405.60
432.70	412.83
433.08	421.31
433.45	429.32
433.82	437.27
434.19	446.09
434.56	454.77
434.93	463.08
435.30	471.30
435.68	480.40
436.05	489.28
436.42	498.14
436.79	506.19
437.16	514.90
437.53	524.16
437.90	533.25
438.27	542.16
438.64	551.36
439.01	559.85
439.38	567.41
439.75	574.72
440.13	583.08
440.50	590.97
440.87	597.34
441.24	603.98
441.61	611.18
441.98	616.52
442.35	622.80
442.72	629.09
443.09	635.10
443.46	638.82
443.83	641.35
444.20	643.50
444.57	646.66
444.94	648.10
445.31	649.59
445.68	650.84
446.05	651.41
446.42	650.58
446.79	649.53
447.16	648.41
447.53	647.54
447.90	644.19
448.27	640.87
448.64	636.25
449.01	632.93
449.37	627.05
449.74	621.39
450.11	614.42
450.48	607.03
450.85	599.54
451.22	593.12
451.59	587.04
451.96	581.26
452.33	573.39
452.70	566.27
453.07	557.72
453.43	549.19
453.80	540.96
454.17	533.07
454.54	525.60
454.91	517.44
455.28	509.56
455.65	502.23
456.02	494.83
456.38	488.54
456.75	480.67
457.12	474.21
457.49	467.79
457.86	461.70
458.23	456.36
458.59	450.55
458.96	444.54
459.33	439.30
459.70	433.90
460.07	429.70
460.43	424.89
460.80	420.34
461.17	416.40
461.54	412.24
461.91	408.25
462.27	404.17
462.64	400.79
463.01	397.03
463.38	393.36
463.74	389.71
464.11	386.54
464.48	383.80
464.85	380.66
465.21	378.20
465.58	375.63
465.95	372.50
466.32	369.90
466.68	367.34
467.05	364.73
467.42	362.26
467.78	359.58
468.15	357.05
468.52	355.17
468.88	352.70
469.25	350.53
469.62	348.74
469.98	346.81
470.35	345.00
470.72	343.34
471.08	341.54
471.45	340.02
471.82	338.49
472.18	336.81
472.55	335.69
472.92	334.33
473.28	333.15
473.65	332.05
474.02	330.90
474.38	330.02
474.75	329.24
475.11	328.40
475.48	327.84
475.85	327.36
476.21	326.88
476.58	326.52
476.94	326.32
477.31	326.00
477.67	325.77
478.04	325.63
478.41	325.63
478.77	325.78
479.14	325.71
479.50	325.82
479.87	326.10
480.23	326.46
480.60	326.73
480.96	326.97
481.33	327.57
481.69	328.14
482.06	328.73
482.42	329.27
482.79	329.90
483.15	330.69
483.52	331.69
483.88	332.57
484.25	333.52
484.61	334.49
484.98	335.55
485.34	336.89
485.71	338.25
486.07	339.66
486.44	341.04
486.80	342.71
487.17	344.40
487.53	346.28
487.90	348.11
488.26	350.16
488.62	352.34
488.99	354.39
489.35	356.60
489.72	358.95
490.08	361.46
490.44	364.05
490.81	366.77
491.17	369.43
491.54	372.43
491.90	375.51
492.26	378.79
492.63	382.20
492.99	385.67
493.36	389.36
493.72	393.28
494.08	397.29
494.45	401.48
494.81	405.90
495.17	410.27
495.54	415.03
495.90	419.85
496.26	424.77
496.63	430.01
496.99	435.42
497.35	441.01
497.72	446.82
498.08	452.72
498.44	458.91
498.80	465.38
499.17	471.88
499.53	478.64
499.89	485.54
500.26	492.59
500.62	499.72
500.98	507.16
501.34	514.65
501.71	522.46
502.07	530.33
502.43	538.34
502.79	546.60
503.16	554.99
503.52	563.62
503.88	572.48
504.24	581.47
504.60	590.59
504.97	599.87
505.33	609.19
505.69	619.18
506.05	629.16
506.41	639.12
506.78	649.32
507.14	659.59
507.50	670.19
507.86	680.96
508.22	691.82
508.59	702.61
508.95	713.79
509.31	725.11
509.67	736.68
510.03	748.19
510.39	760.03
510.75	771.98
511.12	784.01
511.48	796.08
511.84	808.45
512.20	820.98
512.56	833.75
512.92	846.71
513.28	859.48
513.64	872.32
514.00	885.26
514.37	898.37
514.73	911.64
515.09	924.76
515.45	937.72
515.81	950.87
516.17	964.34
516.53	977.67
516.89	990.89
517.25	1004.20
517.61	1017.78
517.97	1031.36
518.33	1044.67
518.69	1058.36
519.05	1072.29
519.41	1086.09
519.77	1099.96
520.13	1113.30
520.49	1126.65
520.85	1140.21
521.21	1153.62
521.57	1167.40
521.93	1180.52
522.29	1194.42
522.65	1208.17
523.01	1221.97
523.37	1235.32
523.73	1248.83
524.09	1262.04
524.45	1275.60
524.81	1289.19
525.17	1302.82
525.53	1316.05
525.89	1329.43
526.25	1342.70
526.61	1355.62
526.97	1368.89
527.33	1382.06
527.68	1395.77
528.04	1409.40
528.40	1422.52
528.76	1436.06
529.12	1449.11
529.48	1462.57
529.84	1474.85
530.20	1487.58
530.56	1500.29
530.91	1513.62
531.27	1526.46
531.63	1539.40
531.99	1552.23
532.35	1564.56
532.71	1576.86
533.07	1589.94
533.42	1602.27
533.78	1614.53
534.14	1626.78
534.50	1638.06
534.86	1649.72
535.21	1660.59
535.57	1672.09
535.93	1683.53
536.29	1694.62
536.65	1706.08
537.00	1717.12
537.36	1728.79
537.72	1739.83
538.08	1751.31
538.44	1762.35
538.79	1773.59
539.15	1784.56
539.51	1795.44
539.87	1806.72
540.22	1817.57
540.58	1828.47
540.94	1839.54
541.29	1849.85
541.65	1859.72
542.01	1870.29
542.37	1880.36
542.72	1890.56
543.08	1900.47
543.44	1911.07
543.79	1920.40
544.15	1930.03
544.51	1940.02
544.87	1949.71
545.22	1959.17
545.58	1968.06
545.94	1977.02
546.29	1985.57
546.65	1993.99
547.01	2002.22
547.36	2009.98
547.72	2017.99
548.07	2025.44
548.43	2033.15
548.79	2040.86
549.14	2048.91
549.50	2057.36
549.86	2065.42
550.21	2073.12
550.57	2080.83
550.92	2087.44
551.28	2095.02
551.64	2102.18
551.99	2109.71
552.35	2117.01
552.70	2123.92
553.06	2130.70
553.41	2137.09
553.77	2143.56
554.13	2150.09
554.48	2157.20
554.84	2164.42
555.19	2171.03
555.55	2177.66
555.90	2184.15
556.26	2191.18
556.61	2197.38
556.97	2202.26
557.32	2207.98
557.68	2214.25
558.03	2220.06
558.39	2225.68
558.74	2231.76
559.10	2237.42
559.45	2243.23
559.81	2248.76
560.16	2254.27
560.52	2260.14
560.87	2266.50
561.23	2272.48
561.58	2279.03
561.94	2284.44
562.29	2289.21
562.64	2295.32
563.00	2301.07
563.35	2306.63
563.71	2312.30
564.06	2318.00
564.42	2324.25
564.77	2329.28
565.12	2334.69
565.48	2339.87
565.83	2345.35
566.19	2350.74
566.54	2356.10
566.89	2360.63
567.25	2365.41
567.60	2371.14
567.96	2376.33
568.31	2381.10
568.66	2385.57
569.02	2389.63
569.37	2393.42
569.72	2397.83
570.08	2401.48
570.43	2404.79
570.78	2408.01
571.14	2410.60
571.49	2413.83
571.84	2417.29
572.20	2420.47
572.55	2423.52
572.90	2425.93
573.26	2428.74
573.61	2431.47
573.96	2433.86
574.31	2435.90
574.67	2437.69
575.02	2438.73
575.37	2440.26
575.72	2440.94
576.08	2442.38
576.43	2442.57
576.78	2442.90
577.13	2444.57
577.49	2445.78
577.84	2446.68
578.19	2448.00
578.54	2448.67
578.90	2449.32
579.25	2449.30
579.60	2449.23
579.95	2448.43
580.30	2448.40
580.66	2447.78
581.01	2446.10
581.36	2443.67
581.71	2442.41
582.06	2441.51
582.42	2440.66
582.77	2438.47
583.12	2436.95
583.47	2435.60
583.82	2435.01
584.17	2433.92
584.53	2431.90
584.88	2429.93
585.23	2428.18
585.58	2425.91
585.93	2424.23
586.28	2422.25
586.63	2419.86
586.98	2417.73
587.34	2415.92
587.69	2413.63
588.04	2411.63
588.39	2410.32
588.74	2407.84
589.09	2405.18
589.44	2402.05
589.79	2399.50
590.14	2397.58
590.49	2394.75
590.84	2390.96
591.19	2387.92
591.54	2384.77
591.89	2380.79
592.25	2377.40
592.60	2373.28
592.95	2369.24
593.30	2364.97
593.65	2360.59
594.00	2356.10
594.35	2353.21
594.70	2348.55
595.05	2344.00
595.40	2338.54
595.75	2332.71
596.10	2329.33
596.45	2324.48
596.80	2319.87
597.15	2314.67
597.50	2308.70
597.85	2303.89
598.19	2298.66
598.54	2293.00
598.89	2287.70
599.24	2283.10
599.59	2276.93
599.94	2271.03
600.29	2265.00
600.64	2259.02
600.99	2252.18
601.34	2246.56
601.69	2239.35
602.04	2232.83
602.39	2226.16
602.74	2220.05
603.08	2214.46
603.43	2207.73
603.78	2200.88
604.13	2193.78
604.48	2186.41
604.83	2180.21
605.18	2173.83
605.53	2166.95
605.87	2159.78
606.22	2153.14
606.57	2145.20
606.92	2137.14
607.27	2130.20
607.62	2123.41
607.96	2116.38
608.31	2109.92
608.66	2102.26
609.01	2094.63
609.36	2087.56
609.70	2079.80
610.05	2071.96
610.40	2063.51
610.75	2055.09
611.10	2047.15
611.44	2038.09
611.79	2029.40
612.14	2019.48
612.49	2008.68
612.83	1999.25
613.18	1989.85
613.53	1980.12
613.88	1970.38
614.22	1961.69
614.57	1951.70
614.92	1941.24
615.27	1930.83
615.61	1920.44
615.96	1910.66
616.31	1900.98
616.65	1891.48
617.00	1881.61
617.35	1871.81
617.70	1861.94
618.04	1851.90
618.39	1841.61
618.74	1831.85
619.08	1822.02
619.43	1813.19
619.78	1804.84
620.12	1796.23
620.47	1786.69
620.82	1776.42
621.16	1766.54
621.51	1756.56
621.85	1746.72
622.20	1736.18
622.55	1725.57
622.89	1715.69
623.24	1705.95
623.59	1696.07
623.93	1685.74
624.28	1675.79
624.62	1665.64
624.97	1655.38
625.32	1645.42
625.66	1636.56
626.01	1627.78
626.35	1618.40
626.70	1608.23
627.04	1598.11
627.39	1587.70
627.73	1578.17
628.08	1569.20
628.43	1559.57
628.77	1550.28
629.12	1541.20
629.46	1533.17
629.81	1524.84
630.15	1515.22
630.50	1505.22
630.84	1494.52
631.19	1484.51
631.53	1475.14
631.88	1464.93
632.22	1454.72
632.57	1445.33
632.91	1435.06
633.26	1425.04
633.60	1415.36
633.95	1406.05
634.29	1396.35
634.64	1386.97
634.98	1376.94
635.32	1367.45
635.67	1358.81
636.01	1349.39
636.36	1339.63
636.70	1329.95
637.05	1320.38
637.39	1311.28
637.73	1302.55
638.08	1294.86
638.42	1286.66
638.77	1277.80
639.11	1269.34
639.45	1261.51
639.80	1252.86
640.14	1244.04
640.49	1235.03
640.83	1226.08
641.17	1217.74
641.52	1209.62
641.86	1200.92
642.20	1192.93
642.55	1184.12
642.89	1175.09
643.23	1166.33
643.58	1158.03
643.92	1148.99
644.26	1140.11
644.61	1131.56
644.95	1122.69
645.29	1113.36
645.64	1103.94
645.98	1095.25
646.32	1087.27
646.66	1078.61
647.01	1070.08
647.35	1061.72
647.69	1053.41
648.04	1044.93
648.38	1035.93
648.72	1026.96
649.06	1018.41
649.41	1010.00
649.75	1001.98
650.09	994.08
650.43	985.90
650.78	977.40
651.12	969.58
651.46	962.11
651.80	954.75
652.14	947.26
652.49	939.63
652.83	932.23
653.17	924.47
653.51	916.70
653.85	909.49
654.20	902.21
654.54	894.80
654.88	887.38
655.22	880.10
655.56	873.04
655.90	866.15
656.25	859.31
656.59	852.41
656.93	845.37
657.27	838.11
657.61	831.06
657.95	824.89
658.29	818.74
658.64	812.53
658.98	806.08
659.32	799.51
659.66	793.28
660.00	786.97
660.34	780.94
660.68	774.74
661.02	768.29
661.36	762.19
661.70	756.23
662.05	750.52
662.39	744.99
662.73	739.56
663.07	734.13
663.41	728.48
663.75	722.70
664.09	716.91
664.43	711.45
664.77	706.04
665.11	700.16
665.45	694.30
665.79	688.36
666.13	682.53
666.47	676.91
666.81	671.32
667.15	665.81
667.49	660.41
667.83	655.15
668.17	649.81
668.51	644.63
668.85	639.65
669.19	634.68
669.53	629.61
669.87	624.40
670.21	619.58
670.55	614.85
670.89	610.42
671.23	606.02
671.57	601.57
671.91	597.24
672.25	593.03
672.58	588.83
672.92	584.76
673.26	580.77
673.60	576.86
673.94	573.00
674.28	569.37
674.62	565.61
674.96	561.76
675.30	558.15
675.64	554.45
675.97	550.78
676.31	547.14
676.65	543.46
676.99	539.98
677.33	536.09
677.67	532.39
678.01	528.40
678.34	524.75
678.68	521.13
679.02	517.45
679.36	513.76
679.70	510.06
680.04	506.45
680.37	502.92
680.71	499.53
681.05	496.26
681.39	492.90
681.73	489.67
682.06	486.62
682.40	483.56
682.74	480.29
683.08	477.14
683.42	473.88
683.75	470.79
684.09	467.71
684.43	464.80
684.77	461.78
685.10	458.94
685.44	455.95
685.78	453.02
686.12	450.19
686.45	447.39
686.79	444.64
687.13	442.04
687.46	439.38
687.80	436.70
688.14	433.86
688.48	431.20
688.81	428.56
689.15	425.97
689.49	423.27
689.82	420.70
690.16	418.00
690.50	415.54
690.83	413.02
691.17	410.43
691.51	407.90
691.84	405.61
692.18	403.34
692.52	401.12
692.85	398.94
693.19	396.74
693.52	394.55
693.86	392.36
694.20	390.16
694.53	387.93
694.87	385.76
695.21	383.61
695.54	381.43
695.88	379.21
696.21	376.99
696.55	374.81
696.88	372.72
697.22	370.76
697.56	368.86
697.89	366.96
698.23	365.17
698.56	363.37
698.90	361.62
699.23	359.66
699.57	357.76
699.90	355.87
700.24	354.05
700.58	352.30
700.91	350.56
701.25	348.98
701.58	347.42
701.92	345.77
702.25	344.17
702.59	342.50
702.92	340.93
703.26	339.34
703.59	337.89
703.93	336.64
704.26	335.19
704.60	333.63
704.93	332.14
705.26	330.62
705.60	329.13
705.93	327.58
706.27	326.23
706.60	324.94
706.94	323.70
707.27	322.31
707.61	320.93
707.94	319.60
708.27	318.05
708.61	316.55
708.94	315.16
709.28	313.84
709.61	312.61
709.94	311.36
710.28	310.11
710.61	308.87
710.95	307.42
711.28	306.30
711.61	305.08
711.95	303.94
712.28	302.78
712.61	301.58
712.95	300.54
713.28	299.52
713.61	298.35
713.95	297.21
714.28	296.18
714.61	295.14
714.95	294.12
715.28	293.11
715.61	292.10
715.95	291.15
716.28	290.19
716.61	289.23
716.95	288.24
717.28	287.28
717.61	286.34
717.94	285.41
718.28	284.36
718.61	283.47
718.94	282.56
719.27	281.67
719.61	280.86
719.94	280.01
720.27	279.04
720.60	278.17
720.94	277.36
721.27	276.58
721.60	275.85
721.93	275.13
722.27	274.49
722.60	273.82
722.93	273.07
723.26	272.39
723.59	271.65
723.93	270.99
724.26	270.34
724.59	269.68
724.92	269.07
725.25	268.56
725.59	268.01
725.92	267.46
726.25	266.88
726.58	266.29
726.91	265.67
727.24	265.12
727.57	264.59
727.91	263.97
728.24	263.46
728.57	262.87
728.90	262.30
729.23	261.67
729.56	261.21
729.89	260.65
730.22	260.07
730.55	259.59
730.89	259.04
731.22	258.56
731.55	258.00
731.88	257.54
732.21	256.96
732.54	256.39
732.87	255.84
733.20	255.35
733.53	254.87
733.86	254.40
734.19	253.87
734.52	253.44
734.85	253.14
735.18	252.61
735.51	252.23
735.84	251.81
736.17	251.41
736.50	250.88
736.83	250.75
737.16	250.37
737.49	249.95
737.82	249.53
738.15	249.12
738.48	248.74
738.81	248.31
739.14	247.90
739.47	247.53
739.80	247.15
740.13	246.80
740.46	246.42
740.79	245.99
741.12	245.65
741.45	245.24
741.78	244.82
742.11	244.54
742.44	244.14
742.77	243.80
743.10	243.49
743.43	243.16
743.75	242.59
744.08	242.52
744.41	242.13
744.74	241.82
745.07	241.46
745.40	241.19
745.73	240.89
746.06	240.54
746.39	240.26
746.71	239.94
747.04	239.56
747.37	239.24
747.70	239.01
748.03	238.68
748.36	238.38
748.68	238.04
749.01	237.69
749.34	237.41
749.67	237.11
750.00	236.83
750.33	236.68
750.65	236.41
750.98	235.88
751.31	235.66
751.64	235.41
751.97	235.29
752.29	234.98
752.62	234.65
752.95	234.43
753.28	234.15
753.60	233.91
753.93	233.76
754.26	233.51
754.59	233.21
754.91	232.98
755.24	232.77
755.57	232.53
755.90	232.28
756.22	232.05
756.55	231.82
756.88	231.55
757.20	231.20
757.53	230.96
757.86	230.75
758.19	230.57
758.51	230.37
758.84	230.07
759.17	229.91
759.49	229.75
759.82	229.65
760.15	229.49
760.47	229.32
760.80	229.09
761.13	228.92
761.45	228.72
761.78	228.54
762.11	228.33
762.43	228.11
762.76	227.95
763.08	227.80
763.41	227.66
763.74	227.53
764.06	227.39
764.39	227.21
764.71	227.05
765.04	226.87
765.37	226.75
765.69	226.57
766.02	226.42
766.34	226.28
766.67	226.06
767.00	225.95
767.32	225.92
767.65	225.88
767.97	225.76
768.30	225.69
768.62	225.60
768.95	225.46
769.27	225.37
769.60	225.26
769.92	225.09
770.25	224.93
770.57	224.75
770.90	224.60
771.22	224.45
771.55	224.32
771.87	224.19
772.20	224.01
772.52	224.11
772.85	224.23
773.17	224.12
773.50	223.99
773.82	223.83
774.15	223.64
774.47	223.43
774.80	223.30
775.12	223.15
775.45	223.02
775.77	222.96
776.09	222.86
776.42	222.80
776.74	222.77
777.07	222.68
777.39	222.61
777.72	222.53
778.04	222.51
778.36	222.44
778.69	222.39
779.01	222.35
779.33	222.09
779.66	221.75
779.98	221.65
780.31	221.59
780.63	221.62
780.95	221.58
781.28	221.48
781.60	221.41
781.92	221.37
782.25	221.30
782.57	221.25
782.89	221.17
783.22	221.09
783.54	220.98
783.86	220.90
784.19	220.83
784.51	220.82
784.83	220.69
785.16	220.62
785.48	220.57
785.80	220.48
786.12	220.44
