SpectraSuite Data File
++++++++++++++++++++++++++++++++++++
Date: Tue Jan 29 16:25:53 EST 2013
User: group
Dark Spectrum Present: No
Reference Spectrum Present: No
Number of Sampled Component Spectra: 1
Spectrometers: USB2E7196
Integration Time (usec): 65000 (USB2E7196)
Spectra Averaged: 100 (USB2E7196)
Boxcar Smoothing: 10 (USB2E7196)
Correct for Electrical Dark: No (USB2E7196)
Strobe/Lamp Enabled: No (USB2E7196)
Correct for Detector Non-linearity: No (USB2E7196)
Correct for Stray Light: No (USB2E7196)
Number of Pixels in Processed Spectrum: 2048
>>>>>Begin Processed Spectral Data<<<<<
339.09	0.00
339.48	202.30
339.86	203.43
340.24	204.79
340.63	206.25
341.01	211.16
341.39	208.72
341.78	210.82
342.16	211.30
342.54	211.96
342.93	201.31
343.31	211.48
343.69	212.04
344.07	212.51
344.46	212.96
344.84	213.36
345.22	213.55
345.60	213.85
345.99	214.04
346.37	214.21
346.75	214.32
347.13	214.40
347.52	214.46
347.90	214.57
348.28	214.61
348.66	214.67
349.05	214.67
349.43	214.71
349.81	214.82
350.19	214.91
350.57	214.96
350.96	215.04
351.34	215.14
351.72	215.23
352.10	215.33
352.48	215.38
352.87	215.45
353.25	215.49
353.63	215.57
354.01	215.64
354.39	215.74
354.77	215.83
355.15	215.94
355.54	216.00
355.92	216.03
356.30	216.08
356.68	216.28
357.06	216.36
357.44	216.43
357.82	216.47
358.20	216.57
358.58	216.64
358.97	216.72
359.35	216.83
359.73	216.92
360.11	217.01
360.49	217.11
360.87	217.14
361.25	217.20
361.63	217.29
362.01	217.34
362.39	217.36
362.77	217.41
363.15	217.42
363.53	217.47
363.91	217.52
364.29	217.55
364.67	217.35
365.05	217.37
365.43	217.40
365.81	217.45
366.19	217.51
366.57	217.57
366.95	217.57
367.33	217.53
367.71	217.51
368.09	217.50
368.47	217.45
368.85	217.43
369.23	217.49
369.61	217.39
369.99	217.41
370.37	217.42
370.75	217.49
371.13	217.43
371.51	217.37
371.89	217.35
372.27	217.32
372.65	217.34
373.03	217.32
373.41	217.28
373.78	217.22
374.16	217.05
374.54	216.98
374.92	216.92
375.30	216.87
375.68	216.82
376.06	216.80
376.44	216.78
376.82	216.79
377.19	216.69
377.57	216.65
377.95	216.56
378.33	216.47
378.71	216.29
379.09	216.29
379.47	216.24
379.84	216.18
380.22	216.15
380.60	216.05
380.98	216.03
381.36	215.96
381.73	215.89
382.11	215.94
382.49	215.91
382.87	215.85
383.25	215.81
383.62	216.00
384.00	215.92
384.38	215.89
384.76	215.87
385.13	215.94
385.51	215.89
385.89	215.83
386.27	215.83
386.64	215.85
387.02	215.79
387.40	215.75
387.78	215.72
388.15	215.71
388.53	215.67
388.91	215.63
389.29	215.62
389.66	215.66
390.04	215.60
390.42	215.60
390.79	215.58
391.17	215.55
391.55	215.28
391.92	215.27
392.30	215.27
392.68	215.22
393.05	215.19
393.43	215.20
393.81	215.20
394.18	215.17
394.56	215.18
394.94	215.23
395.31	215.24
395.69	215.30
396.06	215.33
396.44	215.37
396.82	215.40
397.19	215.52
397.57	215.48
397.95	215.53
398.32	215.50
398.70	215.57
399.07	215.70
399.45	215.79
399.82	215.83
400.20	215.89
400.58	215.96
400.95	215.96
401.33	216.06
401.70	216.29
402.08	216.39
402.45	216.47
402.83	216.58
403.20	216.69
403.58	216.77
403.95	216.90
404.33	217.09
404.71	217.19
405.08	217.42
405.46	217.61
405.83	217.79
406.21	217.99
406.58	218.22
406.96	218.42
407.33	218.65
407.70	218.97
408.08	219.42
408.45	219.76
408.83	220.14
409.20	220.49
409.58	220.76
409.95	221.21
410.33	221.73
410.70	222.19
411.08	222.76
411.45	223.35
411.82	223.95
412.20	224.62
412.57	225.45
412.95	226.01
413.32	226.86
413.69	227.72
414.07	228.62
414.44	229.56
414.82	230.58
415.19	231.75
415.56	232.91
415.94	234.07
416.31	235.48
416.68	236.88
417.06	238.45
417.43	240.00
417.81	241.74
418.18	243.48
418.55	245.40
418.93	247.43
419.30	249.54
419.67	251.75
420.04	254.03
420.42	256.44
420.79	259.25
421.16	262.01
421.54	264.88
421.91	267.88
422.28	271.05
422.66	274.34
423.03	277.56
423.40	280.89
423.77	284.44
424.15	288.10
424.52	291.95
424.89	296.10
425.26	300.16
425.64	304.01
426.01	308.28
426.38	312.73
426.75	317.26
427.13	321.97
427.50	326.95
427.87	332.14
428.24	337.29
428.61	342.30
428.99	347.76
429.36	353.71
429.73	359.57
430.10	365.35
430.47	371.36
430.85	377.64
431.22	384.33
431.59	391.46
431.96	398.26
432.33	405.74
432.70	412.98
433.08	421.48
433.45	429.52
433.82	437.53
434.19	446.39
434.56	455.03
434.93	463.34
435.30	471.58
435.68	480.66
436.05	489.67
436.42	498.48
436.79	506.57
437.16	515.33
437.53	524.56
437.90	533.67
438.27	542.63
438.64	551.81
439.01	560.30
439.38	567.83
439.75	575.11
440.13	583.48
440.50	591.39
440.87	597.74
441.24	604.32
441.61	611.61
441.98	616.92
442.35	623.22
442.72	629.49
443.09	635.56
443.46	639.28
443.83	641.68
444.20	643.87
444.57	647.11
444.94	648.49
445.31	649.88
445.68	651.29
446.05	651.94
446.42	651.20
446.79	650.31
447.16	649.23
447.53	648.44
447.90	645.11
448.27	641.85
448.64	637.28
449.01	634.03
449.37	628.14
449.74	622.49
450.11	615.67
450.48	608.31
450.85	600.78
451.22	594.24
451.59	588.14
451.96	582.36
452.33	574.49
452.70	567.49
453.07	559.11
453.43	550.54
453.80	542.23
454.17	534.23
454.54	526.69
454.91	518.55
455.28	510.65
455.65	503.22
456.02	495.77
456.38	489.45
456.75	481.59
457.12	475.08
457.49	468.58
457.86	462.37
458.23	457.02
458.59	451.12
458.96	445.16
459.33	439.92
459.70	434.58
460.07	430.34
460.43	425.45
460.80	420.83
461.17	416.84
461.54	412.67
461.91	408.70
462.27	404.55
462.64	401.10
463.01	397.32
463.38	393.67
463.74	389.98
464.11	386.74
464.48	383.94
464.85	380.82
465.21	378.45
465.58	375.80
465.95	372.69
466.32	370.10
466.68	367.53
467.05	364.95
467.42	362.44
467.78	359.76
468.15	357.25
468.52	355.36
468.88	352.88
469.25	350.64
469.62	348.83
469.98	346.90
470.35	345.13
470.72	343.44
471.08	341.68
471.45	340.17
471.82	338.68
472.18	337.01
472.55	335.78
472.92	334.35
473.28	333.22
473.65	332.04
474.02	330.93
474.38	330.09
474.75	329.34
475.11	328.47
475.48	327.87
475.85	327.39
476.21	326.93
476.58	326.59
476.94	326.41
477.31	326.16
477.67	325.94
478.04	325.76
478.41	325.69
478.77	325.82
479.14	325.76
479.50	325.87
479.87	326.13
480.23	326.46
480.60	326.75
480.96	326.98
481.33	327.62
481.69	328.22
482.06	328.73
482.42	329.20
482.79	329.83
483.15	330.63
483.52	331.60
483.88	332.49
484.25	333.42
484.61	334.42
484.98	335.43
485.34	336.71
485.71	338.13
486.07	339.56
486.44	340.89
486.80	342.52
487.17	344.21
487.53	346.09
487.90	348.00
488.26	350.05
488.62	352.25
488.99	354.29
489.35	356.36
489.72	358.75
490.08	361.26
490.44	363.85
490.81	366.59
491.17	369.27
491.54	372.24
491.90	375.30
492.26	378.50
492.63	381.92
492.99	385.43
493.36	389.14
493.72	393.09
494.08	397.11
494.45	401.34
494.81	405.72
495.17	410.16
495.54	414.83
495.90	419.65
496.26	424.57
496.63	429.80
496.99	435.28
497.35	440.86
497.72	446.71
498.08	452.64
498.44	458.73
498.80	465.18
499.17	471.77
499.53	478.53
499.89	485.51
500.26	492.51
500.62	499.64
500.98	507.07
501.34	514.56
501.71	522.36
502.07	530.23
502.43	538.26
502.79	546.51
503.16	554.96
503.52	563.60
503.88	572.38
504.24	581.39
504.60	590.51
504.97	599.82
505.33	609.21
505.69	619.12
506.05	629.04
506.41	639.01
506.78	649.16
507.14	659.45
507.50	670.06
507.86	680.79
508.22	691.65
508.59	702.31
508.95	713.43
509.31	724.77
509.67	736.27
510.03	747.79
510.39	759.58
510.75	771.55
511.12	783.61
511.48	795.78
511.84	808.11
512.20	820.59
512.56	833.32
512.92	846.12
513.28	858.96
513.64	871.91
514.00	884.89
514.37	897.94
514.73	911.13
515.09	924.12
515.45	937.23
515.81	950.44
516.17	964.03
516.53	977.33
516.89	990.53
517.25	1003.88
517.61	1017.49
517.97	1031.00
518.33	1044.25
518.69	1057.82
519.05	1071.75
519.41	1085.46
519.77	1099.49
520.13	1112.94
520.49	1126.23
520.85	1139.67
521.21	1152.99
521.57	1166.72
521.93	1179.90
522.29	1193.86
522.65	1207.73
523.01	1221.41
523.37	1234.72
523.73	1248.16
524.09	1261.51
524.45	1275.07
524.81	1288.66
525.17	1302.15
525.53	1315.40
525.89	1328.83
526.25	1342.06
526.61	1355.01
526.97	1368.35
527.33	1381.28
527.68	1394.84
528.04	1408.58
528.40	1421.77
528.76	1435.28
529.12	1448.30
529.48	1461.75
529.84	1474.07
530.20	1486.88
530.56	1499.62
530.91	1512.94
531.27	1525.91
531.63	1538.68
531.99	1551.49
532.35	1563.83
532.71	1576.28
533.07	1589.38
533.42	1601.73
533.78	1614.02
534.14	1626.07
534.50	1637.48
534.86	1649.23
535.21	1660.14
535.57	1671.68
535.93	1683.12
536.29	1694.36
536.65	1705.97
537.00	1717.01
537.36	1728.41
537.72	1739.55
538.08	1751.10
538.44	1762.20
538.79	1773.26
539.15	1784.45
539.51	1795.30
539.87	1806.70
540.22	1817.62
540.58	1828.65
540.94	1839.70
541.29	1850.07
541.65	1860.03
542.01	1870.54
542.37	1880.63
542.72	1891.00
543.08	1900.82
543.44	1911.36
543.79	1920.69
544.15	1930.25
544.51	1940.24
544.87	1950.25
545.22	1959.41
545.58	1968.25
545.94	1977.15
546.29	1985.93
546.65	1994.24
547.01	2002.61
547.36	2010.38
547.72	2018.17
548.07	2025.66
548.43	2033.41
548.79	2041.19
549.14	2049.43
549.50	2057.97
549.86	2066.01
550.21	2073.50
550.57	2081.27
550.92	2088.21
551.28	2095.91
551.64	2103.25
551.99	2110.83
552.35	2118.01
552.70	2124.98
553.06	2131.75
553.41	2138.20
553.77	2144.62
554.13	2151.12
554.48	2158.23
554.84	2165.34
555.19	2172.09
555.55	2178.80
555.90	2185.20
556.26	2192.22
556.61	2198.45
556.97	2203.25
557.32	2209.08
557.68	2215.45
558.03	2221.25
558.39	2226.68
558.74	2232.69
559.10	2238.17
559.45	2243.76
559.81	2249.47
560.16	2255.04
560.52	2260.84
560.87	2267.26
561.23	2273.29
561.58	2280.10
561.94	2285.39
562.29	2290.28
562.64	2296.36
563.00	2301.96
563.35	2307.59
563.71	2313.30
564.06	2318.93
564.42	2325.00
564.77	2330.20
565.12	2335.56
565.48	2340.77
565.83	2346.37
566.19	2351.69
566.54	2357.17
566.89	2361.93
567.25	2366.52
567.60	2372.37
567.96	2377.66
568.31	2382.22
568.66	2386.58
569.02	2390.44
569.37	2394.27
569.72	2398.71
570.08	2402.23
570.43	2405.42
570.78	2408.39
571.14	2410.96
571.49	2414.20
571.84	2417.75
572.20	2420.63
572.55	2423.59
572.90	2425.94
573.26	2428.58
573.61	2431.12
573.96	2433.30
574.31	2435.24
574.67	2437.19
575.02	2437.95
575.37	2439.41
575.72	2440.15
576.08	2441.51
576.43	2441.62
576.78	2442.00
577.13	2443.51
577.49	2444.68
577.84	2445.79
578.19	2447.19
578.54	2447.94
578.90	2448.51
579.25	2448.46
579.60	2448.48
579.95	2447.77
580.30	2447.94
580.66	2447.28
581.01	2445.69
581.36	2443.47
581.71	2442.16
582.06	2440.94
582.42	2440.04
582.77	2437.93
583.12	2436.25
583.47	2435.00
583.82	2434.52
584.17	2433.33
584.53	2431.19
584.88	2429.15
585.23	2427.27
585.58	2425.16
585.93	2423.14
586.28	2421.09
586.63	2418.62
586.98	2416.40
587.34	2414.63
587.69	2412.09
588.04	2410.11
588.39	2408.69
588.74	2406.03
589.09	2403.12
589.44	2400.06
589.79	2397.67
590.14	2395.66
590.49	2392.84
590.84	2388.97
591.19	2385.89
591.54	2382.66
591.89	2378.60
592.25	2375.34
592.60	2370.94
592.95	2366.63
593.30	2362.54
593.65	2358.08
594.00	2353.65
594.35	2350.62
594.70	2345.78
595.05	2341.30
595.40	2335.78
595.75	2330.00
596.10	2326.57
596.45	2321.97
596.80	2317.47
597.15	2312.17
597.50	2306.26
597.85	2301.30
598.19	2296.00
598.54	2290.02
598.89	2284.70
599.24	2280.19
599.59	2273.99
599.94	2268.36
600.29	2262.43
600.64	2256.26
600.99	2249.36
601.34	2243.91
601.69	2237.01
602.04	2230.62
602.39	2223.91
602.74	2217.84
603.08	2212.33
603.43	2205.63
603.78	2198.71
604.13	2191.48
604.48	2184.24
604.83	2178.06
605.18	2172.00
605.53	2165.15
605.87	2158.23
606.22	2151.49
606.57	2143.51
606.92	2135.53
607.27	2128.57
607.62	2121.92
607.96	2114.99
608.31	2108.55
608.66	2100.69
609.01	2092.84
609.36	2085.80
609.70	2078.10
610.05	2070.23
610.40	2061.85
610.75	2053.51
611.10	2045.66
611.44	2036.64
611.79	2027.80
612.14	2017.71
612.49	2006.81
612.83	1997.45
613.18	1987.99
613.53	1978.73
613.88	1969.09
614.22	1960.38
614.57	1950.40
614.92	1939.77
615.27	1929.36
615.61	1919.15
615.96	1909.34
616.31	1899.58
616.65	1889.90
617.00	1880.01
617.35	1870.24
617.70	1860.34
618.04	1850.23
618.39	1840.02
618.74	1830.40
619.08	1820.66
619.43	1812.08
619.78	1803.77
620.12	1795.06
620.47	1785.47
620.82	1774.88
621.16	1764.99
621.51	1755.01
621.85	1744.95
622.20	1734.37
622.55	1723.77
622.89	1713.82
623.24	1704.13
623.59	1694.26
623.93	1684.05
624.28	1674.12
624.62	1663.93
624.97	1653.57
625.32	1643.66
625.66	1634.69
626.01	1625.82
626.35	1616.38
626.70	1605.97
627.04	1595.78
627.39	1585.57
627.73	1576.10
628.08	1567.25
628.43	1557.59
628.77	1548.31
629.12	1539.39
629.46	1531.51
629.81	1523.09
630.15	1513.49
630.50	1503.49
630.84	1492.89
631.19	1482.94
631.53	1473.60
631.88	1463.42
632.22	1453.36
632.57	1443.88
632.91	1433.72
633.26	1423.64
633.60	1414.03
633.95	1404.79
634.29	1395.20
634.64	1385.70
634.98	1375.67
635.32	1366.24
635.67	1357.72
636.01	1348.39
636.36	1338.60
636.70	1328.95
637.05	1319.56
637.39	1310.59
637.73	1301.99
638.08	1294.39
638.42	1286.07
638.77	1277.17
639.11	1268.77
639.45	1260.91
639.80	1252.30
640.14	1243.40
640.49	1234.57
640.83	1225.65
641.17	1217.32
641.52	1209.20
641.86	1200.52
642.20	1192.61
642.55	1183.86
642.89	1174.80
643.23	1166.03
643.58	1157.75
643.92	1148.69
644.26	1139.77
644.61	1131.13
644.95	1122.15
645.29	1112.83
645.64	1103.58
645.98	1094.95
646.32	1087.00
646.66	1078.34
647.01	1069.93
647.35	1061.64
647.69	1053.30
648.04	1044.88
648.38	1035.92
648.72	1026.93
649.06	1018.37
649.41	1010.01
649.75	1001.93
650.09	993.98
650.43	985.81
650.78	977.43
651.12	969.65
651.46	962.26
651.80	954.91
652.14	947.55
652.49	940.00
652.83	932.69
653.17	924.94
653.51	917.18
653.85	909.87
654.20	902.53
654.54	895.04
654.88	887.62
655.22	880.35
655.56	873.25
655.90	866.35
656.25	859.63
656.59	852.69
656.93	845.56
657.27	838.31
657.61	831.23
657.95	825.09
658.29	819.05
658.64	812.83
658.98	806.30
659.32	799.60
659.66	793.25
660.00	786.71
660.34	780.59
660.68	774.44
661.02	768.10
661.36	762.04
661.70	756.13
662.05	750.42
662.39	744.75
662.73	739.27
663.07	733.89
663.41	728.19
663.75	722.37
664.09	716.61
664.43	711.20
664.77	705.89
665.11	699.98
665.45	694.00
665.79	688.08
666.13	682.32
666.47	676.80
666.81	671.30
667.15	665.92
667.49	660.62
667.83	655.24
668.17	649.85
668.51	644.71
668.85	639.70
669.19	634.72
669.53	629.71
669.87	624.61
670.21	619.72
670.55	614.95
670.89	610.47
671.23	606.12
671.57	601.69
671.91	597.28
672.25	593.06
672.58	588.88
672.92	584.75
673.26	580.76
673.60	576.84
673.94	572.96
674.28	569.32
674.62	565.52
674.96	561.75
675.30	558.26
675.64	554.48
675.97	550.93
676.31	547.31
676.65	543.67
676.99	540.24
677.33	536.38
677.67	532.73
678.01	528.79
678.34	525.11
678.68	521.55
679.02	517.88
679.36	514.12
679.70	510.42
680.04	506.81
680.37	503.33
680.71	499.93
681.05	496.70
681.39	493.37
681.73	490.20
682.06	487.16
682.40	483.93
682.74	480.73
683.08	477.40
683.42	474.18
683.75	471.13
684.09	467.98
684.43	465.14
684.77	462.13
685.10	459.27
685.44	456.28
685.78	453.26
686.12	450.48
686.45	447.74
686.79	445.00
687.13	442.44
687.46	439.78
687.80	437.08
688.14	434.22
688.48	431.51
688.81	428.73
689.15	426.10
689.49	423.49
689.82	420.93
690.16	418.33
690.50	415.81
690.83	413.27
691.17	410.71
691.51	408.20
691.84	405.89
692.18	403.66
692.52	401.43
692.85	399.31
693.19	397.12
693.52	394.94
693.86	392.72
694.20	390.52
694.53	388.36
694.87	386.13
695.21	384.01
695.54	381.85
695.88	379.69
696.21	377.38
696.55	375.18
696.88	373.09
697.22	371.06
697.56	369.12
697.89	367.21
698.23	365.44
698.56	363.61
698.90	361.79
699.23	359.86
699.57	357.97
699.90	356.09
700.24	354.26
700.58	352.44
700.91	350.73
701.25	349.13
701.58	347.48
701.92	345.85
702.25	344.20
702.59	342.55
702.92	341.01
703.26	339.48
703.59	338.06
703.93	336.78
704.26	335.33
704.60	333.83
704.93	332.33
705.26	330.78
705.60	329.30
705.93	327.80
706.27	326.46
706.60	325.15
706.94	323.89
707.27	322.44
707.61	321.10
707.94	319.76
708.27	318.22
708.61	316.80
708.94	315.43
709.28	314.14
709.61	312.84
709.94	311.61
710.28	310.39
710.61	309.17
710.95	307.70
711.28	306.60
711.61	305.42
711.95	304.30
712.28	303.11
712.61	301.91
712.95	300.80
713.28	299.73
713.61	298.58
713.95	297.40
714.28	296.39
714.61	295.31
714.95	294.30
715.28	293.28
715.61	292.24
715.95	291.27
716.28	290.24
716.61	289.25
716.95	288.21
717.28	287.27
717.61	286.28
717.94	285.36
718.28	284.34
718.61	283.43
718.94	282.48
719.27	281.62
719.61	280.80
719.94	279.95
720.27	278.94
720.60	278.07
720.94	277.26
721.27	276.50
721.60	275.81
721.93	275.08
722.27	274.43
722.60	273.75
722.93	272.98
723.26	272.34
723.59	271.65
723.93	271.03
724.26	270.37
724.59	269.69
724.92	269.12
725.25	268.58
725.59	268.00
725.92	267.50
726.25	266.93
726.58	266.36
726.91	265.73
727.24	265.23
727.57	264.66
727.91	264.03
728.24	263.47
728.57	262.85
728.90	262.27
729.23	261.63
729.56	261.20
729.89	260.68
730.22	260.08
730.55	259.53
730.89	258.97
731.22	258.45
731.55	257.92
731.88	257.38
732.21	256.81
732.54	256.28
732.87	255.73
733.20	255.23
733.53	254.73
733.86	254.27
734.19	253.78
734.52	253.38
734.85	253.09
735.18	252.61
735.51	252.26
735.84	251.82
736.17	251.45
736.50	250.91
736.83	250.75
737.16	250.40
737.49	250.05
737.82	249.68
738.15	249.28
738.48	248.91
738.81	248.50
739.14	248.07
739.47	247.68
739.80	247.29
740.13	246.92
740.46	246.50
740.79	246.11
741.12	245.75
741.45	245.37
741.78	244.88
742.11	244.61
742.44	244.18
742.77	243.88
743.10	243.51
743.43	243.14
743.75	242.57
744.08	242.45
744.41	242.08
744.74	241.68
745.07	241.29
745.40	241.01
745.73	240.73
746.06	240.39
746.39	240.11
746.71	239.79
747.04	239.43
747.37	239.11
747.70	238.84
748.03	238.51
748.36	238.23
748.68	237.93
749.01	237.58
749.34	237.31
749.67	237.01
750.00	236.74
750.33	236.62
750.65	236.34
750.98	235.83
751.31	235.57
751.64	235.39
751.97	235.26
752.29	234.97
752.62	234.65
752.95	234.44
753.28	234.10
753.60	233.83
753.93	233.65
754.26	233.45
754.59	233.17
754.91	232.91
755.24	232.68
755.57	232.43
755.90	232.17
756.22	231.90
756.55	231.65
756.88	231.40
757.20	231.06
757.53	230.81
757.86	230.64
758.19	230.42
758.51	230.21
758.84	229.88
759.17	229.66
759.49	229.48
759.82	229.37
760.15	229.25
760.47	229.06
760.80	228.80
761.13	228.65
761.45	228.44
761.78	228.29
762.11	228.08
762.43	227.91
762.76	227.76
763.08	227.62
763.41	227.46
763.74	227.30
764.06	227.12
764.39	226.97
764.71	226.79
765.04	226.63
765.37	226.44
765.69	226.32
766.02	226.17
766.34	226.01
766.67	225.77
767.00	225.70
767.32	225.70
767.65	225.69
767.97	225.53
768.30	225.42
768.62	225.30
768.95	225.17
769.27	225.02
769.60	224.94
769.92	224.77
770.25	224.62
770.57	224.44
770.90	224.31
771.22	224.22
771.55	224.08
771.87	223.99
772.20	223.87
772.52	223.93
772.85	224.07
773.17	223.98
773.50	223.89
773.82	223.71
774.15	223.49
774.47	223.26
774.80	223.15
775.12	223.03
775.45	222.90
775.77	222.81
776.09	222.74
776.42	222.63
776.74	222.63
777.07	222.54
777.39	222.47
777.72	222.36
778.04	222.28
778.36	222.21
778.69	222.14
779.01	222.09
779.33	221.86
779.66	221.55
779.98	221.44
780.31	221.36
780.63	221.38
780.95	221.33
781.28	221.29
781.60	221.17
781.92	221.10
782.25	221.05
782.57	221.00
782.89	220.94
783.22	220.85
783.54	220.74
783.86	220.71
784.19	220.66
784.51	220.73
784.83	220.60
785.16	220.54
785.48	220.47
785.80	220.42
786.12	220.36
