SpectraSuite Data File
++++++++++++++++++++++++++++++++++++
Date: Tue Jan 29 16:15:17 EST 2013
User: group
Dark Spectrum Present: No
Reference Spectrum Present: No
Number of Sampled Component Spectra: 1
Spectrometers: USB2E7196
Integration Time (usec): 65000 (USB2E7196)
Spectra Averaged: 100 (USB2E7196)
Boxcar Smoothing: 10 (USB2E7196)
Correct for Electrical Dark: No (USB2E7196)
Strobe/Lamp Enabled: No (USB2E7196)
Correct for Detector Non-linearity: No (USB2E7196)
Correct for Stray Light: No (USB2E7196)
Number of Pixels in Processed Spectrum: 2048
>>>>>Begin Processed Spectral Data<<<<<
339.09	0.00
339.48	201.93
339.86	203.70
340.24	204.85
340.63	206.21
341.01	210.90
341.39	209.07
341.78	210.55
342.16	212.30
342.54	212.51
342.93	201.49
343.31	211.66
343.69	212.23
344.07	212.72
344.46	213.18
344.84	213.61
345.22	213.80
345.60	214.05
345.99	214.27
346.37	214.36
346.75	214.46
347.13	214.52
347.52	214.58
347.90	214.73
348.28	214.76
348.66	214.83
349.05	214.81
349.43	214.85
349.81	214.91
350.19	214.99
350.57	215.05
350.96	215.15
351.34	215.28
351.72	215.38
352.10	215.47
352.48	215.54
352.87	215.58
353.25	215.63
353.63	215.74
354.01	215.82
354.39	215.94
354.77	216.01
355.15	216.15
355.54	216.20
355.92	216.21
356.30	216.26
356.68	216.45
357.06	216.50
357.44	216.55
357.82	216.59
358.20	216.68
358.58	216.74
358.97	216.84
359.35	216.92
359.73	217.02
360.11	217.09
360.49	217.17
360.87	217.23
361.25	217.34
361.63	217.44
362.01	217.45
362.39	217.49
362.77	217.55
363.15	217.57
363.53	217.59
363.91	217.64
364.29	217.68
364.67	217.50
365.05	217.57
365.43	217.60
365.81	217.68
366.19	217.75
366.57	217.86
366.95	217.82
367.33	217.77
367.71	217.75
368.09	217.77
368.47	217.78
368.85	217.77
369.23	217.76
369.61	217.66
369.99	217.74
370.37	217.78
370.75	217.83
371.13	217.77
371.51	217.74
371.89	217.71
372.27	217.70
372.65	217.72
373.03	217.69
373.41	217.64
373.78	217.58
374.16	217.44
374.54	217.33
374.92	217.26
375.30	217.23
375.68	217.17
376.06	217.14
376.44	217.09
376.82	217.02
377.19	216.98
377.57	216.93
377.95	216.82
378.33	216.72
378.71	216.59
379.09	216.61
379.47	216.59
379.84	216.50
380.22	216.43
380.60	216.31
380.98	216.26
381.36	216.24
381.73	216.18
382.11	216.20
382.49	216.15
382.87	216.11
383.25	216.08
383.62	216.31
384.00	216.22
384.38	216.16
384.76	216.16
385.13	216.21
385.51	216.17
385.89	216.13
386.27	216.12
386.64	216.11
387.02	216.04
387.40	216.01
387.78	216.03
388.15	216.00
388.53	216.02
388.91	216.00
389.29	215.98
389.66	215.98
390.04	215.91
390.42	215.95
390.79	215.96
391.17	215.95
391.55	215.67
391.92	215.69
392.30	215.68
392.68	215.64
393.05	215.59
393.43	215.61
393.81	215.58
394.18	215.53
394.56	215.56
394.94	215.60
395.31	215.59
395.69	215.66
396.06	215.70
396.44	215.75
396.82	215.72
397.19	215.85
397.57	215.86
397.95	215.96
398.32	215.92
398.70	215.96
399.07	216.01
399.45	216.06
399.82	216.11
400.20	216.18
400.58	216.26
400.95	216.24
401.33	216.34
401.70	216.59
402.08	216.68
402.45	216.75
402.83	216.88
403.20	216.97
403.58	217.06
403.95	217.19
404.33	217.30
404.71	217.49
405.08	217.73
405.46	217.89
405.83	218.06
406.21	218.27
406.58	218.50
406.96	218.72
407.33	218.96
407.70	219.23
408.08	219.66
408.45	219.99
408.83	220.39
409.20	220.72
409.58	220.97
409.95	221.42
410.33	221.86
410.70	222.29
411.08	222.82
411.45	223.34
411.82	223.92
412.20	224.57
412.57	225.35
412.95	225.86
413.32	226.68
413.69	227.44
414.07	228.30
414.44	229.25
414.82	230.23
415.19	231.37
415.56	232.54
415.94	233.68
416.31	235.02
416.68	236.34
417.06	237.92
417.43	239.41
417.81	241.09
418.18	242.81
418.55	244.69
418.93	246.66
419.30	248.66
419.67	250.81
420.04	253.01
420.42	255.31
420.79	258.07
421.16	260.76
421.54	263.64
421.91	266.54
422.28	269.48
422.66	272.62
423.03	275.77
423.40	279.01
423.77	282.50
424.15	286.05
424.52	289.77
424.89	293.78
425.26	297.70
425.64	301.45
426.01	305.56
426.38	309.89
426.75	314.25
427.13	318.86
427.50	323.70
427.87	328.78
428.24	333.79
428.61	338.65
428.99	343.98
429.36	349.77
429.73	355.48
430.10	361.22
430.47	367.09
430.85	373.16
431.22	379.66
431.59	386.51
431.96	393.11
432.33	400.39
432.70	407.43
433.08	415.68
433.45	423.50
433.82	431.31
434.19	439.88
434.56	448.32
434.93	456.41
435.30	464.36
435.68	473.14
436.05	481.85
436.42	490.36
436.79	498.21
437.16	506.65
437.53	515.56
437.90	524.33
438.27	532.93
438.64	541.83
439.01	550.02
439.38	557.36
439.75	564.42
440.13	572.52
440.50	580.16
440.87	586.42
441.24	592.80
441.61	599.80
441.98	605.06
442.35	611.15
442.72	617.13
443.09	622.98
443.46	626.56
443.83	628.93
444.20	631.09
444.57	634.15
444.94	635.59
445.31	637.01
445.68	638.36
446.05	639.01
446.42	638.26
446.79	637.29
447.16	636.22
447.53	635.49
447.90	632.28
448.27	629.05
448.64	624.51
449.01	621.32
449.37	615.71
449.74	610.16
450.11	603.50
450.48	596.48
450.85	589.25
451.22	583.06
451.59	577.19
451.96	571.51
452.33	563.90
452.70	556.93
453.07	548.70
453.43	540.44
453.80	532.50
454.17	524.79
454.54	517.55
454.91	509.70
455.28	501.98
455.65	494.84
456.02	487.72
456.38	481.64
456.75	474.10
457.12	467.73
457.49	461.47
457.86	455.52
458.23	450.31
458.59	444.63
458.96	438.84
459.33	433.75
459.70	428.63
460.07	424.57
460.43	419.90
460.80	415.52
461.17	411.66
461.54	407.60
461.91	403.76
462.27	399.83
462.64	396.47
463.01	392.84
463.38	389.30
463.74	385.68
464.11	382.51
464.48	379.75
464.85	376.75
465.21	374.40
465.58	371.90
465.95	368.88
466.32	366.38
466.68	363.86
467.05	361.33
467.42	358.87
467.78	356.26
468.15	353.83
468.52	352.01
468.88	349.62
469.25	347.46
469.62	345.71
469.98	343.84
470.35	342.13
470.72	340.53
471.08	338.74
471.45	337.33
471.82	335.85
472.18	334.25
472.55	333.11
472.92	331.79
473.28	330.59
473.65	329.45
474.02	328.37
474.38	327.56
474.75	326.87
475.11	326.11
475.48	325.60
475.85	325.18
476.21	324.68
476.58	324.35
476.94	324.18
477.31	323.90
477.67	323.65
478.04	323.49
478.41	323.47
478.77	323.69
479.14	323.66
479.50	323.85
479.87	324.12
480.23	324.44
480.60	324.73
480.96	325.06
481.33	325.73
481.69	326.29
482.06	326.80
482.42	327.28
482.79	327.87
483.15	328.64
483.52	329.58
483.88	330.50
484.25	331.46
484.61	332.42
484.98	333.54
485.34	334.87
485.71	336.24
486.07	337.65
486.44	338.95
486.80	340.57
487.17	342.23
487.53	344.08
487.90	345.96
488.26	348.00
488.62	350.11
488.99	352.15
489.35	354.28
489.72	356.67
490.08	359.17
490.44	361.72
490.81	364.41
491.17	367.12
491.54	370.13
491.90	373.15
492.26	376.46
492.63	379.83
492.99	383.29
493.36	386.98
493.72	390.85
494.08	394.84
494.45	399.05
494.81	403.32
495.17	407.75
495.54	412.45
495.90	417.23
496.26	422.16
496.63	427.30
496.99	432.67
497.35	438.19
497.72	444.00
498.08	449.92
498.44	455.99
498.80	462.38
499.17	468.80
499.53	475.52
499.89	482.33
500.26	489.27
500.62	496.29
500.98	503.64
501.34	511.01
501.71	518.67
502.07	526.39
502.43	534.47
502.79	542.49
503.16	550.81
503.52	559.40
503.88	568.08
504.24	577.01
504.60	586.05
504.97	595.22
505.33	604.46
505.69	614.24
506.05	624.03
506.41	633.85
506.78	643.83
507.14	653.95
507.50	664.29
507.86	674.95
508.22	685.63
508.59	696.15
508.95	707.19
509.31	718.46
509.67	729.90
510.03	741.23
510.39	752.88
510.75	764.71
511.12	776.49
511.48	788.41
511.84	800.49
512.20	812.74
512.56	825.26
512.92	837.84
513.28	850.28
513.64	862.90
514.00	875.50
514.37	888.26
514.73	901.26
515.09	914.09
515.45	926.75
515.81	939.69
516.17	953.00
516.53	966.08
516.89	978.97
517.25	991.96
517.61	1005.23
517.97	1018.44
518.33	1031.29
518.69	1044.58
519.05	1058.19
519.41	1071.63
519.77	1085.23
520.13	1098.27
520.49	1111.32
520.85	1124.49
521.21	1137.48
521.57	1151.00
521.93	1163.91
522.29	1177.29
522.65	1190.78
523.01	1204.13
523.37	1217.06
523.73	1230.01
524.09	1242.91
524.45	1256.01
524.81	1269.22
525.17	1282.32
525.53	1295.17
525.89	1308.16
526.25	1321.01
526.61	1333.43
526.97	1346.26
527.33	1358.88
527.68	1372.09
528.04	1385.11
528.40	1398.04
528.76	1411.20
529.12	1423.77
529.48	1436.75
529.84	1448.77
530.20	1461.07
530.56	1473.50
530.91	1486.37
531.27	1498.93
531.63	1511.36
531.99	1523.88
532.35	1535.77
532.71	1547.92
533.07	1560.48
533.42	1572.41
533.78	1584.14
534.14	1595.93
534.50	1606.84
534.86	1618.18
535.21	1628.82
535.57	1640.12
535.93	1651.10
536.29	1661.87
536.65	1672.82
537.00	1683.50
537.36	1694.55
537.72	1705.34
538.08	1716.32
538.44	1726.95
538.79	1737.66
539.15	1748.25
539.51	1758.63
539.87	1769.55
540.22	1779.98
540.58	1790.67
540.94	1801.16
541.29	1811.13
541.65	1820.61
542.01	1830.80
542.37	1840.47
542.72	1850.23
543.08	1859.68
543.44	1869.82
543.79	1878.88
544.15	1888.06
544.51	1897.80
544.87	1907.36
545.22	1916.08
545.58	1924.59
545.94	1933.20
546.29	1941.49
546.65	1949.53
547.01	1957.51
547.36	1965.08
547.72	1972.52
548.07	1979.77
548.43	1987.32
548.79	1994.94
549.14	2002.80
549.50	2010.93
549.86	2018.59
550.21	2025.76
550.57	2033.21
550.92	2039.70
551.28	2046.88
551.64	2054.06
551.99	2061.32
552.35	2068.37
552.70	2075.18
553.06	2081.69
553.41	2087.81
553.77	2094.12
554.13	2100.31
554.48	2107.18
554.84	2113.92
555.19	2120.22
555.55	2126.67
555.90	2132.77
556.26	2139.36
556.61	2145.25
556.97	2150.06
557.32	2155.73
557.68	2162.01
558.03	2167.65
558.39	2172.71
558.74	2178.66
559.10	2184.13
559.45	2189.63
559.81	2195.00
560.16	2200.42
560.52	2206.23
560.87	2212.62
561.23	2218.54
561.58	2225.13
561.94	2230.40
562.29	2235.25
562.64	2241.35
563.00	2246.77
563.35	2252.35
563.71	2258.17
564.06	2263.81
564.42	2269.74
564.77	2274.78
565.12	2280.08
565.48	2285.31
565.83	2290.98
566.19	2296.33
566.54	2301.69
566.89	2306.20
567.25	2310.80
567.60	2316.59
567.96	2321.80
568.31	2326.32
568.66	2330.56
569.02	2334.52
569.37	2338.01
569.72	2342.26
570.08	2345.94
570.43	2349.13
570.78	2352.23
571.14	2354.91
571.49	2358.18
571.84	2361.78
572.20	2364.83
572.55	2367.84
572.90	2370.02
573.26	2372.97
573.61	2375.65
573.96	2377.96
574.31	2380.09
574.67	2382.12
575.02	2383.05
575.37	2384.49
575.72	2385.47
576.08	2387.15
576.43	2387.45
576.78	2388.29
577.13	2390.18
577.49	2391.33
577.84	2392.72
578.19	2394.28
578.54	2395.09
578.90	2396.07
579.25	2396.02
579.60	2396.13
579.95	2395.57
580.30	2396.03
580.66	2395.38
581.01	2393.80
581.36	2391.61
581.71	2390.30
582.06	2389.45
582.42	2388.77
582.77	2386.74
583.12	2385.25
583.47	2383.99
583.82	2383.53
584.17	2382.44
584.53	2380.37
584.88	2378.44
585.23	2376.54
585.58	2374.44
585.93	2372.37
586.28	2370.15
586.63	2368.02
586.98	2365.98
587.34	2364.16
587.69	2361.99
588.04	2360.18
588.39	2358.87
588.74	2356.61
589.09	2354.25
589.44	2351.13
589.79	2348.66
590.14	2346.92
590.49	2344.22
590.84	2340.52
591.19	2337.71
591.54	2334.58
591.89	2330.83
592.25	2327.77
592.60	2323.86
592.95	2319.77
593.30	2315.71
593.65	2311.48
594.00	2307.22
594.35	2304.33
594.70	2299.91
595.05	2295.38
595.40	2290.11
595.75	2284.65
596.10	2281.13
596.45	2276.41
596.80	2272.00
597.15	2267.07
597.50	2261.18
597.85	2256.39
598.19	2251.38
598.54	2245.72
598.89	2240.78
599.24	2236.36
599.59	2230.43
599.94	2224.69
600.29	2219.11
600.64	2213.46
600.99	2206.92
601.34	2201.50
601.69	2194.52
602.04	2188.23
602.39	2181.73
602.74	2175.75
603.08	2170.40
603.43	2163.91
603.78	2157.25
604.13	2150.37
604.48	2143.18
604.83	2137.38
605.18	2131.14
605.53	2124.30
605.87	2117.24
606.22	2110.51
606.57	2102.65
606.92	2094.88
607.27	2087.99
607.62	2081.40
607.96	2074.36
608.31	2067.95
608.66	2060.25
609.01	2052.65
609.36	2045.62
609.70	2038.05
610.05	2030.35
610.40	2022.03
610.75	2013.92
611.10	2006.33
611.44	1997.56
611.79	1988.84
612.14	1978.93
612.49	1968.48
612.83	1959.33
613.18	1950.33
613.53	1941.07
613.88	1931.67
614.22	1922.96
614.57	1913.15
614.92	1902.75
615.27	1892.66
615.61	1882.70
615.96	1873.11
616.31	1863.69
616.65	1854.35
617.00	1844.51
617.35	1834.94
617.70	1825.27
618.04	1815.18
618.39	1804.91
618.74	1795.29
619.08	1785.82
619.43	1777.22
619.78	1769.00
620.12	1760.09
620.47	1750.36
620.82	1740.04
621.16	1730.24
621.51	1720.37
621.85	1710.58
622.20	1699.96
622.55	1689.50
622.89	1679.75
623.24	1670.08
623.59	1660.44
623.93	1650.38
624.28	1640.68
624.62	1630.58
624.97	1620.25
625.32	1610.55
625.66	1601.83
626.01	1593.04
626.35	1583.57
626.70	1573.41
627.04	1563.35
627.39	1553.50
627.73	1544.34
628.08	1535.34
628.43	1525.66
628.77	1516.56
629.12	1507.75
629.46	1500.10
629.81	1491.77
630.15	1482.11
630.50	1472.38
630.84	1461.92
631.19	1452.09
631.53	1442.77
631.88	1432.71
632.22	1422.75
632.57	1413.51
632.91	1403.27
633.26	1393.35
633.60	1383.92
633.95	1374.57
634.29	1365.12
634.64	1355.82
634.98	1345.80
635.32	1336.61
635.67	1328.13
636.01	1318.88
636.36	1309.12
636.70	1299.58
637.05	1290.21
637.39	1281.33
637.73	1272.73
638.08	1265.24
638.42	1256.92
638.77	1248.16
639.11	1239.92
639.45	1232.18
639.80	1223.55
640.14	1215.01
640.49	1206.24
640.83	1197.40
641.17	1189.52
641.52	1181.34
641.86	1172.78
642.20	1164.99
642.55	1156.43
642.89	1147.63
643.23	1138.95
643.58	1130.91
643.92	1121.90
644.26	1113.29
644.61	1104.98
644.95	1096.18
645.29	1086.94
645.64	1077.83
645.98	1069.50
646.32	1061.66
646.66	1053.14
647.01	1044.81
647.35	1036.65
647.69	1028.27
648.04	1020.07
648.38	1011.11
648.72	1002.43
649.06	994.01
649.41	985.86
649.75	977.89
650.09	970.19
650.43	962.18
650.78	953.95
651.12	946.33
651.46	938.96
651.80	931.66
652.14	924.47
652.49	917.03
652.83	909.85
653.17	902.24
653.51	894.59
653.85	887.42
654.20	880.28
654.54	872.75
654.88	865.69
655.22	858.58
655.56	851.68
655.90	845.02
656.25	838.49
656.59	831.65
656.93	824.70
657.27	817.53
657.61	810.68
657.95	804.66
658.29	798.85
658.64	792.73
658.98	786.35
659.32	779.89
659.66	773.71
660.00	767.43
660.34	761.42
660.68	755.38
661.02	749.19
661.36	743.40
661.70	737.77
662.05	732.11
662.39	726.70
662.73	721.41
663.07	716.02
663.41	710.46
663.75	704.94
664.09	699.43
664.43	694.19
664.77	689.03
665.11	683.26
665.45	677.44
665.79	671.76
666.13	666.19
666.47	660.77
666.81	655.51
667.15	650.21
667.49	645.06
667.83	639.90
668.17	634.71
668.51	629.67
668.85	624.88
669.19	620.08
669.53	615.12
669.87	610.10
670.21	605.48
670.55	600.84
670.89	596.43
671.23	592.25
671.57	587.88
671.91	583.59
672.25	579.54
672.58	575.46
672.92	571.47
673.26	567.64
673.60	563.85
673.94	560.01
674.28	556.46
674.62	552.84
674.96	549.18
675.30	545.75
675.64	542.12
675.97	538.52
676.31	534.95
676.65	531.41
676.99	527.99
677.33	524.16
677.67	520.54
678.01	516.74
678.34	513.06
678.68	509.62
679.02	506.07
679.36	502.48
679.70	498.91
680.04	495.45
680.37	492.05
680.71	488.79
681.05	485.69
681.39	482.53
681.73	479.36
682.06	476.37
682.40	473.31
682.74	470.15
683.08	467.00
683.42	463.94
683.75	461.06
684.09	458.10
684.43	455.42
684.77	452.58
685.10	449.76
685.44	446.97
685.78	444.12
686.12	441.39
686.45	438.67
686.79	436.09
687.13	433.60
687.46	430.99
687.80	428.38
688.14	425.57
688.48	422.97
688.81	420.33
689.15	417.88
689.49	415.36
689.82	412.86
690.16	410.36
690.50	407.98
690.83	405.52
691.17	403.01
691.51	400.56
691.84	398.38
692.18	396.31
692.52	394.13
692.85	392.04
693.19	389.97
693.52	387.91
693.86	385.72
694.20	383.55
694.53	381.51
694.87	379.35
695.21	377.33
695.54	375.23
695.88	373.15
696.21	370.91
696.55	368.80
696.88	366.83
697.22	364.90
697.56	363.05
697.89	361.18
698.23	359.51
698.56	357.76
698.90	356.04
699.23	354.13
699.57	352.32
699.90	350.51
700.24	348.76
700.58	347.03
700.91	345.43
701.25	343.98
701.58	342.41
701.92	340.84
702.25	339.20
702.59	337.62
702.92	336.11
703.26	334.66
703.59	333.25
703.93	332.00
704.26	330.60
704.60	329.15
704.93	327.72
705.26	326.25
705.60	324.83
705.93	323.31
706.27	322.02
706.60	320.78
706.94	319.57
707.27	318.20
707.61	316.86
707.94	315.53
708.27	314.02
708.61	312.57
708.94	311.25
709.28	310.06
709.61	308.87
709.94	307.71
710.28	306.53
710.61	305.39
710.95	304.06
711.28	302.98
711.61	301.76
711.95	300.65
712.28	299.48
712.61	298.33
712.95	297.32
713.28	296.30
713.61	295.15
713.95	293.99
714.28	293.00
714.61	292.01
714.95	291.02
715.28	290.02
715.61	289.05
715.95	288.11
716.28	287.14
716.61	286.19
716.95	285.23
717.28	284.27
717.61	283.35
717.94	282.46
718.28	281.47
718.61	280.63
718.94	279.77
719.27	278.93
719.61	278.15
719.94	277.28
720.27	276.38
720.60	275.54
720.94	274.83
721.27	274.09
721.60	273.43
721.93	272.75
722.27	272.12
722.60	271.51
722.93	270.84
723.26	270.18
723.59	269.52
723.93	268.90
724.26	268.31
724.59	267.67
724.92	267.08
725.25	266.62
725.59	266.07
725.92	265.51
726.25	264.98
726.58	264.39
726.91	263.83
727.24	263.25
727.57	262.73
727.91	262.11
728.24	261.59
728.57	261.01
728.90	260.49
729.23	259.90
729.56	259.43
729.89	258.90
730.22	258.39
730.55	257.81
730.89	257.30
731.22	256.79
731.55	256.26
731.88	255.75
732.21	255.17
732.54	254.65
732.87	254.19
733.20	253.69
733.53	253.27
733.86	252.86
734.19	252.44
734.52	252.05
734.85	251.77
735.18	251.31
735.51	250.93
735.84	250.46
736.17	250.13
736.50	249.61
736.83	249.42
737.16	249.04
737.49	248.74
737.82	248.33
738.15	247.97
738.48	247.61
738.81	247.22
739.14	246.82
739.47	246.43
739.80	246.06
740.13	245.71
740.46	245.31
740.79	244.90
741.12	244.56
741.45	244.20
741.78	243.79
742.11	243.54
742.44	243.13
742.77	242.86
743.10	242.52
743.43	242.20
743.75	241.65
744.08	241.57
744.41	241.19
744.74	240.88
745.07	240.53
745.40	240.24
745.73	240.01
746.06	239.71
746.39	239.43
746.71	239.08
747.04	238.75
747.37	238.42
747.70	238.16
748.03	237.84
748.36	237.57
748.68	237.26
749.01	236.90
749.34	236.67
749.67	236.39
750.00	236.08
750.33	236.00
750.65	235.78
750.98	235.27
751.31	235.05
751.64	234.82
751.97	234.70
752.29	234.43
752.62	234.10
752.95	233.87
753.28	233.63
753.60	233.45
753.93	233.29
754.26	233.09
754.59	232.82
754.91	232.59
755.24	232.34
755.57	232.08
755.90	231.86
756.22	231.59
756.55	231.35
756.88	231.11
757.20	230.76
757.53	230.52
757.86	230.31
758.19	230.14
758.51	229.93
758.84	229.64
759.17	229.45
759.49	229.28
759.82	229.20
760.15	229.06
760.47	228.84
760.80	228.61
761.13	228.49
761.45	228.33
761.78	228.14
762.11	227.99
762.43	227.84
762.76	227.65
763.08	227.54
763.41	227.40
763.74	227.28
764.06	227.10
764.39	226.95
764.71	226.83
765.04	226.67
765.37	226.51
765.69	226.36
766.02	226.25
766.34	226.11
766.67	225.91
767.00	225.81
767.32	225.82
767.65	225.81
767.97	225.66
768.30	225.54
768.62	225.44
768.95	225.29
769.27	225.16
769.60	225.10
769.92	224.95
770.25	224.78
770.57	224.65
770.90	224.52
771.22	224.39
771.55	224.24
771.87	224.15
772.20	224.02
772.52	224.09
772.85	224.22
773.17	224.14
773.50	224.01
773.82	223.87
774.15	223.68
774.47	223.45
774.80	223.34
775.12	223.27
775.45	223.17
775.77	223.12
776.09	223.05
776.42	222.93
776.74	222.89
777.07	222.80
777.39	222.72
777.72	222.64
778.04	222.60
778.36	222.54
778.69	222.41
779.01	222.37
779.33	222.12
779.66	221.81
779.98	221.70
780.31	221.61
780.63	221.61
780.95	221.54
781.28	221.45
781.60	221.37
781.92	221.29
782.25	221.21
782.57	221.11
782.89	221.04
783.22	220.98
783.54	220.89
783.86	220.86
784.19	220.81
784.51	220.82
784.83	220.70
785.16	220.64
785.48	220.59
785.80	220.51
786.12	220.45
