SpectraSuite Data File
++++++++++++++++++++++++++++++++++++
Date: Tue Jan 29 16:35:29 EST 2013
User: group
Dark Spectrum Present: No
Reference Spectrum Present: No
Number of Sampled Component Spectra: 1
Spectrometers: USB2E7196
Integration Time (usec): 65000 (USB2E7196)
Spectra Averaged: 100 (USB2E7196)
Boxcar Smoothing: 10 (USB2E7196)
Correct for Electrical Dark: No (USB2E7196)
Strobe/Lamp Enabled: No (USB2E7196)
Correct for Detector Non-linearity: No (USB2E7196)
Correct for Stray Light: No (USB2E7196)
Number of Pixels in Processed Spectrum: 2048
>>>>>Begin Processed Spectral Data<<<<<
339.09	0.00
339.48	201.85
339.86	203.50
340.24	204.89
340.63	206.45
341.01	211.01
341.39	208.87
341.78	211.05
342.16	212.02
342.54	212.11
342.93	201.37
343.31	211.55
343.69	212.09
344.07	212.54
344.46	212.99
344.84	213.39
345.22	213.57
345.60	213.85
345.99	213.99
346.37	214.14
346.75	214.23
347.13	214.32
347.52	214.43
347.90	214.55
348.28	214.52
348.66	214.60
349.05	214.53
349.43	214.55
349.81	214.62
350.19	214.65
350.57	214.71
350.96	214.77
351.34	214.85
351.72	214.94
352.10	215.04
352.48	215.11
352.87	215.13
353.25	215.21
353.63	215.24
354.01	215.32
354.39	215.40
354.77	215.45
355.15	215.56
355.54	215.56
355.92	215.53
356.30	215.61
356.68	215.80
357.06	215.87
357.44	215.93
357.82	215.99
358.20	216.08
358.58	216.10
358.97	216.15
359.35	216.28
359.73	216.36
360.11	216.40
360.49	216.46
360.87	216.51
361.25	216.56
361.63	216.65
362.01	216.70
362.39	216.68
362.77	216.75
363.15	216.78
363.53	216.78
363.91	216.84
364.29	216.91
364.67	216.73
365.05	216.77
365.43	216.82
365.81	216.85
366.19	216.92
366.57	217.01
366.95	217.00
367.33	216.93
367.71	216.95
368.09	217.02
368.47	216.97
368.85	216.99
369.23	217.02
369.61	216.93
369.99	216.99
370.37	217.02
370.75	217.12
371.13	217.07
371.51	217.07
371.89	217.03
372.27	216.95
372.65	216.96
373.03	216.90
373.41	216.82
373.78	216.78
374.16	216.67
374.54	216.59
374.92	216.52
375.30	216.49
375.68	216.40
376.06	216.35
376.44	216.33
376.82	216.27
377.19	216.21
377.57	216.20
377.95	216.08
378.33	216.01
378.71	215.83
379.09	215.78
379.47	215.75
379.84	215.69
380.22	215.63
380.60	215.54
380.98	215.53
381.36	215.52
381.73	215.46
382.11	215.45
382.49	215.42
382.87	215.37
383.25	215.33
383.62	215.54
384.00	215.49
384.38	215.43
384.76	215.46
385.13	215.52
385.51	215.47
385.89	215.42
386.27	215.41
386.64	215.42
387.02	215.41
387.40	215.37
387.78	215.38
388.15	215.40
388.53	215.37
388.91	215.33
389.29	215.31
389.66	215.33
390.04	215.30
390.42	215.30
390.79	215.34
391.17	215.32
391.55	215.08
391.92	215.07
392.30	215.09
392.68	215.03
393.05	214.98
393.43	215.00
393.81	215.01
394.18	215.01
394.56	214.99
394.94	215.03
395.31	215.02
395.69	215.06
396.06	215.11
396.44	215.14
396.82	215.15
397.19	215.27
397.57	215.25
397.95	215.33
398.32	215.30
398.70	215.34
399.07	215.44
399.45	215.48
399.82	215.50
400.20	215.55
400.58	215.61
400.95	215.56
401.33	215.67
401.70	215.91
402.08	215.98
402.45	216.13
402.83	216.24
403.20	216.36
403.58	216.46
403.95	216.62
404.33	216.78
404.71	216.94
405.08	217.21
405.46	217.39
405.83	217.55
406.21	217.74
406.58	217.99
406.96	218.21
407.33	218.47
407.70	218.77
408.08	219.23
408.45	219.59
408.83	220.03
409.20	220.39
409.58	220.67
409.95	221.12
410.33	221.55
410.70	221.98
411.08	222.54
411.45	223.10
411.82	223.67
412.20	224.36
412.57	225.19
412.95	225.77
413.32	226.61
413.69	227.46
414.07	228.39
414.44	229.34
414.82	230.34
415.19	231.56
415.56	232.78
415.94	233.97
416.31	235.36
416.68	236.74
417.06	238.35
417.43	239.89
417.81	241.65
418.18	243.48
418.55	245.44
418.93	247.49
419.30	249.60
419.67	251.81
420.04	254.07
420.42	256.43
420.79	259.27
421.16	262.06
421.54	264.99
421.91	267.97
422.28	271.09
422.66	274.39
423.03	277.62
423.40	280.98
423.77	284.57
424.15	288.24
424.52	292.15
424.89	296.32
425.26	300.36
425.64	304.27
426.01	308.53
426.38	312.99
426.75	317.53
427.13	322.26
427.50	327.28
427.87	332.51
428.24	337.73
428.61	342.65
428.99	348.18
429.36	354.19
429.73	360.14
430.10	366.10
430.47	372.19
430.85	378.50
431.22	385.19
431.59	392.36
431.96	399.25
432.33	406.77
432.70	414.02
433.08	422.61
433.45	430.72
433.82	438.75
434.19	447.66
434.56	456.42
434.93	464.77
435.30	473.03
435.68	482.19
436.05	491.17
436.42	500.12
436.79	508.29
437.16	517.04
437.53	526.34
437.90	535.46
438.27	544.49
438.64	553.76
439.01	562.35
439.38	569.89
439.75	577.21
440.13	585.58
440.50	593.61
440.87	600.04
441.24	606.64
441.61	614.00
441.98	619.41
442.35	625.72
442.72	632.14
443.09	638.21
443.46	641.86
443.83	644.47
444.20	646.75
444.57	649.97
444.94	651.41
445.31	652.86
445.68	654.21
446.05	654.83
446.42	654.09
446.79	653.12
447.16	652.00
447.53	651.25
447.90	647.96
448.27	644.63
448.64	640.00
449.01	636.73
449.37	630.84
449.74	625.21
450.11	618.29
450.48	610.81
450.85	603.36
451.22	596.96
451.59	590.79
451.96	584.90
452.33	577.01
452.70	569.93
453.07	561.35
453.43	552.69
453.80	544.32
454.17	536.26
454.54	528.69
454.91	520.56
455.28	512.53
455.65	505.11
456.02	497.61
456.38	491.22
456.75	483.29
457.12	476.70
457.49	470.12
457.86	463.86
458.23	458.49
458.59	452.54
458.96	446.53
459.33	441.18
459.70	435.81
460.07	431.48
460.43	426.56
460.80	422.02
461.17	418.10
461.54	413.94
461.91	409.93
462.27	405.82
462.64	402.35
463.01	398.54
463.38	394.80
463.74	391.07
464.11	387.83
464.48	384.96
464.85	381.87
465.21	379.45
465.58	376.83
465.95	373.67
466.32	371.02
466.68	368.44
467.05	365.84
467.42	363.27
467.78	360.58
468.15	358.02
468.52	356.08
468.88	353.59
469.25	351.35
469.62	349.48
469.98	347.51
470.35	345.72
470.72	344.03
471.08	342.21
471.45	340.68
471.82	339.14
472.18	337.49
472.55	336.23
472.92	334.83
473.28	333.63
473.65	332.48
474.02	331.40
474.38	330.46
474.75	329.69
475.11	328.88
475.48	328.29
475.85	327.85
476.21	327.41
476.58	327.02
476.94	326.80
477.31	326.53
477.67	326.27
478.04	326.11
478.41	326.06
478.77	326.24
479.14	326.22
479.50	326.34
479.87	326.64
480.23	326.96
480.60	327.18
480.96	327.44
481.33	328.01
481.69	328.55
482.06	329.09
482.42	329.56
482.79	330.17
483.15	330.95
483.52	331.90
483.88	332.77
484.25	333.71
484.61	334.70
484.98	335.76
485.34	337.04
485.71	338.39
486.07	339.78
486.44	341.10
486.80	342.72
487.17	344.44
487.53	346.22
487.90	348.09
488.26	350.16
488.62	352.32
488.99	354.41
489.35	356.60
489.72	358.99
490.08	361.53
490.44	364.10
490.81	366.80
491.17	369.50
491.54	372.46
491.90	375.49
492.26	378.76
492.63	382.14
492.99	385.65
493.36	389.34
493.72	393.28
494.08	397.26
494.45	401.49
494.81	405.82
495.17	410.31
495.54	415.05
495.90	419.82
496.26	424.77
496.63	430.00
496.99	435.47
497.35	441.10
497.72	446.96
498.08	452.94
498.44	459.11
498.80	465.56
499.17	472.10
499.53	478.80
499.89	485.74
500.26	492.76
500.62	499.88
500.98	507.28
501.34	514.76
501.71	522.63
502.07	530.40
502.43	538.46
502.79	546.63
503.16	554.99
503.52	563.71
503.88	572.45
504.24	581.39
504.60	590.47
504.97	599.68
505.33	608.96
505.69	618.79
506.05	628.63
506.41	638.50
506.78	648.58
507.14	658.92
507.50	669.34
507.86	680.08
508.22	690.85
508.59	701.63
508.95	712.82
509.31	724.11
509.67	735.69
510.03	747.10
510.39	758.85
510.75	770.80
511.12	782.73
511.48	794.91
511.84	807.22
512.20	819.65
512.56	832.33
512.92	845.19
513.28	857.93
513.64	870.81
514.00	883.74
514.37	896.87
514.73	910.00
515.09	923.10
515.45	936.11
515.81	949.29
516.17	962.74
516.53	975.88
516.89	989.03
517.25	1002.27
517.61	1015.90
517.97	1029.39
518.33	1042.59
518.69	1056.15
519.05	1069.88
519.41	1083.69
519.77	1097.63
520.13	1110.98
520.49	1124.26
520.85	1137.86
521.21	1151.35
521.57	1165.01
521.93	1178.16
522.29	1192.11
522.65	1205.75
523.01	1219.38
523.37	1232.73
523.73	1246.06
524.09	1259.45
524.45	1273.00
524.81	1286.62
525.17	1300.08
525.53	1313.34
525.89	1326.90
526.25	1340.27
526.61	1353.31
526.97	1366.53
527.33	1379.60
527.68	1393.21
528.04	1406.79
528.40	1419.90
528.76	1433.23
529.12	1446.25
529.48	1459.52
529.84	1471.90
530.20	1484.96
530.56	1497.73
530.91	1511.07
531.27	1524.14
531.63	1536.91
531.99	1549.80
532.35	1561.98
532.71	1574.45
533.07	1587.55
533.42	1599.82
533.78	1611.94
534.14	1624.13
534.50	1635.57
534.86	1647.21
535.21	1658.26
535.57	1669.95
535.93	1681.39
536.29	1692.67
536.65	1704.39
537.00	1715.65
537.36	1727.06
537.72	1737.96
538.08	1749.49
538.44	1760.46
538.79	1771.61
539.15	1782.71
539.51	1793.65
539.87	1805.15
540.22	1816.06
540.58	1827.11
540.94	1838.09
541.29	1848.51
541.65	1858.36
542.01	1868.82
542.37	1879.00
542.72	1889.28
543.08	1899.06
543.44	1909.66
543.79	1919.05
544.15	1928.57
544.51	1938.54
544.87	1948.53
545.22	1957.96
545.58	1966.93
545.94	1976.10
546.29	1984.74
546.65	1993.20
547.01	2001.38
547.36	2009.23
547.72	2017.12
548.07	2024.65
548.43	2032.54
548.79	2040.41
549.14	2048.71
549.50	2057.42
549.86	2065.37
550.21	2072.85
550.57	2080.79
550.92	2087.64
551.28	2095.26
551.64	2102.54
551.99	2110.03
552.35	2117.36
552.70	2124.30
553.06	2131.02
553.41	2137.24
553.77	2143.74
554.13	2150.19
554.48	2157.41
554.84	2164.50
555.19	2171.10
555.55	2177.73
555.90	2183.96
556.26	2190.96
556.61	2196.93
556.97	2201.59
557.32	2207.50
557.68	2213.84
558.03	2219.54
558.39	2224.86
558.74	2230.80
559.10	2236.35
559.45	2241.96
559.81	2247.41
560.16	2252.86
560.52	2258.79
560.87	2265.23
561.23	2271.26
561.58	2277.88
561.94	2283.05
562.29	2287.81
562.64	2293.89
563.00	2299.56
563.35	2305.21
563.71	2311.04
564.06	2316.86
564.42	2322.90
564.77	2327.87
565.12	2333.18
565.48	2338.32
565.83	2343.81
566.19	2349.19
566.54	2354.52
566.89	2359.04
567.25	2363.81
567.60	2369.52
567.96	2374.60
568.31	2379.16
568.66	2383.49
569.02	2387.40
569.37	2391.07
569.72	2395.48
570.08	2399.04
570.43	2402.18
570.78	2405.23
571.14	2407.62
571.49	2410.68
571.84	2414.12
572.20	2417.14
572.55	2420.14
572.90	2422.25
573.26	2424.88
573.61	2427.46
573.96	2429.53
574.31	2431.72
574.67	2433.37
575.02	2434.11
575.37	2435.52
575.72	2436.18
576.08	2437.44
576.43	2437.51
576.78	2437.97
577.13	2439.48
577.49	2440.59
577.84	2441.41
578.19	2442.69
578.54	2443.22
578.90	2443.92
579.25	2443.65
579.60	2443.30
579.95	2442.53
580.30	2442.60
580.66	2441.88
581.01	2440.07
581.36	2437.77
581.71	2436.18
582.06	2435.02
582.42	2434.15
582.77	2431.89
583.12	2430.16
583.47	2428.59
583.82	2427.92
584.17	2426.60
584.53	2424.42
584.88	2422.17
585.23	2420.26
585.58	2417.75
585.93	2415.63
586.28	2413.16
586.63	2410.82
586.98	2408.61
587.34	2406.34
587.69	2403.76
588.04	2401.83
588.39	2400.31
588.74	2397.66
589.09	2394.85
589.44	2391.48
589.79	2388.88
590.14	2386.71
590.49	2383.68
590.84	2379.79
591.19	2376.47
591.54	2373.05
591.89	2368.82
592.25	2365.45
592.60	2361.07
592.95	2356.96
593.30	2352.64
593.65	2348.35
594.00	2343.76
594.35	2340.73
594.70	2336.19
595.05	2331.64
595.40	2325.96
595.75	2319.96
596.10	2316.36
596.45	2311.57
596.80	2307.07
597.15	2301.84
597.50	2295.88
597.85	2290.90
598.19	2285.79
598.54	2280.08
598.89	2274.78
599.24	2270.15
599.59	2263.94
599.94	2258.18
600.29	2252.03
600.64	2246.06
600.99	2239.08
601.34	2233.50
601.69	2226.39
602.04	2219.93
602.39	2213.18
602.74	2207.01
603.08	2201.58
603.43	2195.01
603.78	2188.19
604.13	2180.92
604.48	2173.55
604.83	2167.50
605.18	2161.22
605.53	2154.19
605.87	2147.12
606.22	2140.23
606.57	2132.20
606.92	2124.10
607.27	2117.11
607.62	2110.55
607.96	2103.48
608.31	2097.08
608.66	2089.36
609.01	2081.74
609.36	2074.50
609.70	2066.77
610.05	2058.99
610.40	2050.68
610.75	2042.11
611.10	2034.12
611.44	2025.17
611.79	2016.43
612.14	2006.32
612.49	1995.59
612.83	1986.14
613.18	1976.84
613.53	1967.63
613.88	1958.18
614.22	1949.63
614.57	1939.69
614.92	1928.98
615.27	1918.67
615.61	1908.44
615.96	1898.68
616.31	1889.03
616.65	1879.60
617.00	1869.90
617.35	1860.20
617.70	1850.33
618.04	1840.39
618.39	1830.19
618.74	1820.60
619.08	1810.86
619.43	1802.06
619.78	1793.94
620.12	1785.36
620.47	1775.76
620.82	1765.39
621.16	1755.50
621.51	1745.56
621.85	1735.76
622.20	1725.44
622.55	1714.93
622.89	1705.09
623.24	1695.34
623.59	1685.54
623.93	1675.47
624.28	1665.62
624.62	1655.56
624.97	1645.39
625.32	1635.55
625.66	1626.67
626.01	1617.86
626.35	1608.54
626.70	1598.66
627.04	1588.52
627.39	1578.39
627.73	1569.02
628.08	1560.08
628.43	1550.59
628.77	1541.42
629.12	1532.44
629.46	1524.61
629.81	1516.35
630.15	1506.70
630.50	1496.99
630.84	1486.51
631.19	1476.50
631.53	1467.25
631.88	1456.97
632.22	1446.87
632.57	1437.46
632.91	1427.39
633.26	1417.54
633.60	1407.99
633.95	1398.59
634.29	1389.11
634.64	1379.82
634.98	1369.88
635.32	1360.53
635.67	1352.00
636.01	1342.81
636.36	1333.07
636.70	1323.53
637.05	1314.02
637.39	1305.12
637.73	1296.45
638.08	1288.86
638.42	1280.72
638.77	1271.83
639.11	1263.67
639.45	1255.88
639.80	1247.50
640.14	1238.74
640.49	1229.85
640.83	1221.03
641.17	1212.85
641.52	1204.70
641.86	1196.00
642.20	1188.16
642.55	1179.59
642.89	1170.64
643.23	1161.85
643.58	1153.77
643.92	1144.72
644.26	1136.09
644.61	1127.68
644.95	1118.94
645.29	1109.62
645.64	1100.39
645.98	1091.84
646.32	1083.89
646.66	1075.35
647.01	1066.93
647.35	1058.84
647.69	1050.63
648.04	1042.23
648.38	1033.31
648.72	1024.49
649.06	1016.02
649.41	1007.74
649.75	999.76
650.09	992.02
650.43	983.94
650.78	975.53
651.12	967.83
651.46	960.41
651.80	953.14
652.14	945.75
652.49	938.19
652.83	930.87
653.17	923.16
653.51	915.54
653.85	908.25
654.20	900.95
654.54	893.40
654.88	886.01
655.22	878.78
655.56	871.75
655.90	864.93
656.25	858.28
656.59	851.35
656.93	844.22
657.27	836.94
657.61	829.97
657.95	823.81
658.29	817.82
658.64	811.66
658.98	805.10
659.32	798.41
659.66	792.21
660.00	785.76
660.34	779.76
660.68	773.56
661.02	767.21
661.36	761.18
661.70	755.33
662.05	749.63
662.39	744.13
662.73	738.73
663.07	733.17
663.41	727.56
663.75	721.74
664.09	716.01
664.43	710.57
664.77	705.19
665.11	699.36
665.45	693.40
665.79	687.54
666.13	681.87
666.47	676.34
666.81	670.77
667.15	665.36
667.49	660.06
667.83	654.78
668.17	649.44
668.51	644.28
668.85	639.26
669.19	634.36
669.53	629.26
669.87	624.06
670.21	619.38
670.55	614.56
670.89	610.16
671.23	605.78
671.57	601.36
671.91	596.99
672.25	592.89
672.58	588.74
672.92	584.60
673.26	580.67
673.60	576.78
673.94	572.98
674.28	569.34
674.62	565.60
674.96	561.79
675.30	558.30
675.64	554.62
675.97	551.04
676.31	547.43
676.65	543.83
676.99	540.39
677.33	536.48
677.67	532.81
678.01	528.86
678.34	525.21
678.68	521.63
679.02	518.01
679.36	514.19
679.70	510.49
680.04	506.87
680.37	503.32
680.71	500.01
681.05	496.84
681.39	493.55
681.73	490.27
682.06	487.18
682.40	484.01
682.74	480.82
683.08	477.54
683.42	474.27
683.75	471.22
684.09	468.08
684.43	465.27
684.77	462.32
685.10	459.51
685.44	456.59
685.78	453.63
686.12	450.82
686.45	448.08
686.79	445.38
687.13	442.82
687.46	440.14
687.80	437.40
688.14	434.46
688.48	431.78
688.81	429.14
689.15	426.54
689.49	423.91
689.82	421.28
690.16	418.64
690.50	416.23
690.83	413.69
691.17	411.20
691.51	408.65
691.84	406.32
692.18	404.07
692.52	401.79
692.85	399.64
693.19	397.44
693.52	395.21
693.86	393.02
694.20	390.78
694.53	388.64
694.87	386.43
695.21	384.32
695.54	382.14
695.88	379.89
696.21	377.64
696.55	375.49
696.88	373.39
697.22	371.41
697.56	369.41
697.89	367.49
698.23	365.69
698.56	363.86
698.90	362.08
699.23	360.17
699.57	358.27
699.90	356.35
700.24	354.51
700.58	352.77
700.91	351.04
701.25	349.46
701.58	347.79
701.92	346.16
702.25	344.49
702.59	342.90
702.92	341.34
703.26	339.75
703.59	338.21
703.93	337.01
704.26	335.58
704.60	334.07
704.93	332.57
705.26	331.04
705.60	329.55
705.93	327.98
706.27	326.60
706.60	325.36
706.94	324.13
707.27	322.71
707.61	321.37
707.94	320.01
708.27	318.45
708.61	316.99
708.94	315.61
709.28	314.30
709.61	313.02
709.94	311.82
710.28	310.63
710.61	309.48
710.95	307.97
711.28	306.86
711.61	305.68
711.95	304.51
712.28	303.29
712.61	302.11
712.95	301.08
713.28	299.98
713.61	298.77
713.95	297.60
714.28	296.57
714.61	295.44
714.95	294.36
715.28	293.35
715.61	292.31
715.95	291.36
716.28	290.40
716.61	289.41
716.95	288.40
717.28	287.44
717.61	286.42
717.94	285.53
718.28	284.48
718.61	283.60
718.94	282.72
719.27	281.85
719.61	281.04
719.94	280.17
720.27	279.22
720.60	278.37
720.94	277.54
721.27	276.76
721.60	276.11
721.93	275.42
722.27	274.74
722.60	274.07
722.93	273.32
723.26	272.58
723.59	271.88
723.93	271.17
724.26	270.53
724.59	269.86
724.92	269.27
725.25	268.68
725.59	268.06
725.92	267.52
726.25	266.98
726.58	266.39
726.91	265.74
727.24	265.18
727.57	264.62
727.91	264.04
728.24	263.47
728.57	262.86
728.90	262.30
729.23	261.70
729.56	261.25
729.89	260.70
730.22	260.15
730.55	259.61
730.89	259.09
731.22	258.55
731.55	258.07
731.88	257.51
732.21	256.96
732.54	256.44
732.87	255.89
733.20	255.34
733.53	254.83
733.86	254.37
734.19	253.87
734.52	253.47
734.85	253.17
735.18	252.70
735.51	252.31
735.84	251.86
736.17	251.44
736.50	250.90
736.83	250.73
737.16	250.36
737.49	249.95
737.82	249.53
738.15	249.14
738.48	248.77
738.81	248.37
739.14	247.98
739.47	247.56
739.80	247.18
740.13	246.85
740.46	246.44
740.79	246.04
741.12	245.68
741.45	245.24
741.78	244.77
742.11	244.47
742.44	244.11
742.77	243.76
743.10	243.41
743.43	243.06
743.75	242.51
744.08	242.41
744.41	242.04
744.74	241.69
745.07	241.32
745.40	241.02
745.73	240.79
746.06	240.43
746.39	240.14
746.71	239.78
747.04	239.41
747.37	239.11
747.70	238.84
748.03	238.53
748.36	238.30
748.68	238.02
749.01	237.67
749.34	237.36
749.67	237.09
750.00	236.86
750.33	236.73
750.65	236.45
750.98	235.91
751.31	235.71
751.64	235.50
751.97	235.35
752.29	235.05
752.62	234.68
752.95	234.47
753.28	234.20
753.60	233.96
753.93	233.81
754.26	233.60
754.59	233.33
754.91	233.05
755.24	232.77
755.57	232.46
755.90	232.25
756.22	232.00
756.55	231.72
756.88	231.46
757.20	231.12
757.53	230.85
757.86	230.65
758.19	230.45
758.51	230.19
758.84	229.87
759.17	229.66
759.49	229.50
759.82	229.36
760.15	229.18
760.47	228.99
760.80	228.75
761.13	228.55
761.45	228.34
761.78	228.20
762.11	228.06
762.43	227.92
762.76	227.74
763.08	227.61
763.41	227.52
763.74	227.37
764.06	227.21
764.39	227.07
764.71	226.90
765.04	226.72
765.37	226.55
765.69	226.43
766.02	226.28
766.34	226.12
766.67	225.92
767.00	225.79
767.32	225.81
767.65	225.79
767.97	225.69
768.30	225.58
768.62	225.44
768.95	225.30
769.27	225.18
769.60	225.08
769.92	224.90
770.25	224.71
770.57	224.57
770.90	224.44
771.22	224.32
771.55	224.22
771.87	224.11
772.20	224.00
772.52	224.06
772.85	224.21
773.17	224.10
773.50	223.98
773.82	223.85
774.15	223.64
774.47	223.41
774.80	223.26
775.12	223.14
775.45	223.05
775.77	222.94
776.09	222.85
776.42	222.74
776.74	222.70
777.07	222.60
777.39	222.50
777.72	222.39
778.04	222.31
778.36	222.20
778.69	222.16
779.01	222.08
779.33	221.83
779.66	221.48
779.98	221.39
780.31	221.33
780.63	221.33
780.95	221.29
781.28	221.20
781.60	221.13
781.92	221.06
782.25	220.98
782.57	220.89
782.89	220.81
783.22	220.75
783.54	220.68
783.86	220.62
784.19	220.57
784.51	220.57
784.83	220.48
785.16	220.40
785.48	220.33
785.80	220.26
786.12	220.19
