SpectraSuite Data File
++++++++++++++++++++++++++++++++++++
Date: Tue Jan 29 16:17:45 EST 2013
User: group
Dark Spectrum Present: No
Reference Spectrum Present: No
Number of Sampled Component Spectra: 1
Spectrometers: USB2E7196
Integration Time (usec): 65000 (USB2E7196)
Spectra Averaged: 100 (USB2E7196)
Boxcar Smoothing: 10 (USB2E7196)
Correct for Electrical Dark: No (USB2E7196)
Strobe/Lamp Enabled: No (USB2E7196)
Correct for Detector Non-linearity: No (USB2E7196)
Correct for Stray Light: No (USB2E7196)
Number of Pixels in Processed Spectrum: 2048
>>>>>Begin Processed Spectral Data<<<<<
339.09	0.00
339.48	202.45
339.86	203.99
340.24	205.23
340.63	206.91
341.01	211.22
341.39	209.14
341.78	210.38
342.16	212.10
342.54	212.58
342.93	201.59
343.31	211.77
343.69	212.32
344.07	212.76
344.46	213.22
344.84	213.61
345.22	213.76
345.60	214.03
345.99	214.25
346.37	214.39
346.75	214.50
347.13	214.58
347.52	214.68
347.90	214.78
348.28	214.83
348.66	214.89
349.05	214.85
349.43	214.89
349.81	214.95
350.19	215.00
350.57	215.08
350.96	215.17
351.34	215.29
351.72	215.36
352.10	215.50
352.48	215.53
352.87	215.59
353.25	215.62
353.63	215.70
354.01	215.75
354.39	215.82
354.77	215.90
355.15	216.01
355.54	216.01
355.92	215.99
356.30	216.06
356.68	216.25
357.06	216.36
357.44	216.39
357.82	216.47
358.20	216.57
358.58	216.65
358.97	216.72
359.35	216.80
359.73	216.90
360.11	216.96
360.49	216.99
360.87	217.04
361.25	217.15
361.63	217.26
362.01	217.32
362.39	217.34
362.77	217.41
363.15	217.45
363.53	217.51
363.91	217.56
364.29	217.61
364.67	217.45
365.05	217.47
365.43	217.52
365.81	217.54
366.19	217.61
366.57	217.65
366.95	217.64
367.33	217.61
367.71	217.62
368.09	217.65
368.47	217.71
368.85	217.70
369.23	217.74
369.61	217.64
369.99	217.68
370.37	217.69
370.75	217.76
371.13	217.69
371.51	217.66
371.89	217.68
372.27	217.67
372.65	217.70
373.03	217.64
373.41	217.60
373.78	217.56
374.16	217.43
374.54	217.34
374.92	217.28
375.30	217.23
375.68	217.13
376.06	217.13
376.44	217.08
376.82	217.08
377.19	217.03
377.57	217.01
377.95	216.92
378.33	216.86
378.71	216.70
379.09	216.67
379.47	216.65
379.84	216.57
380.22	216.48
380.60	216.38
380.98	216.36
381.36	216.32
381.73	216.24
382.11	216.27
382.49	216.25
382.87	216.19
383.25	216.13
383.62	216.36
384.00	216.23
384.38	216.18
384.76	216.18
385.13	216.22
385.51	216.20
385.89	216.17
386.27	216.18
386.64	216.21
387.02	216.18
387.40	216.13
387.78	216.11
388.15	216.10
388.53	216.10
388.91	216.05
389.29	216.04
389.66	216.07
390.04	216.03
390.42	216.05
390.79	216.09
391.17	216.09
391.55	215.84
391.92	215.88
392.30	215.90
392.68	215.81
393.05	215.78
393.43	215.76
393.81	215.77
394.18	215.73
394.56	215.69
394.94	215.73
395.31	215.72
395.69	215.78
396.06	215.83
396.44	215.84
396.82	215.90
397.19	216.00
397.57	216.02
397.95	216.07
398.32	216.03
398.70	216.07
399.07	216.17
399.45	216.22
399.82	216.26
400.20	216.25
400.58	216.32
400.95	216.29
401.33	216.37
401.70	216.59
402.08	216.70
402.45	216.80
402.83	216.93
403.20	217.04
403.58	217.14
403.95	217.30
404.33	217.45
404.71	217.57
405.08	217.81
405.46	217.97
405.83	218.14
406.21	218.36
406.58	218.59
406.96	218.77
407.33	219.06
407.70	219.31
408.08	219.80
408.45	220.14
408.83	220.51
409.20	220.88
409.58	221.12
409.95	221.57
410.33	222.00
410.70	222.40
411.08	222.95
411.45	223.50
411.82	224.00
412.20	224.65
412.57	225.47
412.95	226.03
413.32	226.79
413.69	227.60
414.07	228.48
414.44	229.44
414.82	230.43
415.19	231.53
415.56	232.69
415.94	233.78
416.31	235.16
416.68	236.52
417.06	238.07
417.43	239.57
417.81	241.24
418.18	242.96
418.55	244.83
418.93	246.74
419.30	248.77
419.67	250.93
420.04	253.15
420.42	255.41
420.79	258.12
421.16	260.90
421.54	263.69
421.91	266.59
422.28	269.58
422.66	272.77
423.03	275.93
423.40	279.13
423.77	282.61
424.15	286.11
424.52	289.82
424.89	293.88
425.26	297.82
425.64	301.57
426.01	305.68
426.38	310.04
426.75	314.43
427.13	319.02
427.50	323.88
427.87	328.91
428.24	333.91
428.61	338.71
428.99	344.03
429.36	349.88
429.73	355.52
430.10	361.17
430.47	367.04
430.85	373.13
431.22	379.64
431.59	386.49
431.96	393.11
432.33	400.36
432.70	407.34
433.08	415.55
433.45	423.34
433.82	431.18
434.19	439.75
434.56	448.22
434.93	456.28
435.30	464.24
435.68	473.00
436.05	481.69
436.42	490.30
436.79	498.13
437.16	506.53
437.53	515.53
437.90	524.41
438.27	533.07
438.64	542.04
439.01	550.30
439.38	557.66
439.75	564.75
440.13	572.84
440.50	580.52
440.87	586.72
441.24	593.18
441.61	600.25
441.98	605.42
442.35	611.45
442.72	617.49
443.09	623.32
443.46	626.95
443.83	629.38
444.20	631.48
444.57	634.56
444.94	635.98
445.31	637.31
445.68	638.72
446.05	639.31
446.42	638.52
446.79	637.56
447.16	636.51
447.53	635.71
447.90	632.49
448.27	629.33
448.64	624.93
449.01	621.67
449.37	615.95
449.74	610.47
450.11	603.84
450.48	596.78
450.85	589.60
451.22	583.37
451.59	577.46
451.96	571.87
452.33	564.31
452.70	557.43
453.07	549.28
453.43	540.89
453.80	532.87
454.17	525.18
454.54	517.93
454.91	510.09
455.28	502.46
455.65	495.30
456.02	488.03
456.38	481.83
456.75	474.26
457.12	467.94
457.49	461.73
457.86	455.81
458.23	450.55
458.59	444.88
458.96	439.16
459.33	434.08
459.70	428.91
460.07	424.74
460.43	420.07
460.80	415.63
461.17	411.79
461.54	407.71
461.91	403.77
462.27	399.79
462.64	396.44
463.01	392.75
463.38	389.22
463.74	385.71
464.11	382.59
464.48	379.85
464.85	376.86
465.21	374.50
465.58	371.92
465.95	368.92
466.32	366.41
466.68	363.80
467.05	361.27
467.42	358.83
467.78	356.26
468.15	353.82
468.52	352.01
468.88	349.65
469.25	347.56
469.62	345.85
469.98	344.03
470.35	342.27
470.72	340.69
471.08	338.98
471.45	337.51
471.82	336.07
472.18	334.48
472.55	333.33
472.92	332.01
473.28	330.82
473.65	329.80
474.02	328.77
474.38	327.96
474.75	327.25
475.11	326.44
475.48	325.86
475.85	325.43
476.21	325.03
476.58	324.69
476.94	324.47
477.31	324.21
477.67	323.95
478.04	323.83
478.41	323.79
478.77	323.98
479.14	323.98
479.50	324.15
479.87	324.45
480.23	324.81
480.60	325.02
480.96	325.38
481.33	325.94
481.69	326.51
482.06	327.01
482.42	327.51
482.79	328.13
483.15	328.99
483.52	329.94
483.88	330.80
484.25	331.75
484.61	332.80
484.98	333.85
485.34	335.13
485.71	336.48
486.07	337.93
486.44	339.26
486.80	340.85
487.17	342.44
487.53	344.26
487.90	346.08
488.26	348.10
488.62	350.24
488.99	352.29
489.35	354.41
489.72	356.81
490.08	359.32
490.44	361.89
490.81	364.54
491.17	367.20
491.54	370.16
491.90	373.17
492.26	376.36
492.63	379.80
492.99	383.29
493.36	386.95
493.72	390.78
494.08	394.80
494.45	398.98
494.81	403.39
495.17	407.80
495.54	412.50
495.90	417.37
496.26	422.23
496.63	427.39
496.99	432.82
497.35	438.34
497.72	444.13
498.08	450.05
498.44	456.10
498.80	462.50
499.17	468.97
499.53	475.62
499.89	482.50
500.26	489.39
500.62	496.47
500.98	503.82
501.34	511.23
501.71	518.89
502.07	526.63
502.43	534.50
502.79	542.62
503.16	550.93
503.52	559.42
503.88	568.11
504.24	576.98
504.60	585.92
504.97	595.03
505.33	604.19
505.69	613.91
506.05	623.72
506.41	633.52
506.78	643.45
507.14	653.66
507.50	664.04
507.86	674.64
508.22	685.28
508.59	695.89
508.95	706.90
509.31	718.08
509.67	729.51
510.03	740.87
510.39	752.46
510.75	764.15
511.12	776.03
511.48	787.98
511.84	800.03
512.20	812.22
512.56	824.80
512.92	837.55
513.28	850.09
513.64	862.69
514.00	875.36
514.37	888.22
514.73	901.04
515.09	913.78
515.45	926.45
515.81	939.25
516.17	952.45
516.53	965.49
516.89	978.41
517.25	991.41
517.61	1004.69
517.97	1017.91
518.33	1030.91
518.69	1044.19
519.05	1057.67
519.41	1071.14
519.77	1084.79
520.13	1097.89
520.49	1110.89
520.85	1124.05
521.21	1137.12
521.57	1150.54
521.93	1163.36
522.29	1176.94
522.65	1190.37
523.01	1203.74
523.37	1216.76
523.73	1229.73
524.09	1242.59
524.45	1255.71
524.81	1268.72
525.17	1281.85
525.53	1294.66
525.89	1307.67
526.25	1320.46
526.61	1332.98
526.97	1345.77
527.33	1358.38
527.68	1371.42
528.04	1384.52
528.40	1397.28
528.76	1410.26
529.12	1422.72
529.48	1435.80
529.84	1447.73
530.20	1460.13
530.56	1472.46
530.91	1485.45
531.27	1497.99
531.63	1510.47
531.99	1522.97
532.35	1534.89
532.71	1546.85
533.07	1559.37
533.42	1571.12
533.78	1582.90
534.14	1594.70
534.50	1605.61
534.86	1616.87
535.21	1627.46
535.57	1638.52
535.93	1649.42
536.29	1660.25
536.65	1671.35
537.00	1681.88
537.36	1692.91
537.72	1703.52
538.08	1714.50
538.44	1725.07
538.79	1735.78
539.15	1746.31
539.51	1756.62
539.87	1767.70
540.22	1778.19
540.58	1788.82
540.94	1799.44
541.29	1809.37
541.65	1818.87
542.01	1829.10
542.37	1838.85
542.72	1848.74
543.08	1858.30
543.44	1868.52
543.79	1877.49
544.15	1886.81
544.51	1896.49
544.87	1906.00
545.22	1914.88
545.58	1923.49
545.94	1932.09
546.29	1940.34
546.65	1948.37
547.01	1956.33
547.36	1963.65
547.72	1971.24
548.07	1978.55
548.43	1986.13
548.79	1993.78
549.14	2001.61
549.50	2009.84
549.86	2017.43
550.21	2024.59
550.57	2031.94
550.92	2038.49
551.28	2045.79
551.64	2052.68
551.99	2060.03
552.35	2067.04
552.70	2073.78
553.06	2080.31
553.41	2086.31
553.77	2092.68
554.13	2098.89
554.48	2105.72
554.84	2112.68
555.19	2118.87
555.55	2125.25
555.90	2131.31
556.26	2137.87
556.61	2143.60
556.97	2148.36
557.32	2154.07
557.68	2160.37
558.03	2166.02
558.39	2171.14
558.74	2177.15
559.10	2182.66
559.45	2188.10
559.81	2193.45
560.16	2198.95
560.52	2204.67
560.87	2211.05
561.23	2216.97
561.58	2223.63
561.94	2228.87
562.29	2233.58
562.64	2239.79
563.00	2245.26
563.35	2250.83
563.71	2256.63
564.06	2262.42
564.42	2268.23
564.77	2273.24
565.12	2278.39
565.48	2283.62
565.83	2289.19
566.19	2294.46
566.54	2299.90
566.89	2304.40
567.25	2309.22
567.60	2314.92
567.96	2320.11
568.31	2324.67
568.66	2328.92
569.02	2332.69
569.37	2336.45
569.72	2341.04
570.08	2344.53
570.43	2347.68
570.78	2350.91
571.14	2353.49
571.49	2356.65
571.84	2360.11
572.20	2363.30
572.55	2366.53
572.90	2368.67
573.26	2371.54
573.61	2374.19
573.96	2376.41
574.31	2378.59
574.67	2380.42
575.02	2381.44
575.37	2382.97
575.72	2383.85
576.08	2385.33
576.43	2385.84
576.78	2386.55
577.13	2388.13
577.49	2389.44
577.84	2390.87
578.19	2392.35
578.54	2393.07
578.90	2394.04
579.25	2394.27
579.60	2394.29
579.95	2393.61
580.30	2394.04
580.66	2393.44
581.01	2391.82
581.36	2389.65
581.71	2388.37
582.06	2387.55
582.42	2386.72
582.77	2384.75
583.12	2383.30
583.47	2382.23
583.82	2381.74
584.17	2380.57
584.53	2378.61
584.88	2376.71
585.23	2374.86
585.58	2372.70
585.93	2370.84
586.28	2368.75
586.63	2366.40
586.98	2364.22
587.34	2362.46
587.69	2360.31
588.04	2358.49
588.39	2357.21
588.74	2354.99
589.09	2352.62
589.44	2349.66
589.79	2347.28
590.14	2345.56
590.49	2342.91
590.84	2339.41
591.19	2336.59
591.54	2333.55
591.89	2329.64
592.25	2326.55
592.60	2322.54
592.95	2318.54
593.30	2314.51
593.65	2310.23
594.00	2306.15
594.35	2303.34
594.70	2298.88
595.05	2294.34
595.40	2289.08
595.75	2283.63
596.10	2280.14
596.45	2275.38
596.80	2270.80
597.15	2265.84
597.50	2259.94
597.85	2255.19
598.19	2249.87
598.54	2244.14
598.89	2239.04
599.24	2234.70
599.59	2228.67
599.94	2223.04
600.29	2217.28
600.64	2211.47
600.99	2205.06
601.34	2199.54
601.69	2192.68
602.04	2186.29
602.39	2179.89
602.74	2174.03
603.08	2168.58
603.43	2162.08
603.78	2155.32
604.13	2148.23
604.48	2141.21
604.83	2135.26
605.18	2129.05
605.53	2122.18
605.87	2115.21
606.22	2108.53
606.57	2100.77
606.92	2093.02
607.27	2086.15
607.62	2079.64
607.96	2072.73
608.31	2066.34
608.66	2058.65
609.01	2051.13
609.36	2044.11
609.70	2036.38
610.05	2028.68
610.40	2020.49
610.75	2012.30
611.10	2004.80
611.44	1996.29
611.79	1987.54
612.14	1977.55
612.49	1967.04
612.83	1957.93
613.18	1948.80
613.53	1939.51
613.88	1930.02
614.22	1921.42
614.57	1911.58
614.92	1901.05
615.27	1891.03
615.61	1880.95
615.96	1871.57
616.31	1862.05
616.65	1852.86
617.00	1843.11
617.35	1833.52
617.70	1823.92
618.04	1813.83
618.39	1803.61
618.74	1793.95
619.08	1784.50
619.43	1775.98
619.78	1767.79
620.12	1759.20
620.47	1749.49
620.82	1739.20
621.16	1729.35
621.51	1719.44
621.85	1709.63
622.20	1699.33
622.55	1688.77
622.89	1678.97
623.24	1669.12
623.59	1659.31
623.93	1649.11
624.28	1639.55
624.62	1629.42
624.97	1619.09
625.32	1609.50
625.66	1600.72
626.01	1591.92
626.35	1582.41
626.70	1572.17
627.04	1562.17
627.39	1552.11
627.73	1542.93
628.08	1534.01
628.43	1524.64
628.77	1515.45
629.12	1506.59
629.46	1498.75
629.81	1490.39
630.15	1480.82
630.50	1471.08
630.84	1460.76
631.19	1450.88
631.53	1441.56
631.88	1431.52
632.22	1421.53
632.57	1412.16
632.91	1401.90
633.26	1392.15
633.60	1382.60
633.95	1373.50
634.29	1364.08
634.64	1354.71
634.98	1344.90
635.32	1335.72
635.67	1327.06
636.01	1317.91
636.36	1308.15
636.70	1298.68
637.05	1289.33
637.39	1280.44
637.73	1271.79
638.08	1264.30
638.42	1256.16
638.77	1247.35
639.11	1239.12
639.45	1231.33
639.80	1222.78
640.14	1214.23
640.49	1205.38
640.83	1196.65
641.17	1188.57
641.52	1180.41
641.86	1171.82
642.20	1164.00
642.55	1155.41
642.89	1146.59
643.23	1138.00
643.58	1129.98
643.92	1120.97
644.26	1112.36
644.61	1103.94
644.95	1095.34
645.29	1086.17
645.64	1077.02
645.98	1068.73
646.32	1060.85
646.66	1052.46
647.01	1044.27
647.35	1036.23
647.69	1027.93
648.04	1019.63
648.38	1010.80
648.72	1002.01
649.06	993.76
649.41	985.68
649.75	977.69
650.09	969.96
650.43	961.93
650.78	953.78
651.12	946.16
651.46	938.83
651.80	931.65
652.14	924.33
652.49	916.78
652.83	909.50
653.17	901.83
653.51	894.32
653.85	887.05
654.20	879.74
654.54	872.29
654.88	865.25
655.22	858.22
655.56	851.29
655.90	844.64
656.25	838.02
656.59	831.02
656.93	824.10
657.27	817.03
657.61	810.19
657.95	804.15
658.29	798.36
658.64	792.30
658.98	785.97
659.32	779.45
659.66	773.26
660.00	767.06
660.34	761.07
660.68	755.01
661.02	748.86
661.36	743.06
661.70	737.35
662.05	731.74
662.39	726.30
662.73	720.94
663.07	715.69
663.41	710.19
663.75	704.69
664.09	699.25
664.43	693.94
664.77	688.67
665.11	682.93
665.45	677.08
665.79	671.45
666.13	665.83
666.47	660.50
666.81	655.17
667.15	649.96
667.49	644.86
667.83	639.70
668.17	634.55
668.51	629.48
668.85	624.62
669.19	619.79
669.53	614.83
669.87	609.85
670.21	605.17
670.55	600.52
670.89	596.12
671.23	591.89
671.57	587.60
671.91	583.40
672.25	579.39
672.58	575.33
672.92	571.34
673.26	567.46
673.60	563.67
673.94	559.97
674.28	556.37
674.62	552.67
674.96	548.96
675.30	545.55
675.64	542.03
675.97	538.53
676.31	534.99
676.65	531.46
676.99	528.09
677.33	524.30
677.67	520.67
678.01	516.93
678.34	513.32
678.68	509.85
679.02	506.25
679.36	502.62
679.70	499.12
680.04	495.69
680.37	492.28
680.71	489.03
681.05	485.88
681.39	482.68
681.73	479.57
682.06	476.64
682.40	473.56
682.74	470.40
683.08	467.20
683.42	464.07
683.75	461.19
684.09	458.24
684.43	455.51
684.77	452.67
685.10	449.85
685.44	447.01
685.78	444.20
686.12	441.51
686.45	438.81
686.79	436.13
687.13	433.56
687.46	431.06
687.80	428.41
688.14	425.65
688.48	423.08
688.81	420.47
689.15	417.92
689.49	415.36
689.82	412.89
690.16	410.42
690.50	408.05
690.83	405.57
691.17	403.08
691.51	400.64
691.84	398.43
692.18	396.25
692.52	394.06
692.85	391.94
693.19	389.83
693.52	387.77
693.86	385.60
694.20	383.47
694.53	381.33
694.87	379.20
695.21	377.12
695.54	375.00
695.88	372.90
696.21	370.76
696.55	368.63
696.88	366.63
697.22	364.68
697.56	362.82
697.89	361.05
698.23	359.31
698.56	357.55
698.90	355.79
699.23	353.93
699.57	352.11
699.90	350.28
700.24	348.54
700.58	346.78
700.91	345.18
701.25	343.65
701.58	342.14
701.92	340.58
702.25	339.01
702.59	337.47
702.92	335.99
703.26	334.47
703.59	333.11
703.93	331.88
704.26	330.44
704.60	328.94
704.93	327.46
705.26	326.04
705.60	324.61
705.93	323.17
706.27	321.95
706.60	320.71
706.94	319.56
707.27	318.16
707.61	316.87
707.94	315.56
708.27	314.10
708.61	312.66
708.94	311.37
709.28	310.12
709.61	308.92
709.94	307.76
710.28	306.59
710.61	305.42
710.95	304.01
711.28	302.98
711.61	301.81
711.95	300.72
712.28	299.57
712.61	298.44
712.95	297.44
713.28	296.40
713.61	295.28
713.95	294.12
714.28	293.20
714.61	292.17
714.95	291.19
715.28	290.20
715.61	289.24
715.95	288.28
716.28	287.34
716.61	286.41
716.95	285.42
717.28	284.54
717.61	283.59
717.94	282.71
718.28	281.73
718.61	280.94
718.94	280.05
719.27	279.19
719.61	278.40
719.94	277.51
720.27	276.61
720.60	275.79
720.94	275.01
721.27	274.27
721.60	273.59
721.93	272.88
722.27	272.27
722.60	271.62
722.93	270.93
723.26	270.35
723.59	269.66
723.93	269.06
724.26	268.41
724.59	267.82
724.92	267.27
725.25	266.76
725.59	266.17
725.92	265.65
726.25	265.12
726.58	264.52
726.91	263.96
727.24	263.44
727.57	262.89
727.91	262.31
728.24	261.80
728.57	261.23
728.90	260.71
729.23	260.10
729.56	259.64
729.89	259.15
730.22	258.57
730.55	258.05
730.89	257.53
731.22	257.02
731.55	256.50
731.88	255.99
732.21	255.46
732.54	254.96
732.87	254.45
733.20	253.98
733.53	253.54
733.86	253.12
734.19	252.62
734.52	252.23
734.85	251.97
735.18	251.48
735.51	251.14
735.84	250.73
736.17	250.35
736.50	249.85
736.83	249.68
737.16	249.32
737.49	248.94
737.82	248.50
738.15	248.17
738.48	247.82
738.81	247.47
739.14	247.06
739.47	246.70
739.80	246.36
740.13	246.05
740.46	245.64
740.79	245.29
741.12	244.95
741.45	244.58
741.78	244.13
742.11	243.87
742.44	243.47
742.77	243.17
743.10	242.86
743.43	242.57
743.75	242.00
744.08	241.92
744.41	241.60
744.74	241.31
745.07	240.93
745.40	240.64
745.73	240.39
746.06	240.06
746.39	239.78
746.71	239.42
747.04	239.04
747.37	238.76
747.70	238.47
748.03	238.19
748.36	237.92
748.68	237.61
749.01	237.24
749.34	236.97
749.67	236.64
750.00	236.35
750.33	236.17
750.65	235.95
750.98	235.45
751.31	235.20
751.64	234.94
751.97	234.82
752.29	234.54
752.62	234.18
752.95	233.93
753.28	233.63
753.60	233.41
753.93	233.28
754.26	233.08
754.59	232.81
754.91	232.60
755.24	232.35
755.57	232.12
755.90	231.96
756.22	231.72
756.55	231.52
756.88	231.29
757.20	230.96
757.53	230.69
757.86	230.47
758.19	230.30
758.51	230.08
758.84	229.79
759.17	229.60
759.49	229.47
759.82	229.43
760.15	229.31
760.47	229.15
760.80	228.86
761.13	228.71
761.45	228.51
761.78	228.29
762.11	228.12
762.43	227.93
762.76	227.73
763.08	227.61
763.41	227.47
763.74	227.30
764.06	227.11
764.39	226.97
764.71	226.80
765.04	226.63
765.37	226.48
765.69	226.35
766.02	226.20
766.34	226.05
766.67	225.77
767.00	225.64
767.32	225.61
767.65	225.64
767.97	225.47
768.30	225.38
768.62	225.25
768.95	225.15
769.27	225.04
769.60	224.96
769.92	224.80
770.25	224.66
770.57	224.54
770.90	224.47
771.22	224.34
771.55	224.27
771.87	224.17
772.20	224.10
772.52	224.14
772.85	224.27
773.17	224.15
773.50	224.07
773.82	223.94
774.15	223.73
774.47	223.52
774.80	223.44
775.12	223.32
775.45	223.24
775.77	223.17
776.09	223.08
776.42	222.96
776.74	222.94
777.07	222.80
777.39	222.69
777.72	222.60
778.04	222.54
778.36	222.43
778.69	222.34
779.01	222.24
779.33	221.99
779.66	221.68
779.98	221.58
780.31	221.49
780.63	221.48
780.95	221.46
781.28	221.36
781.60	221.24
781.92	221.17
782.25	221.10
782.57	221.00
782.89	220.93
783.22	220.87
783.54	220.75
783.86	220.76
784.19	220.73
784.51	220.70
784.83	220.62
785.16	220.54
785.48	220.49
785.80	220.45
786.12	220.42
