SpectraSuite Data File
++++++++++++++++++++++++++++++++++++
Date: Tue Jan 29 16:11:10 EST 2013
User: group
Dark Spectrum Present: No
Reference Spectrum Present: No
Number of Sampled Component Spectra: 1
Spectrometers: USB2E7196
Integration Time (usec): 65000 (USB2E7196)
Spectra Averaged: 100 (USB2E7196)
Boxcar Smoothing: 10 (USB2E7196)
Correct for Electrical Dark: No (USB2E7196)
Strobe/Lamp Enabled: No (USB2E7196)
Correct for Detector Non-linearity: No (USB2E7196)
Correct for Stray Light: No (USB2E7196)
Number of Pixels in Processed Spectrum: 2048
>>>>>Begin Processed Spectral Data<<<<<
339.09	0.00
339.48	202.56
339.86	203.64
340.24	205.51
340.63	206.90
341.01	211.55
341.39	209.86
341.78	211.55
342.16	213.24
342.54	212.59
342.93	201.89
343.31	212.08
343.69	212.63
344.07	213.14
344.46	213.59
344.84	214.00
345.22	214.16
345.60	214.43
345.99	214.59
346.37	214.68
346.75	214.81
347.13	214.87
347.52	214.95
347.90	215.09
348.28	215.14
348.66	215.21
349.05	215.17
349.43	215.23
349.81	215.32
350.19	215.38
350.57	215.43
350.96	215.53
351.34	215.61
351.72	215.69
352.10	215.76
352.48	215.84
352.87	215.86
353.25	215.94
353.63	216.00
354.01	216.07
354.39	216.14
354.77	216.20
355.15	216.38
355.54	216.42
355.92	216.40
356.30	216.46
356.68	216.65
357.06	216.76
357.44	216.82
357.82	216.83
358.20	216.91
358.58	216.98
358.97	217.01
359.35	217.13
359.73	217.24
360.11	217.27
360.49	217.30
360.87	217.36
361.25	217.43
361.63	217.55
362.01	217.60
362.39	217.66
362.77	217.73
363.15	217.71
363.53	217.73
363.91	217.77
364.29	217.80
364.67	217.63
365.05	217.63
365.43	217.68
365.81	217.73
366.19	217.79
366.57	217.86
366.95	217.88
367.33	217.82
367.71	217.81
368.09	217.85
368.47	217.85
368.85	217.81
369.23	217.82
369.61	217.73
369.99	217.78
370.37	217.74
370.75	217.82
371.13	217.74
371.51	217.67
371.89	217.65
372.27	217.66
372.65	217.66
373.03	217.63
373.41	217.57
373.78	217.51
374.16	217.37
374.54	217.31
374.92	217.26
375.30	217.21
375.68	217.11
376.06	217.12
376.44	217.06
376.82	217.06
377.19	217.00
377.57	216.95
377.95	216.84
378.33	216.82
378.71	216.66
379.09	216.66
379.47	216.66
379.84	216.59
380.22	216.50
380.60	216.43
380.98	216.39
381.36	216.32
381.73	216.26
382.11	216.29
382.49	216.24
382.87	216.14
383.25	216.13
383.62	216.34
384.00	216.27
384.38	216.26
384.76	216.29
385.13	216.33
385.51	216.29
385.89	216.22
386.27	216.18
386.64	216.15
387.02	216.14
387.40	216.10
387.78	216.09
388.15	216.08
388.53	216.07
388.91	216.05
389.29	216.02
389.66	216.05
390.04	215.99
390.42	215.98
390.79	215.99
391.17	215.95
391.55	215.73
391.92	215.69
392.30	215.69
392.68	215.62
393.05	215.58
393.43	215.59
393.81	215.64
394.18	215.61
394.56	215.62
394.94	215.64
395.31	215.63
395.69	215.69
396.06	215.72
396.44	215.72
396.82	215.70
397.19	215.84
397.57	215.85
397.95	215.92
398.32	215.92
398.70	215.99
399.07	216.09
399.45	216.10
399.82	216.16
400.20	216.18
400.58	216.26
400.95	216.27
401.33	216.38
401.70	216.59
402.08	216.69
402.45	216.77
402.83	216.87
403.20	216.97
403.58	217.05
403.95	217.21
404.33	217.39
404.71	217.55
405.08	217.79
405.46	217.94
405.83	218.12
406.21	218.34
406.58	218.58
406.96	218.80
407.33	219.09
407.70	219.40
408.08	219.84
408.45	220.17
408.83	220.57
409.20	220.89
409.58	221.14
409.95	221.58
410.33	222.04
410.70	222.52
411.08	223.08
411.45	223.61
411.82	224.15
412.20	224.80
412.57	225.62
412.95	226.19
413.32	227.02
413.69	227.85
414.07	228.75
414.44	229.69
414.82	230.65
415.19	231.78
415.56	232.90
415.94	234.04
416.31	235.42
416.68	236.79
417.06	238.30
417.43	239.79
417.81	241.47
418.18	243.18
418.55	245.01
418.93	246.96
419.30	249.04
419.67	251.20
420.04	253.41
420.42	255.70
420.79	258.43
421.16	261.08
421.54	263.87
421.91	266.72
422.28	269.70
422.66	272.89
423.03	276.04
423.40	279.31
423.77	282.81
424.15	286.31
424.52	289.95
424.89	294.00
425.26	297.98
425.64	301.72
426.01	305.86
426.38	310.12
426.75	314.53
427.13	319.09
427.50	323.93
427.87	328.99
428.24	333.98
428.61	338.82
428.99	344.16
429.36	349.97
429.73	355.71
430.10	361.39
430.47	367.26
430.85	373.35
431.22	379.83
431.59	386.66
431.96	393.28
432.33	400.53
432.70	407.51
433.08	415.72
433.45	423.51
433.82	431.23
434.19	439.90
434.56	448.27
434.93	456.31
435.30	464.27
435.68	473.06
436.05	481.73
436.42	490.33
436.79	498.17
437.16	506.63
437.53	515.54
437.90	524.32
438.27	532.96
438.64	541.86
439.01	550.04
439.38	557.37
439.75	564.43
440.13	572.53
440.50	580.26
440.87	586.47
441.24	592.92
441.61	600.07
441.98	605.22
442.35	611.29
442.72	617.37
443.09	623.23
443.46	626.82
443.83	629.25
444.20	631.38
444.57	634.45
444.94	635.79
445.31	637.16
445.68	638.55
446.05	639.15
446.42	638.39
446.79	637.42
447.16	636.36
447.53	635.61
447.90	632.41
448.27	629.15
448.64	624.59
449.01	621.29
449.37	615.51
449.74	610.07
450.11	603.43
450.48	596.30
450.85	589.07
451.22	582.83
451.59	576.91
451.96	571.18
452.33	563.60
452.70	556.79
453.07	548.62
453.43	540.29
453.80	532.28
454.17	524.58
454.54	517.31
454.91	509.44
455.28	501.74
455.65	494.59
456.02	487.43
456.38	481.40
456.75	473.87
457.12	467.58
457.49	461.25
457.86	455.35
458.23	450.22
458.59	444.55
458.96	438.78
459.33	433.67
459.70	428.54
460.07	424.39
460.43	419.68
460.80	415.31
461.17	411.43
461.54	407.34
461.91	403.46
462.27	399.53
462.64	396.24
463.01	392.59
463.38	389.04
463.74	385.45
464.11	382.28
464.48	379.53
464.85	376.53
465.21	374.23
465.58	371.63
465.95	368.61
466.32	366.06
466.68	363.56
467.05	361.04
467.42	358.57
467.78	356.01
468.15	353.53
468.52	351.63
468.88	349.27
469.25	347.14
469.62	345.42
469.98	343.57
470.35	341.85
470.72	340.23
471.08	338.55
471.45	337.13
471.82	335.68
472.18	334.13
472.55	333.00
472.92	331.61
473.28	330.49
473.65	329.34
474.02	328.31
474.38	327.49
474.75	326.87
475.11	326.15
475.48	325.63
475.85	325.23
476.21	324.81
476.58	324.50
476.94	324.37
477.31	324.09
477.67	323.87
478.04	323.72
478.41	323.67
478.77	323.87
479.14	323.84
479.50	324.01
479.87	324.27
480.23	324.65
480.60	324.96
480.96	325.28
481.33	325.93
481.69	326.50
482.06	327.02
482.42	327.46
482.79	328.02
483.15	328.80
483.52	329.76
483.88	330.64
484.25	331.59
484.61	332.59
484.98	333.60
485.34	334.94
485.71	336.30
486.07	337.79
486.44	339.09
486.80	340.71
487.17	342.38
487.53	344.24
487.90	346.07
488.26	348.16
488.62	350.30
488.99	352.32
489.35	354.45
489.72	356.82
490.08	359.35
490.44	361.93
490.81	364.64
491.17	367.31
491.54	370.31
491.90	373.34
492.26	376.58
492.63	380.07
492.99	383.51
493.36	387.18
493.72	391.01
494.08	395.05
494.45	399.30
494.81	403.63
495.17	408.07
495.54	412.80
495.90	417.54
496.26	422.43
496.63	427.63
496.99	432.96
497.35	438.45
497.72	444.19
498.08	450.09
498.44	456.16
498.80	462.53
499.17	469.00
499.53	475.71
499.89	482.55
500.26	489.48
500.62	496.55
500.98	503.93
501.34	511.37
501.71	519.12
502.07	526.87
502.43	534.84
502.79	542.96
503.16	551.28
503.52	559.88
503.88	568.58
504.24	577.47
504.60	586.56
504.97	595.78
505.33	605.09
505.69	614.90
506.05	624.76
506.41	634.67
506.78	644.64
507.14	654.83
507.50	665.25
507.86	675.82
508.22	686.55
508.59	697.10
508.95	708.14
509.31	719.22
509.67	730.63
510.03	741.92
510.39	753.53
510.75	765.27
511.12	777.04
511.48	788.97
511.84	801.15
512.20	813.34
512.56	825.99
512.92	838.66
513.28	851.09
513.64	863.60
514.00	876.23
514.37	888.98
514.73	901.90
515.09	914.65
515.45	927.32
515.81	940.23
516.17	953.53
516.53	966.51
516.89	979.53
517.25	992.48
517.61	1005.83
517.97	1019.03
518.33	1032.02
518.69	1045.32
519.05	1058.98
519.41	1072.41
519.77	1086.09
520.13	1099.00
520.49	1111.91
520.85	1125.18
521.21	1138.37
521.57	1151.79
521.93	1164.84
522.29	1178.46
522.65	1191.90
523.01	1205.31
523.37	1218.13
523.73	1231.19
524.09	1244.17
524.45	1257.29
524.81	1270.46
525.17	1283.64
525.53	1296.57
525.89	1309.46
526.25	1322.49
526.61	1334.85
526.97	1347.64
527.33	1360.25
527.68	1373.50
528.04	1386.73
528.40	1399.55
528.76	1412.60
529.12	1425.15
529.48	1438.01
529.84	1449.92
530.20	1462.40
530.56	1474.78
530.91	1487.83
531.27	1500.37
531.63	1512.79
531.99	1525.25
532.35	1537.24
532.71	1549.17
533.07	1561.76
533.42	1573.70
533.78	1585.22
534.14	1597.05
534.50	1607.89
534.86	1619.12
535.21	1629.72
535.57	1640.88
535.93	1651.83
536.29	1662.66
536.65	1673.89
537.00	1684.53
537.36	1695.50
537.72	1706.22
538.08	1717.17
538.44	1727.69
538.79	1738.37
539.15	1748.88
539.51	1759.27
539.87	1770.27
540.22	1780.91
540.58	1791.37
540.94	1802.07
541.29	1812.20
541.65	1821.76
542.01	1832.07
542.37	1841.87
542.72	1851.76
543.08	1861.18
543.44	1871.45
543.79	1880.51
544.15	1889.61
544.51	1899.30
544.87	1908.91
545.22	1917.70
545.58	1926.33
545.94	1935.03
546.29	1943.22
546.65	1951.35
547.01	1959.38
547.36	1966.83
547.72	1974.22
548.07	1981.65
548.43	1989.08
548.79	1996.68
549.14	2004.51
549.50	2012.66
549.86	2020.29
550.21	2027.37
550.57	2034.78
550.92	2041.22
551.28	2048.43
551.64	2055.64
551.99	2063.01
552.35	2069.98
552.70	2076.65
553.06	2083.18
553.41	2089.22
553.77	2095.51
554.13	2101.65
554.48	2108.56
554.84	2115.32
555.19	2121.66
555.55	2128.16
555.90	2134.22
556.26	2140.80
556.61	2146.57
556.97	2151.36
557.32	2157.16
557.68	2163.51
558.03	2169.26
558.39	2174.50
558.74	2180.43
559.10	2185.87
559.45	2191.25
559.81	2196.76
560.16	2202.39
560.52	2208.30
560.87	2214.79
561.23	2220.78
561.58	2227.39
561.94	2232.53
562.29	2237.31
562.64	2243.50
563.00	2248.89
563.35	2254.49
563.71	2260.37
564.06	2266.05
564.42	2271.92
564.77	2277.03
565.12	2282.22
565.48	2287.29
565.83	2292.93
566.19	2298.16
566.54	2303.57
566.89	2308.28
567.25	2312.82
567.60	2318.46
567.96	2323.64
568.31	2328.04
568.66	2332.28
569.02	2336.30
569.37	2340.00
569.72	2344.51
570.08	2348.09
570.43	2351.33
570.78	2354.61
571.14	2357.22
571.49	2360.51
571.84	2364.12
572.20	2366.97
572.55	2370.22
572.90	2372.63
573.26	2375.52
573.61	2378.26
573.96	2380.55
574.31	2382.59
574.67	2384.53
575.02	2385.55
575.37	2386.92
575.72	2387.97
576.08	2389.64
576.43	2390.00
576.78	2390.81
577.13	2392.73
577.49	2393.85
577.84	2395.15
578.19	2396.71
578.54	2397.53
578.90	2398.52
579.25	2398.76
579.60	2398.97
579.95	2398.26
580.30	2398.66
580.66	2397.99
581.01	2396.55
581.36	2394.34
581.71	2393.37
582.06	2392.59
582.42	2391.86
582.77	2390.03
583.12	2388.63
583.47	2387.61
583.82	2387.24
584.17	2386.16
584.53	2384.07
584.88	2382.24
585.23	2380.47
585.58	2378.40
585.93	2376.34
586.28	2374.42
586.63	2372.17
586.98	2370.06
587.34	2368.44
587.69	2366.24
588.04	2364.52
588.39	2363.11
588.74	2360.79
589.09	2358.15
589.44	2355.30
589.79	2353.10
590.14	2351.39
590.49	2348.72
590.84	2345.00
591.19	2342.03
591.54	2338.79
591.89	2334.85
592.25	2331.90
592.60	2327.86
592.95	2323.71
593.30	2319.78
593.65	2315.45
594.00	2311.16
594.35	2308.22
594.70	2303.54
595.05	2299.04
595.40	2293.57
595.75	2288.19
596.10	2284.58
596.45	2279.73
596.80	2275.19
597.15	2270.02
597.50	2264.06
597.85	2259.16
598.19	2253.97
598.54	2248.27
598.89	2243.31
599.24	2239.00
599.59	2232.92
599.94	2227.38
600.29	2221.75
600.64	2215.90
600.99	2209.34
601.34	2203.99
601.69	2197.11
602.04	2190.86
602.39	2184.42
602.74	2178.67
603.08	2173.11
603.43	2166.86
603.78	2160.27
604.13	2153.31
604.48	2146.18
604.83	2140.23
605.18	2134.06
605.53	2127.14
605.87	2120.24
606.22	2113.56
606.57	2105.65
606.92	2097.99
607.27	2091.09
607.62	2084.47
607.96	2077.57
608.31	2071.19
608.66	2063.49
609.01	2056.08
609.36	2049.02
609.70	2041.34
610.05	2033.62
610.40	2025.41
610.75	2017.09
611.10	2009.49
611.44	2000.70
611.79	1992.11
612.14	1982.24
612.49	1971.73
612.83	1962.66
613.18	1953.62
613.53	1944.34
613.88	1934.86
614.22	1926.26
614.57	1916.33
614.92	1905.88
615.27	1895.77
615.61	1885.76
615.96	1876.11
616.31	1866.51
616.65	1857.30
617.00	1847.46
617.35	1837.92
617.70	1828.18
618.04	1818.28
618.39	1808.04
618.74	1798.51
619.08	1788.77
619.43	1780.14
619.78	1771.89
620.12	1763.29
620.47	1753.40
620.82	1743.15
621.16	1733.48
621.51	1723.50
621.85	1713.64
622.20	1703.08
622.55	1692.55
622.89	1682.67
623.24	1673.02
623.59	1663.36
623.93	1653.18
624.28	1643.62
624.62	1633.40
624.97	1623.17
625.32	1613.51
625.66	1604.66
626.01	1595.81
626.35	1586.48
626.70	1576.30
627.04	1566.13
627.39	1555.98
627.73	1546.84
628.08	1537.79
628.43	1528.15
628.77	1518.80
629.12	1510.12
629.46	1502.37
629.81	1493.95
630.15	1484.35
630.50	1474.46
630.84	1463.94
631.19	1454.03
631.53	1444.54
631.88	1434.35
632.22	1424.37
632.57	1414.93
632.91	1404.83
633.26	1395.04
633.60	1385.58
633.95	1376.22
634.29	1366.89
634.64	1357.63
634.98	1347.85
635.32	1338.58
635.67	1330.07
636.01	1320.93
636.36	1311.11
636.70	1301.58
637.05	1292.40
637.39	1283.47
637.73	1274.93
638.08	1267.46
638.42	1259.27
638.77	1250.53
639.11	1242.33
639.45	1234.54
639.80	1225.99
640.14	1217.27
640.49	1208.34
640.83	1199.50
641.17	1191.56
641.52	1183.33
641.86	1174.72
642.20	1166.75
642.55	1158.20
642.89	1149.33
643.23	1140.62
643.58	1132.57
643.92	1123.56
644.26	1114.87
644.61	1106.51
644.95	1097.67
645.29	1088.44
645.64	1079.25
645.98	1070.94
646.32	1063.11
646.66	1054.56
647.01	1046.20
647.35	1038.09
647.69	1029.72
648.04	1021.41
648.38	1012.43
648.72	1003.72
649.06	995.38
649.41	987.22
649.75	979.25
650.09	971.44
650.43	963.51
650.78	955.28
651.12	947.72
651.46	940.37
651.80	933.10
652.14	925.87
652.49	918.39
652.83	911.15
653.17	903.46
653.51	895.82
653.85	888.64
654.20	881.43
654.54	873.96
654.88	866.88
655.22	859.85
655.56	852.94
655.90	846.22
656.25	839.58
656.59	832.70
656.93	825.74
657.27	818.66
657.61	811.84
657.95	805.79
658.29	799.91
658.64	793.68
658.98	787.31
659.32	780.82
659.66	774.67
660.00	768.40
660.34	762.40
660.68	756.37
661.02	750.14
661.36	744.33
661.70	738.65
662.05	733.07
662.39	727.61
662.73	722.37
663.07	717.03
663.41	711.50
663.75	705.88
664.09	700.29
664.43	694.90
664.77	689.44
665.11	683.67
665.45	677.80
665.79	672.15
666.13	666.47
666.47	661.05
666.81	655.62
667.15	650.34
667.49	645.21
667.83	640.02
668.17	634.86
668.51	629.75
668.85	624.92
669.19	620.10
669.53	615.19
669.87	610.10
670.21	605.49
670.55	600.77
670.89	596.40
671.23	592.31
671.57	588.02
671.91	583.92
672.25	579.83
672.58	575.79
672.92	571.76
673.26	567.89
673.60	564.08
673.94	560.34
674.28	556.74
674.62	553.01
674.96	549.35
675.30	545.90
675.64	542.35
675.97	538.75
676.31	535.21
676.65	531.62
676.99	528.25
677.33	524.42
677.67	520.82
678.01	517.03
678.34	513.36
678.68	509.92
679.02	506.36
679.36	502.72
679.70	499.19
680.04	495.74
680.37	492.42
680.71	489.14
681.05	486.02
681.39	482.91
681.73	479.82
682.06	476.83
682.40	473.77
682.74	470.62
683.08	467.48
683.42	464.33
683.75	461.35
684.09	458.39
684.43	455.66
684.77	452.82
685.10	450.02
685.44	447.15
685.78	444.28
686.12	441.57
686.45	438.89
686.79	436.24
687.13	433.75
687.46	431.13
687.80	428.51
688.14	425.75
688.48	423.12
688.81	420.53
689.15	418.03
689.49	415.50
689.82	412.99
690.16	410.41
690.50	408.03
690.83	405.56
691.17	403.06
691.51	400.66
691.84	398.48
692.18	396.37
692.52	394.24
692.85	392.11
693.19	390.02
693.52	387.90
693.86	385.74
694.20	383.63
694.53	381.57
694.87	379.46
695.21	377.45
695.54	375.31
695.88	373.19
696.21	371.03
696.55	368.96
696.88	366.96
697.22	365.09
697.56	363.21
697.89	361.38
698.23	359.73
698.56	358.01
698.90	356.28
699.23	354.40
699.57	352.57
699.90	350.80
700.24	349.06
700.58	347.33
700.91	345.72
701.25	344.19
701.58	342.60
701.92	341.05
702.25	339.42
702.59	337.87
702.92	336.39
703.26	334.88
703.59	333.43
703.93	332.21
704.26	330.85
704.60	329.39
704.93	328.00
705.26	326.51
705.60	325.05
705.93	323.56
706.27	322.26
706.60	321.04
706.94	319.86
707.27	318.47
707.61	317.20
707.94	315.87
708.27	314.38
708.61	312.98
708.94	311.63
709.28	310.39
709.61	309.15
709.94	307.95
710.28	306.78
710.61	305.67
710.95	304.29
711.28	303.22
711.61	302.03
711.95	300.90
712.28	299.71
712.61	298.56
712.95	297.54
713.28	296.53
713.61	295.40
713.95	294.24
714.28	293.25
714.61	292.22
714.95	291.24
715.28	290.25
715.61	289.27
715.95	288.39
716.28	287.43
716.61	286.55
716.95	285.61
717.28	284.68
717.61	283.71
717.94	282.87
718.28	281.84
718.61	281.04
718.94	280.13
719.27	279.30
719.61	278.50
719.94	277.61
720.27	276.69
720.60	275.84
720.94	275.10
721.27	274.34
721.60	273.67
721.93	272.98
722.27	272.37
722.60	271.72
722.93	271.01
723.26	270.37
723.59	269.68
723.93	269.06
724.26	268.43
724.59	267.84
724.92	267.24
725.25	266.76
725.59	266.19
725.92	265.72
726.25	265.18
726.58	264.61
726.91	264.08
727.24	263.56
727.57	262.98
727.91	262.41
728.24	261.88
728.57	261.27
728.90	260.72
729.23	260.12
729.56	259.66
729.89	259.14
730.22	258.61
730.55	258.10
730.89	257.60
731.22	257.11
731.55	256.59
731.88	256.09
732.21	255.53
732.54	254.99
732.87	254.49
733.20	253.99
733.53	253.53
733.86	253.10
734.19	252.61
734.52	252.25
734.85	251.97
735.18	251.51
735.51	251.19
735.84	250.77
736.17	250.39
736.50	249.87
736.83	249.71
737.16	249.34
737.49	248.96
737.82	248.55
738.15	248.18
738.48	247.81
738.81	247.45
739.14	247.06
739.47	246.67
739.80	246.28
740.13	245.97
740.46	245.60
740.79	245.23
741.12	244.88
741.45	244.50
741.78	244.07
742.11	243.79
742.44	243.41
742.77	243.13
743.10	242.81
743.43	242.49
743.75	241.96
744.08	241.87
744.41	241.51
744.74	241.19
745.07	240.84
745.40	240.56
745.73	240.31
746.06	240.02
746.39	239.76
746.71	239.47
747.04	239.10
747.37	238.80
747.70	238.51
748.03	238.24
748.36	237.99
748.68	237.68
749.01	237.37
749.34	237.08
749.67	236.76
750.00	236.48
750.33	236.38
750.65	236.11
750.98	235.62
751.31	235.41
751.64	235.17
751.97	235.08
752.29	234.83
752.62	234.46
752.95	234.19
753.28	233.95
753.60	233.71
753.93	233.58
754.26	233.39
754.59	233.08
754.91	232.84
755.24	232.62
755.57	232.39
755.90	232.14
756.22	231.94
756.55	231.73
756.88	231.44
757.20	231.11
757.53	230.85
757.86	230.64
758.19	230.45
758.51	230.27
758.84	229.91
759.17	229.70
759.49	229.57
759.82	229.49
760.15	229.32
760.47	229.14
760.80	228.88
761.13	228.71
761.45	228.55
761.78	228.39
762.11	228.20
762.43	228.02
762.76	227.86
763.08	227.71
763.41	227.58
763.74	227.49
764.06	227.31
764.39	227.16
764.71	227.01
765.04	226.83
765.37	226.67
765.69	226.55
766.02	226.40
766.34	226.22
766.67	225.98
767.00	225.88
767.32	225.83
767.65	225.83
767.97	225.70
768.30	225.60
768.62	225.46
768.95	225.35
769.27	225.23
769.60	225.14
769.92	224.98
770.25	224.81
770.57	224.64
770.90	224.53
771.22	224.44
771.55	224.37
771.87	224.25
772.20	224.14
772.52	224.19
772.85	224.35
773.17	224.29
773.50	224.19
773.82	224.06
774.15	223.88
774.47	223.64
774.80	223.52
775.12	223.43
775.45	223.33
775.77	223.23
776.09	223.16
776.42	223.08
776.74	223.05
777.07	222.97
777.39	222.90
777.72	222.76
778.04	222.69
778.36	222.56
778.69	222.48
779.01	222.42
779.33	222.15
779.66	221.82
779.98	221.74
780.31	221.70
780.63	221.71
780.95	221.69
781.28	221.64
781.60	221.57
781.92	221.48
782.25	221.42
782.57	221.36
782.89	221.28
783.22	221.16
783.54	221.07
783.86	221.04
784.19	220.93
784.51	220.96
784.83	220.85
785.16	220.79
785.48	220.75
785.80	220.69
786.12	220.68
