SpectraSuite Data File
++++++++++++++++++++++++++++++++++++
Date: Tue Jan 29 16:34:55 EST 2013
User: group
Dark Spectrum Present: No
Reference Spectrum Present: No
Number of Sampled Component Spectra: 1
Spectrometers: USB2E7196
Integration Time (usec): 65000 (USB2E7196)
Spectra Averaged: 100 (USB2E7196)
Boxcar Smoothing: 10 (USB2E7196)
Correct for Electrical Dark: No (USB2E7196)
Strobe/Lamp Enabled: No (USB2E7196)
Correct for Detector Non-linearity: No (USB2E7196)
Correct for Stray Light: No (USB2E7196)
Number of Pixels in Processed Spectrum: 2048
>>>>>Begin Processed Spectral Data<<<<<
339.09	0.00
339.48	201.72
339.86	203.38
340.24	205.23
340.63	206.25
341.01	211.07
341.39	209.24
341.78	210.36
342.16	212.12
342.54	211.60
342.93	201.16
343.31	211.32
343.69	211.89
344.07	212.35
344.46	212.75
344.84	213.16
345.22	213.29
345.60	213.56
345.99	213.77
346.37	213.88
346.75	214.02
347.13	214.08
347.52	214.19
347.90	214.30
348.28	214.34
348.66	214.41
349.05	214.46
349.43	214.54
349.81	214.61
350.19	214.69
350.57	214.75
350.96	214.86
351.34	214.96
351.72	215.05
352.10	215.16
352.48	215.28
352.87	215.33
353.25	215.42
353.63	215.45
354.01	215.49
354.39	215.57
354.77	215.64
355.15	215.77
355.54	215.78
355.92	215.79
356.30	215.86
356.68	216.03
357.06	216.10
357.44	216.13
357.82	216.19
358.20	216.27
358.58	216.34
358.97	216.39
359.35	216.51
359.73	216.61
360.11	216.69
360.49	216.70
360.87	216.73
361.25	216.80
361.63	216.91
362.01	216.99
362.39	217.02
362.77	217.06
363.15	217.09
363.53	217.12
363.91	217.14
364.29	217.16
364.67	216.99
365.05	216.98
365.43	217.01
365.81	217.02
366.19	217.11
366.57	217.19
366.95	217.18
367.33	217.10
367.71	217.09
368.09	217.13
368.47	217.14
368.85	217.14
369.23	217.17
369.61	217.10
369.99	217.14
370.37	217.16
370.75	217.24
371.13	217.18
371.51	217.16
371.89	217.18
372.27	217.18
372.65	217.19
373.03	217.18
373.41	217.13
373.78	217.10
374.16	216.97
374.54	216.85
374.92	216.83
375.30	216.81
375.68	216.74
376.06	216.68
376.44	216.58
376.82	216.54
377.19	216.47
377.57	216.42
377.95	216.32
378.33	216.22
378.71	216.05
379.09	216.02
379.47	215.99
379.84	215.91
380.22	215.86
380.60	215.77
380.98	215.67
381.36	215.64
381.73	215.55
382.11	215.56
382.49	215.54
382.87	215.44
383.25	215.40
383.62	215.59
384.00	215.52
384.38	215.51
384.76	215.54
385.13	215.57
385.51	215.53
385.89	215.46
386.27	215.45
386.64	215.45
387.02	215.41
387.40	215.35
387.78	215.35
388.15	215.35
388.53	215.32
388.91	215.34
389.29	215.30
389.66	215.29
390.04	215.24
390.42	215.26
390.79	215.30
391.17	215.28
391.55	215.04
391.92	215.02
392.30	215.08
392.68	215.02
393.05	215.01
393.43	215.05
393.81	215.05
394.18	215.05
394.56	215.08
394.94	215.13
395.31	215.15
395.69	215.20
396.06	215.23
396.44	215.28
396.82	215.29
397.19	215.41
397.57	215.49
397.95	215.54
398.32	215.50
398.70	215.52
399.07	215.61
399.45	215.64
399.82	215.69
400.20	215.70
400.58	215.75
400.95	215.74
401.33	215.83
401.70	216.06
402.08	216.15
402.45	216.23
402.83	216.35
403.20	216.49
403.58	216.57
403.95	216.70
404.33	216.86
404.71	216.98
405.08	217.26
405.46	217.41
405.83	217.58
406.21	217.77
406.58	218.02
406.96	218.25
407.33	218.50
407.70	218.82
408.08	219.28
408.45	219.63
408.83	220.03
409.20	220.38
409.58	220.65
409.95	221.09
410.33	221.59
410.70	222.03
411.08	222.58
411.45	223.13
411.82	223.74
412.20	224.44
412.57	225.28
412.95	225.82
413.32	226.63
413.69	227.49
414.07	228.38
414.44	229.37
414.82	230.35
415.19	231.54
415.56	232.74
415.94	233.91
416.31	235.35
416.68	236.73
417.06	238.32
417.43	239.88
417.81	241.62
418.18	243.39
418.55	245.31
418.93	247.29
419.30	249.42
419.67	251.62
420.04	253.90
420.42	256.29
420.79	259.14
421.16	261.94
421.54	264.87
421.91	267.89
422.28	271.00
422.66	274.32
423.03	277.61
423.40	280.96
423.77	284.60
424.15	288.25
424.52	292.10
424.89	296.29
425.26	300.36
425.64	304.24
426.01	308.50
426.38	313.00
426.75	317.59
427.13	322.31
427.50	327.35
427.87	332.61
428.24	337.80
428.61	342.82
428.99	348.37
429.36	354.39
429.73	360.25
430.10	366.12
430.47	372.21
430.85	378.50
431.22	385.18
431.59	392.29
431.96	399.08
432.33	406.64
432.70	413.89
433.08	422.46
433.45	430.56
433.82	438.60
434.19	447.50
434.56	456.21
434.93	464.62
435.30	472.88
435.68	481.92
436.05	490.91
436.42	499.79
436.79	507.91
437.16	516.75
437.53	526.07
437.90	535.24
438.27	544.18
438.64	553.40
439.01	561.98
439.38	569.60
439.75	576.98
440.13	585.38
440.50	593.32
440.87	599.70
441.24	606.39
441.61	613.77
441.98	619.20
442.35	625.57
442.72	631.88
443.09	637.93
443.46	641.72
443.83	644.24
444.20	646.47
444.57	649.67
444.94	651.06
445.31	652.52
445.68	653.89
446.05	654.53
446.42	653.80
446.79	652.83
447.16	651.72
447.53	650.97
447.90	647.66
448.27	644.43
448.64	639.75
449.01	636.38
449.37	630.42
449.74	624.69
450.11	617.75
450.48	610.34
450.85	602.83
451.22	596.33
451.59	590.22
451.96	584.33
452.33	576.44
452.70	569.26
453.07	560.77
453.43	552.17
453.80	543.86
454.17	535.82
454.54	528.29
454.91	520.04
455.28	512.04
455.65	504.61
456.02	497.08
456.38	490.80
456.75	482.96
457.12	476.40
457.49	469.89
457.86	463.69
458.23	458.28
458.59	452.39
458.96	446.39
459.33	441.08
459.70	435.75
460.07	431.47
460.43	426.61
460.80	422.00
461.17	417.99
461.54	413.77
461.91	409.79
462.27	405.65
462.64	402.28
463.01	398.46
463.38	394.74
463.74	391.01
464.11	387.73
464.48	384.88
464.85	381.83
465.21	379.39
465.58	376.74
465.95	373.62
466.32	370.97
466.68	368.30
467.05	365.69
467.42	363.10
467.78	360.41
468.15	357.84
468.52	355.98
468.88	353.52
469.25	351.30
469.62	349.44
469.98	347.49
470.35	345.61
470.72	343.91
471.08	342.15
471.45	340.63
471.82	339.13
472.18	337.42
472.55	336.14
472.92	334.72
473.28	333.49
473.65	332.29
474.02	331.18
474.38	330.37
474.75	329.59
475.11	328.78
475.48	328.23
475.85	327.78
476.21	327.26
476.58	326.89
476.94	326.64
477.31	326.36
477.67	326.11
478.04	325.97
478.41	325.89
478.77	326.03
479.14	325.98
479.50	326.15
479.87	326.44
480.23	326.80
480.60	327.05
480.96	327.33
481.33	327.95
481.69	328.53
482.06	329.04
482.42	329.55
482.79	330.12
483.15	330.88
483.52	331.83
483.88	332.71
484.25	333.64
484.61	334.62
484.98	335.66
485.34	336.99
485.71	338.37
486.07	339.86
486.44	341.17
486.80	342.76
487.17	344.41
487.53	346.22
487.90	348.08
488.26	350.13
488.62	352.33
488.99	354.37
489.35	356.52
489.72	358.86
490.08	361.39
490.44	363.98
490.81	366.68
491.17	369.36
491.54	372.32
491.90	375.33
492.26	378.61
492.63	382.00
492.99	385.42
493.36	389.10
493.72	393.00
494.08	397.07
494.45	401.28
494.81	405.65
495.17	410.13
495.54	414.77
495.90	419.62
496.26	424.54
496.63	429.72
496.99	435.17
497.35	440.79
497.72	446.63
498.08	452.58
498.44	458.71
498.80	465.20
499.17	471.77
499.53	478.54
499.89	485.46
500.26	492.50
500.62	499.66
500.98	507.11
501.34	514.58
501.71	522.35
502.07	530.25
502.43	538.27
502.79	546.45
503.16	554.97
503.52	563.56
503.88	572.33
504.24	581.37
504.60	590.40
504.97	599.70
505.33	608.96
505.69	618.82
506.05	628.69
506.41	638.54
506.78	648.61
507.14	658.82
507.50	669.39
507.86	680.14
508.22	690.86
508.59	701.56
508.95	712.62
509.31	723.88
509.67	735.42
510.03	746.88
510.39	758.55
510.75	770.42
511.12	782.38
511.48	794.54
511.84	806.79
512.20	819.15
512.56	831.83
512.92	844.74
513.28	857.51
513.64	870.37
514.00	883.32
514.37	896.41
514.73	909.64
515.09	922.64
515.45	935.53
515.81	948.76
516.17	962.27
516.53	975.63
516.89	988.80
517.25	1002.04
517.61	1015.66
517.97	1029.18
518.33	1042.40
518.69	1056.03
519.05	1069.76
519.41	1083.59
519.77	1097.67
520.13	1111.09
520.49	1124.33
520.85	1137.83
521.21	1151.22
521.57	1165.05
521.93	1178.21
522.29	1192.07
522.65	1205.85
523.01	1219.61
523.37	1232.94
523.73	1246.38
524.09	1259.76
524.45	1273.28
524.81	1286.86
525.17	1300.41
525.53	1313.68
525.89	1327.08
526.25	1340.37
526.61	1353.35
526.97	1366.49
527.33	1379.47
527.68	1392.96
528.04	1406.55
528.40	1419.77
528.76	1433.34
529.12	1446.31
529.48	1459.79
529.84	1472.19
530.20	1485.02
530.56	1497.71
530.91	1511.10
531.27	1524.01
531.63	1536.67
531.99	1549.59
532.35	1561.94
532.71	1574.39
533.07	1587.48
533.42	1599.90
533.78	1612.17
534.14	1624.39
534.50	1635.88
534.86	1647.64
535.21	1658.53
535.57	1670.24
535.93	1681.62
536.29	1692.73
536.65	1704.39
537.00	1715.34
537.36	1726.87
537.72	1737.98
538.08	1749.48
538.44	1760.53
538.79	1771.74
539.15	1782.80
539.51	1793.77
539.87	1805.22
540.22	1816.15
540.58	1827.16
540.94	1838.12
541.29	1848.43
541.65	1858.35
542.01	1868.83
542.37	1878.96
542.72	1889.28
543.08	1898.98
543.44	1909.60
543.79	1919.08
544.15	1928.58
544.51	1938.70
544.87	1948.64
545.22	1957.85
545.58	1966.82
545.94	1975.71
546.29	1984.25
546.65	1992.79
547.01	2000.96
547.36	2008.69
547.72	2016.49
548.07	2024.06
548.43	2031.81
548.79	2039.78
549.14	2048.01
549.50	2056.66
549.86	2064.67
550.21	2072.36
550.57	2080.35
550.92	2087.21
551.28	2094.73
551.64	2102.04
551.99	2109.54
552.35	2116.82
552.70	2123.90
553.06	2130.71
553.41	2137.15
553.77	2143.82
554.13	2150.27
554.48	2157.43
554.84	2164.54
555.19	2171.23
555.55	2177.81
555.90	2184.24
556.26	2191.00
556.61	2197.04
556.97	2201.92
557.32	2207.64
557.68	2213.97
558.03	2219.61
558.39	2224.92
558.74	2230.98
559.10	2236.42
559.45	2242.06
559.81	2247.61
560.16	2253.24
560.52	2259.18
560.87	2265.50
561.23	2271.26
561.58	2277.86
561.94	2283.12
562.29	2287.86
562.64	2293.89
563.00	2299.56
563.35	2305.14
563.71	2311.00
564.06	2316.79
564.42	2322.65
564.77	2327.83
565.12	2333.24
565.48	2338.41
565.83	2344.01
566.19	2349.25
566.54	2354.61
566.89	2359.21
567.25	2363.71
567.60	2369.25
567.96	2374.29
568.31	2378.84
568.66	2383.30
569.02	2387.35
569.37	2390.95
569.72	2395.37
570.08	2398.76
570.43	2401.83
570.78	2404.96
571.14	2407.41
571.49	2410.32
571.84	2413.91
572.20	2416.77
572.55	2419.54
572.90	2421.69
573.26	2424.47
573.61	2427.04
573.96	2429.21
574.31	2431.18
574.67	2433.12
575.02	2433.94
575.37	2435.34
575.72	2435.99
576.08	2437.38
576.43	2437.34
576.78	2437.76
577.13	2439.22
577.49	2440.40
577.84	2441.45
578.19	2442.64
578.54	2443.14
578.90	2443.77
579.25	2443.38
579.60	2443.30
579.95	2442.44
580.30	2442.46
580.66	2441.64
581.01	2439.99
581.36	2437.44
581.71	2436.03
582.06	2434.80
582.42	2433.84
582.77	2431.54
583.12	2429.88
583.47	2428.38
583.82	2427.63
584.17	2426.43
584.53	2424.20
584.88	2422.02
585.23	2420.06
585.58	2417.74
585.93	2415.79
586.28	2413.70
586.63	2411.29
586.98	2408.98
587.34	2407.04
587.69	2404.52
588.04	2402.43
588.39	2400.84
588.74	2398.51
589.09	2395.68
589.44	2392.38
589.79	2389.71
590.14	2387.73
590.49	2384.84
590.84	2380.85
591.19	2377.83
591.54	2374.61
591.89	2370.62
592.25	2367.31
592.60	2362.94
592.95	2358.63
593.30	2354.33
593.65	2349.67
594.00	2345.19
594.35	2342.21
594.70	2337.46
595.05	2333.01
595.40	2327.36
595.75	2321.56
596.10	2317.77
596.45	2312.83
596.80	2308.07
597.15	2302.83
597.50	2296.75
597.85	2291.82
598.19	2286.54
598.54	2280.56
598.89	2275.10
599.24	2270.46
599.59	2264.29
599.94	2258.45
600.29	2252.38
600.64	2246.27
600.99	2239.54
601.34	2233.98
601.69	2226.65
602.04	2220.14
602.39	2213.28
602.74	2207.19
603.08	2201.55
603.43	2194.95
603.78	2188.11
604.13	2181.03
604.48	2173.65
604.83	2167.62
605.18	2161.26
605.53	2154.44
605.87	2147.35
606.22	2140.55
606.57	2132.50
606.92	2124.49
607.27	2117.50
607.62	2110.88
607.96	2103.97
608.31	2097.47
608.66	2089.71
609.01	2082.15
609.36	2075.06
609.70	2067.37
610.05	2059.48
610.40	2051.17
610.75	2042.85
611.10	2035.03
611.44	2026.16
611.79	2017.46
612.14	2007.15
612.49	1996.59
612.83	1986.96
613.18	1977.78
613.53	1968.37
613.88	1958.81
614.22	1950.08
614.57	1940.26
614.92	1929.67
615.27	1919.28
615.61	1909.13
615.96	1899.34
616.31	1889.71
616.65	1880.23
617.00	1870.50
617.35	1860.91
617.70	1851.19
618.04	1841.14
618.39	1831.07
618.74	1821.38
619.08	1811.86
619.43	1803.23
619.78	1794.82
620.12	1786.36
620.47	1776.71
620.82	1766.47
621.16	1756.71
621.51	1746.92
621.85	1736.95
622.20	1726.55
622.55	1716.03
622.89	1706.06
623.24	1696.48
623.59	1686.68
623.93	1676.48
624.28	1666.73
624.62	1656.47
624.97	1646.17
625.32	1636.27
625.66	1627.26
626.01	1618.60
626.35	1609.16
626.70	1599.12
627.04	1589.05
627.39	1578.92
627.73	1569.67
628.08	1560.54
628.43	1550.96
628.77	1541.62
629.12	1532.82
629.46	1525.06
629.81	1516.73
630.15	1507.27
630.50	1497.41
630.84	1486.82
631.19	1476.93
631.53	1467.58
631.88	1457.49
632.22	1447.41
632.57	1438.09
632.91	1427.95
633.26	1417.86
633.60	1408.30
633.95	1399.05
634.29	1389.59
634.64	1380.16
634.98	1370.06
635.32	1360.82
635.67	1352.20
636.01	1342.87
636.36	1333.01
636.70	1323.45
637.05	1314.03
637.39	1305.07
637.73	1296.47
638.08	1289.04
638.42	1280.98
638.77	1272.13
639.11	1263.84
639.45	1256.05
639.80	1247.50
640.14	1238.77
640.49	1229.95
640.83	1221.06
641.17	1212.85
641.52	1204.69
641.86	1196.11
642.20	1188.32
642.55	1179.77
642.89	1170.97
643.23	1162.33
643.58	1154.24
643.92	1145.10
644.26	1136.41
644.61	1127.92
644.95	1119.03
645.29	1109.75
645.64	1100.50
645.98	1091.89
646.32	1084.00
646.66	1075.38
647.01	1067.12
647.35	1058.96
647.69	1050.74
648.04	1042.39
648.38	1033.50
648.72	1024.64
649.06	1016.19
649.41	1007.92
649.75	999.87
650.09	991.91
650.43	983.78
650.78	975.41
651.12	967.77
651.46	960.27
651.80	953.07
652.14	945.75
652.49	938.20
652.83	930.79
653.17	923.16
653.51	915.51
653.85	908.30
654.20	900.97
654.54	893.45
654.88	886.07
655.22	878.84
655.56	871.75
655.90	864.95
656.25	858.27
656.59	851.36
656.93	844.31
657.27	837.13
657.61	830.13
657.95	824.04
658.29	818.02
658.64	811.96
658.98	805.37
659.32	798.77
659.66	792.51
660.00	786.17
660.34	780.03
660.68	773.96
661.02	767.58
661.36	761.55
661.70	755.71
662.05	750.05
662.39	744.55
662.73	739.16
663.07	733.70
663.41	727.99
663.75	722.24
664.09	716.55
664.43	711.10
664.77	705.78
665.11	699.84
665.45	693.88
665.79	687.97
666.13	682.24
666.47	676.66
666.81	671.10
667.15	665.64
667.49	660.39
667.83	654.98
668.17	649.66
668.51	644.46
668.85	639.55
669.19	634.61
669.53	629.51
669.87	624.36
670.21	619.58
670.55	614.83
670.89	610.35
671.23	605.89
671.57	601.42
671.91	597.13
672.25	592.95
672.58	588.80
672.92	584.74
673.26	580.80
673.60	576.92
673.94	573.14
674.28	569.53
674.62	565.79
674.96	562.03
675.30	558.47
675.64	554.77
675.97	551.10
676.31	547.47
676.65	543.83
676.99	540.37
677.33	536.48
677.67	532.80
678.01	528.87
678.34	525.23
678.68	521.72
679.02	518.03
679.36	514.33
679.70	510.66
680.04	506.95
680.37	503.45
680.71	500.12
681.05	496.84
681.39	493.49
681.73	490.26
682.06	487.19
682.40	484.12
682.74	480.90
683.08	477.65
683.42	474.42
683.75	471.38
684.09	468.29
684.43	465.48
684.77	462.52
685.10	459.68
685.44	456.74
685.78	453.79
686.12	450.93
686.45	448.19
686.79	445.45
687.13	442.94
687.46	440.24
687.80	437.45
688.14	434.61
688.48	431.92
688.81	429.20
689.15	426.57
689.49	423.91
689.82	421.32
690.16	418.72
690.50	416.21
690.83	413.68
691.17	411.12
691.51	408.54
691.84	406.22
692.18	403.97
692.52	401.73
692.85	399.54
693.19	397.39
693.52	395.18
693.86	392.96
694.20	390.73
694.53	388.55
694.87	386.40
695.21	384.25
695.54	382.08
695.88	379.86
696.21	377.66
696.55	375.52
696.88	373.43
697.22	371.39
697.56	369.47
697.89	367.57
698.23	365.74
698.56	363.93
698.90	362.14
699.23	360.17
699.57	358.23
699.90	356.33
700.24	354.52
700.58	352.73
700.91	351.04
701.25	349.43
701.58	347.83
701.92	346.18
702.25	344.53
702.59	342.91
702.92	341.35
703.26	339.77
703.59	338.21
703.93	336.93
704.26	335.51
704.60	333.96
704.93	332.43
705.26	330.92
705.60	329.44
705.93	327.87
706.27	326.54
706.60	325.29
706.94	324.04
707.27	322.60
707.61	321.23
707.94	319.83
708.27	318.26
708.61	316.78
708.94	315.42
709.28	314.11
709.61	312.83
709.94	311.63
710.28	310.42
710.61	309.23
710.95	307.77
711.28	306.66
711.61	305.47
711.95	304.39
712.28	303.21
712.61	302.01
712.95	300.99
713.28	299.94
713.61	298.76
713.95	297.60
714.28	296.61
714.61	295.54
714.95	294.54
715.28	293.54
715.61	292.54
715.95	291.56
716.28	290.56
716.61	289.59
716.95	288.60
717.28	287.61
717.61	286.61
717.94	285.68
718.28	284.57
718.61	283.70
718.94	282.76
719.27	281.89
719.61	281.06
719.94	280.17
720.27	279.19
720.60	278.33
720.94	277.48
721.27	276.68
721.60	276.00
721.93	275.27
722.27	274.61
722.60	273.91
722.93	273.17
723.26	272.51
723.59	271.78
723.93	271.11
724.26	270.44
724.59	269.84
724.92	269.23
725.25	268.71
725.59	268.08
725.92	267.51
726.25	266.94
726.58	266.38
726.91	265.79
727.24	265.23
727.57	264.63
727.91	264.04
728.24	263.49
728.57	262.90
728.90	262.35
729.23	261.71
729.56	261.27
729.89	260.71
730.22	260.10
730.55	259.57
730.89	259.04
731.22	258.49
731.55	257.89
731.88	257.37
732.21	256.81
732.54	256.27
732.87	255.76
733.20	255.26
733.53	254.76
733.86	254.30
734.19	253.82
734.52	253.39
734.85	253.10
735.18	252.60
735.51	252.19
735.84	251.74
736.17	251.38
736.50	250.83
736.83	250.69
737.16	250.34
737.49	249.92
737.82	249.49
738.15	249.12
738.48	248.78
738.81	248.38
739.14	247.95
739.47	247.53
739.80	247.13
740.13	246.72
740.46	246.32
740.79	245.89
741.12	245.53
741.45	245.12
741.78	244.64
742.11	244.37
742.44	243.96
742.77	243.68
743.10	243.35
743.43	243.00
743.75	242.42
744.08	242.28
744.41	241.94
744.74	241.61
745.07	241.23
745.40	240.89
745.73	240.65
746.06	240.36
746.39	240.06
746.71	239.69
747.04	239.38
747.37	239.05
747.70	238.79
748.03	238.53
748.36	238.28
748.68	238.00
749.01	237.63
749.34	237.36
749.67	236.98
750.00	236.68
750.33	236.58
750.65	236.33
750.98	235.85
751.31	235.59
751.64	235.32
751.97	235.21
752.29	234.97
752.62	234.61
752.95	234.35
753.28	234.09
753.60	233.87
753.93	233.70
754.26	233.48
754.59	233.19
754.91	232.90
755.24	232.63
755.57	232.36
755.90	232.14
756.22	231.92
756.55	231.67
756.88	231.41
757.20	231.07
757.53	230.82
757.86	230.59
758.19	230.41
758.51	230.22
758.84	229.93
759.17	229.71
759.49	229.54
759.82	229.46
760.15	229.29
760.47	229.10
760.80	228.85
761.13	228.67
761.45	228.50
761.78	228.30
762.11	228.13
762.43	227.95
762.76	227.77
763.08	227.62
763.41	227.50
763.74	227.33
764.06	227.15
764.39	226.97
764.71	226.81
765.04	226.60
765.37	226.43
765.69	226.25
766.02	226.12
766.34	225.96
766.67	225.74
767.00	225.64
767.32	225.62
767.65	225.60
767.97	225.47
768.30	225.33
768.62	225.16
768.95	225.02
769.27	224.91
769.60	224.85
769.92	224.67
770.25	224.51
770.57	224.35
770.90	224.22
771.22	224.09
771.55	223.97
771.87	223.89
772.20	223.79
772.52	223.84
772.85	223.96
773.17	223.87
773.50	223.72
773.82	223.55
774.15	223.37
774.47	223.15
774.80	223.03
775.12	222.95
775.45	222.89
775.77	222.84
776.09	222.76
776.42	222.62
776.74	222.61
777.07	222.52
777.39	222.43
777.72	222.32
778.04	222.29
778.36	222.23
778.69	222.13
779.01	222.05
779.33	221.80
779.66	221.48
779.98	221.37
780.31	221.31
780.63	221.38
780.95	221.32
781.28	221.24
781.60	221.13
781.92	221.03
782.25	220.98
782.57	220.86
782.89	220.79
783.22	220.72
783.54	220.57
783.86	220.53
784.19	220.47
784.51	220.46
784.83	220.34
785.16	220.26
785.48	220.19
785.80	220.12
786.12	220.06
