SpectraSuite Data File
++++++++++++++++++++++++++++++++++++
Date: Tue Jan 29 16:29:54 EST 2013
User: group
Dark Spectrum Present: No
Reference Spectrum Present: No
Number of Sampled Component Spectra: 1
Spectrometers: USB2E7196
Integration Time (usec): 65000 (USB2E7196)
Spectra Averaged: 100 (USB2E7196)
Boxcar Smoothing: 10 (USB2E7196)
Correct for Electrical Dark: No (USB2E7196)
Strobe/Lamp Enabled: No (USB2E7196)
Correct for Detector Non-linearity: No (USB2E7196)
Correct for Stray Light: No (USB2E7196)
Number of Pixels in Processed Spectrum: 2048
>>>>>Begin Processed Spectral Data<<<<<
339.09	0.00
339.48	202.15
339.86	203.54
340.24	204.37
340.63	206.17
341.01	211.51
341.39	208.77
341.78	211.01
342.16	212.27
342.54	211.98
342.93	201.23
343.31	211.38
343.69	211.93
344.07	212.37
344.46	212.84
344.84	213.23
345.22	213.35
345.60	213.63
345.99	213.78
346.37	213.88
346.75	213.97
347.13	214.03
347.52	214.11
347.90	214.22
348.28	214.24
348.66	214.32
349.05	214.25
349.43	214.32
349.81	214.40
350.19	214.48
350.57	214.55
350.96	214.64
351.34	214.74
351.72	214.81
352.10	214.92
352.48	214.97
352.87	215.00
353.25	215.10
353.63	215.16
354.01	215.26
354.39	215.35
354.77	215.47
355.15	215.61
355.54	215.65
355.92	215.66
356.30	215.74
356.68	215.96
357.06	216.06
357.44	216.10
357.82	216.12
358.20	216.18
358.58	216.28
358.97	216.36
359.35	216.45
359.73	216.56
360.11	216.64
360.49	216.71
360.87	216.80
361.25	216.88
361.63	216.98
362.01	217.02
362.39	217.05
362.77	217.11
363.15	217.11
363.53	217.21
363.91	217.23
364.29	217.29
364.67	217.13
365.05	217.19
365.43	217.24
365.81	217.30
366.19	217.41
366.57	217.47
366.95	217.48
367.33	217.45
367.71	217.46
368.09	217.49
368.47	217.52
368.85	217.50
369.23	217.51
369.61	217.46
369.99	217.52
370.37	217.53
370.75	217.60
371.13	217.52
371.51	217.43
371.89	217.45
372.27	217.41
372.65	217.37
373.03	217.35
373.41	217.30
373.78	217.27
374.16	217.13
374.54	217.03
374.92	216.98
375.30	216.93
375.68	216.83
376.06	216.81
376.44	216.74
376.82	216.70
377.19	216.66
377.57	216.62
377.95	216.47
378.33	216.41
378.71	216.25
379.09	216.24
379.47	216.24
379.84	216.18
380.22	216.14
380.60	216.08
380.98	216.03
381.36	215.99
381.73	215.91
382.11	215.90
382.49	215.88
382.87	215.81
383.25	215.80
383.62	216.03
384.00	215.90
384.38	215.89
384.76	215.93
385.13	215.94
385.51	215.89
385.89	215.86
386.27	215.85
386.64	215.83
387.02	215.78
387.40	215.73
387.78	215.67
388.15	215.66
388.53	215.61
388.91	215.58
389.29	215.54
389.66	215.57
390.04	215.52
390.42	215.54
390.79	215.52
391.17	215.48
391.55	215.23
391.92	215.27
392.30	215.26
392.68	215.18
393.05	215.18
393.43	215.20
393.81	215.20
394.18	215.17
394.56	215.20
394.94	215.28
395.31	215.27
395.69	215.39
396.06	215.41
396.44	215.47
396.82	215.44
397.19	215.56
397.57	215.53
397.95	215.61
398.32	215.56
398.70	215.63
399.07	215.74
399.45	215.75
399.82	215.79
400.20	215.81
400.58	215.90
400.95	215.88
401.33	216.00
401.70	216.25
402.08	216.35
402.45	216.45
402.83	216.60
403.20	216.74
403.58	216.80
403.95	216.94
404.33	217.11
404.71	217.30
405.08	217.56
405.46	217.75
405.83	217.95
406.21	218.20
406.58	218.39
406.96	218.62
407.33	218.93
407.70	219.22
408.08	219.69
408.45	220.02
408.83	220.39
409.20	220.70
409.58	220.95
409.95	221.39
410.33	221.85
410.70	222.27
411.08	222.82
411.45	223.37
411.82	223.96
412.20	224.67
412.57	225.48
412.95	226.05
413.32	226.87
413.69	227.66
414.07	228.61
414.44	229.64
414.82	230.66
415.19	231.82
415.56	233.02
415.94	234.21
416.31	235.61
416.68	237.05
417.06	238.66
417.43	240.24
417.81	241.96
418.18	243.73
418.55	245.66
418.93	247.68
419.30	249.81
419.67	252.08
420.04	254.31
420.42	256.71
420.79	259.59
421.16	262.35
421.54	265.28
421.91	268.22
422.28	271.33
422.66	274.59
423.03	277.87
423.40	281.22
423.77	284.81
424.15	288.48
424.52	292.34
424.89	296.51
425.26	300.62
425.64	304.52
426.01	308.79
426.38	313.26
426.75	317.81
427.13	322.53
427.50	327.43
427.87	332.63
428.24	337.76
428.61	342.69
428.99	348.27
429.36	354.24
429.73	360.13
430.10	365.96
430.47	372.07
430.85	378.32
431.22	385.02
431.59	392.10
431.96	398.90
432.33	406.35
432.70	413.57
433.08	422.03
433.45	430.10
433.82	438.20
434.19	447.09
434.56	455.77
434.93	464.10
435.30	472.38
435.68	481.50
436.05	490.52
436.42	499.41
436.79	507.49
437.16	516.22
437.53	525.42
437.90	534.62
438.27	543.54
438.64	552.75
439.01	561.24
439.38	568.78
439.75	576.10
440.13	584.53
440.50	592.46
440.87	598.87
441.24	605.53
441.61	612.81
441.98	618.14
442.35	624.43
442.72	630.70
443.09	636.79
443.46	640.49
443.83	643.04
444.20	645.23
444.57	648.45
444.94	649.93
445.31	651.38
445.68	652.67
446.05	653.20
446.42	652.44
446.79	651.57
447.16	650.56
447.53	649.84
447.90	646.47
448.27	643.18
448.64	638.49
449.01	635.14
449.37	629.23
449.74	623.61
450.11	616.72
450.48	609.41
450.85	601.91
451.22	595.46
451.59	589.29
451.96	583.50
452.33	575.60
452.70	568.55
453.07	560.12
453.43	551.61
453.80	543.43
454.17	535.38
454.54	527.75
454.91	519.56
455.28	511.55
455.65	504.17
456.02	496.70
456.38	490.44
456.75	482.58
457.12	476.04
457.49	469.54
457.86	463.38
458.23	457.98
458.59	452.07
458.96	446.07
459.33	440.76
459.70	435.33
460.07	431.10
460.43	426.13
460.80	421.53
461.17	417.49
461.54	413.28
461.91	409.34
462.27	405.25
462.64	401.84
463.01	398.06
463.38	394.36
463.74	390.70
464.11	387.44
464.48	384.56
464.85	381.43
465.21	378.94
465.58	376.28
465.95	373.13
466.32	370.49
466.68	367.91
467.05	365.30
467.42	362.78
467.78	360.11
468.15	357.64
468.52	355.73
468.88	353.27
469.25	351.04
469.62	349.24
469.98	347.29
470.35	345.48
470.72	343.79
471.08	341.99
471.45	340.46
471.82	338.90
472.18	337.27
472.55	336.09
472.92	334.72
473.28	333.54
473.65	332.38
474.02	331.28
474.38	330.37
474.75	329.61
475.11	328.83
475.48	328.20
475.85	327.72
476.21	327.24
476.58	326.91
476.94	326.68
477.31	326.33
477.67	326.08
478.04	325.93
478.41	325.89
478.77	326.07
479.14	326.02
479.50	326.22
479.87	326.52
480.23	326.84
480.60	327.10
480.96	327.40
481.33	328.06
481.69	328.63
482.06	329.18
482.42	329.69
482.79	330.26
483.15	331.08
483.52	332.00
483.88	332.87
484.25	333.78
484.61	334.80
484.98	335.88
485.34	337.21
485.71	338.57
486.07	340.00
486.44	341.33
486.80	342.94
487.17	344.59
487.53	346.42
487.90	348.31
488.26	350.35
488.62	352.52
488.99	354.52
489.35	356.69
489.72	359.06
490.08	361.60
490.44	364.17
490.81	366.88
491.17	369.62
491.54	372.62
491.90	375.67
492.26	378.93
492.63	382.37
492.99	385.83
493.36	389.52
493.72	393.41
494.08	397.42
494.45	401.66
494.81	405.98
495.17	410.44
495.54	415.18
495.90	419.93
496.26	424.87
496.63	430.09
496.99	435.53
497.35	441.15
497.72	446.96
498.08	452.94
498.44	459.04
498.80	465.50
499.17	472.03
499.53	478.77
499.89	485.71
500.26	492.74
500.62	499.88
500.98	507.30
501.34	514.78
501.71	522.65
502.07	530.51
502.43	538.58
502.79	546.75
503.16	555.11
503.52	563.79
503.88	572.46
504.24	581.49
504.60	590.54
504.97	599.86
505.33	609.22
505.69	619.12
506.05	629.05
506.41	638.91
506.78	649.04
507.14	659.42
507.50	669.86
507.86	680.63
508.22	691.47
508.59	702.27
508.95	713.45
509.31	724.72
509.67	736.23
510.03	747.72
510.39	759.46
510.75	771.46
511.12	783.41
511.48	795.59
511.84	808.00
512.20	820.45
512.56	833.07
512.92	845.97
513.28	858.73
513.64	871.59
514.00	884.48
514.37	897.51
514.73	910.67
515.09	923.79
515.45	936.76
515.81	949.94
516.17	963.40
516.53	976.75
516.89	989.96
517.25	1003.27
517.61	1016.86
517.97	1030.47
518.33	1043.63
518.69	1057.34
519.05	1071.16
519.41	1084.83
519.77	1098.78
520.13	1112.17
520.49	1125.33
520.85	1138.82
521.21	1152.22
521.57	1166.08
521.93	1179.39
522.29	1193.26
522.65	1207.02
523.01	1220.89
523.37	1234.18
523.73	1247.57
524.09	1260.83
524.45	1274.48
524.81	1288.15
525.17	1301.60
525.53	1314.92
525.89	1328.46
526.25	1341.78
526.61	1354.74
526.97	1367.99
527.33	1381.09
527.68	1394.73
528.04	1408.45
528.40	1421.76
528.76	1435.32
529.12	1448.36
529.48	1461.67
529.84	1474.03
530.20	1486.90
530.56	1499.52
530.91	1512.97
531.27	1525.91
531.63	1538.74
531.99	1551.54
532.35	1563.85
532.71	1576.54
533.07	1589.55
533.42	1601.92
533.78	1614.03
534.14	1626.37
534.50	1637.81
534.86	1649.61
535.21	1660.54
535.57	1672.23
535.93	1683.52
536.29	1694.60
536.65	1706.19
537.00	1717.30
537.36	1728.69
537.72	1739.79
538.08	1751.26
538.44	1762.26
538.79	1773.40
539.15	1784.48
539.51	1795.31
539.87	1806.72
540.22	1817.58
540.58	1828.52
540.94	1839.51
541.29	1849.92
541.65	1859.64
542.01	1870.17
542.37	1880.29
542.72	1890.57
543.08	1900.33
543.44	1910.92
543.79	1920.46
544.15	1929.99
544.51	1940.18
544.87	1950.25
545.22	1959.62
545.58	1968.63
545.94	1977.64
546.29	1986.31
546.65	1994.82
547.01	2003.05
547.36	2010.82
547.72	2018.66
548.07	2026.24
548.43	2034.10
548.79	2042.04
549.14	2050.35
549.50	2058.90
549.86	2066.78
550.21	2074.41
550.57	2082.25
550.92	2089.06
551.28	2096.65
551.64	2104.02
551.99	2111.43
552.35	2118.74
552.70	2125.63
553.06	2132.29
553.41	2138.57
553.77	2145.23
554.13	2151.58
554.48	2158.77
554.84	2165.96
555.19	2172.57
555.55	2179.23
555.90	2185.44
556.26	2192.23
556.61	2198.30
556.97	2203.13
557.32	2209.01
557.68	2215.38
558.03	2221.14
558.39	2226.60
558.74	2232.50
559.10	2238.00
559.45	2243.63
559.81	2249.18
560.16	2254.82
560.52	2260.72
560.87	2267.17
561.23	2273.02
561.58	2279.66
561.94	2284.99
562.29	2289.63
562.64	2295.60
563.00	2301.18
563.35	2306.72
563.71	2312.64
564.06	2318.43
564.42	2324.49
564.77	2329.59
565.12	2334.92
565.48	2340.05
565.83	2345.53
566.19	2350.94
566.54	2356.39
566.89	2360.98
567.25	2365.44
567.60	2371.13
567.96	2376.19
568.31	2380.92
568.66	2385.20
569.02	2389.18
569.37	2392.86
569.72	2397.30
570.08	2400.96
570.43	2404.18
570.78	2407.50
571.14	2410.04
571.49	2413.22
571.84	2416.73
572.20	2419.72
572.55	2422.66
572.90	2424.99
573.26	2427.75
573.61	2430.35
573.96	2432.36
574.31	2434.42
574.67	2436.22
575.02	2436.97
575.37	2438.47
575.72	2439.08
576.08	2440.58
576.43	2440.78
576.78	2441.22
577.13	2442.91
577.49	2444.03
577.84	2445.04
578.19	2446.24
578.54	2446.69
578.90	2447.32
579.25	2447.18
579.60	2447.03
579.95	2446.28
580.30	2446.47
580.66	2445.91
581.01	2444.31
581.36	2442.08
581.71	2440.65
582.06	2439.68
582.42	2438.84
582.77	2436.66
583.12	2434.98
583.47	2433.55
583.82	2432.91
584.17	2431.69
584.53	2429.40
584.88	2427.21
585.23	2425.31
585.58	2423.10
585.93	2421.14
586.28	2418.95
586.63	2416.43
586.98	2414.26
587.34	2412.11
587.69	2409.51
588.04	2407.33
588.39	2405.79
588.74	2403.27
589.09	2400.45
589.44	2397.23
589.79	2394.66
590.14	2392.63
590.49	2389.76
590.84	2385.80
591.19	2382.57
591.54	2379.16
591.89	2375.08
592.25	2371.73
592.60	2367.48
592.95	2363.18
593.30	2358.84
593.65	2354.32
594.00	2349.91
594.35	2346.80
594.70	2342.16
595.05	2337.61
595.40	2331.96
595.75	2326.05
596.10	2322.44
596.45	2317.58
596.80	2312.89
597.15	2307.73
597.50	2301.83
597.85	2296.73
598.19	2291.51
598.54	2285.70
598.89	2280.50
599.24	2275.92
599.59	2269.72
599.94	2263.78
600.29	2257.69
600.64	2251.65
600.99	2244.80
601.34	2239.32
601.69	2232.28
602.04	2225.95
602.39	2219.21
602.74	2213.24
603.08	2207.73
603.43	2201.03
603.78	2194.16
604.13	2186.96
604.48	2179.57
604.83	2173.41
605.18	2167.23
605.53	2160.32
605.87	2153.19
606.22	2146.45
606.57	2138.54
606.92	2130.62
607.27	2123.69
607.62	2117.11
607.96	2110.34
608.31	2104.00
608.66	2096.13
609.01	2088.39
609.36	2081.23
609.70	2073.45
610.05	2065.48
610.40	2057.05
610.75	2048.70
611.10	2041.04
611.44	2032.24
611.79	2023.45
612.14	2013.34
612.49	2002.64
612.83	1993.19
613.18	1983.94
613.53	1974.56
613.88	1964.90
614.22	1956.10
614.57	1946.21
614.92	1935.52
615.27	1925.09
615.61	1914.84
615.96	1905.06
616.31	1895.47
616.65	1885.90
617.00	1876.12
617.35	1866.54
617.70	1856.81
618.04	1846.79
618.39	1836.42
618.74	1826.75
619.08	1816.95
619.43	1808.18
619.78	1799.83
620.12	1791.19
620.47	1781.44
620.82	1770.95
621.16	1761.08
621.51	1751.25
621.85	1741.23
622.20	1730.95
622.55	1720.27
622.89	1710.33
623.24	1700.55
623.59	1690.68
623.93	1680.58
624.28	1670.74
624.62	1660.47
624.97	1650.11
625.32	1640.18
625.66	1631.31
626.01	1622.45
626.35	1613.15
626.70	1603.06
627.04	1592.85
627.39	1582.78
627.73	1573.54
628.08	1564.62
628.43	1555.02
628.77	1545.78
629.12	1537.08
629.46	1529.14
629.81	1520.86
630.15	1511.23
630.50	1501.47
630.84	1490.87
631.19	1480.89
631.53	1471.56
631.88	1461.44
632.22	1451.53
632.57	1442.22
632.91	1431.98
633.26	1421.95
633.60	1412.34
633.95	1402.99
634.29	1393.50
634.64	1384.08
634.98	1374.02
635.32	1364.61
635.67	1356.03
636.01	1346.77
636.36	1336.79
636.70	1327.09
637.05	1317.64
637.39	1308.56
637.73	1299.76
638.08	1292.16
638.42	1283.91
638.77	1274.93
639.11	1266.63
639.45	1258.64
639.80	1249.92
640.14	1241.22
640.49	1232.44
640.83	1223.49
641.17	1215.31
641.52	1207.19
641.86	1198.56
642.20	1190.68
642.55	1182.09
642.89	1173.14
643.23	1164.20
643.58	1156.07
643.92	1147.09
644.26	1138.27
644.61	1129.79
644.95	1121.01
645.29	1111.73
645.64	1102.43
645.98	1093.97
646.32	1085.92
646.66	1077.30
647.01	1069.00
647.35	1060.78
647.69	1052.29
648.04	1043.91
648.38	1034.94
648.72	1025.99
649.06	1017.42
649.41	1009.10
649.75	1001.05
650.09	993.14
650.43	985.11
650.78	976.76
651.12	969.00
651.46	961.50
651.80	954.21
652.14	946.80
652.49	939.28
652.83	931.96
653.17	924.20
653.51	916.54
653.85	909.29
654.20	901.88
654.54	894.28
654.88	887.05
655.22	879.80
655.56	872.68
655.90	865.85
656.25	859.15
656.59	852.21
656.93	845.05
657.27	837.83
657.61	830.86
657.95	824.58
658.29	818.63
658.64	812.53
658.98	806.08
659.32	799.46
659.66	793.14
660.00	786.76
660.34	780.65
660.68	774.46
661.02	768.06
661.36	762.04
661.70	756.21
662.05	750.51
662.39	745.04
662.73	739.59
663.07	734.19
663.41	728.47
663.75	722.73
664.09	717.04
664.43	711.62
664.77	706.23
665.11	700.38
665.45	694.38
665.79	688.49
666.13	682.67
666.47	677.11
666.81	671.57
667.15	666.13
667.49	660.84
667.83	655.49
668.17	650.15
668.51	645.03
668.85	640.00
669.19	635.01
669.53	629.90
669.87	624.82
670.21	620.02
670.55	615.21
670.89	610.64
671.23	606.30
671.57	601.87
671.91	597.46
672.25	593.31
672.58	589.09
672.92	584.98
673.26	581.07
673.60	577.16
673.94	573.32
674.28	569.63
674.62	565.86
674.96	562.09
675.30	558.58
675.64	554.86
675.97	551.28
676.31	547.62
676.65	544.00
676.99	540.55
677.33	536.62
677.67	533.00
678.01	529.11
678.34	525.37
678.68	521.76
679.02	518.11
679.36	514.37
679.70	510.68
680.04	507.08
680.37	503.52
680.71	500.09
681.05	496.85
681.39	493.55
681.73	490.30
682.06	487.26
682.40	484.13
682.74	480.90
683.08	477.62
683.42	474.43
683.75	471.38
684.09	468.32
684.43	465.48
684.77	462.47
685.10	459.61
685.44	456.69
685.78	453.75
686.12	450.97
686.45	448.20
686.79	445.49
687.13	442.94
687.46	440.30
687.80	437.60
688.14	434.72
688.48	432.07
688.81	429.39
689.15	426.74
689.49	424.08
689.82	421.48
690.16	418.88
690.50	416.37
690.83	413.83
691.17	411.20
691.51	408.70
691.84	406.41
692.18	404.14
692.52	401.88
692.85	399.67
693.19	397.46
693.52	395.26
693.86	392.99
694.20	390.72
694.53	388.51
694.87	386.28
695.21	384.15
695.54	381.93
695.88	379.70
696.21	377.49
696.55	375.35
696.88	373.29
697.22	371.27
697.56	369.36
697.89	367.38
698.23	365.56
698.56	363.71
698.90	361.96
699.23	360.02
699.57	358.13
699.90	356.22
700.24	354.38
700.58	352.63
700.91	350.97
701.25	349.40
701.58	347.71
701.92	346.11
702.25	344.52
702.59	342.92
702.92	341.44
703.26	339.84
703.59	338.36
703.93	337.07
704.26	335.61
704.60	334.07
704.93	332.58
705.26	331.09
705.60	329.58
705.93	328.03
706.27	326.72
706.60	325.41
706.94	324.19
707.27	322.76
707.61	321.38
707.94	319.99
708.27	318.47
708.61	317.03
708.94	315.62
709.28	314.27
709.61	312.97
709.94	311.72
710.28	310.50
710.61	309.26
710.95	307.80
711.28	306.72
711.61	305.53
711.95	304.40
712.28	303.14
712.61	301.95
712.95	300.86
713.28	299.76
713.61	298.61
713.95	297.47
714.28	296.47
714.61	295.40
714.95	294.37
715.28	293.32
715.61	292.33
715.95	291.38
716.28	290.42
716.61	289.44
716.95	288.40
717.28	287.46
717.61	286.49
717.94	285.59
718.28	284.53
718.61	283.64
718.94	282.71
719.27	281.86
719.61	281.09
719.94	280.18
720.27	279.25
720.60	278.39
720.94	277.53
721.27	276.78
721.60	276.11
721.93	275.36
722.27	274.72
722.60	274.04
722.93	273.33
723.26	272.61
723.59	271.92
723.93	271.29
724.26	270.64
724.59	269.97
724.92	269.38
725.25	268.84
725.59	268.22
725.92	267.70
726.25	267.09
726.58	266.48
726.91	265.87
727.24	265.33
727.57	264.76
727.91	264.15
728.24	263.58
728.57	262.95
728.90	262.38
729.23	261.80
729.56	261.34
729.89	260.76
730.22	260.22
730.55	259.65
730.89	259.10
731.22	258.54
731.55	258.02
731.88	257.45
732.21	256.85
732.54	256.30
732.87	255.76
733.20	255.26
733.53	254.77
733.86	254.34
734.19	253.82
734.52	253.39
734.85	253.11
735.18	252.62
735.51	252.22
735.84	251.82
736.17	251.42
736.50	250.88
736.83	250.73
737.16	250.33
737.49	249.96
737.82	249.55
738.15	249.21
738.48	248.86
738.81	248.49
739.14	248.10
739.47	247.70
739.80	247.28
740.13	246.98
740.46	246.58
740.79	246.15
741.12	245.80
741.45	245.40
741.78	244.94
742.11	244.64
742.44	244.23
742.77	243.90
743.10	243.52
743.43	243.17
743.75	242.57
744.08	242.49
744.41	242.13
744.74	241.79
745.07	241.38
745.40	241.07
745.73	240.80
746.06	240.47
746.39	240.20
746.71	239.88
747.04	239.50
747.37	239.18
747.70	238.88
748.03	238.58
748.36	238.31
748.68	237.95
749.01	237.62
749.34	237.33
749.67	237.04
750.00	236.76
750.33	236.61
750.65	236.37
750.98	235.85
751.31	235.58
751.64	235.33
751.97	235.19
752.29	234.91
752.62	234.57
752.95	234.34
753.28	234.07
753.60	233.84
753.93	233.69
754.26	233.52
754.59	233.24
754.91	233.00
755.24	232.76
755.57	232.57
755.90	232.34
756.22	232.12
756.55	231.87
756.88	231.62
757.20	231.26
757.53	230.99
757.86	230.76
758.19	230.59
758.51	230.36
758.84	230.05
759.17	229.83
759.49	229.66
759.82	229.58
760.15	229.42
760.47	229.23
760.80	228.94
761.13	228.74
761.45	228.59
761.78	228.41
762.11	228.23
762.43	228.04
762.76	227.86
763.08	227.71
763.41	227.55
763.74	227.41
764.06	227.27
764.39	227.12
764.71	226.95
765.04	226.76
765.37	226.62
765.69	226.45
766.02	226.28
766.34	226.14
766.67	225.94
767.00	225.81
767.32	225.79
767.65	225.82
767.97	225.65
768.30	225.55
768.62	225.39
768.95	225.22
769.27	225.10
769.60	225.00
769.92	224.87
770.25	224.70
770.57	224.56
770.90	224.45
771.22	224.29
771.55	224.18
771.87	224.09
772.20	223.98
772.52	224.05
772.85	224.24
773.17	224.12
773.50	223.98
773.82	223.87
774.15	223.66
774.47	223.42
774.80	223.33
775.12	223.22
775.45	223.15
775.77	223.07
776.09	222.97
776.42	222.87
776.74	222.81
777.07	222.77
777.39	222.70
777.72	222.59
778.04	222.60
778.36	222.55
778.69	222.46
779.01	222.39
779.33	222.13
779.66	221.77
779.98	221.65
780.31	221.58
780.63	221.59
780.95	221.52
781.28	221.46
781.60	221.35
781.92	221.27
782.25	221.23
782.57	221.16
782.89	221.06
783.22	220.97
783.54	220.83
783.86	220.74
784.19	220.65
784.51	220.68
784.83	220.56
785.16	220.50
785.48	220.46
785.80	220.40
786.12	220.35
