SpectraSuite Data File
++++++++++++++++++++++++++++++++++++
Date: Tue Jan 29 16:41:37 EST 2013
User: group
Dark Spectrum Present: No
Reference Spectrum Present: No
Number of Sampled Component Spectra: 1
Spectrometers: USB2E7196
Integration Time (usec): 65000 (USB2E7196)
Spectra Averaged: 100 (USB2E7196)
Boxcar Smoothing: 10 (USB2E7196)
Correct for Electrical Dark: No (USB2E7196)
Strobe/Lamp Enabled: No (USB2E7196)
Correct for Detector Non-linearity: No (USB2E7196)
Correct for Stray Light: No (USB2E7196)
Number of Pixels in Processed Spectrum: 2048
>>>>>Begin Processed Spectral Data<<<<<
339.09	0.00
339.48	201.73
339.86	202.85
340.24	204.31
340.63	205.96
341.01	210.53
341.39	208.94
341.78	210.88
342.16	211.74
342.54	212.10
342.93	201.22
343.31	211.39
343.69	211.94
344.07	212.45
344.46	212.90
344.84	213.30
345.22	213.47
345.60	213.74
345.99	213.92
346.37	214.08
346.75	214.18
347.13	214.27
347.52	214.31
347.90	214.41
348.28	214.49
348.66	214.57
349.05	214.53
349.43	214.55
349.81	214.58
350.19	214.66
350.57	214.73
350.96	214.79
351.34	214.88
351.72	214.96
352.10	215.07
352.48	215.14
352.87	215.21
353.25	215.29
353.63	215.35
354.01	215.40
354.39	215.47
354.77	215.55
355.15	215.64
355.54	215.68
355.92	215.67
356.30	215.73
356.68	215.90
357.06	215.98
357.44	216.05
357.82	216.08
358.20	216.13
358.58	216.19
358.97	216.27
359.35	216.37
359.73	216.47
360.11	216.47
360.49	216.54
360.87	216.57
361.25	216.66
361.63	216.77
362.01	216.84
362.39	216.84
362.77	216.86
363.15	216.87
363.53	216.94
363.91	216.96
364.29	216.97
364.67	216.80
365.05	216.82
365.43	216.86
365.81	216.92
366.19	217.03
366.57	217.11
366.95	217.12
367.33	217.07
367.71	217.08
368.09	217.11
368.47	217.11
368.85	217.12
369.23	217.11
369.61	217.03
369.99	217.05
370.37	217.06
370.75	217.18
371.13	217.13
371.51	217.05
371.89	217.05
372.27	217.06
372.65	217.05
373.03	217.03
373.41	216.98
373.78	216.92
374.16	216.78
374.54	216.67
374.92	216.60
375.30	216.55
375.68	216.46
376.06	216.46
376.44	216.41
376.82	216.37
377.19	216.30
377.57	216.23
377.95	216.15
378.33	216.10
378.71	215.95
379.09	215.97
379.47	215.96
379.84	215.93
380.22	215.87
380.60	215.81
380.98	215.74
381.36	215.71
381.73	215.66
382.11	215.65
382.49	215.62
382.87	215.54
383.25	215.53
383.62	215.75
384.00	215.67
384.38	215.65
384.76	215.67
385.13	215.73
385.51	215.73
385.89	215.65
386.27	215.63
386.64	215.64
387.02	215.58
387.40	215.52
387.78	215.48
388.15	215.45
388.53	215.41
388.91	215.38
389.29	215.36
389.66	215.34
390.04	215.31
390.42	215.35
390.79	215.38
391.17	215.35
391.55	215.10
391.92	215.07
392.30	215.08
392.68	215.03
393.05	214.98
393.43	214.97
393.81	215.01
394.18	214.96
394.56	214.92
394.94	214.99
395.31	215.02
395.69	215.07
396.06	215.12
396.44	215.15
396.82	215.18
397.19	215.30
397.57	215.32
397.95	215.37
398.32	215.31
398.70	215.34
399.07	215.40
399.45	215.46
399.82	215.51
400.20	215.57
400.58	215.59
400.95	215.60
401.33	215.70
401.70	215.91
402.08	216.00
402.45	216.12
402.83	216.24
403.20	216.33
403.58	216.43
403.95	216.59
404.33	216.75
404.71	216.88
405.08	217.12
405.46	217.33
405.83	217.54
406.21	217.79
406.58	218.01
406.96	218.25
407.33	218.52
407.70	218.87
408.08	219.31
408.45	219.69
408.83	220.05
409.20	220.43
409.58	220.69
409.95	221.19
410.33	221.67
410.70	222.06
411.08	222.59
411.45	223.12
411.82	223.67
412.20	224.37
412.57	225.18
412.95	225.75
413.32	226.55
413.69	227.36
414.07	228.29
414.44	229.29
414.82	230.31
415.19	231.52
415.56	232.68
415.94	233.89
416.31	235.32
416.68	236.73
417.06	238.34
417.43	239.89
417.81	241.66
418.18	243.47
418.55	245.45
418.93	247.51
419.30	249.64
419.67	251.91
420.04	254.22
420.42	256.61
420.79	259.48
421.16	262.30
421.54	265.26
421.91	268.25
422.28	271.36
422.66	274.63
423.03	277.86
423.40	281.25
423.77	284.84
424.15	288.52
424.52	292.40
424.89	296.58
425.26	300.70
425.64	304.58
426.01	308.86
426.38	313.36
426.75	317.93
427.13	322.68
427.50	327.63
427.87	332.82
428.24	338.02
428.61	343.01
428.99	348.55
429.36	354.54
429.73	360.46
430.10	366.32
430.47	372.50
430.85	378.87
431.22	385.58
431.59	392.72
431.96	399.56
432.33	407.07
432.70	414.33
433.08	422.88
433.45	430.91
433.82	438.95
434.19	447.85
434.56	456.58
434.93	464.94
435.30	473.32
435.68	482.47
436.05	491.52
436.42	500.43
436.79	508.65
437.16	517.46
437.53	526.82
437.90	536.08
438.27	545.06
438.64	554.27
439.01	562.85
439.38	570.51
439.75	577.86
440.13	586.29
440.50	594.34
440.87	600.79
441.24	607.53
441.61	614.89
441.98	620.35
442.35	626.73
442.72	633.12
443.09	639.16
443.46	642.90
443.83	645.40
444.20	647.65
444.57	650.77
444.94	652.28
445.31	653.73
445.68	655.09
446.05	655.67
446.42	654.95
446.79	654.06
447.16	652.87
447.53	652.12
447.90	648.86
448.27	645.51
448.64	640.81
449.01	637.45
449.37	631.56
449.74	625.85
450.11	618.92
450.48	611.49
450.85	604.01
451.22	597.55
451.59	591.44
451.96	585.62
452.33	577.73
452.70	570.59
453.07	561.99
453.43	553.35
453.80	545.01
454.17	536.94
454.54	529.33
454.91	521.16
455.28	513.17
455.65	505.70
456.02	498.17
456.38	491.82
456.75	483.94
457.12	477.31
457.49	470.73
457.86	464.47
458.23	459.06
458.59	453.11
458.96	447.07
459.33	441.68
459.70	436.26
460.07	431.93
460.43	426.99
460.80	422.36
461.17	418.34
461.54	414.17
461.91	410.16
462.27	406.02
462.64	402.59
463.01	398.78
463.38	395.04
463.74	391.31
464.11	388.10
464.48	385.27
464.85	382.25
465.21	379.83
465.58	377.23
465.95	374.10
466.32	371.49
466.68	368.87
467.05	366.31
467.42	363.76
467.78	361.14
468.15	358.57
468.52	356.70
468.88	354.18
469.25	351.90
469.62	350.08
469.98	348.10
470.35	346.25
470.72	344.52
471.08	342.75
471.45	341.23
471.82	339.64
472.18	337.89
472.55	336.63
472.92	335.21
473.28	333.97
473.65	332.81
474.02	331.69
474.38	330.81
474.75	330.06
475.11	329.24
475.48	328.62
475.85	328.14
476.21	327.64
476.58	327.25
476.94	327.07
477.31	326.76
477.67	326.47
478.04	326.33
478.41	326.28
478.77	326.42
479.14	326.40
479.50	326.57
479.87	326.87
480.23	327.17
480.60	327.39
480.96	327.64
481.33	328.25
481.69	328.79
482.06	329.31
482.42	329.76
482.79	330.32
483.15	331.10
483.52	332.07
483.88	332.91
484.25	333.90
484.61	334.90
484.98	335.93
485.34	337.28
485.71	338.64
486.07	340.08
486.44	341.41
486.80	343.02
487.17	344.68
487.53	346.53
487.90	348.41
488.26	350.45
488.62	352.63
488.99	354.66
489.35	356.81
489.72	359.21
490.08	361.78
490.44	364.32
490.81	367.00
491.17	369.67
491.54	372.72
491.90	375.75
492.26	378.99
492.63	382.40
492.99	385.89
493.36	389.55
493.72	393.42
494.08	397.44
494.45	401.64
494.81	406.00
495.17	410.46
495.54	415.16
495.90	420.03
496.26	424.98
496.63	430.19
496.99	435.61
497.35	441.15
497.72	446.96
498.08	452.89
498.44	459.04
498.80	465.50
499.17	471.94
499.53	478.67
499.89	485.62
500.26	492.61
500.62	499.66
500.98	507.05
501.34	514.51
501.71	522.28
502.07	530.08
502.43	538.11
502.79	546.25
503.16	554.68
503.52	563.17
503.88	571.92
504.24	580.84
504.60	589.97
504.97	599.25
505.33	608.54
505.69	618.42
506.05	628.32
506.41	638.22
506.78	648.33
507.14	658.61
507.50	669.01
507.86	679.72
508.22	690.57
508.59	701.22
508.95	712.34
509.31	723.62
509.67	735.08
510.03	746.44
510.39	758.27
510.75	770.12
511.12	782.10
511.48	794.17
511.84	806.45
512.20	818.79
512.56	831.47
512.92	844.41
513.28	857.12
513.64	869.87
514.00	882.70
514.37	895.79
514.73	908.93
515.09	921.99
515.45	935.03
515.81	948.15
516.17	961.82
516.53	975.02
516.89	988.13
517.25	1001.49
517.61	1015.19
517.97	1028.61
518.33	1041.80
518.69	1055.47
519.05	1069.39
519.41	1083.07
519.77	1097.05
520.13	1110.31
520.49	1123.41
520.85	1136.83
521.21	1150.37
521.57	1164.14
521.93	1177.19
522.29	1190.98
522.65	1204.66
523.01	1218.33
523.37	1231.53
523.73	1244.83
524.09	1258.17
524.45	1271.76
524.81	1285.18
525.17	1298.54
525.53	1311.67
525.89	1325.17
526.25	1338.32
526.61	1351.07
526.97	1364.38
527.33	1377.34
527.68	1390.96
528.04	1404.53
528.40	1417.74
528.76	1431.06
529.12	1444.00
529.48	1457.47
529.84	1469.75
530.20	1482.60
530.56	1495.25
530.91	1508.66
531.27	1521.49
531.63	1534.27
531.99	1547.08
532.35	1559.49
532.71	1571.97
533.07	1585.11
533.42	1597.45
533.78	1609.66
534.14	1621.87
534.50	1633.17
534.86	1644.93
535.21	1655.89
535.57	1667.52
535.93	1678.89
536.29	1690.07
536.65	1701.75
537.00	1712.83
537.36	1724.33
537.72	1735.44
538.08	1746.84
538.44	1757.91
538.79	1769.21
539.15	1780.27
539.51	1791.14
539.87	1802.55
540.22	1813.55
540.58	1824.51
540.94	1835.49
541.29	1845.94
541.65	1855.79
542.01	1866.38
542.37	1876.54
542.72	1886.76
543.08	1896.64
543.44	1907.18
543.79	1916.73
544.15	1926.06
544.51	1936.04
544.87	1946.23
545.22	1955.64
545.58	1964.76
545.94	1973.79
546.29	1982.30
546.65	1990.77
547.01	1998.98
547.36	2006.78
547.72	2014.57
548.07	2022.22
548.43	2030.05
548.79	2038.07
549.14	2046.40
549.50	2055.04
549.86	2062.95
550.21	2070.49
550.57	2078.25
550.92	2085.19
551.28	2092.70
551.64	2100.18
551.99	2107.83
552.35	2114.98
552.70	2121.90
553.06	2128.52
553.41	2134.75
553.77	2141.34
554.13	2147.66
554.48	2154.83
554.84	2161.99
555.19	2168.63
555.55	2175.17
555.90	2181.48
556.26	2188.24
556.61	2194.35
556.97	2199.09
557.32	2204.82
557.68	2211.27
558.03	2217.11
558.39	2222.47
558.74	2228.29
559.10	2233.86
559.45	2239.31
559.81	2244.73
560.16	2250.21
560.52	2256.09
560.87	2262.45
561.23	2268.28
561.58	2275.03
561.94	2280.15
562.29	2284.75
562.64	2290.87
563.00	2296.50
563.35	2301.96
563.71	2307.71
564.06	2313.42
564.42	2319.38
564.77	2324.45
565.12	2329.67
565.48	2334.70
565.83	2340.25
566.19	2345.61
566.54	2350.87
566.89	2355.51
567.25	2360.02
567.60	2365.57
567.96	2370.63
568.31	2375.13
568.66	2379.42
569.02	2383.29
569.37	2387.25
569.72	2391.64
570.08	2395.03
570.43	2397.96
570.78	2401.01
571.14	2403.40
571.49	2406.34
571.84	2409.74
572.20	2412.65
572.55	2415.59
572.90	2417.68
573.26	2420.34
573.61	2422.79
573.96	2424.80
574.31	2426.79
574.67	2428.54
575.02	2429.32
575.37	2430.65
575.72	2431.30
576.08	2432.82
576.43	2432.88
576.78	2433.06
577.13	2434.51
577.49	2435.62
577.84	2436.74
578.19	2438.00
578.54	2438.51
578.90	2439.07
579.25	2438.91
579.60	2438.57
579.95	2437.67
580.30	2437.71
580.66	2436.89
581.01	2435.27
581.36	2432.84
581.71	2431.23
582.06	2430.08
582.42	2429.10
582.77	2426.85
583.12	2425.06
583.47	2423.41
583.82	2422.73
584.17	2421.41
584.53	2419.15
584.88	2416.83
585.23	2414.79
585.58	2412.34
585.93	2410.19
586.28	2407.95
586.63	2405.38
586.98	2403.14
587.34	2401.08
587.69	2398.56
588.04	2396.40
588.39	2394.70
588.74	2392.18
589.09	2389.34
589.44	2386.08
589.79	2383.42
590.14	2381.26
590.49	2378.32
590.84	2374.38
591.19	2371.01
591.54	2367.63
591.89	2363.58
592.25	2360.16
592.60	2355.74
592.95	2351.47
593.30	2347.13
593.65	2342.68
594.00	2338.14
594.35	2335.00
594.70	2330.21
595.05	2325.47
595.40	2319.82
595.75	2313.97
596.10	2310.13
596.45	2305.14
596.80	2300.39
597.15	2295.12
597.50	2289.12
597.85	2284.02
598.19	2278.79
598.54	2272.98
598.89	2267.67
599.24	2262.92
599.59	2256.59
599.94	2250.70
600.29	2244.75
600.64	2238.81
600.99	2231.91
601.34	2226.46
601.69	2219.44
602.04	2212.97
602.39	2206.39
602.74	2200.23
603.08	2194.64
603.43	2188.19
603.78	2181.46
604.13	2174.35
604.48	2167.14
604.83	2161.12
605.18	2154.95
605.53	2147.76
605.87	2140.59
606.22	2133.72
606.57	2125.80
606.92	2117.97
607.27	2111.03
607.62	2104.42
607.96	2097.33
608.31	2090.90
608.66	2083.02
609.01	2075.36
609.36	2068.22
609.70	2060.53
610.05	2052.87
610.40	2044.61
610.75	2036.16
611.10	2028.28
611.44	2019.32
611.79	2010.53
612.14	2000.45
612.49	1989.83
612.83	1980.61
613.18	1971.55
613.53	1962.15
613.88	1952.59
614.22	1943.82
614.57	1933.88
614.92	1923.06
615.27	1912.77
615.61	1902.61
615.96	1892.91
616.31	1883.37
616.65	1873.92
617.00	1864.06
617.35	1854.15
617.70	1844.47
618.04	1834.47
618.39	1824.35
618.74	1814.73
619.08	1805.03
619.43	1796.27
619.78	1788.04
620.12	1779.42
620.47	1769.68
620.82	1759.42
621.16	1749.61
621.51	1739.95
621.85	1730.13
622.20	1720.02
622.55	1709.64
622.89	1699.61
623.24	1689.92
623.59	1680.11
623.93	1669.94
624.28	1660.17
624.62	1650.28
624.97	1639.95
625.32	1630.11
625.66	1621.31
626.01	1612.66
626.35	1603.37
626.70	1593.36
627.04	1583.24
627.39	1573.08
627.73	1563.88
628.08	1555.05
628.43	1545.40
628.77	1536.10
629.12	1527.33
629.46	1519.40
629.81	1511.15
630.15	1501.74
630.50	1491.94
630.84	1481.52
631.19	1471.72
631.53	1462.52
631.88	1452.43
632.22	1442.51
632.57	1433.27
632.91	1423.12
633.26	1413.24
633.60	1403.75
633.95	1394.57
634.29	1385.10
634.64	1375.98
634.98	1366.02
635.32	1356.72
635.67	1348.42
636.01	1339.25
636.36	1329.56
636.70	1320.14
637.05	1310.80
637.39	1301.99
637.73	1293.42
638.08	1285.87
638.42	1277.83
638.77	1269.14
639.11	1260.86
639.45	1253.02
639.80	1244.61
640.14	1235.96
640.49	1227.07
640.83	1218.21
641.17	1210.11
641.52	1202.05
641.86	1193.36
642.20	1185.58
642.55	1177.08
642.89	1168.24
643.23	1159.57
643.58	1151.41
643.92	1142.28
644.26	1133.52
644.61	1125.00
644.95	1116.25
645.29	1107.06
645.64	1097.84
645.98	1089.33
646.32	1081.52
646.66	1073.04
647.01	1064.60
647.35	1056.50
647.69	1048.37
648.04	1040.08
648.38	1031.25
648.72	1022.44
649.06	1014.06
649.41	1005.82
649.75	997.81
650.09	989.87
650.43	981.87
650.78	973.57
651.12	965.91
651.46	958.50
651.80	951.28
652.14	943.99
652.49	936.47
652.83	929.15
653.17	921.37
653.51	913.62
653.85	906.37
654.20	899.15
654.54	891.62
654.88	884.34
655.22	877.11
655.56	870.01
655.90	863.25
656.25	856.56
656.59	849.69
656.93	842.73
657.27	835.59
657.61	828.59
657.95	822.45
658.29	816.60
658.64	810.46
658.98	803.96
659.32	797.38
659.66	791.14
660.00	784.83
660.34	778.74
660.68	772.67
661.02	766.31
661.36	760.33
661.70	754.55
662.05	748.89
662.39	743.39
662.73	738.03
663.07	732.59
663.41	726.93
663.75	721.21
664.09	715.42
664.43	710.06
664.77	704.76
665.11	698.94
665.45	692.97
665.79	687.12
666.13	681.44
666.47	675.93
666.81	670.48
667.15	665.02
667.49	659.85
667.83	654.59
668.17	649.35
668.51	644.22
668.85	639.23
669.19	634.28
669.53	629.25
669.87	624.03
670.21	619.26
670.55	614.59
670.89	610.10
671.23	605.80
671.57	601.35
671.91	596.91
672.25	592.78
672.58	588.58
672.92	584.49
673.26	580.54
673.60	576.65
673.94	572.74
674.28	569.18
674.62	565.45
674.96	561.65
675.30	558.11
675.64	554.37
675.97	550.80
676.31	547.12
676.65	543.48
676.99	540.13
677.33	536.25
677.67	532.54
678.01	528.60
678.34	524.91
678.68	521.34
679.02	517.75
679.36	513.97
679.70	510.34
680.04	506.74
680.37	503.24
680.71	499.83
681.05	496.63
681.39	493.28
681.73	489.98
682.06	486.97
682.40	483.84
682.74	480.65
683.08	477.37
683.42	474.15
683.75	471.12
684.09	467.95
684.43	465.15
684.77	462.18
685.10	459.33
685.44	456.41
685.78	453.48
686.12	450.67
686.45	447.96
686.79	445.27
687.13	442.75
687.46	440.07
687.80	437.41
688.14	434.56
688.48	431.90
688.81	429.24
689.15	426.59
689.49	423.93
689.82	421.40
690.16	418.78
690.50	416.31
690.83	413.79
691.17	411.26
691.51	408.76
691.84	406.49
692.18	404.27
692.52	401.95
692.85	399.78
693.19	397.60
693.52	395.39
693.86	393.10
694.20	390.86
694.53	388.70
694.87	386.50
695.21	384.37
695.54	382.14
695.88	379.95
696.21	377.73
696.55	375.59
696.88	373.48
697.22	371.47
697.56	369.55
697.89	367.66
698.23	365.87
698.56	364.04
698.90	362.23
699.23	360.26
699.57	358.39
699.90	356.50
700.24	354.64
700.58	352.83
700.91	351.19
701.25	349.60
701.58	347.95
701.92	346.34
702.25	344.74
702.59	343.07
702.92	341.53
703.26	339.91
703.59	338.33
703.93	337.03
704.26	335.59
704.60	334.07
704.93	332.55
705.26	331.07
705.60	329.58
705.93	328.05
706.27	326.72
706.60	325.47
706.94	324.23
707.27	322.87
707.61	321.50
707.94	320.12
708.27	318.54
708.61	317.06
708.94	315.62
709.28	314.24
709.61	312.99
709.94	311.75
710.28	310.57
710.61	309.44
710.95	307.97
711.28	306.89
711.61	305.68
711.95	304.52
712.28	303.24
712.61	302.03
712.95	300.94
713.28	299.86
713.61	298.63
713.95	297.42
714.28	296.35
714.61	295.30
714.95	294.25
715.28	293.25
715.61	292.20
715.95	291.27
716.28	290.28
716.61	289.37
716.95	288.36
717.28	287.40
717.61	286.42
717.94	285.54
718.28	284.51
718.61	283.61
718.94	282.68
719.27	281.85
719.61	281.01
719.94	280.17
720.27	279.18
720.60	278.34
720.94	277.53
721.27	276.78
721.60	276.08
721.93	275.32
722.27	274.67
722.60	274.02
722.93	273.24
723.26	272.62
723.59	271.84
723.93	271.18
724.26	270.53
724.59	269.87
724.92	269.26
725.25	268.70
725.59	268.09
725.92	267.55
726.25	266.97
726.58	266.38
726.91	265.73
727.24	265.24
727.57	264.66
727.91	264.01
728.24	263.43
728.57	262.84
728.90	262.27
729.23	261.65
729.56	261.22
729.89	260.69
730.22	260.05
730.55	259.52
730.89	258.99
731.22	258.42
731.55	257.88
731.88	257.36
732.21	256.80
732.54	256.26
732.87	255.78
733.20	255.29
733.53	254.82
733.86	254.36
734.19	253.85
734.52	253.46
734.85	253.23
735.18	252.73
735.51	252.34
735.84	251.93
736.17	251.49
736.50	250.93
736.83	250.77
737.16	250.42
737.49	250.02
737.82	249.61
738.15	249.25
738.48	248.89
738.81	248.48
739.14	248.05
739.47	247.67
739.80	247.22
740.13	246.87
740.46	246.44
740.79	246.04
741.12	245.66
741.45	245.24
741.78	244.74
742.11	244.47
742.44	244.10
742.77	243.80
743.10	243.46
743.43	243.11
743.75	242.55
744.08	242.48
744.41	242.14
744.74	241.78
745.07	241.38
745.40	241.04
745.73	240.77
746.06	240.41
746.39	240.08
746.71	239.74
747.04	239.35
747.37	239.04
747.70	238.77
748.03	238.47
748.36	238.20
748.68	237.91
749.01	237.54
749.34	237.21
749.67	236.89
750.00	236.64
750.33	236.50
750.65	236.23
750.98	235.67
751.31	235.44
751.64	235.20
751.97	235.10
752.29	234.84
752.62	234.51
752.95	234.29
753.28	234.01
753.60	233.76
753.93	233.58
754.26	233.36
754.59	233.05
754.91	232.78
755.24	232.52
755.57	232.27
755.90	232.04
756.22	231.80
756.55	231.57
756.88	231.32
757.20	230.97
757.53	230.70
757.86	230.53
758.19	230.29
758.51	230.08
758.84	229.72
759.17	229.51
759.49	229.34
759.82	229.25
760.15	229.09
760.47	228.95
760.80	228.73
761.13	228.61
761.45	228.45
761.78	228.27
762.11	228.10
762.43	227.91
762.76	227.74
763.08	227.56
763.41	227.41
763.74	227.25
764.06	227.10
764.39	226.94
764.71	226.74
765.04	226.59
765.37	226.45
765.69	226.32
766.02	226.18
766.34	226.01
766.67	225.78
767.00	225.68
767.32	225.64
767.65	225.62
767.97	225.47
768.30	225.34
768.62	225.23
768.95	225.07
769.27	224.95
769.60	224.86
769.92	224.76
770.25	224.57
770.57	224.44
770.90	224.28
771.22	224.14
771.55	224.08
771.87	223.95
772.20	223.77
772.52	223.85
772.85	223.97
773.17	223.85
773.50	223.76
773.82	223.61
774.15	223.39
774.47	223.16
774.80	223.01
775.12	222.91
775.45	222.83
775.77	222.74
776.09	222.65
776.42	222.55
776.74	222.50
777.07	222.42
777.39	222.35
777.72	222.24
778.04	222.18
778.36	222.08
778.69	222.02
779.01	222.00
779.33	221.72
779.66	221.40
779.98	221.30
780.31	221.23
780.63	221.25
780.95	221.22
781.28	221.13
781.60	221.03
781.92	220.96
782.25	220.89
782.57	220.83
782.89	220.77
783.22	220.68
783.54	220.60
783.86	220.56
784.19	220.46
784.51	220.48
784.83	220.41
785.16	220.35
785.48	220.29
785.80	220.21
786.12	220.19
