SpectraSuite Data File
++++++++++++++++++++++++++++++++++++
Date: Tue Jan 29 16:24:20 EST 2013
User: group
Dark Spectrum Present: No
Reference Spectrum Present: No
Number of Sampled Component Spectra: 1
Spectrometers: USB2E7196
Integration Time (usec): 65000 (USB2E7196)
Spectra Averaged: 100 (USB2E7196)
Boxcar Smoothing: 10 (USB2E7196)
Correct for Electrical Dark: No (USB2E7196)
Strobe/Lamp Enabled: No (USB2E7196)
Correct for Detector Non-linearity: No (USB2E7196)
Correct for Stray Light: No (USB2E7196)
Number of Pixels in Processed Spectrum: 2048
>>>>>Begin Processed Spectral Data<<<<<
339.09	0.00
339.48	202.34
339.86	203.29
340.24	204.51
340.63	206.38
341.01	211.15
341.39	209.15
341.78	210.77
342.16	212.36
342.54	211.89
342.93	201.39
343.31	211.56
343.69	212.08
344.07	212.54
344.46	213.04
344.84	213.46
345.22	213.59
345.60	213.87
345.99	214.05
346.37	214.18
346.75	214.32
347.13	214.41
347.52	214.48
347.90	214.62
348.28	214.63
348.66	214.76
349.05	214.74
349.43	214.79
349.81	214.85
350.19	214.93
350.57	215.01
350.96	215.07
351.34	215.17
351.72	215.27
352.10	215.39
352.48	215.45
352.87	215.49
353.25	215.60
353.63	215.65
354.01	215.72
354.39	215.83
354.77	215.89
355.15	216.01
355.54	216.07
355.92	216.11
356.30	216.23
356.68	216.40
357.06	216.49
357.44	216.55
357.82	216.60
358.20	216.68
358.58	216.71
358.97	216.80
359.35	216.92
359.73	217.07
360.11	217.12
360.49	217.18
360.87	217.23
361.25	217.30
361.63	217.42
362.01	217.47
362.39	217.47
362.77	217.55
363.15	217.55
363.53	217.57
363.91	217.57
364.29	217.59
364.67	217.43
365.05	217.44
365.43	217.49
365.81	217.55
366.19	217.64
366.57	217.77
366.95	217.77
367.33	217.68
367.71	217.65
368.09	217.72
368.47	217.71
368.85	217.70
369.23	217.73
369.61	217.64
369.99	217.71
370.37	217.71
370.75	217.79
371.13	217.73
371.51	217.68
371.89	217.69
372.27	217.67
372.65	217.63
373.03	217.59
373.41	217.49
373.78	217.41
374.16	217.25
374.54	217.15
374.92	217.10
375.30	217.11
375.68	217.03
376.06	216.94
376.44	216.90
376.82	216.87
377.19	216.79
377.57	216.75
377.95	216.62
378.33	216.56
378.71	216.39
379.09	216.38
379.47	216.35
379.84	216.29
380.22	216.22
380.60	216.16
380.98	216.12
381.36	216.12
381.73	216.03
382.11	216.04
382.49	216.01
382.87	215.93
383.25	215.87
383.62	216.05
384.00	215.97
384.38	215.94
384.76	215.96
385.13	216.02
385.51	215.99
385.89	215.93
386.27	215.92
386.64	215.90
387.02	215.86
387.40	215.81
387.78	215.78
388.15	215.78
388.53	215.73
388.91	215.71
389.29	215.65
389.66	215.66
390.04	215.60
390.42	215.62
390.79	215.65
391.17	215.64
391.55	215.46
391.92	215.49
392.30	215.50
392.68	215.41
393.05	215.37
393.43	215.40
393.81	215.41
394.18	215.39
394.56	215.40
394.94	215.46
395.31	215.45
395.69	215.50
396.06	215.56
396.44	215.60
396.82	215.58
397.19	215.77
397.57	215.82
397.95	215.93
398.32	215.86
398.70	215.88
399.07	215.98
399.45	216.00
399.82	216.01
400.20	216.04
400.58	216.11
400.95	216.08
401.33	216.17
401.70	216.42
402.08	216.53
402.45	216.63
402.83	216.75
403.20	216.87
403.58	216.97
403.95	217.11
404.33	217.28
404.71	217.46
405.08	217.67
405.46	217.85
405.83	218.02
406.21	218.25
406.58	218.50
406.96	218.74
407.33	218.97
407.70	219.31
408.08	219.76
408.45	220.11
408.83	220.51
409.20	220.85
409.58	221.09
409.95	221.55
410.33	222.01
410.70	222.47
411.08	223.02
411.45	223.60
411.82	224.15
412.20	224.82
412.57	225.63
412.95	226.22
413.32	227.02
413.69	227.86
414.07	228.75
414.44	229.74
414.82	230.73
415.19	231.94
415.56	233.11
415.94	234.30
416.31	235.72
416.68	237.11
417.06	238.68
417.43	240.22
417.81	241.92
418.18	243.67
418.55	245.56
418.93	247.57
419.30	249.65
419.67	251.89
420.04	254.14
420.42	256.49
420.79	259.31
421.16	262.08
421.54	264.96
421.91	267.94
422.28	271.00
422.66	274.29
423.03	277.50
423.40	280.84
423.77	284.43
424.15	288.07
424.52	291.88
424.89	296.04
425.26	300.11
425.64	304.01
426.01	308.29
426.38	312.70
426.75	317.23
427.13	321.94
427.50	326.87
427.87	332.09
428.24	337.27
428.61	342.17
428.99	347.68
429.36	353.64
429.73	359.51
430.10	365.39
430.47	371.37
430.85	377.62
431.22	384.29
431.59	391.39
431.96	398.17
432.33	405.61
432.70	412.80
433.08	421.27
433.45	429.19
433.82	437.16
434.19	446.07
434.56	454.69
434.93	463.01
435.30	471.27
435.68	480.33
436.05	489.24
436.42	498.14
436.79	506.20
437.16	514.95
437.53	524.13
437.90	533.21
438.27	542.14
438.64	551.33
439.01	559.79
439.38	567.28
439.75	574.55
440.13	582.99
440.50	590.89
440.87	597.31
441.24	604.04
441.61	611.41
441.98	616.80
442.35	623.02
442.72	629.27
443.09	635.28
443.46	638.98
443.83	641.54
444.20	643.72
444.57	646.80
444.94	648.19
445.31	649.61
445.68	650.93
446.05	651.51
446.42	650.75
446.79	649.79
447.16	648.63
447.53	647.81
447.90	644.40
448.27	641.08
448.64	636.42
449.01	633.05
449.37	627.11
449.74	621.45
450.11	614.61
450.48	607.25
450.85	599.81
451.22	593.33
451.59	587.22
451.96	581.40
452.33	573.66
452.70	566.64
453.07	558.16
453.43	549.58
453.80	541.35
454.17	533.37
454.54	525.90
454.91	517.84
455.28	509.98
455.65	502.70
456.02	495.30
456.38	489.01
456.75	481.16
457.12	474.62
457.49	468.11
457.86	461.99
458.23	456.65
458.59	450.80
458.96	444.84
459.33	439.52
459.70	434.18
460.07	429.89
460.43	425.01
460.80	420.55
461.17	416.66
461.54	412.52
461.91	408.55
462.27	404.48
462.64	401.08
463.01	397.27
463.38	393.56
463.74	389.90
464.11	386.63
464.48	383.85
464.85	380.80
465.21	378.32
465.58	375.73
465.95	372.60
466.32	370.02
466.68	367.42
467.05	364.85
467.42	362.33
467.78	359.70
468.15	357.18
468.52	355.27
468.88	352.75
469.25	350.53
469.62	348.70
469.98	346.72
470.35	344.92
470.72	343.24
471.08	341.43
471.45	339.94
471.82	338.43
472.18	336.77
472.55	335.56
472.92	334.22
473.28	333.07
473.65	331.94
474.02	330.79
474.38	329.99
474.75	329.25
475.11	328.44
475.48	327.85
475.85	327.41
476.21	326.93
476.58	326.59
476.94	326.35
477.31	326.04
477.67	325.80
478.04	325.66
478.41	325.65
478.77	325.85
479.14	325.83
479.50	325.98
479.87	326.28
480.23	326.60
480.60	326.85
480.96	327.11
481.33	327.67
481.69	328.23
482.06	328.71
482.42	329.23
482.79	329.83
483.15	330.65
483.52	331.60
483.88	332.50
484.25	333.47
484.61	334.47
484.98	335.59
485.34	336.93
485.71	338.33
486.07	339.77
486.44	341.08
486.80	342.66
487.17	344.34
487.53	346.18
487.90	348.05
488.26	350.07
488.62	352.18
488.99	354.29
489.35	356.50
489.72	358.96
490.08	361.49
490.44	364.08
490.81	366.77
491.17	369.42
491.54	372.42
491.90	375.43
492.26	378.73
492.63	382.10
492.99	385.60
493.36	389.26
493.72	393.13
494.08	397.21
494.45	401.45
494.81	405.83
495.17	410.30
495.54	415.05
495.90	419.92
496.26	424.87
496.63	430.09
496.99	435.50
497.35	441.07
497.72	446.86
498.08	452.83
498.44	458.96
498.80	465.46
499.17	471.92
499.53	478.73
499.89	485.66
500.26	492.72
500.62	499.83
500.98	507.27
501.34	514.74
501.71	522.54
502.07	530.39
502.43	538.49
502.79	546.70
503.16	555.10
503.52	563.77
503.88	572.60
504.24	581.58
504.60	590.77
504.97	599.98
505.33	609.33
505.69	619.25
506.05	629.22
506.41	639.22
506.78	649.41
507.14	659.70
507.50	670.23
507.86	680.98
508.22	691.92
508.59	702.66
508.95	713.85
509.31	725.24
509.67	736.84
510.03	748.35
510.39	760.13
510.75	772.10
511.12	784.15
511.48	796.36
511.84	808.79
512.20	821.12
512.56	834.00
512.92	846.99
513.28	859.72
513.64	872.57
514.00	885.56
514.37	898.67
514.73	911.97
515.09	925.08
515.45	937.96
515.81	951.14
516.17	964.68
516.53	978.01
516.89	991.21
517.25	1004.51
517.61	1018.00
517.97	1031.57
518.33	1044.75
518.69	1058.31
519.05	1072.16
519.41	1085.89
519.77	1100.00
520.13	1113.34
520.49	1126.55
520.85	1140.13
521.21	1153.57
521.57	1167.24
521.93	1180.43
522.29	1194.28
522.65	1208.02
523.01	1221.85
523.37	1235.12
523.73	1248.56
524.09	1261.94
524.45	1275.51
524.81	1289.07
525.17	1302.62
525.53	1315.93
525.89	1329.51
526.25	1342.81
526.61	1355.83
526.97	1369.10
527.33	1382.00
527.68	1395.60
528.04	1409.23
528.40	1422.25
528.76	1435.67
529.12	1448.69
529.48	1462.09
529.84	1474.45
530.20	1487.29
530.56	1500.02
530.91	1513.39
531.27	1526.34
531.63	1539.17
531.99	1552.03
532.35	1564.49
532.71	1577.03
533.07	1590.08
533.42	1602.32
533.78	1614.51
534.14	1626.67
534.50	1637.97
534.86	1649.70
535.21	1660.68
535.57	1672.35
535.93	1683.85
536.29	1695.01
536.65	1706.55
537.00	1717.60
537.36	1729.01
537.72	1740.18
538.08	1751.74
538.44	1762.76
538.79	1773.84
539.15	1784.85
539.51	1795.61
539.87	1806.92
540.22	1817.80
540.58	1828.69
540.94	1839.80
541.29	1850.23
541.65	1860.03
542.01	1870.53
542.37	1880.72
542.72	1890.90
543.08	1900.62
543.44	1911.19
543.79	1920.56
544.15	1930.03
544.51	1940.03
544.87	1949.98
545.22	1959.23
545.58	1968.14
545.94	1977.05
546.29	1985.72
546.65	1994.01
547.01	2002.39
547.36	2010.02
547.72	2017.72
548.07	2025.40
548.43	2033.07
548.79	2040.84
549.14	2049.05
549.50	2057.63
549.86	2065.55
550.21	2073.09
550.57	2080.90
550.92	2087.67
551.28	2095.31
551.64	2102.78
551.99	2110.34
552.35	2117.51
552.70	2124.41
553.06	2131.04
553.41	2137.39
553.77	2144.00
554.13	2150.62
554.48	2157.66
554.84	2164.88
555.19	2171.55
555.55	2178.10
555.90	2184.48
556.26	2191.41
556.61	2197.55
556.97	2202.36
557.32	2208.27
557.68	2214.67
558.03	2220.59
558.39	2226.08
558.74	2232.06
559.10	2237.51
559.45	2243.08
559.81	2248.77
560.16	2254.40
560.52	2260.43
560.87	2266.89
561.23	2272.80
561.58	2279.45
561.94	2284.73
562.29	2289.46
562.64	2295.72
563.00	2301.41
563.35	2307.01
563.71	2312.92
564.06	2318.67
564.42	2324.77
564.77	2329.81
565.12	2335.24
565.48	2340.40
565.83	2345.98
566.19	2351.40
566.54	2356.79
566.89	2361.61
567.25	2366.14
567.60	2371.92
567.96	2376.99
568.31	2381.68
568.66	2386.04
569.02	2389.98
569.37	2393.82
569.72	2398.36
570.08	2401.78
570.43	2404.96
570.78	2408.06
571.14	2410.58
571.49	2413.83
571.84	2417.48
572.20	2420.53
572.55	2423.48
572.90	2425.81
573.26	2428.53
573.61	2431.35
573.96	2433.65
574.31	2435.55
574.67	2437.51
575.02	2438.29
575.37	2440.03
575.72	2440.74
576.08	2442.29
576.43	2442.42
576.78	2442.87
577.13	2444.56
577.49	2445.78
577.84	2446.69
578.19	2448.09
578.54	2448.77
578.90	2449.37
579.25	2449.42
579.60	2449.35
579.95	2448.65
580.30	2448.73
580.66	2448.26
581.01	2446.52
581.36	2444.30
581.71	2443.05
582.06	2442.08
582.42	2441.26
582.77	2439.07
583.12	2437.47
583.47	2436.16
583.82	2435.69
584.17	2434.38
584.53	2432.25
584.88	2430.35
585.23	2428.68
585.58	2426.63
585.93	2424.59
586.28	2422.44
586.63	2419.80
586.98	2417.58
587.34	2415.65
587.69	2413.18
588.04	2411.11
588.39	2409.71
588.74	2407.19
589.09	2404.46
589.44	2401.21
589.79	2398.57
590.14	2396.56
590.49	2393.76
590.84	2389.86
591.19	2386.80
591.54	2383.77
591.89	2379.75
592.25	2376.50
592.60	2372.31
592.95	2368.14
593.30	2363.96
593.65	2359.72
594.00	2355.26
594.35	2352.37
594.70	2347.82
595.05	2343.42
595.40	2338.10
595.75	2332.36
596.10	2328.78
596.45	2324.03
596.80	2319.51
597.15	2314.39
597.50	2308.49
597.85	2303.61
598.19	2298.40
598.54	2292.61
598.89	2287.27
599.24	2282.73
599.59	2276.48
599.94	2270.57
600.29	2264.55
600.64	2258.74
600.99	2251.90
601.34	2246.52
601.69	2239.43
602.04	2232.96
602.39	2226.26
602.74	2220.04
603.08	2214.49
603.43	2207.89
603.78	2201.04
604.13	2194.01
604.48	2186.74
604.83	2180.51
605.18	2174.13
605.53	2167.17
605.87	2160.04
606.22	2153.22
606.57	2145.14
606.92	2137.17
607.27	2130.13
607.62	2123.41
607.96	2116.34
608.31	2109.82
608.66	2101.97
609.01	2094.40
609.36	2087.30
609.70	2079.42
610.05	2071.57
610.40	2063.18
610.75	2054.76
611.10	2046.83
611.44	2037.77
611.79	2029.05
612.14	2019.06
612.49	2008.44
612.83	1998.92
613.18	1989.49
613.53	1980.16
613.88	1970.48
614.22	1961.79
614.57	1951.89
614.92	1941.17
615.27	1930.69
615.61	1920.22
615.96	1910.47
616.31	1900.76
616.65	1891.13
617.00	1881.30
617.35	1871.51
617.70	1861.54
618.04	1851.44
618.39	1841.24
618.74	1831.58
619.08	1821.77
619.43	1812.94
619.78	1804.59
620.12	1795.89
620.47	1786.27
620.82	1775.79
621.16	1765.93
621.51	1755.86
621.85	1745.98
622.20	1735.53
622.55	1724.96
622.89	1715.15
623.24	1705.29
623.59	1695.30
623.93	1685.02
624.28	1675.21
624.62	1665.07
624.97	1654.81
625.32	1644.85
625.66	1635.80
626.01	1626.99
626.35	1617.61
626.70	1607.42
627.04	1597.21
627.39	1587.03
627.73	1577.67
628.08	1568.57
628.43	1558.92
628.77	1549.65
629.12	1540.67
629.46	1532.85
629.81	1524.44
630.15	1514.79
630.50	1504.95
630.84	1494.34
631.19	1484.38
631.53	1474.92
631.88	1464.61
632.22	1454.38
632.57	1444.92
632.91	1434.79
633.26	1424.65
633.60	1414.91
633.95	1405.57
634.29	1395.95
634.64	1386.59
634.98	1376.50
635.32	1367.17
635.67	1358.54
636.01	1349.10
636.36	1339.19
636.70	1329.56
637.05	1320.02
637.39	1311.03
637.73	1302.30
638.08	1294.64
638.42	1286.33
638.77	1277.43
639.11	1269.02
639.45	1261.15
639.80	1252.56
640.14	1243.70
640.49	1234.75
640.83	1225.84
641.17	1217.49
641.52	1209.28
641.86	1200.42
642.20	1192.50
642.55	1183.71
642.89	1174.69
643.23	1165.93
643.58	1157.77
643.92	1148.54
644.26	1139.68
644.61	1131.04
644.95	1122.12
645.29	1112.83
645.64	1103.52
645.98	1094.87
646.32	1086.93
646.66	1078.30
647.01	1069.89
647.35	1061.63
647.69	1053.19
648.04	1044.81
648.38	1035.87
648.72	1026.94
649.06	1018.48
649.41	1010.06
649.75	1001.98
650.09	994.07
650.43	985.97
650.78	977.53
651.12	969.69
651.46	962.28
651.80	954.97
652.14	947.54
652.49	939.94
652.83	932.58
653.17	924.82
653.51	917.04
653.85	909.71
654.20	902.33
654.54	894.72
654.88	887.42
655.22	880.09
655.56	872.99
655.90	866.13
656.25	859.34
656.59	852.39
656.93	845.31
657.27	838.11
657.61	831.09
657.95	824.93
658.29	818.91
658.64	812.70
658.98	806.12
659.32	799.46
659.66	793.16
660.00	786.72
660.34	780.65
660.68	774.52
661.02	768.11
661.36	762.07
661.70	756.25
662.05	750.53
662.39	744.96
662.73	739.52
663.07	734.03
663.41	728.33
663.75	722.59
664.09	716.86
664.43	711.36
664.77	705.96
665.11	700.10
665.45	694.17
665.79	688.23
666.13	682.50
666.47	676.89
666.81	671.29
667.15	665.82
667.49	660.54
667.83	655.16
668.17	649.83
668.51	644.65
668.85	639.59
669.19	634.59
669.53	629.47
669.87	624.19
670.21	619.42
670.55	614.67
670.89	610.13
671.23	605.72
671.57	601.25
671.91	596.78
672.25	592.53
672.58	588.31
672.92	584.24
673.26	580.27
673.60	576.39
673.94	572.58
674.28	568.94
674.62	565.19
674.96	561.38
675.30	557.83
675.64	554.08
675.97	550.50
676.31	546.90
676.65	543.28
676.99	539.81
677.33	535.86
677.67	532.17
678.01	528.28
678.34	524.60
678.68	521.01
679.02	517.40
679.36	513.59
679.70	509.91
680.04	506.26
680.37	502.75
680.71	499.40
681.05	496.15
681.39	492.80
681.73	489.50
682.06	486.45
682.40	483.28
682.74	480.09
683.08	476.83
683.42	473.59
683.75	470.56
684.09	467.50
684.43	464.72
684.77	461.74
685.10	458.87
685.44	455.93
685.78	453.02
686.12	450.20
686.45	447.49
686.79	444.75
687.13	442.18
687.46	439.54
687.80	436.78
688.14	433.88
688.48	431.26
688.81	428.56
689.15	425.95
689.49	423.33
689.82	420.80
690.16	418.15
690.50	415.67
690.83	413.15
691.17	410.57
691.51	408.03
691.84	405.73
692.18	403.46
692.52	401.22
692.85	399.02
693.19	396.88
693.52	394.69
693.86	392.49
694.20	390.29
694.53	388.07
694.87	385.88
695.21	383.75
695.54	381.57
695.88	379.39
696.21	377.18
696.55	375.05
696.88	372.97
697.22	370.99
697.56	369.03
697.89	367.10
698.23	365.35
698.56	363.56
698.90	361.76
699.23	359.84
699.57	357.98
699.90	356.11
700.24	354.24
700.58	352.43
700.91	350.69
701.25	349.10
701.58	347.48
701.92	345.85
702.25	344.23
702.59	342.55
702.92	341.01
703.26	339.39
703.59	337.86
703.93	336.52
704.26	335.08
704.60	333.59
704.93	332.11
705.26	330.63
705.60	329.15
705.93	327.66
706.27	326.30
706.60	324.99
706.94	323.72
707.27	322.33
707.61	321.01
707.94	319.70
708.27	318.16
708.61	316.68
708.94	315.29
709.28	313.96
709.61	312.73
709.94	311.47
710.28	310.26
710.61	309.10
710.95	307.63
711.28	306.51
711.61	305.28
711.95	304.12
712.28	302.84
712.61	301.62
712.95	300.53
713.28	299.46
713.61	298.32
713.95	297.14
714.28	296.15
714.61	295.07
714.95	294.02
715.28	292.99
715.61	292.00
715.95	291.00
716.28	290.04
716.61	289.08
716.95	288.09
717.28	287.13
717.61	286.09
717.94	285.18
718.28	284.16
718.61	283.26
718.94	282.31
719.27	281.43
719.61	280.59
719.94	279.70
720.27	278.74
720.60	277.85
720.94	277.05
721.27	276.27
721.60	275.58
721.93	274.84
722.27	274.20
722.60	273.53
722.93	272.87
723.26	272.23
723.59	271.52
723.93	270.86
724.26	270.25
724.59	269.63
724.92	269.08
725.25	268.53
725.59	267.95
725.92	267.44
726.25	266.89
726.58	266.33
726.91	265.73
727.24	265.18
727.57	264.61
727.91	263.99
728.24	263.42
728.57	262.83
728.90	262.27
729.23	261.64
729.56	261.20
729.89	260.63
730.22	260.02
730.55	259.48
730.89	258.94
731.22	258.37
731.55	257.85
731.88	257.29
732.21	256.74
732.54	256.22
732.87	255.69
733.20	255.24
733.53	254.74
733.86	254.27
734.19	253.76
734.52	253.34
734.85	253.09
735.18	252.59
735.51	252.21
735.84	251.80
736.17	251.39
736.50	250.84
736.83	250.65
737.16	250.29
737.49	249.90
737.82	249.51
738.15	249.16
738.48	248.76
738.81	248.38
739.14	247.95
739.47	247.56
739.80	247.21
740.13	246.84
740.46	246.43
740.79	246.07
741.12	245.71
741.45	245.34
741.78	244.88
742.11	244.65
742.44	244.28
742.77	243.98
743.10	243.66
743.43	243.32
743.75	242.75
744.08	242.63
744.41	242.27
744.74	241.92
745.07	241.55
745.40	241.28
745.73	241.03
746.06	240.72
746.39	240.42
746.71	240.09
747.04	239.71
747.37	239.40
747.70	239.09
748.03	238.81
748.36	238.57
748.68	238.24
749.01	237.88
749.34	237.58
749.67	237.27
750.00	236.99
750.33	236.84
750.65	236.58
750.98	236.07
751.31	235.82
751.64	235.58
751.97	235.41
752.29	235.14
752.62	234.76
752.95	234.53
753.28	234.21
753.60	233.96
753.93	233.80
754.26	233.58
754.59	233.33
754.91	233.11
755.24	232.86
755.57	232.64
755.90	232.42
756.22	232.16
756.55	231.94
756.88	231.65
757.20	231.32
757.53	231.09
757.86	230.94
758.19	230.76
758.51	230.54
758.84	230.28
759.17	230.07
759.49	229.93
759.82	229.84
760.15	229.69
760.47	229.51
760.80	229.27
761.13	229.15
761.45	228.94
761.78	228.74
762.11	228.56
762.43	228.40
762.76	228.22
763.08	228.06
763.41	227.90
763.74	227.79
764.06	227.63
764.39	227.48
764.71	227.30
765.04	227.14
765.37	226.96
765.69	226.80
766.02	226.66
766.34	226.51
766.67	226.30
767.00	226.23
767.32	226.19
767.65	226.19
767.97	226.01
768.30	225.89
768.62	225.76
768.95	225.61
769.27	225.48
769.60	225.38
769.92	225.20
770.25	225.04
770.57	224.88
770.90	224.76
771.22	224.62
771.55	224.50
771.87	224.39
772.20	224.27
772.52	224.31
772.85	224.47
773.17	224.37
773.50	224.25
773.82	224.10
774.15	223.90
774.47	223.66
774.80	223.54
775.12	223.45
775.45	223.33
775.77	223.25
776.09	223.14
776.42	223.02
776.74	223.05
777.07	222.95
777.39	222.91
777.72	222.81
778.04	222.73
778.36	222.65
778.69	222.56
779.01	222.51
779.33	222.28
779.66	221.91
779.98	221.80
780.31	221.73
780.63	221.76
780.95	221.73
781.28	221.68
781.60	221.59
781.92	221.51
782.25	221.51
782.57	221.47
782.89	221.35
783.22	221.29
783.54	221.14
783.86	221.08
784.19	220.97
784.51	221.00
784.83	220.89
785.16	220.83
785.48	220.76
785.80	220.65
786.12	220.60
