SpectraSuite Data File
++++++++++++++++++++++++++++++++++++
Date: Tue Jan 29 15:57:44 EST 2013
User: group
Dark Spectrum Present: No
Reference Spectrum Present: No
Number of Sampled Component Spectra: 1
Spectrometers: USB2E7196
Integration Time (usec): 65000 (USB2E7196)
Spectra Averaged: 100 (USB2E7196)
Boxcar Smoothing: 10 (USB2E7196)
Correct for Electrical Dark: No (USB2E7196)
Strobe/Lamp Enabled: No (USB2E7196)
Correct for Detector Non-linearity: No (USB2E7196)
Correct for Stray Light: No (USB2E7196)
Number of Pixels in Processed Spectrum: 2048
>>>>>Begin Processed Spectral Data<<<<<
339.09	0.00
339.48	202.54
339.86	205.11
340.24	205.94
340.63	206.97
341.01	211.40
341.39	209.86
341.78	211.78
342.16	213.34
342.54	213.25
342.93	202.25
343.31	212.45
343.69	213.00
344.07	213.42
344.46	213.85
344.84	214.28
345.22	214.45
345.60	214.74
345.99	214.92
346.37	215.01
346.75	215.11
347.13	215.16
347.52	215.23
347.90	215.32
348.28	215.33
348.66	215.40
349.05	215.35
349.43	215.43
349.81	215.47
350.19	215.52
350.57	215.58
350.96	215.66
351.34	215.76
351.72	215.85
352.10	215.96
352.48	216.05
352.87	216.09
353.25	216.18
353.63	216.22
354.01	216.28
354.39	216.41
354.77	216.47
355.15	216.64
355.54	216.71
355.92	216.74
356.30	216.85
356.68	217.03
357.06	217.10
357.44	217.11
357.82	217.19
358.20	217.30
358.58	217.36
358.97	217.42
359.35	217.51
359.73	217.64
360.11	217.70
360.49	217.75
360.87	217.80
361.25	217.84
361.63	217.95
362.01	218.00
362.39	217.99
362.77	218.05
363.15	218.04
363.53	218.05
363.91	218.09
364.29	218.07
364.67	217.93
365.05	217.96
365.43	217.98
365.81	218.01
366.19	218.08
366.57	218.15
366.95	218.20
367.33	218.14
367.71	218.12
368.09	218.12
368.47	218.09
368.85	218.07
369.23	218.10
369.61	218.05
369.99	218.08
370.37	218.10
370.75	218.15
371.13	218.08
371.51	218.03
371.89	218.03
372.27	218.01
372.65	218.01
373.03	217.99
373.41	217.97
373.78	217.92
374.16	217.78
374.54	217.68
374.92	217.58
375.30	217.57
375.68	217.49
376.06	217.47
376.44	217.45
376.82	217.41
377.19	217.37
377.57	217.29
377.95	217.20
378.33	217.15
378.71	217.03
379.09	217.01
379.47	217.01
379.84	216.91
380.22	216.89
380.60	216.78
380.98	216.73
381.36	216.67
381.73	216.62
382.11	216.62
382.49	216.58
382.87	216.53
383.25	216.49
383.62	216.72
384.00	216.66
384.38	216.65
384.76	216.65
385.13	216.69
385.51	216.67
385.89	216.60
386.27	216.60
386.64	216.60
387.02	216.56
387.40	216.50
387.78	216.51
388.15	216.47
388.53	216.49
388.91	216.45
389.29	216.43
389.66	216.41
390.04	216.40
390.42	216.42
390.79	216.43
391.17	216.39
391.55	216.12
391.92	216.10
392.30	216.11
392.68	216.07
393.05	216.04
393.43	216.06
393.81	216.11
394.18	216.06
394.56	216.05
394.94	216.09
395.31	216.08
395.69	216.17
396.06	216.19
396.44	216.21
396.82	216.21
397.19	216.33
397.57	216.37
397.95	216.41
398.32	216.42
398.70	216.46
399.07	216.59
399.45	216.65
399.82	216.71
400.20	216.74
400.58	216.78
400.95	216.77
401.33	216.87
401.70	217.08
402.08	217.17
402.45	217.24
402.83	217.38
403.20	217.49
403.58	217.57
403.95	217.72
404.33	217.86
404.71	218.02
405.08	218.26
405.46	218.40
405.83	218.57
406.21	218.75
406.58	218.95
406.96	219.14
407.33	219.43
407.70	219.71
408.08	220.14
408.45	220.49
408.83	220.85
409.20	221.16
409.58	221.36
409.95	221.83
410.33	222.32
410.70	222.74
411.08	223.31
411.45	223.85
411.82	224.41
412.20	225.02
412.57	225.81
412.95	226.36
413.32	227.17
413.69	227.99
414.07	228.87
414.44	229.87
414.82	230.86
415.19	231.95
415.56	233.06
415.94	234.24
416.31	235.59
416.68	236.97
417.06	238.51
417.43	240.04
417.81	241.73
418.18	243.42
418.55	245.26
418.93	247.17
419.30	249.19
419.67	251.31
420.04	253.55
420.42	255.82
420.79	258.55
421.16	261.23
421.54	264.02
421.91	266.86
422.28	269.79
422.66	272.94
423.03	276.11
423.40	279.35
423.77	282.77
424.15	286.28
424.52	289.94
424.89	293.93
425.26	297.85
425.64	301.60
426.01	305.73
426.38	310.02
426.75	314.42
427.13	318.94
427.50	323.70
427.87	328.71
428.24	333.72
428.61	338.51
428.99	343.78
429.36	349.55
429.73	355.24
430.10	360.87
430.47	366.68
430.85	372.69
431.22	379.15
431.59	386.00
431.96	392.56
432.33	399.78
432.70	406.78
433.08	414.98
433.45	422.64
433.82	430.34
434.19	438.93
434.56	447.27
434.93	455.27
435.30	463.31
435.68	472.04
436.05	480.69
436.42	489.22
436.79	497.01
437.16	505.45
437.53	514.33
437.90	523.16
438.27	531.77
438.64	540.71
439.01	548.92
439.38	556.22
439.75	563.27
440.13	571.40
440.50	578.98
440.87	585.14
441.24	591.57
441.61	598.63
441.98	603.75
442.35	609.83
442.72	615.91
443.09	621.63
443.46	625.23
443.83	627.61
444.20	629.72
444.57	632.78
444.94	634.09
445.31	635.43
445.68	636.72
446.05	637.27
446.42	636.38
446.79	635.42
447.16	634.28
447.53	633.53
447.90	630.28
448.27	627.16
448.64	622.68
449.01	619.40
449.37	613.68
449.74	608.24
450.11	601.62
450.48	594.51
450.85	587.36
451.22	581.10
451.59	575.25
451.96	569.69
452.33	562.10
452.70	555.31
453.07	547.18
453.43	539.00
453.80	531.06
454.17	523.43
454.54	516.18
454.91	508.34
455.28	500.75
455.65	493.63
456.02	486.46
456.38	480.44
456.75	472.99
457.12	466.70
457.49	460.45
457.86	454.51
458.23	449.37
458.59	443.81
458.96	438.13
459.33	433.07
459.70	427.87
460.07	423.86
460.43	419.20
460.80	414.84
461.17	410.97
461.54	406.99
461.91	403.13
462.27	399.18
462.64	395.90
463.01	392.21
463.38	388.70
463.74	385.15
464.11	381.99
464.48	379.25
464.85	376.32
465.21	374.07
465.58	371.53
465.95	368.54
466.32	365.95
466.68	363.45
467.05	360.97
467.42	358.57
467.78	356.02
468.15	353.58
468.52	351.76
468.88	349.39
469.25	347.25
469.62	345.63
469.98	343.79
470.35	342.06
470.72	340.50
471.08	338.78
471.45	337.36
471.82	335.90
472.18	334.35
472.55	333.17
472.92	331.78
473.28	330.65
473.65	329.56
474.02	328.55
474.38	327.75
474.75	327.00
475.11	326.27
475.48	325.68
475.85	325.26
476.21	324.78
476.58	324.46
476.94	324.25
477.31	323.91
477.67	323.73
478.04	323.61
478.41	323.61
478.77	323.79
479.14	323.78
479.50	323.95
479.87	324.25
480.23	324.60
480.60	324.87
480.96	325.19
481.33	325.80
481.69	326.41
482.06	326.94
482.42	327.44
482.79	328.08
483.15	328.94
483.52	329.88
483.88	330.80
484.25	331.75
484.61	332.77
484.98	333.83
485.34	335.15
485.71	336.53
486.07	337.93
486.44	339.26
486.80	340.85
487.17	342.53
487.53	344.36
487.90	346.23
488.26	348.29
488.62	350.42
488.99	352.45
489.35	354.53
489.72	356.89
490.08	359.44
490.44	361.93
490.81	364.64
491.17	367.35
491.54	370.37
491.90	373.43
492.26	376.73
492.63	380.17
492.99	383.64
493.36	387.34
493.72	391.24
494.08	395.20
494.45	399.40
494.81	403.73
495.17	408.15
495.54	412.80
495.90	417.57
496.26	422.49
496.63	427.65
496.99	433.08
497.35	438.57
497.72	444.33
498.08	450.29
498.44	456.33
498.80	462.80
499.17	469.27
499.53	475.92
499.89	482.74
500.26	489.67
500.62	496.74
500.98	504.18
501.34	511.60
501.71	519.39
502.07	527.13
502.43	535.06
502.79	543.16
503.16	551.56
503.52	560.11
503.88	568.74
504.24	577.70
504.60	586.73
504.97	595.96
505.33	605.19
505.69	614.94
506.05	624.85
506.41	634.60
506.78	644.56
507.14	654.75
507.50	665.18
507.86	675.89
508.22	686.65
508.59	697.19
508.95	708.24
509.31	719.49
509.67	730.95
510.03	742.39
510.39	754.12
510.75	765.95
511.12	777.85
511.48	790.02
511.84	802.23
512.20	814.50
512.56	827.05
512.92	839.84
513.28	852.37
513.64	864.85
514.00	877.61
514.37	890.52
514.73	903.59
515.09	916.46
515.45	929.17
515.81	942.09
516.17	955.35
516.53	968.36
516.89	981.28
517.25	994.33
517.61	1007.66
517.97	1021.02
518.33	1033.86
518.69	1047.21
519.05	1060.64
519.41	1074.10
519.77	1087.86
520.13	1101.01
520.49	1113.94
520.85	1127.21
521.21	1140.50
521.57	1153.94
521.93	1166.89
522.29	1180.43
522.65	1193.88
523.01	1207.29
523.37	1220.19
523.73	1233.20
524.09	1246.13
524.45	1259.33
524.81	1272.52
525.17	1285.62
525.53	1298.33
525.89	1311.45
526.25	1324.20
526.61	1336.82
526.97	1349.71
527.33	1362.12
527.68	1375.27
528.04	1388.50
528.40	1401.38
528.76	1414.40
529.12	1426.95
529.48	1439.79
529.84	1451.70
530.20	1464.12
530.56	1476.46
530.91	1489.47
531.27	1502.02
531.63	1514.51
531.99	1526.95
532.35	1538.70
532.71	1550.67
533.07	1563.24
533.42	1575.05
533.78	1586.84
534.14	1598.60
534.50	1609.41
534.86	1620.69
535.21	1631.20
535.57	1642.21
535.93	1653.18
536.29	1663.91
536.65	1674.99
537.00	1685.59
537.36	1696.59
537.72	1707.20
538.08	1718.11
538.44	1728.67
538.79	1739.26
539.15	1749.78
539.51	1760.09
539.87	1771.38
540.22	1782.02
540.58	1792.43
540.94	1803.16
541.29	1813.13
541.65	1822.50
542.01	1832.79
542.37	1842.58
542.72	1852.53
543.08	1862.14
543.44	1872.21
543.79	1881.28
544.15	1890.43
544.51	1900.24
544.87	1909.78
545.22	1918.52
545.58	1927.09
545.94	1935.57
546.29	1943.87
546.65	1951.89
547.01	1959.98
547.36	1967.12
547.72	1974.48
548.07	1981.93
548.43	1989.24
548.79	1996.90
549.14	2004.81
549.50	2012.86
549.86	2020.42
550.21	2027.53
550.57	2034.73
550.92	2041.14
551.28	2048.36
551.64	2055.36
551.99	2062.52
552.35	2069.41
552.70	2076.04
553.06	2082.60
553.41	2088.76
553.77	2095.12
554.13	2101.29
554.48	2107.96
554.84	2114.86
555.19	2121.21
555.55	2127.62
555.90	2133.78
556.26	2140.39
556.61	2146.16
556.97	2150.93
557.32	2156.66
557.68	2162.88
558.03	2168.71
558.39	2173.91
558.74	2179.79
559.10	2185.34
559.45	2190.83
559.81	2196.39
560.16	2202.20
560.52	2207.93
560.87	2214.33
561.23	2220.19
561.58	2226.83
561.94	2231.94
562.29	2236.97
562.64	2243.13
563.00	2248.67
563.35	2254.24
563.71	2259.97
564.06	2265.66
564.42	2271.65
564.77	2276.88
565.12	2282.14
565.48	2287.46
565.83	2293.02
566.19	2298.65
566.54	2304.15
566.89	2308.71
567.25	2313.39
567.60	2319.07
567.96	2324.32
568.31	2328.91
568.66	2333.30
569.02	2337.31
569.37	2341.13
569.72	2345.38
570.08	2348.98
570.43	2352.10
570.78	2355.27
571.14	2358.14
571.49	2361.41
571.84	2364.98
572.20	2367.91
572.55	2371.15
572.90	2373.31
573.26	2376.49
573.61	2378.88
573.96	2381.09
574.31	2383.39
574.67	2385.31
575.02	2386.22
575.37	2387.76
575.72	2388.73
576.08	2390.34
576.43	2390.86
576.78	2391.89
577.13	2393.98
577.49	2395.23
577.84	2396.83
578.19	2398.57
578.54	2399.45
578.90	2400.53
579.25	2400.63
579.60	2400.91
579.95	2400.32
580.30	2400.92
580.66	2400.43
581.01	2399.13
581.36	2397.26
581.71	2396.14
582.06	2395.43
582.42	2394.86
582.77	2393.12
583.12	2391.82
583.47	2391.00
583.82	2390.50
584.17	2389.38
584.53	2387.24
584.88	2385.41
585.23	2383.49
585.58	2381.32
585.93	2379.18
586.28	2377.29
586.63	2375.29
586.98	2373.29
587.34	2371.71
587.69	2369.42
588.04	2367.71
588.39	2366.39
588.74	2364.11
589.09	2361.82
589.44	2359.02
589.79	2356.87
590.14	2355.17
590.49	2352.42
590.84	2348.70
591.19	2346.04
591.54	2342.93
591.89	2339.07
592.25	2336.08
592.60	2332.22
592.95	2328.41
593.30	2324.67
593.65	2320.36
594.00	2316.14
594.35	2313.21
594.70	2308.65
595.05	2304.31
595.40	2298.92
595.75	2293.50
596.10	2289.96
596.45	2285.08
596.80	2280.70
597.15	2275.47
597.50	2269.61
597.85	2264.93
598.19	2259.80
598.54	2253.97
598.89	2249.09
599.24	2244.77
599.59	2238.85
599.94	2233.27
600.29	2227.54
600.64	2221.55
600.99	2215.08
601.34	2209.80
601.69	2202.80
602.04	2196.56
602.39	2190.15
602.74	2184.27
603.08	2178.82
603.43	2172.41
603.78	2165.69
604.13	2158.62
604.48	2151.48
604.83	2145.53
605.18	2139.23
605.53	2132.39
605.87	2125.54
606.22	2118.74
606.57	2110.99
606.92	2103.11
607.27	2096.07
607.62	2089.34
607.96	2082.56
608.31	2075.99
608.66	2068.26
609.01	2060.87
609.36	2053.77
609.70	2045.91
610.05	2038.25
610.40	2030.11
610.75	2021.82
611.10	2014.34
611.44	2005.69
611.79	1997.06
612.14	1987.03
612.49	1976.61
612.83	1967.45
613.18	1958.34
613.53	1949.05
613.88	1939.58
614.22	1931.16
614.57	1921.48
614.92	1911.19
615.27	1901.14
615.61	1891.22
615.96	1881.62
616.31	1872.24
616.65	1862.92
617.00	1853.17
617.35	1843.48
617.70	1833.66
618.04	1823.56
618.39	1813.18
618.74	1803.45
619.08	1793.96
619.43	1785.43
619.78	1777.18
620.12	1768.43
620.47	1758.56
620.82	1748.27
621.16	1738.38
621.51	1728.32
621.85	1718.46
622.20	1707.83
622.55	1697.15
622.89	1687.30
623.24	1677.50
623.59	1667.57
623.93	1657.44
624.28	1647.82
624.62	1637.60
624.97	1627.29
625.32	1617.70
625.66	1608.85
626.01	1599.91
626.35	1590.33
626.70	1580.12
627.04	1569.96
627.39	1559.91
627.73	1550.67
628.08	1541.56
628.43	1531.91
628.77	1522.65
629.12	1513.62
629.46	1505.81
629.81	1497.38
630.15	1487.71
630.50	1477.82
630.84	1467.44
631.19	1457.48
631.53	1447.94
631.88	1437.82
632.22	1427.79
632.57	1418.42
632.91	1408.17
633.26	1398.30
633.60	1388.76
633.95	1379.44
634.29	1370.04
634.64	1360.57
634.98	1350.64
635.32	1341.33
635.67	1332.75
636.01	1323.50
636.36	1313.69
636.70	1304.08
637.05	1294.68
637.39	1285.70
637.73	1276.95
638.08	1269.38
638.42	1260.98
638.77	1252.17
639.11	1243.87
639.45	1235.97
639.80	1227.21
640.14	1218.66
640.49	1209.72
640.83	1200.88
641.17	1192.74
641.52	1184.47
641.86	1175.79
642.20	1167.95
642.55	1159.39
642.89	1150.53
643.23	1141.71
643.58	1133.67
643.92	1124.66
644.26	1115.98
644.61	1107.51
644.95	1098.86
645.29	1089.47
645.64	1080.45
645.98	1072.14
646.32	1064.16
646.66	1055.67
647.01	1047.26
647.35	1039.03
647.69	1030.66
648.04	1022.33
648.38	1013.33
648.72	1004.54
649.06	996.19
649.41	987.98
649.75	979.94
650.09	972.12
650.43	964.14
650.78	955.81
651.12	948.18
651.46	940.85
651.80	933.63
652.14	926.17
652.49	918.62
652.83	911.30
653.17	903.60
653.51	895.97
653.85	888.73
654.20	881.51
654.54	873.97
654.88	866.90
655.22	859.78
655.56	852.94
655.90	846.13
656.25	839.56
656.59	832.62
656.93	825.73
657.27	818.62
657.61	811.83
657.95	805.80
658.29	799.98
658.64	793.72
658.98	787.25
659.32	780.81
659.66	774.71
660.00	768.38
660.34	762.36
660.68	756.35
661.02	750.15
661.36	744.34
661.70	738.69
662.05	733.05
662.39	727.57
662.73	722.18
663.07	716.90
663.41	711.27
663.75	705.68
664.09	700.07
664.43	694.71
664.77	689.39
665.11	683.68
665.45	677.75
665.79	672.07
666.13	666.46
666.47	661.01
666.81	655.64
667.15	650.38
667.49	645.24
667.83	639.98
668.17	634.81
668.51	629.69
668.85	624.76
669.19	619.96
669.53	615.06
669.87	610.03
670.21	605.32
670.55	600.63
670.89	596.28
671.23	592.11
671.57	587.77
671.91	583.45
672.25	579.38
672.58	575.29
672.92	571.31
673.26	567.40
673.60	563.70
673.94	559.89
674.28	556.27
674.62	552.54
674.96	548.88
675.30	545.41
675.64	541.85
675.97	538.33
676.31	534.78
676.65	531.15
676.99	527.75
677.33	523.93
677.67	520.37
678.01	516.54
678.34	512.85
678.68	509.38
679.02	505.81
679.36	502.13
679.70	498.59
680.04	495.11
680.37	491.80
680.71	488.49
681.05	485.37
681.39	482.23
681.73	479.18
682.06	476.27
682.40	473.19
682.74	470.03
683.08	466.86
683.42	463.63
683.75	460.72
684.09	457.79
684.43	455.02
684.77	452.12
685.10	449.36
685.44	446.52
685.78	443.65
686.12	440.99
686.45	438.30
686.79	435.67
687.13	433.20
687.46	430.58
687.80	427.94
688.14	425.14
688.48	422.56
688.81	419.88
689.15	417.31
689.49	414.71
689.82	412.27
690.16	409.80
690.50	407.46
690.83	405.00
691.17	402.46
691.51	400.15
691.84	398.04
692.18	395.87
692.52	393.71
692.85	391.65
693.19	389.57
693.52	387.51
693.86	385.35
694.20	383.19
694.53	381.14
694.87	378.94
695.21	376.92
695.54	374.79
695.88	372.72
696.21	370.57
696.55	368.57
696.88	366.59
697.22	364.63
697.56	362.79
697.89	361.01
698.23	359.37
698.56	357.59
698.90	355.81
699.23	353.91
699.57	352.10
699.90	350.27
700.24	348.46
700.58	346.71
700.91	345.08
701.25	343.61
701.58	342.05
701.92	340.55
702.25	338.96
702.59	337.46
702.92	335.96
703.26	334.48
703.59	333.08
703.93	331.82
704.26	330.42
704.60	328.94
704.93	327.46
705.26	325.97
705.60	324.55
705.93	323.13
706.27	321.88
706.60	320.62
706.94	319.41
707.27	318.09
707.61	316.79
707.94	315.51
708.27	314.04
708.61	312.61
708.94	311.26
709.28	310.04
709.61	308.83
709.94	307.66
710.28	306.46
710.61	305.25
710.95	303.85
711.28	302.81
711.61	301.65
711.95	300.59
712.28	299.41
712.61	298.25
712.95	297.20
713.28	296.20
713.61	295.09
713.95	293.98
714.28	292.99
714.61	291.99
714.95	290.99
715.28	289.98
715.61	288.99
715.95	288.08
716.28	287.11
716.61	286.20
716.95	285.22
717.28	284.37
717.61	283.48
717.94	282.66
718.28	281.69
718.61	280.89
718.94	279.98
719.27	279.18
719.61	278.42
719.94	277.54
720.27	276.57
720.60	275.76
720.94	275.03
721.27	274.32
721.60	273.65
721.93	272.92
722.27	272.26
722.60	271.64
722.93	270.98
723.26	270.37
723.59	269.65
723.93	269.05
724.26	268.42
724.59	267.77
724.92	267.17
725.25	266.68
725.59	266.11
725.92	265.64
726.25	265.10
726.58	264.52
726.91	264.00
727.24	263.50
727.57	262.98
727.91	262.37
728.24	261.82
728.57	261.24
728.90	260.70
729.23	260.14
729.56	259.72
729.89	259.19
730.22	258.64
730.55	258.12
730.89	257.59
731.22	257.06
731.55	256.55
731.88	256.04
732.21	255.48
732.54	254.95
732.87	254.39
733.20	253.93
733.53	253.48
733.86	253.03
734.19	252.56
734.52	252.12
734.85	251.86
735.18	251.41
735.51	251.05
735.84	250.65
736.17	250.32
736.50	249.81
736.83	249.68
737.16	249.31
737.49	248.96
737.82	248.57
738.15	248.23
738.48	247.89
738.81	247.52
739.14	247.14
739.47	246.77
739.80	246.43
740.13	246.06
740.46	245.66
740.79	245.27
741.12	244.99
741.45	244.67
741.78	244.19
742.11	243.95
742.44	243.56
742.77	243.28
743.10	242.93
743.43	242.56
743.75	242.01
744.08	241.93
744.41	241.60
744.74	241.28
745.07	240.94
745.40	240.65
745.73	240.41
746.06	240.08
746.39	239.79
746.71	239.46
747.04	239.15
747.37	238.87
747.70	238.58
748.03	238.28
748.36	238.03
748.68	237.78
749.01	237.43
749.34	237.19
749.67	236.87
750.00	236.63
750.33	236.54
750.65	236.28
750.98	235.77
751.31	235.52
751.64	235.32
751.97	235.18
752.29	234.96
752.62	234.63
752.95	234.41
753.28	234.15
753.60	233.94
753.93	233.79
754.26	233.59
754.59	233.36
754.91	233.11
755.24	232.86
755.57	232.62
755.90	232.40
756.22	232.17
756.55	231.97
756.88	231.68
757.20	231.34
757.53	231.15
757.86	230.95
758.19	230.75
758.51	230.54
758.84	230.24
759.17	230.03
759.49	229.86
759.82	229.74
760.15	229.59
760.47	229.40
760.80	229.14
761.13	228.99
761.45	228.76
761.78	228.61
762.11	228.41
762.43	228.23
762.76	228.06
763.08	227.92
763.41	227.75
763.74	227.65
764.06	227.49
764.39	227.32
764.71	227.18
765.04	227.02
765.37	226.85
765.69	226.73
766.02	226.55
766.34	226.44
766.67	226.24
767.00	226.14
767.32	226.14
767.65	226.14
767.97	226.00
768.30	225.95
768.62	225.83
768.95	225.72
769.27	225.60
769.60	225.51
769.92	225.35
770.25	225.23
770.57	225.08
770.90	225.00
771.22	224.85
771.55	224.72
771.87	224.63
772.20	224.51
772.52	224.56
772.85	224.73
773.17	224.60
773.50	224.51
773.82	224.39
774.15	224.20
774.47	224.01
774.80	223.86
775.12	223.72
775.45	223.62
775.77	223.51
776.09	223.42
776.42	223.36
776.74	223.35
777.07	223.26
777.39	223.21
777.72	223.06
778.04	223.03
778.36	222.91
778.69	222.84
779.01	222.78
779.33	222.49
779.66	222.16
779.98	222.10
780.31	222.01
780.63	222.00
780.95	221.92
781.28	221.85
781.60	221.78
781.92	221.76
782.25	221.66
782.57	221.61
782.89	221.54
783.22	221.42
783.54	221.29
783.86	221.24
784.19	221.15
784.51	221.18
784.83	221.09
785.16	221.03
785.48	221.00
785.80	220.93
786.12	220.94
