SpectraSuite Data File
++++++++++++++++++++++++++++++++++++
Date: Tue Jan 29 16:24:33 EST 2013
User: group
Dark Spectrum Present: No
Reference Spectrum Present: No
Number of Sampled Component Spectra: 1
Spectrometers: USB2E7196
Integration Time (usec): 65000 (USB2E7196)
Spectra Averaged: 100 (USB2E7196)
Boxcar Smoothing: 10 (USB2E7196)
Correct for Electrical Dark: No (USB2E7196)
Strobe/Lamp Enabled: No (USB2E7196)
Correct for Detector Non-linearity: No (USB2E7196)
Correct for Stray Light: No (USB2E7196)
Number of Pixels in Processed Spectrum: 2048
>>>>>Begin Processed Spectral Data<<<<<
339.09	0.00
339.48	202.12
339.86	203.70
340.24	205.05
340.63	206.22
341.01	210.56
341.39	209.30
341.78	210.82
342.16	211.67
342.54	212.25
342.93	201.40
343.31	211.55
343.69	212.08
344.07	212.53
344.46	212.99
344.84	213.39
345.22	213.56
345.60	213.85
345.99	214.02
346.37	214.18
346.75	214.29
347.13	214.35
347.52	214.41
347.90	214.56
348.28	214.58
348.66	214.66
349.05	214.61
349.43	214.69
349.81	214.72
350.19	214.77
350.57	214.86
350.96	214.94
351.34	215.08
351.72	215.19
352.10	215.30
352.48	215.33
352.87	215.43
353.25	215.53
353.63	215.56
354.01	215.65
354.39	215.72
354.77	215.80
355.15	215.92
355.54	216.01
355.92	216.01
356.30	216.12
356.68	216.35
357.06	216.43
357.44	216.44
357.82	216.53
358.20	216.62
358.58	216.69
358.97	216.75
359.35	216.84
359.73	216.95
360.11	217.01
360.49	217.09
360.87	217.10
361.25	217.18
361.63	217.32
362.01	217.41
362.39	217.45
362.77	217.51
363.15	217.56
363.53	217.58
363.91	217.65
364.29	217.69
364.67	217.53
365.05	217.56
365.43	217.63
365.81	217.69
366.19	217.78
366.57	217.88
366.95	217.93
367.33	217.87
367.71	217.86
368.09	217.91
368.47	217.91
368.85	217.90
369.23	217.96
369.61	217.87
369.99	217.89
370.37	217.89
370.75	217.96
371.13	217.90
371.51	217.88
371.89	217.85
372.27	217.85
372.65	217.81
373.03	217.80
373.41	217.73
373.78	217.64
374.16	217.49
374.54	217.39
374.92	217.31
375.30	217.30
375.68	217.23
376.06	217.19
376.44	217.15
376.82	217.16
377.19	217.04
377.57	216.98
377.95	216.85
378.33	216.80
378.71	216.64
379.09	216.63
379.47	216.61
379.84	216.52
380.22	216.44
380.60	216.39
380.98	216.29
381.36	216.25
381.73	216.20
382.11	216.20
382.49	216.15
382.87	216.07
383.25	216.04
383.62	216.24
384.00	216.16
384.38	216.11
384.76	216.09
385.13	216.16
385.51	216.13
385.89	216.09
386.27	216.08
386.64	216.09
387.02	216.02
387.40	215.93
387.78	215.96
388.15	215.96
388.53	215.93
388.91	215.91
389.29	215.92
389.66	215.94
390.04	215.88
390.42	215.90
390.79	215.88
391.17	215.86
391.55	215.59
391.92	215.61
392.30	215.63
392.68	215.57
393.05	215.52
393.43	215.54
393.81	215.54
394.18	215.49
394.56	215.49
394.94	215.52
395.31	215.53
395.69	215.55
396.06	215.57
396.44	215.61
396.82	215.61
397.19	215.72
397.57	215.69
397.95	215.77
398.32	215.74
398.70	215.82
399.07	215.90
399.45	215.94
399.82	215.97
400.20	215.98
400.58	216.07
400.95	216.06
401.33	216.18
401.70	216.39
402.08	216.50
402.45	216.57
402.83	216.73
403.20	216.88
403.58	216.96
403.95	217.12
404.33	217.24
404.71	217.42
405.08	217.66
405.46	217.85
405.83	218.01
406.21	218.21
406.58	218.41
406.96	218.63
407.33	218.91
407.70	219.22
408.08	219.69
408.45	220.03
408.83	220.43
409.20	220.71
409.58	220.99
409.95	221.45
410.33	221.94
410.70	222.38
411.08	222.94
411.45	223.50
411.82	224.06
412.20	224.77
412.57	225.57
412.95	226.16
413.32	227.00
413.69	227.85
414.07	228.76
414.44	229.80
414.82	230.80
415.19	231.98
415.56	233.15
415.94	234.32
416.31	235.72
416.68	237.10
417.06	238.68
417.43	240.23
417.81	241.94
418.18	243.71
418.55	245.63
418.93	247.63
419.30	249.70
419.67	251.89
420.04	254.15
420.42	256.50
420.79	259.29
421.16	262.04
421.54	264.90
421.91	267.87
422.28	270.94
422.66	274.22
423.03	277.43
423.40	280.77
423.77	284.35
424.15	287.98
424.52	291.81
424.89	295.99
425.26	300.07
425.64	303.92
426.01	308.16
426.38	312.62
426.75	317.15
427.13	321.88
427.50	326.87
427.87	332.01
428.24	337.19
428.61	342.20
428.99	347.71
429.36	353.71
429.73	359.56
430.10	365.36
430.47	371.40
430.85	377.70
431.22	384.38
431.59	391.43
431.96	398.16
432.33	405.59
432.70	412.81
433.08	421.31
433.45	429.35
433.82	437.33
434.19	446.14
434.56	454.83
434.93	463.13
435.30	471.38
435.68	480.47
436.05	489.34
436.42	498.12
436.79	506.21
437.16	514.91
437.53	524.14
437.90	533.31
438.27	542.22
438.64	551.35
439.01	559.83
439.38	567.37
439.75	574.71
440.13	583.09
440.50	591.03
440.87	597.40
441.24	604.01
441.61	611.35
441.98	616.68
442.35	622.89
442.72	629.24
443.09	635.19
443.46	638.89
443.83	641.47
444.20	643.70
444.57	646.87
444.94	648.28
445.31	649.72
445.68	651.02
446.05	651.63
446.42	650.86
446.79	649.89
447.16	648.87
447.53	648.08
447.90	644.78
448.27	641.46
448.64	636.85
449.01	633.50
449.37	627.60
449.74	621.91
450.11	615.07
450.48	607.65
450.85	600.25
451.22	593.83
451.59	587.71
451.96	581.87
452.33	574.01
452.70	566.98
453.07	558.51
453.43	549.92
453.80	541.67
454.17	533.74
454.54	526.20
454.91	517.98
455.28	510.04
455.65	502.62
456.02	495.08
456.38	488.79
456.75	481.00
457.12	474.51
457.49	468.09
457.86	461.90
458.23	456.53
458.59	450.63
458.96	444.63
459.33	439.38
459.70	434.12
460.07	429.88
460.43	425.00
460.80	420.45
461.17	416.51
461.54	412.35
461.91	408.35
462.27	404.29
462.64	400.93
463.01	397.15
463.38	393.55
463.74	389.97
464.11	386.73
464.48	383.88
464.85	380.77
465.21	378.37
465.58	375.75
465.95	372.65
466.32	370.09
466.68	367.53
467.05	364.94
467.42	362.35
467.78	359.66
468.15	357.15
468.52	355.24
468.88	352.79
469.25	350.57
469.62	348.76
469.98	346.82
470.35	345.02
470.72	343.40
471.08	341.56
471.45	340.03
471.82	338.52
472.18	336.88
472.55	335.67
472.92	334.26
473.28	333.08
473.65	331.93
474.02	330.77
474.38	329.89
474.75	329.14
475.11	328.33
475.48	327.78
475.85	327.35
476.21	326.90
476.58	326.51
476.94	326.27
477.31	325.94
477.67	325.72
478.04	325.57
478.41	325.52
478.77	325.70
479.14	325.68
479.50	325.83
479.87	326.15
480.23	326.48
480.60	326.74
480.96	327.03
481.33	327.66
481.69	328.26
482.06	328.80
482.42	329.26
482.79	329.88
483.15	330.67
483.52	331.61
483.88	332.52
484.25	333.49
484.61	334.52
484.98	335.58
485.34	336.87
485.71	338.25
486.07	339.72
486.44	341.06
486.80	342.63
487.17	344.28
487.53	346.09
487.90	347.95
488.26	350.02
488.62	352.17
488.99	354.22
489.35	356.42
489.72	358.83
490.08	361.38
490.44	363.97
490.81	366.72
491.17	369.42
491.54	372.41
491.90	375.46
492.26	378.77
492.63	382.18
492.99	385.71
493.36	389.43
493.72	393.30
494.08	397.34
494.45	401.58
494.81	405.99
495.17	410.49
495.54	415.25
495.90	420.06
496.26	425.10
496.63	430.32
496.99	435.71
497.35	441.31
497.72	447.19
498.08	453.12
498.44	459.25
498.80	465.73
499.17	472.22
499.53	478.96
499.89	485.86
500.26	492.94
500.62	500.05
500.98	507.47
501.34	514.97
501.71	522.78
502.07	530.72
502.43	538.68
502.79	546.84
503.16	555.25
503.52	563.90
503.88	572.61
504.24	581.62
504.60	590.73
504.97	599.94
505.33	609.35
505.69	619.29
506.05	629.19
506.41	639.07
506.78	649.27
507.14	659.62
507.50	670.16
507.86	680.93
508.22	691.77
508.59	702.47
508.95	713.66
509.31	724.98
509.67	736.51
510.03	748.14
510.39	759.98
510.75	771.99
511.12	784.01
511.48	796.21
511.84	808.58
512.20	821.01
512.56	833.85
512.92	846.74
513.28	859.41
513.64	872.32
514.00	885.23
514.37	898.31
514.73	911.46
515.09	924.57
515.45	937.48
515.81	950.73
516.17	964.22
516.53	977.54
516.89	990.75
517.25	1004.03
517.61	1017.59
517.97	1031.12
518.33	1044.29
518.69	1057.96
519.05	1071.79
519.41	1085.52
519.77	1099.48
520.13	1112.90
520.49	1126.23
520.85	1139.91
521.21	1153.36
521.57	1167.20
521.93	1180.34
522.29	1194.25
522.65	1208.00
523.01	1221.79
523.37	1235.15
523.73	1248.67
524.09	1261.91
524.45	1275.51
524.81	1289.17
525.17	1302.71
525.53	1315.88
525.89	1329.37
526.25	1342.71
526.61	1355.65
526.97	1368.87
527.33	1381.99
527.68	1395.56
528.04	1409.04
528.40	1422.11
528.76	1435.55
529.12	1448.50
529.48	1461.94
529.84	1474.25
530.20	1486.96
530.56	1499.77
530.91	1512.96
531.27	1525.91
531.63	1538.73
531.99	1551.66
532.35	1564.00
532.71	1576.43
533.07	1589.62
533.42	1602.04
533.78	1614.19
534.14	1626.40
534.50	1637.76
534.86	1649.46
535.21	1660.31
535.57	1671.94
535.93	1683.37
536.29	1694.54
536.65	1706.14
537.00	1717.18
537.36	1728.76
537.72	1740.01
538.08	1751.48
538.44	1762.59
538.79	1773.76
539.15	1784.90
539.51	1795.65
539.87	1806.95
540.22	1817.83
540.58	1828.67
540.94	1839.61
541.29	1849.98
541.65	1859.79
542.01	1870.44
542.37	1880.55
542.72	1890.93
543.08	1900.70
543.44	1911.16
543.79	1920.65
544.15	1930.14
544.51	1940.23
544.87	1950.08
545.22	1959.38
545.58	1968.26
545.94	1977.19
546.29	1985.70
546.65	1994.02
547.01	2002.44
547.36	2010.30
547.72	2018.06
548.07	2025.71
548.43	2033.41
548.79	2041.27
549.14	2049.34
549.50	2057.90
549.86	2065.89
550.21	2073.40
550.57	2081.18
550.92	2088.20
551.28	2095.59
551.64	2102.89
551.99	2110.33
552.35	2117.65
552.70	2124.54
553.06	2131.29
553.41	2137.72
553.77	2144.47
554.13	2150.97
554.48	2157.84
554.84	2164.93
555.19	2171.64
555.55	2178.29
555.90	2184.63
556.26	2191.53
556.61	2197.95
556.97	2202.73
557.32	2208.63
557.68	2215.04
558.03	2220.89
558.39	2226.20
558.74	2232.28
559.10	2237.91
559.45	2243.71
559.81	2249.36
560.16	2254.83
560.52	2260.82
560.87	2267.22
561.23	2273.01
561.58	2279.71
561.94	2285.13
562.29	2289.90
562.64	2296.07
563.00	2301.71
563.35	2307.38
563.71	2313.08
564.06	2318.69
564.42	2324.77
564.77	2329.75
565.12	2334.99
565.48	2340.07
565.83	2345.75
566.19	2351.12
566.54	2356.51
566.89	2361.01
567.25	2365.75
567.60	2371.54
567.96	2376.72
568.31	2381.30
568.66	2385.80
569.02	2389.82
569.37	2393.67
569.72	2398.13
570.08	2401.65
570.43	2404.81
570.78	2407.97
571.14	2410.59
571.49	2413.78
571.84	2417.27
572.20	2420.37
572.55	2423.55
572.90	2426.03
573.26	2428.68
573.61	2431.42
573.96	2433.69
574.31	2435.88
574.67	2437.69
575.02	2438.58
575.37	2440.03
575.72	2440.93
576.08	2442.33
576.43	2442.52
576.78	2442.90
577.13	2444.59
577.49	2445.79
577.84	2446.92
578.19	2448.43
578.54	2449.14
578.90	2449.95
579.25	2449.94
579.60	2449.94
579.95	2449.16
580.30	2449.23
580.66	2448.64
581.01	2447.06
581.36	2444.87
581.71	2443.41
582.06	2442.35
582.42	2441.53
582.77	2439.32
583.12	2437.58
583.47	2436.37
583.82	2435.76
584.17	2434.61
584.53	2432.50
584.88	2430.52
585.23	2428.70
585.58	2426.40
585.93	2424.57
586.28	2422.45
586.63	2420.01
586.98	2417.72
587.34	2415.78
587.69	2413.35
588.04	2411.36
588.39	2409.98
588.74	2407.57
589.09	2404.97
589.44	2401.82
589.79	2399.33
590.14	2397.63
590.49	2394.90
590.84	2390.90
591.19	2387.76
591.54	2384.55
591.89	2380.54
592.25	2377.32
592.60	2373.14
592.95	2369.11
593.30	2364.80
593.65	2360.41
594.00	2355.96
594.35	2352.96
594.70	2348.29
595.05	2343.85
595.40	2338.45
595.75	2332.58
596.10	2328.85
596.45	2324.01
596.80	2319.29
597.15	2314.01
597.50	2307.80
597.85	2302.82
598.19	2297.63
598.54	2291.92
598.89	2286.61
599.24	2281.99
599.59	2275.57
599.94	2269.81
600.29	2263.77
600.64	2257.73
600.99	2250.80
601.34	2245.37
601.69	2238.28
602.04	2231.87
602.39	2225.06
602.74	2218.87
603.08	2213.22
603.43	2206.62
603.78	2199.69
604.13	2192.75
604.48	2185.53
604.83	2179.51
605.18	2173.33
605.53	2166.36
605.87	2159.24
606.22	2152.49
606.57	2144.40
606.92	2136.55
607.27	2129.38
607.62	2122.61
607.96	2115.68
608.31	2109.29
608.66	2101.51
609.01	2094.00
609.36	2086.87
609.70	2079.28
610.05	2071.40
610.40	2063.11
610.75	2054.71
611.10	2046.91
611.44	2037.89
611.79	2029.21
612.14	2019.20
612.49	2008.28
612.83	1998.91
613.18	1989.62
613.53	1980.26
613.88	1970.63
614.22	1961.87
614.57	1951.95
614.92	1941.26
615.27	1930.87
615.61	1920.59
615.96	1910.74
616.31	1901.05
616.65	1891.37
617.00	1881.45
617.35	1871.70
617.70	1861.90
618.04	1851.77
618.39	1841.54
618.74	1831.82
619.08	1822.00
619.43	1813.07
619.78	1804.91
620.12	1796.11
620.47	1786.42
620.82	1775.95
621.16	1766.23
621.51	1756.25
621.85	1746.35
622.20	1735.99
622.55	1725.36
622.89	1715.33
623.24	1705.60
623.59	1695.71
623.93	1685.66
624.28	1675.82
624.62	1665.58
624.97	1655.19
625.32	1645.21
625.66	1636.18
626.01	1627.26
626.35	1617.94
626.70	1607.77
627.04	1597.47
627.39	1587.32
627.73	1577.83
628.08	1568.70
628.43	1558.92
628.77	1549.73
629.12	1540.64
629.46	1532.59
629.81	1524.19
630.15	1514.59
630.50	1504.61
630.84	1493.85
631.19	1483.81
631.53	1474.50
631.88	1464.25
632.22	1454.17
632.57	1444.69
632.91	1434.55
633.26	1424.55
633.60	1414.78
633.95	1405.41
634.29	1395.85
634.64	1386.35
634.98	1376.34
635.32	1367.11
635.67	1358.60
636.01	1349.10
636.36	1339.27
636.70	1329.71
637.05	1320.21
637.39	1311.19
637.73	1302.47
638.08	1294.90
638.42	1286.64
638.77	1277.71
639.11	1269.39
639.45	1261.39
639.80	1252.93
640.14	1244.15
640.49	1235.24
640.83	1226.27
641.17	1218.03
641.52	1209.77
641.86	1201.18
642.20	1193.22
642.55	1184.31
642.89	1175.24
643.23	1166.54
643.58	1158.44
643.92	1149.22
644.26	1140.45
644.61	1131.85
644.95	1122.88
645.29	1113.51
645.64	1104.27
645.98	1095.60
646.32	1087.59
646.66	1078.97
647.01	1070.43
647.35	1062.09
647.69	1053.65
648.04	1045.21
648.38	1036.24
648.72	1027.35
649.06	1018.73
649.41	1010.41
649.75	1002.34
650.09	994.31
650.43	986.11
650.78	977.61
651.12	969.74
651.46	962.18
651.80	954.84
652.14	947.41
652.49	939.83
652.83	932.35
653.17	924.61
653.51	916.91
653.85	909.60
654.20	902.32
654.54	894.86
654.88	887.55
655.22	880.29
655.56	873.19
655.90	866.31
656.25	859.58
656.59	852.63
656.93	845.63
657.27	838.47
657.61	831.39
657.95	825.23
658.29	819.22
658.64	813.01
658.98	806.48
659.32	799.90
659.66	793.52
660.00	787.15
660.34	781.01
660.68	774.83
661.02	768.44
661.36	762.31
661.70	756.35
662.05	750.59
662.39	745.04
662.73	739.56
663.07	734.09
663.41	728.38
663.75	722.53
664.09	716.67
664.43	711.17
664.77	705.79
665.11	699.85
665.45	693.97
665.79	688.04
666.13	682.32
666.47	676.76
666.81	671.26
667.15	665.76
667.49	660.40
667.83	655.05
668.17	649.66
668.51	644.51
668.85	639.43
669.19	634.44
669.53	629.30
669.87	624.11
670.21	619.26
670.55	614.49
670.89	609.98
671.23	605.63
671.57	601.17
671.91	596.79
672.25	592.58
672.58	588.36
672.92	584.28
673.26	580.23
673.60	576.35
673.94	572.49
674.28	568.81
674.62	565.06
674.96	561.26
675.30	557.72
675.64	553.99
675.97	550.42
676.31	546.72
676.65	543.09
676.99	539.65
677.33	535.77
677.67	532.07
678.01	528.14
678.34	524.46
678.68	520.97
679.02	517.36
679.36	513.62
679.70	509.96
680.04	506.40
680.37	502.89
680.71	499.47
681.05	496.25
681.39	492.88
681.73	489.66
682.06	486.56
682.40	483.44
682.74	480.21
683.08	476.92
683.42	473.72
683.75	470.67
684.09	467.58
684.43	464.75
684.77	461.83
685.10	459.02
685.44	456.07
685.78	453.08
686.12	450.22
686.45	447.46
686.79	444.74
687.13	442.10
687.46	439.50
687.80	436.83
688.14	433.96
688.48	431.36
688.81	428.59
689.15	425.93
689.49	423.29
689.82	420.74
690.16	418.07
690.50	415.63
690.83	413.11
691.17	410.54
691.51	408.03
691.84	405.70
692.18	403.46
692.52	401.24
692.85	399.08
693.19	396.91
693.52	394.77
693.86	392.53
694.20	390.33
694.53	388.14
694.87	385.89
695.21	383.71
695.54	381.49
695.88	379.35
696.21	377.14
696.55	375.01
696.88	372.93
697.22	371.00
697.56	369.07
697.89	367.15
698.23	365.33
698.56	363.51
698.90	361.71
699.23	359.77
699.57	357.83
699.90	355.91
700.24	354.10
700.58	352.32
700.91	350.64
701.25	349.04
701.58	347.36
701.92	345.79
702.25	344.19
702.59	342.55
702.92	340.99
703.26	339.47
703.59	337.98
703.93	336.68
704.26	335.24
704.60	333.69
704.93	332.19
705.26	330.68
705.60	329.20
705.93	327.65
706.27	326.31
706.60	325.04
706.94	323.83
707.27	322.45
707.61	321.06
707.94	319.67
708.27	318.12
708.61	316.71
708.94	315.26
709.28	313.94
709.61	312.71
709.94	311.45
710.28	310.15
710.61	308.92
710.95	307.51
711.28	306.42
711.61	305.25
711.95	304.10
712.28	302.88
712.61	301.68
712.95	300.63
713.28	299.57
713.61	298.42
713.95	297.23
714.28	296.17
714.61	295.15
714.95	294.13
715.28	293.13
715.61	292.10
715.95	291.15
716.28	290.22
716.61	289.25
716.95	288.28
717.28	287.40
717.61	286.43
717.94	285.53
718.28	284.47
718.61	283.56
718.94	282.64
719.27	281.78
719.61	280.95
719.94	280.07
720.27	279.09
720.60	278.20
720.94	277.40
721.27	276.61
721.60	275.90
721.93	275.16
722.27	274.52
722.60	273.85
722.93	273.12
723.26	272.42
723.59	271.68
723.93	271.04
724.26	270.36
724.59	269.71
724.92	269.06
725.25	268.51
725.59	267.92
725.92	267.40
726.25	266.85
726.58	266.27
726.91	265.70
727.24	265.16
727.57	264.62
727.91	263.99
728.24	263.46
728.57	262.86
728.90	262.35
729.23	261.71
729.56	261.23
729.89	260.67
730.22	260.07
730.55	259.56
730.89	259.02
731.22	258.47
731.55	257.96
731.88	257.45
732.21	256.88
732.54	256.35
732.87	255.81
733.20	255.29
733.53	254.78
733.86	254.29
734.19	253.80
734.52	253.36
734.85	253.08
735.18	252.58
735.51	252.20
735.84	251.76
736.17	251.37
736.50	250.84
736.83	250.71
737.16	250.36
737.49	249.95
737.82	249.53
738.15	249.17
738.48	248.77
738.81	248.37
739.14	247.99
739.47	247.58
739.80	247.22
740.13	246.89
740.46	246.53
740.79	246.10
741.12	245.75
741.45	245.36
741.78	244.94
742.11	244.69
742.44	244.29
742.77	243.97
743.10	243.60
743.43	243.28
743.75	242.70
744.08	242.63
744.41	242.27
744.74	241.95
745.07	241.59
745.40	241.28
745.73	240.99
746.06	240.64
746.39	240.36
746.71	239.99
747.04	239.63
747.37	239.31
747.70	239.02
748.03	238.70
748.36	238.44
748.68	238.11
749.01	237.71
749.34	237.43
749.67	237.12
750.00	236.85
750.33	236.72
750.65	236.47
750.98	235.93
751.31	235.69
751.64	235.44
751.97	235.29
752.29	235.04
752.62	234.76
752.95	234.51
753.28	234.23
753.60	234.02
753.93	233.87
754.26	233.63
754.59	233.42
754.91	233.14
755.24	232.90
755.57	232.66
755.90	232.47
756.22	232.22
756.55	232.00
756.88	231.75
757.20	231.40
757.53	231.12
757.86	230.92
758.19	230.74
758.51	230.53
758.84	230.25
759.17	230.02
759.49	229.83
759.82	229.77
760.15	229.62
760.47	229.44
760.80	229.16
761.13	229.01
761.45	228.77
761.78	228.63
762.11	228.43
762.43	228.24
762.76	228.06
763.08	227.95
763.41	227.75
763.74	227.61
764.06	227.42
764.39	227.27
764.71	227.10
765.04	226.91
765.37	226.73
765.69	226.56
766.02	226.41
766.34	226.28
766.67	226.05
767.00	225.92
767.32	225.89
767.65	225.92
767.97	225.75
768.30	225.65
768.62	225.53
768.95	225.39
769.27	225.26
769.60	225.16
769.92	225.00
770.25	224.85
770.57	224.69
770.90	224.60
771.22	224.49
771.55	224.39
771.87	224.28
772.20	224.17
772.52	224.22
772.85	224.37
773.17	224.27
773.50	224.16
773.82	224.04
774.15	223.80
774.47	223.55
774.80	223.46
775.12	223.36
775.45	223.25
775.77	223.20
776.09	223.14
776.42	223.03
776.74	222.98
777.07	222.92
777.39	222.86
777.72	222.74
778.04	222.66
778.36	222.54
778.69	222.48
779.01	222.41
779.33	222.15
779.66	221.86
779.98	221.78
780.31	221.68
780.63	221.69
780.95	221.65
781.28	221.56
781.60	221.45
781.92	221.35
782.25	221.29
782.57	221.22
782.89	221.14
783.22	221.06
783.54	220.95
783.86	220.87
784.19	220.79
784.51	220.79
784.83	220.70
785.16	220.61
785.48	220.55
785.80	220.46
786.12	220.42
