SpectraSuite Data File
++++++++++++++++++++++++++++++++++++
Date: Tue Jan 29 16:28:40 EST 2013
User: group
Dark Spectrum Present: No
Reference Spectrum Present: No
Number of Sampled Component Spectra: 1
Spectrometers: USB2E7196
Integration Time (usec): 65000 (USB2E7196)
Spectra Averaged: 100 (USB2E7196)
Boxcar Smoothing: 10 (USB2E7196)
Correct for Electrical Dark: No (USB2E7196)
Strobe/Lamp Enabled: No (USB2E7196)
Correct for Detector Non-linearity: No (USB2E7196)
Correct for Stray Light: No (USB2E7196)
Number of Pixels in Processed Spectrum: 2048
>>>>>Begin Processed Spectral Data<<<<<
339.09	0.00
339.48	202.32
339.86	203.73
340.24	205.65
340.63	205.81
341.01	210.73
341.39	209.27
341.78	210.32
342.16	212.22
342.54	212.27
342.93	201.30
343.31	211.44
343.69	211.98
344.07	212.42
344.46	212.81
344.84	213.21
345.22	213.41
345.60	213.67
345.99	213.87
346.37	214.00
346.75	214.09
347.13	214.15
347.52	214.21
347.90	214.31
348.28	214.33
348.66	214.40
349.05	214.37
349.43	214.46
349.81	214.52
350.19	214.57
350.57	214.61
350.96	214.68
351.34	214.83
351.72	214.91
352.10	215.02
352.48	215.10
352.87	215.16
353.25	215.20
353.63	215.26
354.01	215.30
354.39	215.38
354.77	215.46
355.15	215.60
355.54	215.67
355.92	215.65
356.30	215.75
356.68	215.94
357.06	216.01
357.44	216.05
357.82	216.11
358.20	216.21
358.58	216.27
358.97	216.35
359.35	216.44
359.73	216.52
360.11	216.59
360.49	216.66
360.87	216.70
361.25	216.79
361.63	216.90
362.01	216.98
362.39	216.99
362.77	217.09
363.15	217.10
363.53	217.14
363.91	217.23
364.29	217.27
364.67	217.12
365.05	217.14
365.43	217.18
365.81	217.23
366.19	217.34
366.57	217.44
366.95	217.44
367.33	217.39
367.71	217.38
368.09	217.42
368.47	217.41
368.85	217.43
369.23	217.45
369.61	217.35
369.99	217.40
370.37	217.44
370.75	217.54
371.13	217.48
371.51	217.43
371.89	217.42
372.27	217.41
372.65	217.37
373.03	217.33
373.41	217.28
373.78	217.26
374.16	217.13
374.54	217.04
374.92	216.99
375.30	216.97
375.68	216.89
376.06	216.89
376.44	216.84
376.82	216.79
377.19	216.74
377.57	216.71
377.95	216.60
378.33	216.51
378.71	216.30
379.09	216.30
379.47	216.29
379.84	216.20
380.22	216.16
380.60	216.10
380.98	216.06
381.36	216.00
381.73	215.91
382.11	215.89
382.49	215.83
382.87	215.81
383.25	215.75
383.62	215.98
384.00	215.85
384.38	215.82
384.76	215.86
385.13	215.92
385.51	215.87
385.89	215.82
386.27	215.82
386.64	215.81
387.02	215.74
387.40	215.67
387.78	215.69
388.15	215.62
388.53	215.59
388.91	215.58
389.29	215.53
389.66	215.53
390.04	215.52
390.42	215.57
390.79	215.55
391.17	215.56
391.55	215.28
391.92	215.30
392.30	215.30
392.68	215.24
393.05	215.19
393.43	215.20
393.81	215.24
394.18	215.18
394.56	215.23
394.94	215.31
395.31	215.30
395.69	215.34
396.06	215.40
396.44	215.45
396.82	215.45
397.19	215.59
397.57	215.61
397.95	215.65
398.32	215.59
398.70	215.62
399.07	215.71
399.45	215.78
399.82	215.83
400.20	215.86
400.58	215.91
400.95	215.89
401.33	215.99
401.70	216.21
402.08	216.32
402.45	216.38
402.83	216.50
403.20	216.63
403.58	216.72
403.95	216.85
404.33	217.00
404.71	217.15
405.08	217.42
405.46	217.59
405.83	217.79
406.21	218.00
406.58	218.23
406.96	218.44
407.33	218.71
407.70	218.99
408.08	219.49
408.45	219.83
408.83	220.24
409.20	220.61
409.58	220.89
409.95	221.34
410.33	221.83
410.70	222.26
411.08	222.83
411.45	223.38
411.82	223.98
412.20	224.69
412.57	225.52
412.95	226.06
413.32	226.90
413.69	227.75
414.07	228.66
414.44	229.63
414.82	230.66
415.19	231.85
415.56	233.04
415.94	234.19
416.31	235.62
416.68	236.99
417.06	238.60
417.43	240.16
417.81	241.87
418.18	243.66
418.55	245.57
418.93	247.59
419.30	249.73
419.67	251.95
420.04	254.18
420.42	256.53
420.79	259.37
421.16	262.12
421.54	264.97
421.91	267.98
422.28	271.11
422.66	274.39
423.03	277.61
423.40	280.97
423.77	284.52
424.15	288.20
424.52	292.04
424.89	296.20
425.26	300.25
425.64	304.15
426.01	308.40
426.38	312.85
426.75	317.37
427.13	322.06
427.50	327.02
427.87	332.24
428.24	337.48
428.61	342.44
428.99	347.98
429.36	354.04
429.73	359.91
430.10	365.79
430.47	371.83
430.85	378.12
431.22	384.79
431.59	391.91
431.96	398.72
432.33	406.20
432.70	413.38
433.08	421.89
433.45	429.91
433.82	437.97
434.19	446.81
434.56	455.56
434.93	463.94
435.30	472.22
435.68	481.31
436.05	490.26
436.42	499.14
436.79	507.27
437.16	515.93
437.53	525.20
437.90	534.29
438.27	543.20
438.64	552.45
439.01	560.99
439.38	568.56
439.75	575.84
440.13	584.21
440.50	592.18
440.87	598.57
441.24	605.19
441.61	612.48
441.98	617.92
442.35	624.21
442.72	630.48
443.09	636.46
443.46	640.19
443.83	642.70
444.20	644.90
444.57	648.03
444.94	649.56
445.31	650.93
445.68	652.26
446.05	652.92
446.42	652.12
446.79	651.15
447.16	650.07
447.53	649.28
447.90	645.97
448.27	642.73
448.64	638.06
449.01	634.79
449.37	628.92
449.74	623.25
450.11	616.34
450.48	608.99
450.85	601.58
451.22	595.14
451.59	589.07
451.96	583.30
452.33	575.44
452.70	568.26
453.07	559.88
453.43	551.34
453.80	543.06
454.17	535.13
454.54	527.61
454.91	519.45
455.28	511.50
455.65	504.13
456.02	496.65
456.38	490.36
456.75	482.49
457.12	475.93
457.49	469.36
457.86	463.21
458.23	457.82
458.59	451.88
458.96	445.86
459.33	440.53
459.70	435.11
460.07	430.89
460.43	426.04
460.80	421.40
461.17	417.40
461.54	413.23
461.91	409.17
462.27	405.09
462.64	401.68
463.01	397.91
463.38	394.23
463.74	390.53
464.11	387.25
464.48	384.43
464.85	381.34
465.21	378.98
465.58	376.36
465.95	373.22
466.32	370.65
466.68	368.09
467.05	365.47
467.42	362.94
467.78	360.28
468.15	357.78
468.52	355.89
468.88	353.40
469.25	351.15
469.62	349.38
469.98	347.40
470.35	345.57
470.72	343.87
471.08	342.10
471.45	340.58
471.82	339.08
472.18	337.37
472.55	336.18
472.92	334.79
473.28	333.55
473.65	332.38
474.02	331.29
474.38	330.38
474.75	329.64
475.11	328.82
475.48	328.22
475.85	327.72
476.21	327.22
476.58	326.93
476.94	326.74
477.31	326.37
477.67	326.14
478.04	326.00
478.41	325.95
478.77	326.10
479.14	326.06
479.50	326.20
479.87	326.54
480.23	326.83
480.60	327.07
480.96	327.37
481.33	327.96
481.69	328.51
482.06	329.09
482.42	329.55
482.79	330.18
483.15	330.95
483.52	331.92
483.88	332.82
484.25	333.71
484.61	334.68
484.98	335.75
485.34	337.07
485.71	338.46
486.07	339.92
486.44	341.20
486.80	342.79
487.17	344.46
487.53	346.27
487.90	348.16
488.26	350.21
488.62	352.35
488.99	354.46
489.35	356.64
489.72	358.97
490.08	361.53
490.44	364.10
490.81	366.87
491.17	369.57
491.54	372.63
491.90	375.71
492.26	378.95
492.63	382.41
492.99	385.86
493.36	389.54
493.72	393.44
494.08	397.53
494.45	401.78
494.81	406.19
495.17	410.63
495.54	415.35
495.90	420.14
496.26	425.11
496.63	430.29
496.99	435.70
497.35	441.25
497.72	447.09
498.08	453.04
498.44	459.12
498.80	465.59
499.17	472.11
499.53	478.80
499.89	485.76
500.26	492.79
500.62	499.92
500.98	507.33
501.34	514.84
501.71	522.61
502.07	530.47
502.43	538.52
502.79	546.73
503.16	555.15
503.52	563.81
503.88	572.62
504.24	581.61
504.60	590.66
504.97	600.05
505.33	609.36
505.69	619.28
506.05	629.20
506.41	639.17
506.78	649.23
507.14	659.61
507.50	670.08
507.86	680.86
508.22	691.76
508.59	702.47
508.95	713.57
509.31	724.92
509.67	736.47
510.03	748.01
510.39	759.78
510.75	771.69
511.12	783.60
511.48	795.69
511.84	807.98
512.20	820.41
512.56	833.12
512.92	846.06
513.28	858.83
513.64	871.72
514.00	884.59
514.37	897.63
514.73	910.74
515.09	923.93
515.45	936.93
515.81	950.05
516.17	963.53
516.53	976.97
516.89	990.11
517.25	1003.36
517.61	1016.88
517.97	1030.46
518.33	1043.77
518.69	1057.45
519.05	1071.38
519.41	1085.14
519.77	1099.20
520.13	1112.60
520.49	1125.90
520.85	1139.33
521.21	1152.74
521.57	1166.54
521.93	1179.78
522.29	1193.67
522.65	1207.33
523.01	1220.95
523.37	1234.21
523.73	1247.68
524.09	1260.86
524.45	1274.52
524.81	1288.19
525.17	1301.72
525.53	1314.99
525.89	1328.33
526.25	1341.62
526.61	1354.47
526.97	1367.82
527.33	1380.93
527.68	1394.43
528.04	1408.06
528.40	1421.34
528.76	1434.85
529.12	1447.77
529.48	1461.17
529.84	1473.59
530.20	1486.50
530.56	1499.29
530.91	1512.68
531.27	1525.67
531.63	1538.56
531.99	1551.37
532.35	1563.71
532.71	1576.22
533.07	1589.22
533.42	1601.72
533.78	1613.95
534.14	1626.23
534.50	1637.67
534.86	1649.32
535.21	1660.36
535.57	1671.90
535.93	1683.25
536.29	1694.44
536.65	1705.98
537.00	1717.02
537.36	1728.57
537.72	1739.64
538.08	1751.17
538.44	1762.23
538.79	1773.47
539.15	1784.40
539.51	1795.28
539.87	1806.61
540.22	1817.47
540.58	1828.50
540.94	1839.40
541.29	1849.88
541.65	1859.75
542.01	1870.33
542.37	1880.49
542.72	1890.81
543.08	1900.71
543.44	1911.30
543.79	1920.69
544.15	1930.44
544.51	1940.56
544.87	1950.39
545.22	1959.72
545.58	1968.74
545.94	1977.77
546.29	1986.35
546.65	1994.83
547.01	2003.21
547.36	2011.16
547.72	2019.04
548.07	2026.65
548.43	2034.50
548.79	2042.47
549.14	2050.74
549.50	2059.11
549.86	2067.13
550.21	2074.62
550.57	2082.44
550.92	2089.41
551.28	2096.95
551.64	2104.20
551.99	2111.76
552.35	2119.04
552.70	2126.00
553.06	2132.64
553.41	2138.96
553.77	2145.44
554.13	2151.86
554.48	2158.93
554.84	2166.15
555.19	2172.89
555.55	2179.48
555.90	2185.81
556.26	2192.66
556.61	2198.74
556.97	2203.61
557.32	2209.45
557.68	2215.91
558.03	2221.61
558.39	2226.86
558.74	2232.87
559.10	2238.37
559.45	2244.10
559.81	2249.70
560.16	2255.28
560.52	2261.35
560.87	2267.76
561.23	2273.81
561.58	2280.61
561.94	2285.76
562.29	2290.38
562.64	2296.45
563.00	2302.07
563.35	2307.70
563.71	2313.42
564.06	2319.14
564.42	2325.28
564.77	2330.44
565.12	2335.75
565.48	2340.97
565.83	2346.65
566.19	2352.16
566.54	2357.63
566.89	2362.23
567.25	2366.89
567.60	2372.57
567.96	2377.62
568.31	2382.27
568.66	2386.52
569.02	2390.51
569.37	2394.29
569.72	2398.68
570.08	2402.13
570.43	2405.38
570.78	2408.51
571.14	2410.86
571.49	2414.02
571.84	2417.50
572.20	2420.35
572.55	2423.25
572.90	2425.65
573.26	2428.43
573.61	2431.01
573.96	2433.24
574.31	2435.19
574.67	2437.02
575.02	2437.85
575.37	2439.34
575.72	2439.97
576.08	2441.57
576.43	2441.77
576.78	2442.29
577.13	2443.93
577.49	2445.14
577.84	2446.11
578.19	2447.36
578.54	2448.18
578.90	2448.88
579.25	2448.72
579.60	2448.51
579.95	2447.78
580.30	2447.76
580.66	2447.06
581.01	2445.42
581.36	2442.87
581.71	2441.49
582.06	2440.31
582.42	2439.33
582.77	2437.16
583.12	2435.55
583.47	2434.00
583.82	2433.37
584.17	2432.16
584.53	2429.95
584.88	2427.82
585.23	2425.88
585.58	2423.49
585.93	2421.38
586.28	2419.11
586.63	2416.61
586.98	2414.41
587.34	2412.46
587.69	2409.91
588.04	2407.78
588.39	2406.27
588.74	2403.90
589.09	2401.13
589.44	2398.08
589.79	2395.61
590.14	2393.42
590.49	2390.78
590.84	2386.89
591.19	2383.67
591.54	2380.39
591.89	2376.41
592.25	2373.16
592.60	2368.97
592.95	2364.99
593.30	2360.81
593.65	2356.32
594.00	2351.94
594.35	2348.93
594.70	2344.25
595.05	2339.79
595.40	2334.19
595.75	2328.30
596.10	2324.67
596.45	2319.82
596.80	2315.14
597.15	2310.01
597.50	2304.03
597.85	2298.91
598.19	2293.76
598.54	2287.89
598.89	2282.55
599.24	2277.79
599.59	2271.58
599.94	2265.69
600.29	2259.60
600.64	2253.66
600.99	2246.84
601.34	2241.30
601.69	2234.35
602.04	2227.92
602.39	2221.15
602.74	2215.05
603.08	2209.58
603.43	2203.09
603.78	2196.14
604.13	2189.12
604.48	2181.68
604.83	2175.54
605.18	2169.31
605.53	2162.27
605.87	2155.17
606.22	2148.44
606.57	2140.49
606.92	2132.34
607.27	2125.33
607.62	2118.67
607.96	2111.75
608.31	2105.36
608.66	2097.63
609.01	2089.85
609.36	2082.78
609.70	2075.14
610.05	2067.40
610.40	2059.07
610.75	2050.53
611.10	2042.75
611.44	2033.67
611.79	2024.95
612.14	2014.92
612.49	2004.19
612.83	1994.75
613.18	1985.51
613.53	1976.09
613.88	1966.50
614.22	1957.88
614.57	1947.96
614.92	1937.33
615.27	1926.80
615.61	1916.55
615.96	1906.70
616.31	1897.08
616.65	1887.46
617.00	1877.50
617.35	1867.74
617.70	1857.83
618.04	1847.86
618.39	1837.74
618.74	1828.10
619.08	1818.31
619.43	1809.54
619.78	1801.17
620.12	1792.68
620.47	1782.94
620.82	1772.57
621.16	1762.68
621.51	1752.70
621.85	1742.85
622.20	1732.44
622.55	1721.88
622.89	1711.96
623.24	1702.26
623.59	1692.49
623.93	1682.34
624.28	1672.48
624.62	1662.18
624.97	1651.82
625.32	1641.89
625.66	1632.83
626.01	1624.02
626.35	1614.74
626.70	1604.66
627.04	1594.52
627.39	1584.22
627.73	1574.85
628.08	1565.89
628.43	1556.20
628.77	1546.98
629.12	1538.03
629.46	1530.18
629.81	1521.78
630.15	1512.30
630.50	1502.34
630.84	1491.71
631.19	1481.68
631.53	1472.36
631.88	1462.36
632.22	1452.39
632.57	1442.88
632.91	1432.82
633.26	1422.75
633.60	1413.06
633.95	1403.75
634.29	1394.10
634.64	1384.80
634.98	1374.72
635.32	1365.33
635.67	1356.90
636.01	1347.52
636.36	1337.69
636.70	1327.99
637.05	1318.50
637.39	1309.43
637.73	1300.70
638.08	1293.10
638.42	1284.87
638.77	1276.09
639.11	1267.69
639.45	1259.70
639.80	1251.18
640.14	1242.27
640.49	1233.38
640.83	1224.54
641.17	1216.33
641.52	1208.15
641.86	1199.38
642.20	1191.52
642.55	1182.82
642.89	1173.84
643.23	1165.12
643.58	1156.89
643.92	1147.87
644.26	1139.11
644.61	1130.57
644.95	1121.82
645.29	1112.59
645.64	1103.34
645.98	1094.70
646.32	1086.67
646.66	1078.12
647.01	1069.69
647.35	1061.49
647.69	1053.21
648.04	1044.78
648.38	1035.82
648.72	1026.98
649.06	1018.57
649.41	1010.29
649.75	1002.21
650.09	994.20
650.43	986.04
650.78	977.68
651.12	969.82
651.46	962.34
651.80	955.04
652.14	947.62
652.49	939.94
652.83	932.45
653.17	924.68
653.51	917.01
653.85	909.70
654.20	902.43
654.54	894.86
654.88	887.44
655.22	880.13
655.56	872.96
655.90	866.10
656.25	859.28
656.59	852.29
656.93	845.17
657.27	838.07
657.61	831.04
657.95	824.80
658.29	818.89
658.64	812.71
658.98	806.07
659.32	799.44
659.66	793.19
660.00	786.92
660.34	780.78
660.68	774.59
661.02	768.20
661.36	762.14
661.70	756.27
662.05	750.58
662.39	745.09
662.73	739.71
663.07	734.26
663.41	728.57
663.75	722.84
664.09	717.08
664.43	711.62
664.77	706.21
665.11	700.39
665.45	694.43
665.79	688.56
666.13	682.87
666.47	677.32
666.81	671.67
667.15	666.16
667.49	660.93
667.83	655.55
668.17	650.26
668.51	645.06
668.85	640.12
669.19	635.20
669.53	630.11
669.87	624.92
670.21	620.11
670.55	615.33
670.89	610.77
671.23	606.40
671.57	601.87
671.91	597.59
672.25	593.40
672.58	589.18
672.92	585.02
673.26	581.01
673.60	577.10
673.94	573.33
674.28	569.71
674.62	565.97
674.96	562.25
675.30	558.68
675.64	554.96
675.97	551.30
676.31	547.63
676.65	543.97
676.99	540.46
677.33	536.60
677.67	532.94
678.01	529.05
678.34	525.39
678.68	521.85
679.02	518.17
679.36	514.42
679.70	510.71
680.04	507.19
680.37	503.68
680.71	500.24
681.05	497.03
681.39	493.67
681.73	490.43
682.06	487.34
682.40	484.15
682.74	480.92
683.08	477.66
683.42	474.40
683.75	471.36
684.09	468.33
684.43	465.46
684.77	462.48
685.10	459.60
685.44	456.67
685.78	453.68
686.12	450.85
686.45	448.14
686.79	445.43
687.13	442.81
687.46	440.16
687.80	437.45
688.14	434.55
688.48	431.90
688.81	429.15
689.15	426.56
689.49	423.98
689.82	421.44
690.16	418.81
690.50	416.35
690.83	413.78
691.17	411.23
691.51	408.68
691.84	406.34
692.18	404.11
692.52	401.85
692.85	399.68
693.19	397.48
693.52	395.21
693.86	392.99
694.20	390.79
694.53	388.65
694.87	386.44
695.21	384.26
695.54	382.06
695.88	379.88
696.21	377.61
696.55	375.43
696.88	373.34
697.22	371.37
697.56	369.41
697.89	367.51
698.23	365.69
698.56	363.85
698.90	362.04
699.23	360.12
699.57	358.24
699.90	356.34
700.24	354.51
700.58	352.73
700.91	350.98
701.25	349.37
701.58	347.75
701.92	346.15
702.25	344.52
702.59	342.90
702.92	341.34
703.26	339.76
703.59	338.25
703.93	336.97
704.26	335.48
704.60	333.97
704.93	332.45
705.26	330.93
705.60	329.48
705.93	327.94
706.27	326.57
706.60	325.26
706.94	324.07
707.27	322.67
707.61	321.30
707.94	319.91
708.27	318.39
708.61	316.86
708.94	315.43
709.28	314.11
709.61	312.82
709.94	311.59
710.28	310.33
710.61	309.16
710.95	307.69
711.28	306.58
711.61	305.39
711.95	304.26
712.28	303.03
712.61	301.85
712.95	300.83
713.28	299.80
713.61	298.61
713.95	297.38
714.28	296.35
714.61	295.32
714.95	294.35
715.28	293.33
715.61	292.32
715.95	291.36
716.28	290.41
716.61	289.46
716.95	288.46
717.28	287.54
717.61	286.50
717.94	285.62
718.28	284.61
718.61	283.74
718.94	282.79
719.27	281.94
719.61	281.10
719.94	280.21
720.27	279.21
720.60	278.38
720.94	277.56
721.27	276.80
721.60	276.13
721.93	275.37
722.27	274.72
722.60	274.07
722.93	273.34
723.26	272.65
723.59	271.92
723.93	271.29
724.26	270.65
724.59	270.02
724.92	269.38
725.25	268.83
725.59	268.23
725.92	267.73
726.25	267.11
726.58	266.50
726.91	265.88
727.24	265.35
727.57	264.76
727.91	264.16
728.24	263.60
728.57	262.93
728.90	262.41
729.23	261.78
729.56	261.32
729.89	260.78
730.22	260.21
730.55	259.66
730.89	259.07
731.22	258.53
731.55	258.02
731.88	257.49
732.21	256.95
732.54	256.42
732.87	255.90
733.20	255.45
733.53	255.00
733.86	254.55
734.19	254.04
734.52	253.62
734.85	253.35
735.18	252.88
735.51	252.52
735.84	252.07
736.17	251.69
736.50	251.14
736.83	250.98
737.16	250.61
737.49	250.26
737.82	249.87
738.15	249.45
738.48	249.08
738.81	248.67
739.14	248.21
739.47	247.77
739.80	247.35
740.13	246.97
740.46	246.58
740.79	246.17
741.12	245.83
741.45	245.45
741.78	244.99
742.11	244.68
742.44	244.28
742.77	243.96
743.10	243.60
743.43	243.27
743.75	242.71
744.08	242.65
744.41	242.25
744.74	241.88
745.07	241.53
745.40	241.22
745.73	241.00
746.06	240.70
746.39	240.41
746.71	240.07
747.04	239.70
747.37	239.36
747.70	239.10
748.03	238.80
748.36	238.54
748.68	238.21
749.01	237.84
749.34	237.57
749.67	237.25
750.00	236.96
750.33	236.80
750.65	236.54
750.98	235.98
751.31	235.77
751.64	235.57
751.97	235.43
752.29	235.14
752.62	234.77
752.95	234.51
753.28	234.24
753.60	233.99
753.93	233.83
754.26	233.60
754.59	233.29
754.91	233.04
755.24	232.80
755.57	232.57
755.90	232.37
756.22	232.12
756.55	231.91
756.88	231.64
757.20	231.31
757.53	231.06
757.86	230.84
758.19	230.57
758.51	230.37
758.84	230.05
759.17	229.83
759.49	229.65
759.82	229.55
760.15	229.40
760.47	229.24
760.80	228.99
761.13	228.81
761.45	228.60
761.78	228.42
762.11	228.23
762.43	228.03
762.76	227.84
763.08	227.66
763.41	227.50
763.74	227.36
764.06	227.22
764.39	227.07
764.71	226.93
765.04	226.78
765.37	226.59
765.69	226.45
766.02	226.33
766.34	226.19
766.67	225.95
767.00	225.86
767.32	225.81
767.65	225.81
767.97	225.66
768.30	225.58
768.62	225.44
768.95	225.28
769.27	225.18
769.60	225.10
769.92	224.96
770.25	224.79
770.57	224.66
770.90	224.51
771.22	224.33
771.55	224.20
771.87	224.11
772.20	224.01
772.52	224.08
772.85	224.24
773.17	224.12
773.50	224.04
773.82	223.90
774.15	223.72
774.47	223.53
774.80	223.45
775.12	223.33
775.45	223.24
775.77	223.19
776.09	223.07
776.42	222.96
776.74	222.93
777.07	222.85
777.39	222.74
777.72	222.65
778.04	222.60
778.36	222.50
778.69	222.41
779.01	222.34
779.33	222.03
779.66	221.67
779.98	221.59
780.31	221.49
780.63	221.48
780.95	221.43
781.28	221.28
781.60	221.21
781.92	221.15
782.25	221.08
782.57	220.99
782.89	220.94
783.22	220.85
783.54	220.74
783.86	220.69
784.19	220.62
784.51	220.62
784.83	220.53
785.16	220.47
785.48	220.41
785.80	220.34
786.12	220.35
