SpectraSuite Data File
++++++++++++++++++++++++++++++++++++
Date: Tue Jan 29 16:02:21 EST 2013
User: group
Dark Spectrum Present: No
Reference Spectrum Present: No
Number of Sampled Component Spectra: 1
Spectrometers: USB2E7196
Integration Time (usec): 65000 (USB2E7196)
Spectra Averaged: 100 (USB2E7196)
Boxcar Smoothing: 10 (USB2E7196)
Correct for Electrical Dark: No (USB2E7196)
Strobe/Lamp Enabled: No (USB2E7196)
Correct for Detector Non-linearity: No (USB2E7196)
Correct for Stray Light: No (USB2E7196)
Number of Pixels in Processed Spectrum: 2048
>>>>>Begin Processed Spectral Data<<<<<
339.09	0.00
339.48	202.40
339.86	203.97
340.24	205.91
340.63	207.14
341.01	211.78
341.39	209.82
341.78	211.70
342.16	212.68
342.54	212.61
342.93	202.06
343.31	212.24
343.69	212.79
344.07	213.28
344.46	213.69
344.84	214.09
345.22	214.24
345.60	214.52
345.99	214.69
346.37	214.83
346.75	214.96
347.13	215.06
347.52	215.14
347.90	215.27
348.28	215.30
348.66	215.36
349.05	215.32
349.43	215.37
349.81	215.41
350.19	215.48
350.57	215.58
350.96	215.66
351.34	215.80
351.72	215.90
352.10	216.00
352.48	216.10
352.87	216.16
353.25	216.25
353.63	216.30
354.01	216.39
354.39	216.51
354.77	216.58
355.15	216.68
355.54	216.69
355.92	216.67
356.30	216.77
356.68	216.98
357.06	217.09
357.44	217.12
357.82	217.20
358.20	217.28
358.58	217.33
358.97	217.39
359.35	217.49
359.73	217.61
360.11	217.71
360.49	217.75
360.87	217.79
361.25	217.87
361.63	217.98
362.01	218.02
362.39	217.98
362.77	218.05
363.15	218.09
363.53	218.12
363.91	218.18
364.29	218.20
364.67	218.04
365.05	218.03
365.43	218.10
365.81	218.15
366.19	218.23
366.57	218.34
366.95	218.30
367.33	218.26
367.71	218.23
368.09	218.23
368.47	218.24
368.85	218.25
369.23	218.27
369.61	218.17
369.99	218.20
370.37	218.23
370.75	218.31
371.13	218.24
371.51	218.21
371.89	218.17
372.27	218.15
372.65	218.12
373.03	218.09
373.41	218.03
373.78	217.97
374.16	217.85
374.54	217.75
374.92	217.70
375.30	217.66
375.68	217.58
376.06	217.54
376.44	217.48
376.82	217.45
377.19	217.38
377.57	217.32
377.95	217.24
378.33	217.18
378.71	216.96
379.09	216.96
379.47	216.93
379.84	216.88
380.22	216.82
380.60	216.74
380.98	216.70
381.36	216.64
381.73	216.56
382.11	216.54
382.49	216.49
382.87	216.46
383.25	216.43
383.62	216.64
384.00	216.56
384.38	216.53
384.76	216.55
385.13	216.59
385.51	216.63
385.89	216.57
386.27	216.54
386.64	216.57
387.02	216.52
387.40	216.47
387.78	216.46
388.15	216.45
388.53	216.43
388.91	216.42
389.29	216.38
389.66	216.39
390.04	216.33
390.42	216.36
390.79	216.35
391.17	216.34
391.55	216.08
391.92	216.07
392.30	216.09
392.68	216.01
393.05	216.00
393.43	215.99
393.81	215.99
394.18	215.97
394.56	215.99
394.94	216.04
395.31	216.03
395.69	216.08
396.06	216.12
396.44	216.17
396.82	216.16
397.19	216.31
397.57	216.31
397.95	216.40
398.32	216.34
398.70	216.40
399.07	216.46
399.45	216.49
399.82	216.53
400.20	216.54
400.58	216.60
400.95	216.57
401.33	216.64
401.70	216.83
402.08	216.89
402.45	216.96
402.83	217.05
403.20	217.18
403.58	217.25
403.95	217.39
404.33	217.53
404.71	217.68
405.08	217.91
405.46	218.04
405.83	218.22
406.21	218.44
406.58	218.67
406.96	218.89
407.33	219.16
407.70	219.44
408.08	219.89
408.45	220.25
408.83	220.62
409.20	220.97
409.58	221.26
409.95	221.73
410.33	222.17
410.70	222.64
411.08	223.19
411.45	223.73
411.82	224.28
412.20	224.96
412.57	225.77
412.95	226.30
413.32	227.10
413.69	227.90
414.07	228.77
414.44	229.66
414.82	230.62
415.19	231.74
415.56	232.93
415.94	234.06
416.31	235.39
416.68	236.72
417.06	238.25
417.43	239.73
417.81	241.40
418.18	243.12
418.55	244.94
418.93	246.87
419.30	248.90
419.67	251.03
420.04	253.19
420.42	255.50
420.79	258.26
421.16	260.94
421.54	263.73
421.91	266.64
422.28	269.68
422.66	272.86
423.03	276.02
423.40	279.21
423.77	282.66
424.15	286.23
424.52	289.97
424.89	293.98
425.26	297.94
425.64	301.70
426.01	305.84
426.38	310.15
426.75	314.56
427.13	319.17
427.50	323.97
427.87	329.02
428.24	334.01
428.61	338.78
428.99	344.14
429.36	349.95
429.73	355.62
430.10	361.26
430.47	367.10
430.85	373.20
431.22	379.70
431.59	386.59
431.96	393.17
432.33	400.41
432.70	407.41
433.08	415.59
433.45	423.30
433.82	431.08
434.19	439.69
434.56	448.01
434.93	456.04
435.30	464.07
435.68	472.81
436.05	481.43
436.42	490.07
436.79	497.83
437.16	506.31
437.53	515.28
437.90	524.07
438.27	532.72
438.64	541.56
439.01	549.72
439.38	557.01
439.75	564.10
440.13	572.20
440.50	579.81
440.87	586.01
441.24	592.45
441.61	599.46
441.98	604.60
442.35	610.77
442.72	616.82
443.09	622.62
443.46	626.25
443.83	628.69
444.20	630.70
444.57	633.80
444.94	635.12
445.31	636.46
445.68	637.80
446.05	638.34
446.42	637.60
446.79	636.73
447.16	635.69
447.53	634.90
447.90	631.64
448.27	628.52
448.64	624.05
449.01	620.80
449.37	615.10
449.74	609.59
450.11	602.86
450.48	595.75
450.85	588.54
451.22	582.28
451.59	576.35
451.96	570.73
452.33	563.17
452.70	556.34
453.07	548.16
453.43	539.84
453.80	531.91
454.17	524.23
454.54	516.97
454.91	509.09
455.28	501.39
455.65	494.32
456.02	487.11
456.38	481.05
456.75	473.53
457.12	467.21
457.49	461.06
457.86	455.14
458.23	450.00
458.59	444.33
458.96	438.57
459.33	433.50
459.70	428.34
460.07	424.27
460.43	419.58
460.80	415.22
461.17	411.45
461.54	407.42
461.91	403.57
462.27	399.55
462.64	396.25
463.01	392.63
463.38	389.02
463.74	385.41
464.11	382.27
464.48	379.53
464.85	376.63
465.21	374.22
465.58	371.70
465.95	368.62
466.32	366.09
466.68	363.58
467.05	361.11
467.42	358.67
467.78	356.07
468.15	353.65
468.52	351.82
468.88	349.39
469.25	347.30
469.62	345.56
469.98	343.74
470.35	342.04
470.72	340.39
471.08	338.69
471.45	337.32
471.82	335.88
472.18	334.30
472.55	333.11
472.92	331.81
473.28	330.64
473.65	329.60
474.02	328.52
474.38	327.70
474.75	326.97
475.11	326.24
475.48	325.72
475.85	325.27
476.21	324.76
476.58	324.45
476.94	324.17
477.31	323.89
477.67	323.68
478.04	323.54
478.41	323.55
478.77	323.74
479.14	323.70
479.50	323.85
479.87	324.15
480.23	324.49
480.60	324.79
480.96	325.08
481.33	325.68
481.69	326.30
482.06	326.86
482.42	327.42
482.79	328.06
483.15	328.90
483.52	329.84
483.88	330.80
484.25	331.80
484.61	332.90
484.98	334.02
485.34	335.32
485.71	336.71
486.07	338.15
486.44	339.48
486.80	341.08
487.17	342.71
487.53	344.51
487.90	346.39
488.26	348.40
488.62	350.62
488.99	352.67
489.35	354.87
489.72	357.20
490.08	359.70
490.44	362.22
490.81	364.87
491.17	367.56
491.54	370.52
491.90	373.49
492.26	376.69
492.63	380.02
492.99	383.48
493.36	387.14
493.72	391.00
494.08	395.02
494.45	399.17
494.81	403.55
495.17	408.04
495.54	412.73
495.90	417.54
496.26	422.44
496.63	427.59
496.99	432.92
497.35	438.52
497.72	444.28
498.08	450.28
498.44	456.35
498.80	462.72
499.17	469.14
499.53	475.90
499.89	482.79
500.26	489.75
500.62	496.84
500.98	504.24
501.34	511.69
501.71	519.42
502.07	527.26
502.43	535.28
502.79	543.35
503.16	551.71
503.52	560.29
503.88	568.94
504.24	577.82
504.60	586.88
504.97	596.06
505.33	605.33
505.69	615.12
506.05	625.01
506.41	634.84
506.78	644.89
507.14	655.06
507.50	665.46
507.86	676.21
508.22	686.94
508.59	697.55
508.95	708.65
509.31	719.87
509.67	731.30
510.03	742.69
510.39	754.44
510.75	766.22
511.12	778.05
511.48	790.11
511.84	802.33
512.20	814.60
512.56	827.15
512.92	839.86
513.28	852.38
513.64	865.03
514.00	877.80
514.37	890.70
514.73	903.74
515.09	916.58
515.45	929.19
515.81	942.16
516.17	955.36
516.53	968.41
516.89	981.36
517.25	994.39
517.61	1007.75
517.97	1020.89
518.33	1033.86
518.69	1047.28
519.05	1060.85
519.41	1074.42
519.77	1088.13
520.13	1101.27
520.49	1114.27
520.85	1127.47
521.21	1140.54
521.57	1154.04
521.93	1166.88
522.29	1180.34
522.65	1193.89
523.01	1207.34
523.37	1220.20
523.73	1233.31
524.09	1246.18
524.45	1259.35
524.81	1272.51
525.17	1285.57
525.53	1298.57
525.89	1311.59
526.25	1324.39
526.61	1336.86
526.97	1349.51
527.33	1362.10
527.68	1375.24
528.04	1388.44
528.40	1401.35
528.76	1414.44
529.12	1427.03
529.48	1440.05
529.84	1452.08
530.20	1464.46
530.56	1476.87
530.91	1489.88
531.27	1502.35
531.63	1515.01
531.99	1527.54
532.35	1539.56
532.71	1551.70
533.07	1564.10
533.42	1576.14
533.78	1587.90
534.14	1599.72
534.50	1610.81
534.86	1622.15
535.21	1632.82
535.57	1644.03
535.93	1655.11
536.29	1666.00
536.65	1677.09
537.00	1687.90
537.36	1698.93
537.72	1709.61
538.08	1720.59
538.44	1731.27
538.79	1742.17
539.15	1752.52
539.51	1762.88
539.87	1773.97
540.22	1784.40
540.58	1795.14
540.94	1805.62
541.29	1815.69
541.65	1825.21
542.01	1835.44
542.37	1845.26
542.72	1855.19
543.08	1864.64
543.44	1874.54
543.79	1883.57
544.15	1892.86
544.51	1902.56
544.87	1912.22
545.22	1921.14
545.58	1929.76
545.94	1938.32
546.29	1946.59
546.65	1954.74
547.01	1962.75
547.36	1970.18
547.72	1977.76
548.07	1985.19
548.43	1992.65
548.79	2000.37
549.14	2008.30
549.50	2016.38
549.86	2023.90
550.21	2030.99
550.57	2038.31
550.92	2045.00
551.28	2052.15
551.64	2059.18
551.99	2066.48
552.35	2073.34
552.70	2080.07
553.06	2086.48
553.41	2092.52
553.77	2098.87
554.13	2105.15
554.48	2111.99
554.84	2118.79
555.19	2125.05
555.55	2131.48
555.90	2137.73
556.26	2144.35
556.61	2150.08
556.97	2154.97
557.32	2160.74
557.68	2166.97
558.03	2172.81
558.39	2177.95
558.74	2183.93
559.10	2189.41
559.45	2194.91
559.81	2200.45
560.16	2205.87
560.52	2211.75
560.87	2218.26
561.23	2224.09
561.58	2230.73
561.94	2235.84
562.29	2240.68
562.64	2246.86
563.00	2252.32
563.35	2258.00
563.71	2263.73
564.06	2269.43
564.42	2275.27
564.77	2280.56
565.12	2285.95
565.48	2291.15
565.83	2296.89
566.19	2302.39
566.54	2307.81
566.89	2312.52
567.25	2317.28
567.60	2323.07
567.96	2328.35
568.31	2332.99
568.66	2337.25
569.02	2341.12
569.37	2345.07
569.72	2349.61
570.08	2353.26
570.43	2356.23
570.78	2359.25
571.14	2361.91
571.49	2365.24
571.84	2368.87
572.20	2371.62
572.55	2374.62
572.90	2376.85
573.26	2379.79
573.61	2382.19
573.96	2384.38
574.31	2386.34
574.67	2388.32
575.02	2389.34
575.37	2390.84
575.72	2391.73
576.08	2393.35
576.43	2393.92
576.78	2394.76
577.13	2396.59
577.49	2397.83
577.84	2399.44
578.19	2401.14
578.54	2402.12
578.90	2403.36
579.25	2403.57
579.60	2403.98
579.95	2403.57
580.30	2404.23
580.66	2403.77
581.01	2402.60
581.36	2400.76
581.71	2399.50
582.06	2398.73
582.42	2398.13
582.77	2396.32
583.12	2394.93
583.47	2393.99
583.82	2393.42
584.17	2392.22
584.53	2390.25
584.88	2388.48
585.23	2386.82
585.58	2384.63
585.93	2382.58
586.28	2380.32
586.63	2378.07
586.98	2375.96
587.34	2374.31
587.69	2371.95
588.04	2370.00
588.39	2368.66
588.74	2366.34
589.09	2364.18
589.44	2361.13
589.79	2358.93
590.14	2357.12
590.49	2354.43
590.84	2350.95
591.19	2348.30
591.54	2345.21
591.89	2341.30
592.25	2338.11
592.60	2334.13
592.95	2330.14
593.30	2326.03
593.65	2321.85
594.00	2317.78
594.35	2314.93
594.70	2310.35
595.05	2305.91
595.40	2300.70
595.75	2295.23
596.10	2291.68
596.45	2286.93
596.80	2282.46
597.15	2277.23
597.50	2271.63
597.85	2266.88
598.19	2261.58
598.54	2255.74
598.89	2250.81
599.24	2246.28
599.59	2240.29
599.94	2234.65
600.29	2228.99
600.64	2223.38
600.99	2216.83
601.34	2211.45
601.69	2204.49
602.04	2198.21
602.39	2191.78
602.74	2185.86
603.08	2180.48
603.43	2174.09
603.78	2167.25
604.13	2160.17
604.48	2153.09
604.83	2147.02
605.18	2140.70
605.53	2133.91
605.87	2126.93
606.22	2120.17
606.57	2112.45
606.92	2104.70
607.27	2097.76
607.62	2091.10
607.96	2084.06
608.31	2077.52
608.66	2069.74
609.01	2062.23
609.36	2055.18
609.70	2047.54
610.05	2039.77
610.40	2031.47
610.75	2023.18
611.10	2015.63
611.44	2007.12
611.79	1998.32
612.14	1988.14
612.49	1977.68
612.83	1968.47
613.18	1959.49
613.53	1950.09
613.88	1940.63
614.22	1932.16
614.57	1922.19
614.92	1911.80
615.27	1901.81
615.61	1891.90
615.96	1882.24
616.31	1872.78
616.65	1863.49
617.00	1853.51
617.35	1843.97
617.70	1834.17
618.04	1824.03
618.39	1813.65
618.74	1803.94
619.08	1794.46
619.43	1785.88
619.78	1777.85
620.12	1769.05
620.47	1759.07
620.82	1748.89
621.16	1739.05
621.51	1728.92
621.85	1719.11
622.20	1708.55
622.55	1697.78
622.89	1688.01
623.24	1678.25
623.59	1668.34
623.93	1658.11
624.28	1648.53
624.62	1638.34
624.97	1628.13
625.32	1618.59
625.66	1609.84
626.01	1600.93
626.35	1591.55
626.70	1581.42
627.04	1571.14
627.39	1561.16
627.73	1552.00
628.08	1542.87
628.43	1533.24
628.77	1524.01
629.12	1515.13
629.46	1507.26
629.81	1498.92
630.15	1489.15
630.50	1479.23
630.84	1468.77
631.19	1458.86
631.53	1449.34
631.88	1439.15
632.22	1429.05
632.57	1419.58
632.91	1409.33
633.26	1399.57
633.60	1389.87
633.95	1380.58
634.29	1371.08
634.64	1361.60
634.98	1351.68
635.32	1342.50
635.67	1333.97
636.01	1324.79
636.36	1314.98
636.70	1305.46
637.05	1296.11
637.39	1287.17
637.73	1278.53
638.08	1270.94
638.42	1262.58
638.77	1253.81
639.11	1245.53
639.45	1237.68
639.80	1229.06
640.14	1220.40
640.49	1211.40
640.83	1202.68
641.17	1194.55
641.52	1186.21
641.86	1177.64
642.20	1169.70
642.55	1161.02
642.89	1152.17
643.23	1143.38
643.58	1135.19
643.92	1126.10
644.26	1117.45
644.61	1109.01
644.95	1100.26
645.29	1090.95
645.64	1081.86
645.98	1073.53
646.32	1065.58
646.66	1057.05
647.01	1048.57
647.35	1040.44
647.69	1031.93
648.04	1023.52
648.38	1014.58
648.72	1005.91
649.06	997.39
649.41	989.25
649.75	981.30
650.09	973.38
650.43	965.37
650.78	957.22
651.12	949.65
651.46	942.31
651.80	935.00
652.14	927.79
652.49	920.33
652.83	913.04
653.17	905.30
653.51	897.67
653.85	890.43
654.20	883.24
654.54	875.69
654.88	868.64
655.22	861.50
655.56	854.53
655.90	847.76
656.25	841.18
656.59	834.24
656.93	827.18
657.27	820.07
657.61	813.16
657.95	807.02
658.29	801.12
658.64	794.92
658.98	788.60
659.32	782.03
659.66	775.88
660.00	769.53
660.34	763.53
660.68	757.42
661.02	751.17
661.36	745.27
661.70	739.52
662.05	733.90
662.39	728.43
662.73	723.14
663.07	717.78
663.41	712.25
663.75	706.60
664.09	701.10
664.43	695.84
664.77	690.50
665.11	684.75
665.45	678.86
665.79	673.08
666.13	667.37
666.47	661.91
666.81	656.50
667.15	651.27
667.49	646.14
667.83	640.92
668.17	635.77
668.51	630.74
668.85	625.90
669.19	621.08
669.53	616.13
669.87	611.07
670.21	606.40
670.55	601.74
670.89	597.40
671.23	593.12
671.57	588.71
671.91	584.49
672.25	580.51
672.58	576.46
672.92	572.45
673.26	568.59
673.60	564.79
673.94	561.02
674.28	557.40
674.62	553.67
674.96	550.09
675.30	546.54
675.64	542.95
675.97	539.40
676.31	535.79
676.65	532.25
676.99	528.79
677.33	525.04
677.67	521.40
678.01	517.63
678.34	513.98
678.68	510.56
679.02	506.98
679.36	503.26
679.70	499.67
680.04	496.25
680.37	492.83
680.71	489.60
681.05	486.43
681.39	483.22
681.73	480.09
682.06	477.02
682.40	474.07
682.74	470.91
683.08	467.68
683.42	464.63
683.75	461.67
684.09	458.76
684.43	455.97
684.77	453.11
685.10	450.28
685.44	447.40
685.78	444.45
686.12	441.78
686.45	439.08
686.79	436.44
687.13	433.89
687.46	431.28
687.80	428.62
688.14	425.83
688.48	423.31
688.81	420.63
689.15	418.12
689.49	415.50
689.82	413.04
690.16	410.54
690.50	408.11
690.83	405.68
691.17	403.17
691.51	400.75
691.84	398.57
692.18	396.42
692.52	394.34
692.85	392.28
693.19	390.16
693.52	388.03
693.86	385.89
694.20	383.77
694.53	381.74
694.87	379.57
695.21	377.50
695.54	375.32
695.88	373.22
696.21	371.06
696.55	368.98
696.88	366.97
697.22	365.07
697.56	363.21
697.89	361.37
698.23	359.65
698.56	357.91
698.90	356.13
699.23	354.23
699.57	352.39
699.90	350.59
700.24	348.80
700.58	347.10
700.91	345.48
701.25	343.96
701.58	342.36
701.92	340.78
702.25	339.23
702.59	337.68
702.92	336.23
703.26	334.72
703.59	333.31
703.93	332.06
704.26	330.65
704.60	329.12
704.93	327.69
705.26	326.26
705.60	324.79
705.93	323.37
706.27	322.08
706.60	320.84
706.94	319.63
707.27	318.25
707.61	316.97
707.94	315.66
708.27	314.14
708.61	312.74
708.94	311.46
709.28	310.20
709.61	309.02
709.94	307.84
710.28	306.68
710.61	305.52
710.95	304.11
711.28	303.08
711.61	301.98
711.95	300.91
712.28	299.74
712.61	298.64
712.95	297.62
713.28	296.64
713.61	295.53
713.95	294.38
714.28	293.39
714.61	292.35
714.95	291.35
715.28	290.40
715.61	289.40
715.95	288.49
716.28	287.54
716.61	286.61
716.95	285.66
717.28	284.76
717.61	283.81
717.94	282.94
718.28	281.90
718.61	281.05
718.94	280.11
719.27	279.28
719.61	278.46
719.94	277.57
720.27	276.58
720.60	275.75
720.94	275.02
721.27	274.34
721.60	273.71
721.93	273.04
722.27	272.43
722.60	271.81
722.93	271.12
723.26	270.50
723.59	269.79
723.93	269.18
724.26	268.53
724.59	267.93
724.92	267.41
725.25	266.95
725.59	266.38
725.92	265.89
726.25	265.33
726.58	264.76
726.91	264.22
727.24	263.74
727.57	263.22
727.91	262.61
728.24	262.08
728.57	261.45
728.90	260.93
729.23	260.35
729.56	259.91
729.89	259.38
730.22	258.86
730.55	258.35
730.89	257.80
731.22	257.31
731.55	256.79
731.88	256.26
732.21	255.70
732.54	255.20
732.87	254.70
733.20	254.22
733.53	253.77
733.86	253.32
734.19	252.86
734.52	252.43
734.85	252.15
735.18	251.69
735.51	251.35
735.84	250.90
736.17	250.50
736.50	249.97
736.83	249.81
737.16	249.42
737.49	249.05
737.82	248.66
738.15	248.29
738.48	247.94
738.81	247.57
739.14	247.15
739.47	246.79
739.80	246.40
740.13	246.06
740.46	245.67
740.79	245.28
741.12	244.94
741.45	244.57
741.78	244.14
742.11	243.87
742.44	243.49
742.77	243.16
743.10	242.81
743.43	242.50
743.75	241.92
744.08	241.83
744.41	241.51
744.74	241.16
745.07	240.83
745.40	240.52
745.73	240.25
746.06	239.96
746.39	239.63
746.71	239.33
747.04	239.00
747.37	238.72
747.70	238.48
748.03	238.16
748.36	237.90
748.68	237.61
749.01	237.28
749.34	237.00
749.67	236.75
750.00	236.49
750.33	236.35
750.65	236.13
750.98	235.64
751.31	235.40
751.64	235.17
751.97	235.01
752.29	234.75
752.62	234.43
752.95	234.19
753.28	233.96
753.60	233.75
753.93	233.59
754.26	233.39
754.59	233.12
754.91	232.92
755.24	232.69
755.57	232.45
755.90	232.21
756.22	231.99
756.55	231.75
756.88	231.51
757.20	231.22
757.53	230.97
757.86	230.76
758.19	230.57
758.51	230.36
758.84	230.08
759.17	229.90
759.49	229.76
759.82	229.67
760.15	229.50
760.47	229.31
760.80	229.06
761.13	228.90
761.45	228.71
761.78	228.52
762.11	228.33
762.43	228.16
762.76	227.99
763.08	227.86
763.41	227.75
763.74	227.64
764.06	227.46
764.39	227.34
764.71	227.19
765.04	227.02
765.37	226.88
765.69	226.77
766.02	226.62
766.34	226.47
766.67	226.24
767.00	226.15
767.32	226.14
767.65	226.15
767.97	226.00
768.30	225.90
768.62	225.78
768.95	225.67
769.27	225.56
769.60	225.48
769.92	225.32
770.25	225.18
770.57	225.02
770.90	224.89
771.22	224.71
771.55	224.60
771.87	224.50
772.20	224.41
772.52	224.47
772.85	224.59
773.17	224.52
773.50	224.40
773.82	224.28
774.15	224.08
774.47	223.88
774.80	223.76
775.12	223.67
775.45	223.57
775.77	223.45
776.09	223.37
776.42	223.29
776.74	223.26
777.07	223.16
777.39	223.07
777.72	223.00
778.04	222.98
778.36	222.87
778.69	222.82
779.01	222.76
779.33	222.50
779.66	222.20
779.98	222.09
780.31	222.00
780.63	221.98
780.95	221.93
781.28	221.82
781.60	221.72
781.92	221.63
782.25	221.55
782.57	221.49
782.89	221.42
783.22	221.32
783.54	221.19
783.86	221.14
784.19	221.06
784.51	221.04
784.83	220.97
785.16	220.93
785.48	220.86
785.80	220.80
786.12	220.76
