SpectraSuite Data File
++++++++++++++++++++++++++++++++++++
Date: Tue Jan 29 16:48:05 EST 2013
User: group
Dark Spectrum Present: No
Reference Spectrum Present: No
Number of Sampled Component Spectra: 1
Spectrometers: USB2E7196
Integration Time (usec): 65000 (USB2E7196)
Spectra Averaged: 100 (USB2E7196)
Boxcar Smoothing: 10 (USB2E7196)
Correct for Electrical Dark: No (USB2E7196)
Strobe/Lamp Enabled: No (USB2E7196)
Correct for Detector Non-linearity: No (USB2E7196)
Correct for Stray Light: No (USB2E7196)
Number of Pixels in Processed Spectrum: 2048
>>>>>Begin Processed Spectral Data<<<<<
339.09	0.00
339.48	201.46
339.86	203.14
340.24	204.03
340.63	205.70
341.01	210.14
341.39	208.03
341.78	210.35
342.16	211.46
342.54	210.99
342.93	200.65
343.31	210.81
343.69	211.34
344.07	211.80
344.46	212.28
344.84	212.68
345.22	212.84
345.60	213.12
345.99	213.33
346.37	213.43
346.75	213.59
347.13	213.65
347.52	213.74
347.90	213.87
348.28	213.91
348.66	213.98
349.05	213.95
349.43	214.03
349.81	214.09
350.19	214.15
350.57	214.20
350.96	214.35
351.34	214.46
351.72	214.56
352.10	214.65
352.48	214.71
352.87	214.77
353.25	214.84
353.63	214.90
354.01	214.95
354.39	215.05
354.77	215.13
355.15	215.28
355.54	215.31
355.92	215.29
356.30	215.38
356.68	215.61
357.06	215.72
357.44	215.74
357.82	215.78
358.20	215.86
358.58	215.97
358.97	215.99
359.35	216.11
359.73	216.21
360.11	216.28
360.49	216.33
360.87	216.40
361.25	216.47
361.63	216.59
362.01	216.63
362.39	216.69
362.77	216.76
363.15	216.76
363.53	216.80
363.91	216.85
364.29	216.87
364.67	216.72
365.05	216.75
365.43	216.79
365.81	216.87
366.19	216.98
366.57	217.05
366.95	217.06
367.33	216.96
367.71	216.98
368.09	217.03
368.47	217.03
368.85	217.02
369.23	217.06
369.61	216.97
369.99	217.02
370.37	216.99
370.75	217.10
371.13	217.02
371.51	216.97
371.89	216.92
372.27	216.91
372.65	216.84
373.03	216.80
373.41	216.80
373.78	216.70
374.16	216.55
374.54	216.43
374.92	216.35
375.30	216.35
375.68	216.27
376.06	216.20
376.44	216.16
376.82	216.11
377.19	216.03
377.57	216.02
377.95	215.87
378.33	215.83
378.71	215.62
379.09	215.61
379.47	215.57
379.84	215.52
380.22	215.42
380.60	215.39
380.98	215.36
381.36	215.24
381.73	215.21
382.11	215.20
382.49	215.20
382.87	215.15
383.25	215.09
383.62	215.26
384.00	215.19
384.38	215.17
384.76	215.17
385.13	215.24
385.51	215.20
385.89	215.18
386.27	215.13
386.64	215.11
387.02	215.08
387.40	215.05
387.78	215.07
388.15	215.07
388.53	215.01
388.91	214.96
389.29	214.99
389.66	214.97
390.04	214.92
390.42	214.92
390.79	214.91
391.17	214.89
391.55	214.68
391.92	214.69
392.30	214.71
392.68	214.67
393.05	214.63
393.43	214.63
393.81	214.64
394.18	214.63
394.56	214.64
394.94	214.70
395.31	214.68
395.69	214.72
396.06	214.77
396.44	214.83
396.82	214.83
397.19	214.95
397.57	214.99
397.95	215.06
398.32	215.04
398.70	215.09
399.07	215.16
399.45	215.21
399.82	215.22
400.20	215.24
400.58	215.32
400.95	215.32
401.33	215.41
401.70	215.63
402.08	215.72
402.45	215.82
402.83	215.94
403.20	216.09
403.58	216.19
403.95	216.37
404.33	216.53
404.71	216.67
405.08	216.91
405.46	217.07
405.83	217.25
406.21	217.47
406.58	217.72
406.96	217.95
407.33	218.20
407.70	218.50
408.08	218.98
408.45	219.32
408.83	219.69
409.20	220.05
409.58	220.32
409.95	220.80
410.33	221.29
410.70	221.73
411.08	222.27
411.45	222.85
411.82	223.43
412.20	224.13
412.57	225.00
412.95	225.59
413.32	226.42
413.69	227.28
414.07	228.21
414.44	229.19
414.82	230.24
415.19	231.40
415.56	232.60
415.94	233.78
416.31	235.21
416.68	236.64
417.06	238.23
417.43	239.77
417.81	241.51
418.18	243.33
418.55	245.27
418.93	247.31
419.30	249.41
419.67	251.64
420.04	253.94
420.42	256.32
420.79	259.14
421.16	261.95
421.54	264.87
421.91	267.85
422.28	270.97
422.66	274.26
423.03	277.59
423.40	280.99
423.77	284.62
424.15	288.26
424.52	292.11
424.89	296.30
425.26	300.40
425.64	304.29
426.01	308.55
426.38	313.04
426.75	317.56
427.13	322.36
427.50	327.34
427.87	332.56
428.24	337.80
428.61	342.82
428.99	348.36
429.36	354.38
429.73	360.29
430.10	366.21
430.47	372.32
430.85	378.65
431.22	385.34
431.59	392.47
431.96	399.37
432.33	406.90
432.70	414.19
433.08	422.78
433.45	430.90
433.82	438.98
434.19	447.93
434.56	456.72
434.93	465.02
435.30	473.31
435.68	482.46
436.05	491.47
436.42	500.46
436.79	508.64
437.16	517.48
437.53	526.77
437.90	535.91
438.27	544.89
438.64	554.09
439.01	562.71
439.38	570.28
439.75	577.59
440.13	586.03
440.50	594.01
440.87	600.49
441.24	607.20
441.61	614.57
441.98	619.88
442.35	626.24
442.72	632.63
443.09	638.77
443.46	642.53
443.83	645.06
444.20	647.27
444.57	650.52
444.94	651.93
445.31	653.40
445.68	654.90
446.05	655.55
446.42	654.84
446.79	653.90
447.16	652.87
447.53	652.12
447.90	648.87
448.27	645.56
448.64	640.86
449.01	637.49
449.37	631.58
449.74	626.04
450.11	619.13
450.48	611.72
450.85	604.21
451.22	597.77
451.59	591.63
451.96	585.73
452.33	577.80
452.70	570.76
453.07	562.29
453.43	553.65
453.80	545.32
454.17	537.33
454.54	529.71
454.91	521.46
455.28	513.44
455.65	505.92
456.02	498.38
456.38	492.04
456.75	484.16
457.12	477.56
457.49	470.99
457.86	464.76
458.23	459.36
458.59	453.41
458.96	447.32
459.33	441.98
459.70	436.59
460.07	432.30
460.43	427.32
460.80	422.69
461.17	418.65
461.54	414.41
461.91	410.32
462.27	406.15
462.64	402.74
463.01	398.91
463.38	395.21
463.74	391.50
464.11	388.23
464.48	385.36
464.85	382.25
465.21	379.78
465.58	377.14
465.95	373.97
466.32	371.36
466.68	368.76
467.05	366.16
467.42	363.61
467.78	360.87
468.15	358.32
468.52	356.40
468.88	353.90
469.25	351.67
469.62	349.87
469.98	347.96
470.35	346.10
470.72	344.41
471.08	342.62
471.45	341.09
471.82	339.53
472.18	337.85
472.55	336.61
472.92	335.22
473.28	333.96
473.65	332.79
474.02	331.62
474.38	330.68
474.75	329.90
475.11	329.04
475.48	328.44
475.85	327.89
476.21	327.39
476.58	327.00
476.94	326.77
477.31	326.39
477.67	326.12
478.04	325.90
478.41	325.86
478.77	326.00
479.14	325.94
479.50	326.08
479.87	326.38
480.23	326.68
480.60	326.93
480.96	327.21
481.33	327.80
481.69	328.43
482.06	328.93
482.42	329.40
482.79	330.00
483.15	330.79
483.52	331.78
483.88	332.63
484.25	333.59
484.61	334.57
484.98	335.63
485.34	336.92
485.71	338.34
486.07	339.79
486.44	341.14
486.80	342.78
487.17	344.47
487.53	346.29
487.90	348.16
488.26	350.14
488.62	352.26
488.99	354.27
489.35	356.40
489.72	358.80
490.08	361.34
490.44	363.97
490.81	366.67
491.17	369.38
491.54	372.34
491.90	375.31
492.26	378.59
492.63	382.05
492.99	385.53
493.36	389.22
493.72	393.07
494.08	396.99
494.45	401.16
494.81	405.48
495.17	409.95
495.54	414.66
495.90	419.54
496.26	424.49
496.63	429.75
496.99	435.11
497.35	440.68
497.72	446.48
498.08	452.44
498.44	458.53
498.80	464.94
499.17	471.47
499.53	478.24
499.89	485.12
500.26	492.03
500.62	499.11
500.98	506.46
501.34	513.96
501.71	521.73
502.07	529.57
502.43	537.62
502.79	545.76
503.16	554.10
503.52	562.68
503.88	571.37
504.24	580.31
504.60	589.38
504.97	598.58
505.33	607.79
505.69	617.54
506.05	627.43
506.41	637.28
506.78	647.32
507.14	657.54
507.50	667.92
507.86	678.62
508.22	689.36
508.59	700.05
508.95	711.12
509.31	722.44
509.67	733.91
510.03	745.16
510.39	756.84
510.75	768.71
511.12	780.57
511.48	792.64
511.84	804.85
512.20	817.18
512.56	829.86
512.92	842.67
513.28	855.29
513.64	867.99
514.00	880.80
514.37	893.74
514.73	906.80
515.09	919.85
515.45	932.78
515.81	945.91
516.17	959.29
516.53	972.45
516.89	985.48
517.25	998.68
517.61	1012.31
517.97	1025.73
518.33	1038.84
518.69	1052.44
519.05	1066.19
519.41	1079.93
519.77	1093.93
520.13	1107.18
520.49	1120.36
520.85	1133.81
521.21	1147.21
521.57	1160.84
521.93	1173.95
522.29	1187.76
522.65	1201.34
523.01	1215.00
523.37	1228.18
523.73	1241.58
524.09	1254.87
524.45	1268.48
524.81	1282.06
525.17	1295.50
525.53	1308.78
525.89	1322.19
526.25	1335.31
526.61	1348.32
526.97	1361.43
527.33	1374.39
527.68	1387.89
528.04	1401.54
528.40	1414.73
528.76	1428.13
529.12	1441.20
529.48	1454.52
529.84	1466.90
530.20	1479.77
530.56	1492.44
530.91	1505.74
531.27	1518.56
531.63	1531.32
531.99	1543.97
532.35	1556.21
532.71	1568.72
533.07	1581.61
533.42	1593.90
533.78	1606.12
534.14	1618.16
534.50	1629.45
534.86	1641.01
535.21	1651.98
535.57	1663.54
535.93	1674.87
536.29	1686.01
536.65	1697.59
537.00	1708.73
537.36	1720.12
537.72	1731.18
538.08	1742.77
538.44	1753.90
538.79	1765.15
539.15	1776.20
539.51	1787.16
539.87	1798.52
540.22	1809.37
540.58	1820.38
540.94	1831.45
541.29	1841.85
541.65	1851.70
542.01	1862.26
542.37	1872.46
542.72	1882.67
543.08	1892.47
543.44	1903.22
543.79	1912.69
544.15	1922.19
544.51	1932.19
544.87	1942.24
545.22	1951.54
545.58	1960.42
545.94	1969.26
546.29	1977.77
546.65	1986.11
547.01	1994.35
547.36	2002.13
547.72	2009.97
548.07	2017.66
548.43	2025.46
548.79	2033.44
549.14	2041.68
549.50	2050.21
549.86	2058.04
550.21	2065.51
550.57	2073.36
550.92	2079.91
551.28	2087.36
551.64	2094.59
551.99	2102.23
552.35	2109.35
552.70	2116.27
553.06	2122.86
553.41	2129.22
553.77	2135.71
554.13	2142.20
554.48	2149.29
554.84	2156.39
555.19	2162.89
555.55	2169.24
555.90	2175.42
556.26	2182.16
556.61	2188.39
556.97	2193.28
557.32	2199.08
557.68	2205.65
558.03	2211.32
558.39	2216.91
558.74	2222.89
559.10	2228.43
559.45	2233.83
559.81	2239.42
560.16	2244.89
560.52	2250.75
560.87	2257.12
561.23	2263.04
561.58	2269.60
561.94	2274.81
562.29	2279.50
562.64	2285.44
563.00	2291.15
563.35	2296.76
563.71	2302.32
564.06	2307.80
564.42	2313.63
564.77	2318.81
565.12	2323.81
565.48	2328.85
565.83	2334.24
566.19	2339.48
566.54	2344.66
566.89	2349.26
567.25	2353.78
567.60	2359.41
567.96	2364.53
568.31	2368.95
568.66	2373.26
569.02	2377.14
569.37	2380.71
569.72	2385.08
570.08	2388.45
570.43	2391.41
570.78	2394.47
571.14	2396.96
571.49	2400.07
571.84	2403.51
572.20	2406.24
572.55	2409.25
572.90	2411.44
573.26	2413.96
573.61	2416.54
573.96	2418.81
574.31	2420.77
574.67	2422.45
575.02	2423.13
575.37	2424.38
575.72	2424.99
576.08	2426.25
576.43	2426.14
576.78	2426.42
577.13	2427.68
577.49	2428.80
577.84	2429.63
578.19	2430.53
578.54	2430.98
578.90	2431.30
579.25	2430.96
579.60	2430.65
579.95	2429.65
580.30	2429.57
580.66	2428.70
581.01	2426.84
581.36	2424.10
581.71	2422.34
582.06	2421.05
582.42	2420.06
582.77	2417.86
583.12	2416.04
583.47	2414.47
583.82	2413.84
584.17	2412.44
584.53	2410.20
584.88	2408.08
585.23	2406.07
585.58	2403.77
585.93	2401.56
586.28	2399.31
586.63	2396.78
586.98	2394.41
587.34	2392.34
587.69	2389.56
588.04	2387.34
588.39	2385.72
588.74	2383.18
589.09	2380.34
589.44	2377.00
589.79	2374.30
590.14	2372.00
590.49	2369.15
590.84	2365.11
591.19	2361.76
591.54	2358.59
591.89	2354.46
592.25	2350.97
592.60	2346.68
592.95	2342.39
593.30	2338.20
593.65	2333.71
594.00	2329.22
594.35	2326.22
594.70	2321.42
595.05	2316.87
595.40	2311.44
595.75	2305.49
596.10	2301.85
596.45	2297.06
596.80	2292.39
597.15	2287.21
597.50	2281.23
597.85	2276.20
598.19	2271.04
598.54	2265.21
598.89	2259.67
599.24	2255.13
599.59	2248.84
599.94	2242.91
600.29	2236.82
600.64	2230.79
600.99	2223.83
601.34	2218.20
601.69	2211.16
602.04	2204.63
602.39	2197.93
602.74	2191.65
603.08	2186.15
603.43	2179.42
603.78	2172.47
604.13	2165.40
604.48	2157.80
604.83	2151.67
605.18	2145.45
605.53	2138.47
605.87	2131.40
606.22	2124.70
606.57	2116.62
606.92	2108.66
607.27	2101.73
607.62	2095.30
607.96	2088.26
608.31	2081.92
608.66	2074.25
609.01	2066.63
609.36	2059.65
609.70	2052.09
610.05	2044.46
610.40	2036.10
610.75	2027.77
611.10	2020.09
611.44	2011.16
611.79	2002.65
612.14	1992.54
612.49	1981.74
612.83	1972.37
613.18	1963.02
613.53	1953.62
613.88	1944.13
614.22	1935.57
614.57	1925.79
614.92	1915.13
615.27	1904.96
615.61	1894.78
615.96	1884.99
616.31	1875.32
616.65	1865.98
617.00	1856.34
617.35	1846.63
617.70	1836.99
618.04	1827.10
618.39	1816.95
618.74	1807.37
619.08	1797.79
619.43	1789.26
619.78	1781.19
620.12	1772.75
620.47	1763.38
620.82	1753.23
621.16	1743.52
621.51	1733.67
621.85	1723.89
622.20	1713.72
622.55	1703.28
622.89	1693.48
623.24	1683.94
623.59	1674.22
623.93	1664.16
624.28	1654.32
624.62	1644.42
624.97	1634.21
625.32	1624.49
625.66	1615.70
626.01	1607.12
626.35	1597.88
626.70	1587.84
627.04	1577.83
627.39	1567.66
627.73	1558.33
628.08	1549.50
628.43	1539.98
628.77	1530.83
629.12	1522.03
629.46	1514.17
629.81	1505.89
630.15	1496.44
630.50	1486.70
630.84	1476.36
631.19	1466.54
631.53	1457.43
631.88	1447.26
632.22	1437.36
632.57	1428.07
632.91	1418.07
633.26	1408.21
633.60	1398.75
633.95	1389.68
634.29	1380.32
634.64	1371.19
634.98	1361.33
635.32	1352.09
635.67	1343.75
636.01	1334.56
636.36	1324.91
636.70	1315.46
637.05	1306.17
637.39	1297.54
637.73	1289.04
638.08	1281.47
638.42	1273.40
638.77	1264.60
639.11	1256.47
639.45	1248.80
639.80	1240.42
640.14	1231.70
640.49	1222.93
640.83	1214.08
641.17	1206.00
641.52	1197.90
641.86	1189.37
642.20	1181.71
642.55	1173.16
642.89	1164.36
643.23	1155.76
643.58	1147.75
643.92	1138.82
644.26	1130.15
644.61	1121.68
644.95	1113.00
645.29	1103.94
645.64	1094.67
645.98	1086.11
646.32	1078.29
646.66	1069.89
647.01	1061.64
647.35	1053.64
647.69	1045.47
648.04	1037.29
648.38	1028.49
648.72	1019.73
649.06	1011.28
649.41	1003.01
649.75	995.08
650.09	987.20
650.43	979.23
650.78	970.93
651.12	963.23
651.46	955.83
651.80	948.62
652.14	941.23
652.49	933.78
652.83	926.57
653.17	919.08
653.51	911.48
653.85	904.17
654.20	896.90
654.54	889.46
654.88	882.17
655.22	874.95
655.56	867.92
655.90	861.11
656.25	854.48
656.59	847.70
656.93	840.76
657.27	833.66
657.61	826.80
657.95	820.73
658.29	814.79
658.64	808.69
658.98	802.21
659.32	795.80
659.66	789.54
660.00	783.30
660.34	777.25
660.68	771.09
661.02	764.79
661.36	758.85
661.70	753.04
662.05	747.38
662.39	741.95
662.73	736.54
663.07	731.21
663.41	725.67
663.75	719.92
664.09	714.18
664.43	708.69
664.77	703.33
665.11	697.48
665.45	691.68
665.79	685.81
666.13	680.13
666.47	674.55
666.81	669.10
667.15	663.70
667.49	658.41
667.83	653.19
668.17	647.94
668.51	642.81
668.85	637.85
669.19	632.98
669.53	627.98
669.87	622.83
670.21	618.04
670.55	613.28
670.89	608.83
671.23	604.54
671.57	600.17
671.91	595.83
672.25	591.68
672.58	587.53
672.92	583.55
673.26	579.58
673.60	575.69
673.94	571.92
674.28	568.26
674.62	564.57
674.96	560.78
675.30	557.27
675.64	553.52
675.97	549.98
676.31	546.34
676.65	542.66
676.99	539.31
677.33	535.48
677.67	531.88
678.01	528.07
678.34	524.45
678.68	520.94
679.02	517.33
679.36	513.59
679.70	509.86
680.04	506.29
680.37	502.82
680.71	499.50
681.05	496.24
681.39	492.95
681.73	489.70
682.06	486.69
682.40	483.57
682.74	480.42
683.08	477.14
683.42	473.97
683.75	470.95
684.09	467.86
684.43	465.04
684.77	462.07
685.10	459.17
685.44	456.20
685.78	453.25
686.12	450.42
686.45	447.70
686.79	445.07
687.13	442.58
687.46	439.95
687.80	437.23
688.14	434.33
688.48	431.62
688.81	428.96
689.15	426.31
689.49	423.63
689.82	421.00
690.16	418.43
690.50	415.91
690.83	413.45
691.17	410.83
691.51	408.26
691.84	405.89
692.18	403.69
692.52	401.45
692.85	399.29
693.19	397.15
693.52	394.97
693.86	392.66
694.20	390.38
694.53	388.20
694.87	386.03
695.21	383.87
695.54	381.68
695.88	379.49
696.21	377.24
696.55	375.13
696.88	373.07
697.22	371.06
697.56	369.15
697.89	367.19
698.23	365.40
698.56	363.64
698.90	361.90
699.23	359.91
699.57	358.00
699.90	356.09
700.24	354.27
700.58	352.47
700.91	350.80
701.25	349.21
701.58	347.56
701.92	345.94
702.25	344.37
702.59	342.77
702.92	341.22
703.26	339.70
703.59	338.22
703.93	336.95
704.26	335.51
704.60	333.97
704.93	332.47
705.26	330.96
705.60	329.45
705.93	327.84
706.27	326.50
706.60	325.23
706.94	324.00
707.27	322.58
707.61	321.22
707.94	319.85
708.27	318.28
708.61	316.84
708.94	315.44
709.28	314.07
709.61	312.79
709.94	311.53
710.28	310.28
710.61	309.06
710.95	307.62
711.28	306.49
711.61	305.32
711.95	304.18
712.28	302.94
712.61	301.76
712.95	300.77
713.28	299.72
713.61	298.57
713.95	297.37
714.28	296.33
714.61	295.27
714.95	294.27
715.28	293.27
715.61	292.24
715.95	291.26
716.28	290.29
716.61	289.35
716.95	288.38
717.28	287.44
717.61	286.44
717.94	285.51
718.28	284.47
718.61	283.54
718.94	282.62
719.27	281.77
719.61	280.91
719.94	279.95
720.27	278.98
720.60	278.11
720.94	277.29
721.27	276.52
721.60	275.83
721.93	275.08
722.27	274.41
722.60	273.73
722.93	272.98
723.26	272.31
723.59	271.53
723.93	270.88
724.26	270.23
724.59	269.58
724.92	268.99
725.25	268.45
725.59	267.83
725.92	267.27
726.25	266.68
726.58	266.11
726.91	265.50
727.24	264.94
727.57	264.34
727.91	263.71
728.24	263.16
728.57	262.56
728.90	262.01
729.23	261.34
729.56	260.91
729.89	260.37
730.22	259.80
730.55	259.31
730.89	258.75
731.22	258.23
731.55	257.73
731.88	257.19
732.21	256.64
732.54	256.09
732.87	255.56
733.20	255.06
733.53	254.55
733.86	254.12
734.19	253.64
734.52	253.21
734.85	252.93
735.18	252.45
735.51	252.05
735.84	251.59
736.17	251.23
736.50	250.69
736.83	250.53
737.16	250.13
737.49	249.73
737.82	249.30
738.15	248.88
738.48	248.48
738.81	248.08
739.14	247.64
739.47	247.27
739.80	246.89
740.13	246.55
740.46	246.16
740.79	245.76
741.12	245.36
741.45	244.99
741.78	244.55
742.11	244.25
742.44	243.85
742.77	243.56
743.10	243.21
743.43	242.85
743.75	242.25
744.08	242.16
744.41	241.81
744.74	241.48
745.07	241.09
745.40	240.79
745.73	240.51
746.06	240.19
746.39	239.91
746.71	239.54
747.04	239.19
747.37	238.86
747.70	238.60
748.03	238.30
748.36	238.03
748.68	237.70
749.01	237.34
749.34	237.06
749.67	236.73
750.00	236.48
750.33	236.30
750.65	236.06
750.98	235.53
751.31	235.25
751.64	235.03
751.97	234.92
752.29	234.64
752.62	234.31
752.95	234.05
753.28	233.76
753.60	233.52
753.93	233.34
754.26	233.13
754.59	232.89
754.91	232.62
755.24	232.36
755.57	232.13
755.90	231.90
756.22	231.66
756.55	231.42
756.88	231.17
757.20	230.85
757.53	230.55
757.86	230.37
758.19	230.21
758.51	229.97
758.84	229.62
759.17	229.42
759.49	229.24
759.82	229.14
760.15	229.02
760.47	228.85
760.80	228.64
761.13	228.47
761.45	228.23
761.78	228.06
762.11	227.90
762.43	227.70
762.76	227.53
763.08	227.38
763.41	227.23
763.74	227.05
764.06	226.90
764.39	226.77
764.71	226.60
765.04	226.42
765.37	226.27
765.69	226.14
766.02	225.99
766.34	225.84
766.67	225.63
767.00	225.51
767.32	225.48
767.65	225.45
767.97	225.33
768.30	225.22
768.62	225.08
768.95	224.95
769.27	224.83
769.60	224.76
769.92	224.60
770.25	224.42
770.57	224.26
770.90	224.14
771.22	224.03
771.55	223.91
771.87	223.76
772.20	223.64
772.52	223.67
772.85	223.79
773.17	223.70
773.50	223.56
773.82	223.39
774.15	223.17
774.47	222.89
774.80	222.77
775.12	222.64
775.45	222.57
775.77	222.45
776.09	222.37
776.42	222.24
776.74	222.21
777.07	222.16
777.39	222.11
777.72	221.98
778.04	221.92
778.36	221.82
778.69	221.78
779.01	221.72
779.33	221.48
779.66	221.20
779.98	221.12
780.31	221.08
780.63	221.08
780.95	221.05
781.28	221.00
781.60	220.89
781.92	220.82
782.25	220.77
782.57	220.67
782.89	220.57
783.22	220.50
783.54	220.38
783.86	220.29
784.19	220.23
784.51	220.27
784.83	220.17
785.16	220.10
785.48	220.05
785.80	220.00
786.12	219.97
