SpectraSuite Data File
++++++++++++++++++++++++++++++++++++
Date: Tue Jan 29 16:52:47 EST 2013
User: group
Dark Spectrum Present: No
Reference Spectrum Present: No
Number of Sampled Component Spectra: 1
Spectrometers: USB2E7196
Integration Time (usec): 65000 (USB2E7196)
Spectra Averaged: 100 (USB2E7196)
Boxcar Smoothing: 10 (USB2E7196)
Correct for Electrical Dark: No (USB2E7196)
Strobe/Lamp Enabled: No (USB2E7196)
Correct for Detector Non-linearity: No (USB2E7196)
Correct for Stray Light: No (USB2E7196)
Number of Pixels in Processed Spectrum: 2048
>>>>>Begin Processed Spectral Data<<<<<
339.09	0.00
339.48	201.55
339.86	203.23
340.24	204.57
340.63	205.96
341.01	210.39
341.39	208.62
341.78	210.17
342.16	211.34
342.54	211.65
342.93	200.87
343.31	211.01
343.69	211.54
344.07	212.00
344.46	212.42
344.84	212.80
345.22	212.97
345.60	213.20
345.99	213.38
346.37	213.53
346.75	213.63
347.13	213.69
347.52	213.74
347.90	213.82
348.28	213.86
348.66	213.96
349.05	213.90
349.43	213.95
349.81	214.02
350.19	214.07
350.57	214.16
350.96	214.26
351.34	214.38
351.72	214.47
352.10	214.56
352.48	214.61
352.87	214.69
353.25	214.73
353.63	214.82
354.01	214.88
354.39	214.95
354.77	215.03
355.15	215.16
355.54	215.19
355.92	215.19
356.30	215.25
356.68	215.44
357.06	215.53
357.44	215.55
357.82	215.58
358.20	215.66
358.58	215.70
358.97	215.77
359.35	215.85
359.73	215.99
360.11	216.06
360.49	216.14
360.87	216.16
361.25	216.27
361.63	216.36
362.01	216.46
362.39	216.47
362.77	216.53
363.15	216.54
363.53	216.60
363.91	216.65
364.29	216.68
364.67	216.54
365.05	216.57
365.43	216.63
365.81	216.71
366.19	216.84
366.57	216.96
366.95	216.96
367.33	216.93
367.71	216.91
368.09	216.94
368.47	216.96
368.85	216.96
369.23	216.97
369.61	216.93
369.99	216.97
370.37	217.00
370.75	217.09
371.13	217.05
371.51	217.02
371.89	217.06
372.27	217.04
372.65	217.01
373.03	216.99
373.41	216.97
373.78	216.89
374.16	216.74
374.54	216.63
374.92	216.55
375.30	216.49
375.68	216.42
376.06	216.41
376.44	216.33
376.82	216.32
377.19	216.27
377.57	216.23
377.95	216.12
378.33	216.07
378.71	215.88
379.09	215.87
379.47	215.86
379.84	215.79
380.22	215.72
380.60	215.67
380.98	215.60
381.36	215.57
381.73	215.53
382.11	215.52
382.49	215.50
382.87	215.44
383.25	215.44
383.62	215.62
384.00	215.53
384.38	215.51
384.76	215.50
385.13	215.54
385.51	215.49
385.89	215.41
386.27	215.39
386.64	215.40
387.02	215.34
387.40	215.25
387.78	215.22
388.15	215.19
388.53	215.16
388.91	215.14
389.29	215.11
389.66	215.14
390.04	215.08
390.42	215.06
390.79	215.08
391.17	215.05
391.55	214.81
391.92	214.83
392.30	214.85
392.68	214.78
393.05	214.76
393.43	214.77
393.81	214.78
394.18	214.74
394.56	214.75
394.94	214.80
395.31	214.81
395.69	214.88
396.06	214.94
396.44	215.00
396.82	214.99
397.19	215.13
397.57	215.10
397.95	215.20
398.32	215.19
398.70	215.25
399.07	215.35
399.45	215.39
399.82	215.41
400.20	215.44
400.58	215.52
400.95	215.49
401.33	215.59
401.70	215.82
402.08	215.88
402.45	215.94
402.83	216.07
403.20	216.19
403.58	216.25
403.95	216.42
404.33	216.54
404.71	216.69
405.08	216.90
405.46	217.06
405.83	217.24
406.21	217.46
406.58	217.66
406.96	217.89
407.33	218.15
407.70	218.47
408.08	218.93
408.45	219.30
408.83	219.72
409.20	220.05
409.58	220.34
409.95	220.84
410.33	221.33
410.70	221.78
411.08	222.34
411.45	222.94
411.82	223.49
412.20	224.17
412.57	225.01
412.95	225.56
413.32	226.43
413.69	227.29
414.07	228.18
414.44	229.18
414.82	230.20
415.19	231.39
415.56	232.61
415.94	233.79
416.31	235.21
416.68	236.60
417.06	238.23
417.43	239.78
417.81	241.52
418.18	243.33
418.55	245.30
418.93	247.37
419.30	249.48
419.67	251.72
420.04	254.05
420.42	256.44
420.79	259.29
421.16	262.07
421.54	264.94
421.91	267.96
422.28	271.07
422.66	274.37
423.03	277.63
423.40	280.96
423.77	284.59
424.15	288.25
424.52	292.12
424.89	296.31
425.26	300.37
425.64	304.31
426.01	308.63
426.38	313.09
426.75	317.62
427.13	322.38
427.50	327.40
427.87	332.61
428.24	337.84
428.61	342.88
428.99	348.46
429.36	354.52
429.73	360.42
430.10	366.32
430.47	372.38
430.85	378.70
431.22	385.36
431.59	392.51
431.96	399.41
432.33	406.95
432.70	414.23
433.08	422.78
433.45	430.87
433.82	438.89
434.19	447.81
434.56	456.57
434.93	464.91
435.30	473.21
435.68	482.37
436.05	491.40
436.42	500.33
436.79	508.53
437.16	517.34
437.53	526.69
437.90	535.99
438.27	545.00
438.64	554.32
439.01	562.96
439.38	570.58
439.75	577.93
440.13	586.43
440.50	594.40
440.87	600.89
441.24	607.50
441.61	614.88
441.98	620.28
442.35	626.63
442.72	633.08
443.09	639.19
443.46	642.91
443.83	645.45
444.20	647.66
444.57	650.81
444.94	652.26
445.31	653.74
445.68	655.03
446.05	655.70
446.42	654.91
446.79	653.99
447.16	652.92
447.53	652.18
447.90	648.83
448.27	645.63
448.64	641.05
449.01	637.81
449.37	631.94
449.74	626.31
450.11	619.34
450.48	611.85
450.85	604.40
451.22	597.93
451.59	591.78
451.96	585.94
452.33	578.06
452.70	570.94
453.07	562.39
453.43	553.76
453.80	545.46
454.17	537.46
454.54	529.87
454.91	521.67
455.28	513.59
455.65	506.08
456.02	498.44
456.38	492.00
456.75	484.05
457.12	477.39
457.49	470.81
457.86	464.65
458.23	459.27
458.59	453.25
458.96	447.22
459.33	441.95
459.70	436.55
460.07	432.29
460.43	427.37
460.80	422.76
461.17	418.76
461.54	414.49
461.91	410.39
462.27	406.28
462.64	402.80
463.01	398.99
463.38	395.30
463.74	391.65
464.11	388.37
464.48	385.50
464.85	382.46
465.21	380.06
465.58	377.39
465.95	374.26
466.32	371.59
466.68	368.98
467.05	366.30
467.42	363.70
467.78	360.92
468.15	358.35
468.52	356.43
468.88	353.89
469.25	351.69
469.62	349.87
469.98	347.88
470.35	346.03
470.72	344.31
471.08	342.48
471.45	340.92
471.82	339.41
472.18	337.73
472.55	336.47
472.92	335.02
473.28	333.79
473.65	332.59
474.02	331.49
474.38	330.63
474.75	329.89
475.11	329.05
475.48	328.50
475.85	328.01
476.21	327.51
476.58	327.19
476.94	326.94
477.31	326.65
477.67	326.34
478.04	326.19
478.41	326.15
478.77	326.29
479.14	326.25
479.50	326.33
479.87	326.63
480.23	326.99
480.60	327.21
480.96	327.48
481.33	328.04
481.69	328.59
482.06	329.11
482.42	329.55
482.79	330.16
483.15	330.90
483.52	331.88
483.88	332.79
484.25	333.71
484.61	334.70
484.98	335.71
485.34	337.07
485.71	338.43
486.07	339.86
486.44	341.16
486.80	342.74
487.17	344.45
487.53	346.24
487.90	348.04
488.26	350.07
488.62	352.22
488.99	354.25
489.35	356.38
489.72	358.71
490.08	361.24
490.44	363.84
490.81	366.61
491.17	369.26
491.54	372.17
491.90	375.19
492.26	378.40
492.63	381.85
492.99	385.31
493.36	388.99
493.72	392.84
494.08	396.92
494.45	401.13
494.81	405.51
495.17	409.99
495.54	414.69
495.90	419.50
496.26	424.43
496.63	429.59
496.99	435.01
497.35	440.55
497.72	446.37
498.08	452.27
498.44	458.31
498.80	464.75
499.17	471.23
499.53	477.96
499.89	484.89
500.26	491.82
500.62	498.89
500.98	506.26
501.34	513.70
501.71	521.42
502.07	529.20
502.43	537.12
502.79	545.21
503.16	553.56
503.52	562.11
503.88	570.82
504.24	579.75
504.60	588.82
504.97	598.07
505.33	607.31
505.69	617.11
506.05	626.94
506.41	636.81
506.78	646.84
507.14	657.03
507.50	667.39
507.86	678.03
508.22	688.70
508.59	699.32
508.95	710.34
509.31	721.54
509.67	732.94
510.03	744.26
510.39	755.86
510.75	767.56
511.12	779.41
511.48	791.43
511.84	803.69
512.20	815.93
512.56	828.57
512.92	841.48
513.28	854.12
513.64	866.81
514.00	879.58
514.37	892.55
514.73	905.58
515.09	918.53
515.45	931.48
515.81	944.52
516.17	957.91
516.53	971.20
516.89	984.28
517.25	997.47
517.61	1011.07
517.97	1024.61
518.33	1037.82
518.69	1051.42
519.05	1065.18
519.41	1078.86
519.77	1092.72
520.13	1106.05
520.49	1119.09
520.85	1132.45
521.21	1145.76
521.57	1159.46
521.93	1172.57
522.29	1186.29
522.65	1199.96
523.01	1213.51
523.37	1226.77
523.73	1240.07
524.09	1253.30
524.45	1266.75
524.81	1280.25
525.17	1293.62
525.53	1306.76
525.89	1320.12
526.25	1333.32
526.61	1346.21
526.97	1359.32
527.33	1372.32
527.68	1385.72
528.04	1399.22
528.40	1412.29
528.76	1425.77
529.12	1438.71
529.48	1452.09
529.84	1464.46
530.20	1477.22
530.56	1489.94
530.91	1503.28
531.27	1516.09
531.63	1528.78
531.99	1541.54
532.35	1553.90
532.71	1566.36
533.07	1579.30
533.42	1591.58
533.78	1603.76
534.14	1615.78
534.50	1627.08
534.86	1638.67
535.21	1649.51
535.57	1661.17
535.93	1672.48
536.29	1683.69
536.65	1695.23
537.00	1706.29
537.36	1717.80
537.72	1728.84
538.08	1740.32
538.44	1751.40
538.79	1762.59
539.15	1773.66
539.51	1784.60
539.87	1795.99
540.22	1806.88
540.58	1817.90
540.94	1828.91
541.29	1839.32
541.65	1849.22
542.01	1859.78
542.37	1869.95
542.72	1880.24
543.08	1889.92
543.44	1900.61
543.79	1909.83
544.15	1919.44
544.51	1929.33
544.87	1939.26
545.22	1948.57
545.58	1957.37
545.94	1966.25
546.29	1974.86
546.65	1983.26
547.01	1991.50
547.36	1999.17
547.72	2006.93
548.07	2014.46
548.43	2022.26
548.79	2030.14
549.14	2038.38
549.50	2046.88
549.86	2054.82
550.21	2062.25
550.57	2069.99
550.92	2076.70
551.28	2084.33
551.64	2091.43
551.99	2099.08
552.35	2106.16
552.70	2113.08
553.06	2119.86
553.41	2126.19
553.77	2132.72
554.13	2138.93
554.48	2145.92
554.84	2153.01
555.19	2159.60
555.55	2166.04
555.90	2172.41
556.26	2179.19
556.61	2185.28
556.97	2190.03
557.32	2195.75
557.68	2202.23
558.03	2207.99
558.39	2213.42
558.74	2219.37
559.10	2224.87
559.45	2230.29
559.81	2235.85
560.16	2241.34
560.52	2247.15
560.87	2253.40
561.23	2259.19
561.58	2265.98
561.94	2271.17
562.29	2275.76
562.64	2281.67
563.00	2287.27
563.35	2292.66
563.71	2298.18
564.06	2303.82
564.42	2309.76
564.77	2314.78
565.12	2320.01
565.48	2325.05
565.83	2330.60
566.19	2335.74
566.54	2341.05
566.89	2345.60
567.25	2350.12
567.60	2355.69
567.96	2360.64
568.31	2365.01
568.66	2369.35
569.02	2373.01
569.37	2376.74
569.72	2381.10
570.08	2384.57
570.43	2387.69
570.78	2390.71
571.14	2393.20
571.49	2396.07
571.84	2399.51
572.20	2402.36
572.55	2405.22
572.90	2407.37
573.26	2409.81
573.61	2412.32
573.96	2414.27
574.31	2416.18
574.67	2418.02
575.02	2418.65
575.37	2419.99
575.72	2420.63
576.08	2421.82
576.43	2421.95
576.78	2422.13
577.13	2423.40
577.49	2424.38
577.84	2425.22
578.19	2426.36
578.54	2426.74
578.90	2427.24
579.25	2426.98
579.60	2426.62
579.95	2425.52
580.30	2425.39
580.66	2424.61
581.01	2422.67
581.36	2420.11
581.71	2418.59
582.06	2417.08
582.42	2416.07
582.77	2413.60
583.12	2411.82
583.47	2410.19
583.82	2409.29
584.17	2407.96
584.53	2405.81
584.88	2403.69
585.23	2401.56
585.58	2399.02
585.93	2396.83
586.28	2394.39
586.63	2391.70
586.98	2389.36
587.34	2387.43
587.69	2384.81
588.04	2382.49
588.39	2380.97
588.74	2378.40
589.09	2375.40
589.44	2371.99
589.79	2369.25
590.14	2367.26
590.49	2364.13
590.84	2360.13
591.19	2356.87
591.54	2353.43
591.89	2349.25
592.25	2345.67
592.60	2341.40
592.95	2337.19
593.30	2332.99
593.65	2328.62
594.00	2324.06
594.35	2320.87
594.70	2315.97
595.05	2311.50
595.40	2305.91
595.75	2299.99
596.10	2296.21
596.45	2291.26
596.80	2286.58
597.15	2281.38
597.50	2275.40
597.85	2270.64
598.19	2265.50
598.54	2259.58
598.89	2254.25
599.24	2249.54
599.59	2243.40
599.94	2237.41
600.29	2231.40
600.64	2225.41
600.99	2218.39
601.34	2212.87
601.69	2205.96
602.04	2199.54
602.39	2192.72
602.74	2186.64
603.08	2181.16
603.43	2174.84
603.78	2167.92
604.13	2161.13
604.48	2153.77
604.83	2147.62
605.18	2141.35
605.53	2134.44
605.87	2127.58
606.22	2120.76
606.57	2112.99
606.92	2104.91
607.27	2098.09
607.62	2091.50
607.96	2084.53
608.31	2078.36
608.66	2070.61
609.01	2063.00
609.36	2055.97
609.70	2048.17
610.05	2040.32
610.40	2031.93
610.75	2023.36
611.10	2015.72
611.44	2006.65
611.79	1998.03
612.14	1988.08
612.49	1977.35
612.83	1967.88
613.18	1958.54
613.53	1949.32
613.88	1939.62
614.22	1931.12
614.57	1921.24
614.92	1910.63
615.27	1900.29
615.61	1890.03
615.96	1880.47
616.31	1870.96
616.65	1861.53
617.00	1852.00
617.35	1842.54
617.70	1832.98
618.04	1823.26
618.39	1813.23
618.74	1803.72
619.08	1794.15
619.43	1785.39
619.78	1777.21
620.12	1768.81
620.47	1759.43
620.82	1749.18
621.16	1739.48
621.51	1729.58
621.85	1719.92
622.20	1709.71
622.55	1699.42
622.89	1689.55
623.24	1679.94
623.59	1670.09
623.93	1660.09
624.28	1650.43
624.62	1640.36
624.97	1630.15
625.32	1620.25
625.66	1611.35
626.01	1602.71
626.35	1593.58
626.70	1583.69
627.04	1573.78
627.39	1563.61
627.73	1554.36
628.08	1545.57
628.43	1536.19
628.77	1527.25
629.12	1518.49
629.46	1510.88
629.81	1502.72
630.15	1493.48
630.50	1483.76
630.84	1473.48
631.19	1463.77
631.53	1454.68
631.88	1444.67
632.22	1434.76
632.57	1425.60
632.91	1415.66
633.26	1405.83
633.60	1396.29
633.95	1387.24
634.29	1377.80
634.64	1368.70
634.98	1358.83
635.32	1349.75
635.67	1341.47
636.01	1332.22
636.36	1322.51
636.70	1313.07
637.05	1303.73
637.39	1294.84
637.73	1286.30
638.08	1278.70
638.42	1270.58
638.77	1261.87
639.11	1253.80
639.45	1246.18
639.80	1237.94
640.14	1229.31
640.49	1220.64
640.83	1211.91
641.17	1203.77
641.52	1195.77
641.86	1187.22
642.20	1179.55
642.55	1170.91
642.89	1162.05
643.23	1153.45
643.58	1145.44
643.92	1136.43
644.26	1127.82
644.61	1119.53
644.95	1110.87
645.29	1101.95
645.64	1092.84
645.98	1084.35
646.32	1076.51
646.66	1068.04
647.01	1059.65
647.35	1051.64
647.69	1043.41
648.04	1035.21
648.38	1026.41
648.72	1017.81
649.06	1009.55
649.41	1001.38
649.75	993.49
650.09	985.71
650.43	977.88
650.78	969.69
651.12	962.06
651.46	954.70
651.80	947.54
652.14	940.34
652.49	932.88
652.83	925.65
653.17	918.02
653.51	910.37
653.85	903.18
654.20	895.99
654.54	888.59
654.88	881.42
655.22	874.27
655.56	867.33
655.90	860.50
656.25	853.88
656.59	847.12
656.93	840.21
657.27	833.13
657.61	826.13
657.95	819.97
658.29	814.00
658.64	807.89
658.98	801.44
659.32	794.91
659.66	788.69
660.00	782.37
660.34	776.36
660.68	770.33
661.02	764.03
661.36	758.08
661.70	752.27
662.05	746.67
662.39	741.15
662.73	735.80
663.07	730.48
663.41	724.88
663.75	719.09
664.09	713.38
664.43	707.98
664.77	702.66
665.11	696.88
665.45	691.03
665.79	685.24
666.13	679.63
666.47	674.13
666.81	668.63
667.15	663.24
667.49	658.05
667.83	652.84
668.17	647.58
668.51	642.47
668.85	637.57
669.19	632.60
669.53	627.65
669.87	622.52
670.21	617.67
670.55	612.90
670.89	608.39
671.23	604.04
671.57	599.64
671.91	595.36
672.25	591.23
672.58	587.14
672.92	583.08
673.26	579.06
673.60	575.15
673.94	571.40
674.28	567.85
674.62	564.14
674.96	560.35
675.30	556.87
675.64	553.18
675.97	549.56
676.31	546.01
676.65	542.38
676.99	539.00
677.33	535.24
677.67	531.62
678.01	527.85
678.34	524.23
678.68	520.70
679.02	517.15
679.36	513.48
679.70	509.83
680.04	506.26
680.37	502.83
680.71	499.51
681.05	496.26
681.39	492.90
681.73	489.69
682.06	486.67
682.40	483.55
682.74	480.31
683.08	477.07
683.42	473.80
683.75	470.79
684.09	467.69
684.43	464.83
684.77	461.91
685.10	459.02
685.44	456.06
685.78	453.14
686.12	450.26
686.45	447.48
686.79	444.83
687.13	442.29
687.46	439.62
687.80	436.94
688.14	434.07
688.48	431.45
688.81	428.72
689.15	426.16
689.49	423.54
689.82	421.02
690.16	418.45
690.50	416.03
690.83	413.49
691.17	410.98
691.51	408.47
691.84	406.16
692.18	403.92
692.52	401.71
692.85	399.55
693.19	397.43
693.52	395.27
693.86	392.99
694.20	390.76
694.53	388.58
694.87	386.35
695.21	384.20
695.54	381.99
695.88	379.82
696.21	377.52
696.55	375.32
696.88	373.22
697.22	371.18
697.56	369.26
697.89	367.36
698.23	365.51
698.56	363.69
698.90	361.87
699.23	360.01
699.57	358.10
699.90	356.13
700.24	354.27
700.58	352.51
700.91	350.78
701.25	349.17
701.58	347.53
701.92	345.89
702.25	344.24
702.59	342.61
702.92	341.03
703.26	339.45
703.59	337.99
703.93	336.72
704.26	335.29
704.60	333.71
704.93	332.24
705.26	330.72
705.60	329.26
705.93	327.74
706.27	326.37
706.60	325.12
706.94	323.92
707.27	322.51
707.61	321.11
707.94	319.77
708.27	318.25
708.61	316.78
708.94	315.41
709.28	314.13
709.61	312.85
709.94	311.59
710.28	310.39
710.61	309.18
710.95	307.75
711.28	306.63
711.61	305.45
711.95	304.27
712.28	303.09
712.61	301.85
712.95	300.77
713.28	299.69
713.61	298.50
713.95	297.34
714.28	296.33
714.61	295.25
714.95	294.21
715.28	293.18
715.61	292.13
715.95	291.19
716.28	290.20
716.61	289.22
716.95	288.23
717.28	287.30
717.61	286.32
717.94	285.41
718.28	284.37
718.61	283.45
718.94	282.51
719.27	281.61
719.61	280.80
719.94	279.94
720.27	278.93
720.60	278.04
720.94	277.18
721.27	276.38
721.60	275.71
721.93	274.95
722.27	274.30
722.60	273.67
722.93	272.91
723.26	272.23
723.59	271.55
723.93	270.91
724.26	270.26
724.59	269.60
724.92	268.95
725.25	268.40
725.59	267.83
725.92	267.33
726.25	266.75
726.58	266.14
726.91	265.51
727.24	265.00
727.57	264.48
727.91	263.91
728.24	263.30
728.57	262.66
728.90	262.11
729.23	261.46
729.56	260.99
729.89	260.47
730.22	259.89
730.55	259.33
730.89	258.77
731.22	258.23
731.55	257.71
731.88	257.19
732.21	256.61
732.54	256.08
732.87	255.54
733.20	255.07
733.53	254.56
733.86	254.12
734.19	253.60
734.52	253.16
734.85	252.84
735.18	252.37
735.51	252.03
735.84	251.60
736.17	251.20
736.50	250.62
736.83	250.43
737.16	250.08
737.49	249.68
737.82	249.27
738.15	248.85
738.48	248.45
738.81	248.04
739.14	247.62
739.47	247.20
739.80	246.80
740.13	246.45
740.46	246.06
740.79	245.64
741.12	245.27
741.45	244.87
741.78	244.43
742.11	244.19
742.44	243.75
742.77	243.42
743.10	243.05
743.43	242.71
743.75	242.14
744.08	242.06
744.41	241.68
744.74	241.36
745.07	240.98
745.40	240.69
745.73	240.42
746.06	240.10
746.39	239.84
746.71	239.47
747.04	239.10
747.37	238.78
747.70	238.53
748.03	238.19
748.36	237.91
748.68	237.60
749.01	237.22
749.34	236.96
749.67	236.68
750.00	236.48
750.33	236.37
750.65	236.11
750.98	235.59
751.31	235.35
751.64	235.11
751.97	234.98
752.29	234.69
752.62	234.37
752.95	234.13
753.28	233.81
753.60	233.57
753.93	233.40
754.26	233.22
754.59	232.89
754.91	232.69
755.24	232.46
755.57	232.22
755.90	231.99
756.22	231.73
756.55	231.50
756.88	231.19
757.20	230.82
757.53	230.50
757.86	230.27
758.19	230.08
758.51	229.85
758.84	229.52
759.17	229.34
759.49	229.14
759.82	229.10
760.15	228.94
760.47	228.77
760.80	228.54
761.13	228.38
761.45	228.20
761.78	228.00
762.11	227.80
762.43	227.59
762.76	227.42
763.08	227.26
763.41	227.10
763.74	226.97
764.06	226.81
764.39	226.69
764.71	226.52
765.04	226.39
765.37	226.23
765.69	226.09
766.02	225.94
766.34	225.81
766.67	225.55
767.00	225.45
767.32	225.45
767.65	225.43
767.97	225.26
768.30	225.16
768.62	225.06
768.95	224.93
769.27	224.82
769.60	224.72
769.92	224.57
770.25	224.37
770.57	224.20
770.90	224.10
771.22	223.98
771.55	223.84
771.87	223.71
772.20	223.59
772.52	223.65
772.85	223.77
773.17	223.66
773.50	223.52
773.82	223.37
774.15	223.13
774.47	222.89
774.80	222.81
775.12	222.67
775.45	222.53
775.77	222.47
776.09	222.42
776.42	222.32
776.74	222.27
777.07	222.22
777.39	222.16
777.72	222.02
778.04	221.94
778.36	221.87
778.69	221.79
779.01	221.70
779.33	221.46
779.66	221.15
779.98	221.05
780.31	220.98
780.63	220.96
780.95	220.93
781.28	220.89
781.60	220.78
781.92	220.74
782.25	220.67
782.57	220.56
782.89	220.44
783.22	220.34
783.54	220.26
783.86	220.23
784.19	220.14
784.51	220.15
784.83	220.09
785.16	220.01
785.48	219.93
785.80	219.91
786.12	219.87
