SpectraSuite Data File
++++++++++++++++++++++++++++++++++++
Date: Tue Jan 29 16:02:01 EST 2013
User: group
Dark Spectrum Present: No
Reference Spectrum Present: No
Number of Sampled Component Spectra: 1
Spectrometers: USB2E7196
Integration Time (usec): 65000 (USB2E7196)
Spectra Averaged: 100 (USB2E7196)
Boxcar Smoothing: 10 (USB2E7196)
Correct for Electrical Dark: No (USB2E7196)
Strobe/Lamp Enabled: No (USB2E7196)
Correct for Detector Non-linearity: No (USB2E7196)
Correct for Stray Light: No (USB2E7196)
Number of Pixels in Processed Spectrum: 2048
>>>>>Begin Processed Spectral Data<<<<<
339.09	0.00
339.48	202.65
339.86	204.13
340.24	205.71
340.63	206.66
341.01	211.81
341.39	210.17
341.78	212.03
342.16	212.45
342.54	213.04
342.93	202.05
343.31	212.25
343.69	212.81
344.07	213.30
344.46	213.75
344.84	214.15
345.22	214.30
345.60	214.54
345.99	214.70
346.37	214.86
346.75	214.96
347.13	215.02
347.52	215.07
347.90	215.17
348.28	215.22
348.66	215.29
349.05	215.26
349.43	215.32
349.81	215.39
350.19	215.38
350.57	215.47
350.96	215.54
351.34	215.64
351.72	215.73
352.10	215.81
352.48	215.85
352.87	215.94
353.25	216.02
353.63	216.08
354.01	216.14
354.39	216.20
354.77	216.26
355.15	216.35
355.54	216.41
355.92	216.39
356.30	216.48
356.68	216.67
357.06	216.75
357.44	216.74
357.82	216.82
358.20	216.92
358.58	216.96
358.97	217.03
359.35	217.11
359.73	217.19
360.11	217.26
360.49	217.32
360.87	217.38
361.25	217.45
361.63	217.55
362.01	217.61
362.39	217.62
362.77	217.66
363.15	217.73
363.53	217.78
363.91	217.86
364.29	217.87
364.67	217.72
365.05	217.73
365.43	217.79
365.81	217.84
366.19	217.92
366.57	217.99
366.95	217.99
367.33	217.95
367.71	217.95
368.09	217.99
368.47	218.00
368.85	218.00
369.23	217.99
369.61	217.92
369.99	217.99
370.37	218.01
370.75	218.11
371.13	218.06
371.51	218.02
371.89	218.02
372.27	217.99
372.65	217.98
373.03	217.97
373.41	217.97
373.78	217.90
374.16	217.79
374.54	217.66
374.92	217.62
375.30	217.60
375.68	217.53
376.06	217.47
376.44	217.41
376.82	217.36
377.19	217.33
377.57	217.29
377.95	217.14
378.33	217.09
378.71	216.93
379.09	216.93
379.47	216.93
379.84	216.86
380.22	216.78
380.60	216.68
380.98	216.61
381.36	216.55
381.73	216.51
382.11	216.52
382.49	216.52
382.87	216.47
383.25	216.45
383.62	216.68
384.00	216.62
384.38	216.60
384.76	216.58
385.13	216.59
385.51	216.56
385.89	216.52
386.27	216.51
386.64	216.50
387.02	216.42
387.40	216.38
387.78	216.38
388.15	216.39
388.53	216.39
388.91	216.40
389.29	216.40
389.66	216.39
390.04	216.35
390.42	216.34
390.79	216.36
391.17	216.31
391.55	216.05
391.92	216.06
392.30	216.06
392.68	216.03
393.05	216.01
393.43	216.03
393.81	216.08
394.18	216.05
394.56	216.04
394.94	216.11
395.31	216.07
395.69	216.11
396.06	216.17
396.44	216.19
396.82	216.16
397.19	216.26
397.57	216.28
397.95	216.32
398.32	216.32
398.70	216.33
399.07	216.44
399.45	216.50
399.82	216.54
400.20	216.57
400.58	216.67
400.95	216.66
401.33	216.75
401.70	216.91
402.08	216.98
402.45	217.08
402.83	217.21
403.20	217.32
403.58	217.39
403.95	217.51
404.33	217.66
404.71	217.81
405.08	218.07
405.46	218.23
405.83	218.43
406.21	218.63
406.58	218.85
406.96	219.04
407.33	219.28
407.70	219.58
408.08	220.03
408.45	220.33
408.83	220.71
409.20	221.05
409.58	221.33
409.95	221.75
410.33	222.22
410.70	222.64
411.08	223.21
411.45	223.77
411.82	224.33
412.20	225.01
412.57	225.84
412.95	226.36
413.32	227.17
413.69	227.95
414.07	228.83
414.44	229.82
414.82	230.80
415.19	231.94
415.56	233.07
415.94	234.20
416.31	235.56
416.68	236.87
417.06	238.44
417.43	239.91
417.81	241.62
418.18	243.35
418.55	245.21
418.93	247.16
419.30	249.20
419.67	251.35
420.04	253.54
420.42	255.80
420.79	258.52
421.16	261.22
421.54	264.03
421.91	266.88
422.28	269.89
422.66	273.10
423.03	276.22
423.40	279.44
423.77	282.90
424.15	286.42
424.52	290.12
424.89	294.08
425.26	297.98
425.64	301.72
426.01	305.83
426.38	310.16
426.75	314.58
427.13	319.15
427.50	323.95
427.87	328.98
428.24	334.01
428.61	338.87
428.99	344.19
429.36	350.00
429.73	355.72
430.10	361.37
430.47	367.20
430.85	373.27
431.22	379.77
431.59	386.63
431.96	393.22
432.33	400.51
432.70	407.56
433.08	415.81
433.45	423.61
433.82	431.34
434.19	439.91
434.56	448.24
434.93	456.25
435.30	464.24
435.68	473.05
436.05	481.72
436.42	490.29
436.79	498.13
437.16	506.53
437.53	515.53
437.90	524.32
438.27	532.94
438.64	541.87
439.01	550.10
439.38	557.49
439.75	564.61
440.13	572.67
440.50	580.25
440.87	586.46
441.24	592.84
441.61	599.89
441.98	605.00
442.35	611.00
442.72	617.10
443.09	622.85
443.46	626.34
443.83	628.77
444.20	630.86
444.57	633.84
444.94	635.21
445.31	636.52
445.68	637.92
446.05	638.49
446.42	637.70
446.79	636.78
447.16	635.64
447.53	634.85
447.90	631.64
448.27	628.54
448.64	623.95
449.01	620.69
449.37	615.02
449.74	609.56
450.11	602.98
450.48	595.83
450.85	588.68
451.22	582.46
451.59	576.56
451.96	570.89
452.33	563.30
452.70	556.48
453.07	548.28
453.43	539.91
453.80	531.92
454.17	524.23
454.54	516.92
454.91	509.07
455.28	501.42
455.65	494.30
456.02	487.11
456.38	481.12
456.75	473.59
457.12	467.25
457.49	461.01
457.86	455.13
458.23	450.00
458.59	444.31
458.96	438.58
459.33	433.49
459.70	428.35
460.07	424.30
460.43	419.56
460.80	415.21
461.17	411.38
461.54	407.35
461.91	403.49
462.27	399.55
462.64	396.28
463.01	392.57
463.38	389.05
463.74	385.47
464.11	382.35
464.48	379.68
464.85	376.74
465.21	374.44
465.58	371.85
465.95	368.81
466.32	366.34
466.68	363.84
467.05	361.32
467.42	358.86
467.78	356.30
468.15	353.89
468.52	352.06
468.88	349.64
469.25	347.52
469.62	345.81
469.98	343.94
470.35	342.20
470.72	340.63
471.08	338.89
471.45	337.45
471.82	336.00
472.18	334.36
472.55	333.20
472.92	331.84
473.28	330.72
473.65	329.61
474.02	328.57
474.38	327.75
474.75	327.09
475.11	326.37
475.48	325.84
475.85	325.44
476.21	325.00
476.58	324.73
476.94	324.54
477.31	324.29
477.67	324.06
478.04	323.92
478.41	323.89
478.77	324.07
479.14	324.04
479.50	324.17
479.87	324.48
480.23	324.84
480.60	325.13
480.96	325.42
481.33	326.09
481.69	326.63
482.06	327.18
482.42	327.62
482.79	328.20
483.15	328.98
483.52	329.88
483.88	330.77
484.25	331.70
484.61	332.70
484.98	333.70
485.34	335.04
485.71	336.44
486.07	337.87
486.44	339.18
486.80	340.77
487.17	342.44
487.53	344.26
487.90	346.09
488.26	348.08
488.62	350.24
488.99	352.23
489.35	354.42
489.72	356.71
490.08	359.27
490.44	361.85
490.81	364.55
491.17	367.31
491.54	370.27
491.90	373.34
492.26	376.61
492.63	380.07
492.99	383.53
493.36	387.19
493.72	391.11
494.08	395.12
494.45	399.36
494.81	403.77
495.17	408.25
495.54	412.97
495.90	417.76
496.26	422.61
496.63	427.81
496.99	433.21
497.35	438.79
497.72	444.56
498.08	450.45
498.44	456.55
498.80	462.91
499.17	469.39
499.53	476.03
499.89	482.92
500.26	489.85
500.62	496.95
500.98	504.27
501.34	511.62
501.71	519.37
502.07	527.22
502.43	535.16
502.79	543.25
503.16	551.62
503.52	560.24
503.88	569.02
504.24	578.00
504.60	587.00
504.97	596.23
505.33	605.53
505.69	615.44
506.05	625.30
506.41	635.09
506.78	645.03
507.14	655.30
507.50	665.66
507.86	676.35
508.22	687.08
508.59	697.77
508.95	708.88
509.31	720.08
509.67	731.48
510.03	742.88
510.39	754.62
510.75	766.44
511.12	778.27
511.48	790.28
511.84	802.40
512.20	814.72
512.56	827.30
512.92	840.02
513.28	852.45
513.64	865.08
514.00	877.85
514.37	890.79
514.73	903.74
515.09	916.60
515.45	929.30
515.81	942.17
516.17	955.29
516.53	968.31
516.89	981.30
517.25	994.21
517.61	1007.58
517.97	1020.73
518.33	1033.66
518.69	1047.09
519.05	1060.65
519.41	1074.15
519.77	1087.84
520.13	1100.94
520.49	1113.90
520.85	1127.08
521.21	1140.27
521.57	1153.64
521.93	1166.53
522.29	1180.07
522.65	1193.63
523.01	1207.10
523.37	1220.07
523.73	1233.22
524.09	1246.20
524.45	1259.34
524.81	1272.56
525.17	1285.64
525.53	1298.67
525.89	1311.70
526.25	1324.45
526.61	1336.96
526.97	1349.77
527.33	1362.38
527.68	1375.66
528.04	1388.83
528.40	1401.80
528.76	1414.80
529.12	1427.52
529.48	1440.44
529.84	1452.41
530.20	1464.75
530.56	1477.12
530.91	1490.21
531.27	1502.70
531.63	1515.27
531.99	1527.79
532.35	1539.88
532.71	1551.98
533.07	1564.41
533.42	1576.33
533.78	1588.25
534.14	1600.14
534.50	1611.03
534.86	1622.32
535.21	1632.80
535.57	1643.93
535.93	1654.87
536.29	1665.80
536.65	1676.85
537.00	1687.59
537.36	1698.66
537.72	1709.47
538.08	1720.49
538.44	1731.01
538.79	1741.85
539.15	1752.23
539.51	1762.54
539.87	1773.59
540.22	1784.09
540.58	1794.76
540.94	1805.35
541.29	1815.33
541.65	1824.65
542.01	1834.96
542.37	1844.87
542.72	1854.78
543.08	1864.33
543.44	1874.39
543.79	1883.23
544.15	1892.42
544.51	1902.20
544.87	1911.72
545.22	1920.38
545.58	1928.95
545.94	1937.55
546.29	1945.73
546.65	1953.87
547.01	1962.00
547.36	1969.34
547.72	1976.71
548.07	1983.99
548.43	1991.47
548.79	1999.08
549.14	2007.09
549.50	2015.22
549.86	2022.56
550.21	2029.67
550.57	2037.08
550.92	2043.71
551.28	2051.15
551.64	2058.32
551.99	2065.63
552.35	2072.58
552.70	2079.42
553.06	2086.00
553.41	2092.13
553.77	2098.56
554.13	2104.79
554.48	2111.59
554.84	2118.36
555.19	2124.73
555.55	2131.23
555.90	2137.53
556.26	2144.11
556.61	2149.82
556.97	2154.59
557.32	2160.53
557.68	2166.79
558.03	2172.52
558.39	2177.67
558.74	2183.53
559.10	2189.02
559.45	2194.51
559.81	2200.08
560.16	2205.61
560.52	2211.45
560.87	2217.76
561.23	2223.73
561.58	2230.51
561.94	2235.72
562.29	2240.72
562.64	2247.10
563.00	2252.54
563.35	2258.01
563.71	2263.99
564.06	2269.84
564.42	2275.72
564.77	2280.80
565.12	2286.06
565.48	2291.41
565.83	2297.09
566.19	2302.56
566.54	2307.96
566.89	2312.59
567.25	2317.29
567.60	2322.96
567.96	2328.21
568.31	2332.88
568.66	2337.15
569.02	2340.91
569.37	2344.66
569.72	2349.21
570.08	2352.76
570.43	2355.91
570.78	2359.03
571.14	2361.64
571.49	2364.88
571.84	2368.48
572.20	2371.54
572.55	2374.74
572.90	2376.85
573.26	2380.07
573.61	2382.54
573.96	2384.80
574.31	2386.86
574.67	2388.80
575.02	2389.93
575.37	2391.36
575.72	2392.41
576.08	2393.98
576.43	2394.52
576.78	2395.51
577.13	2397.16
577.49	2398.45
577.84	2400.07
578.19	2401.69
578.54	2402.50
578.90	2403.67
579.25	2403.87
579.60	2404.07
579.95	2403.67
580.30	2404.26
580.66	2403.60
581.01	2402.19
581.36	2400.25
581.71	2399.26
582.06	2398.54
582.42	2397.87
582.77	2396.07
583.12	2394.67
583.47	2393.63
583.82	2393.23
584.17	2392.27
584.53	2390.32
584.88	2388.46
585.23	2386.68
585.58	2384.70
585.93	2382.65
586.28	2380.57
586.63	2378.46
586.98	2376.52
587.34	2374.73
587.69	2372.63
588.04	2370.85
588.39	2369.58
588.74	2367.43
589.09	2364.96
589.44	2362.01
589.79	2359.75
590.14	2358.00
590.49	2355.26
590.84	2351.63
591.19	2348.74
591.54	2345.27
591.89	2341.34
592.25	2338.28
592.60	2334.20
592.95	2330.28
593.30	2326.43
593.65	2322.18
594.00	2317.94
594.35	2315.02
594.70	2310.48
595.05	2305.91
595.40	2300.50
595.75	2295.25
596.10	2291.58
596.45	2286.87
596.80	2282.43
597.15	2277.19
597.50	2271.31
597.85	2266.48
598.19	2261.45
598.54	2255.84
598.89	2251.04
599.24	2246.67
599.59	2240.59
599.94	2235.02
600.29	2229.29
600.64	2223.45
600.99	2216.92
601.34	2211.49
601.69	2204.46
602.04	2198.18
602.39	2191.70
602.74	2185.86
603.08	2180.30
603.43	2173.89
603.78	2167.11
604.13	2160.10
604.48	2153.23
604.83	2147.33
605.18	2141.08
605.53	2134.11
605.87	2127.13
606.22	2120.47
606.57	2112.71
606.92	2105.01
607.27	2098.14
607.62	2091.52
607.96	2084.43
608.31	2077.85
608.66	2070.31
609.01	2062.91
609.36	2055.72
609.70	2048.10
610.05	2040.30
610.40	2032.06
610.75	2023.78
611.10	2016.26
611.44	2007.59
611.79	1998.78
612.14	1988.68
612.49	1978.28
612.83	1969.28
613.18	1960.12
613.53	1950.70
613.88	1941.20
614.22	1932.66
614.57	1922.73
614.92	1912.24
615.27	1902.34
615.61	1892.46
615.96	1882.76
616.31	1873.19
616.65	1864.11
617.00	1854.17
617.35	1844.65
617.70	1834.94
618.04	1824.85
618.39	1814.33
618.74	1804.63
619.08	1795.05
619.43	1786.58
619.78	1778.38
620.12	1769.46
620.47	1759.65
620.82	1749.31
621.16	1739.48
621.51	1729.40
621.85	1719.48
622.20	1708.93
622.55	1698.32
622.89	1688.54
623.24	1678.79
623.59	1669.02
623.93	1658.84
624.28	1649.22
624.62	1638.89
624.97	1628.45
625.32	1618.92
625.66	1610.25
626.01	1601.24
626.35	1591.62
626.70	1581.29
627.04	1571.02
627.39	1561.03
627.73	1551.78
628.08	1542.73
628.43	1533.02
628.77	1523.80
629.12	1515.03
629.46	1507.14
629.81	1498.72
630.15	1488.88
630.50	1478.99
630.84	1468.56
631.19	1458.53
631.53	1449.01
631.88	1438.92
632.22	1428.98
632.57	1419.47
632.91	1409.15
633.26	1399.32
633.60	1389.93
633.95	1380.58
634.29	1371.24
634.64	1361.79
634.98	1351.89
635.32	1342.62
635.67	1334.12
636.01	1324.84
636.36	1314.96
636.70	1305.42
637.05	1296.00
637.39	1287.13
637.73	1278.45
638.08	1270.79
638.42	1262.47
638.77	1253.68
639.11	1245.33
639.45	1237.46
639.80	1228.72
640.14	1220.03
640.49	1211.18
640.83	1202.30
641.17	1194.30
641.52	1186.06
641.86	1177.53
642.20	1169.66
642.55	1161.12
642.89	1152.25
643.23	1143.49
643.58	1135.37
643.92	1126.31
644.26	1117.66
644.61	1109.16
644.95	1100.46
645.29	1091.09
645.64	1081.98
645.98	1073.69
646.32	1065.80
646.66	1057.31
647.01	1048.99
647.35	1040.98
647.69	1032.55
648.04	1024.21
648.38	1015.22
648.72	1006.37
649.06	997.91
649.41	989.77
649.75	981.68
650.09	973.75
650.43	965.67
650.78	957.43
651.12	949.77
651.46	942.39
651.80	935.05
652.14	927.58
652.49	920.17
652.83	912.81
653.17	905.05
653.51	897.41
653.85	890.17
654.20	882.87
654.54	875.29
654.88	868.21
655.22	861.07
655.56	854.13
655.90	847.46
656.25	840.79
656.59	833.77
656.93	826.79
657.27	819.77
657.61	813.01
657.95	807.02
658.29	801.21
658.64	795.03
658.98	788.70
659.32	782.26
659.66	775.98
660.00	769.77
660.34	763.73
660.68	757.69
661.02	751.46
661.36	745.62
661.70	739.93
662.05	734.24
662.39	728.77
662.73	723.44
663.07	718.09
663.41	712.53
663.75	706.92
664.09	701.39
664.43	696.04
664.77	690.67
665.11	684.81
665.45	678.92
665.79	673.27
666.13	667.60
666.47	662.22
666.81	656.83
667.15	651.46
667.49	646.33
667.83	641.08
668.17	635.87
668.51	630.84
668.85	625.94
669.19	621.08
669.53	616.10
669.87	611.03
670.21	606.26
670.55	601.54
670.89	597.16
671.23	592.92
671.57	588.55
671.91	584.29
672.25	580.28
672.58	576.17
672.92	572.11
673.26	568.26
673.60	564.40
673.94	560.68
674.28	557.06
674.62	553.36
674.96	549.71
675.30	546.24
675.64	542.66
675.97	539.14
676.31	535.62
676.65	532.12
676.99	528.71
677.33	524.94
677.67	521.38
678.01	517.60
678.34	513.91
678.68	510.48
679.02	506.90
679.36	503.16
679.70	499.56
680.04	496.03
680.37	492.69
680.71	489.44
681.05	486.27
681.39	483.15
681.73	480.05
682.06	477.06
682.40	473.98
682.74	470.76
683.08	467.59
683.42	464.45
683.75	461.48
684.09	458.52
684.43	455.75
684.77	452.85
685.10	450.07
685.44	447.24
685.78	444.31
686.12	441.65
686.45	438.97
686.79	436.36
687.13	433.89
687.46	431.20
687.80	428.54
688.14	425.73
688.48	423.13
688.81	420.49
689.15	417.95
689.49	415.38
689.82	412.95
690.16	410.43
690.50	408.04
690.83	405.59
691.17	403.10
691.51	400.72
691.84	398.55
692.18	396.41
692.52	394.25
692.85	392.20
693.19	390.10
693.52	388.03
693.86	385.91
694.20	383.80
694.53	381.78
694.87	379.63
695.21	377.59
695.54	375.51
695.88	373.44
696.21	371.31
696.55	369.24
696.88	367.23
697.22	365.28
697.56	363.40
697.89	361.58
698.23	359.88
698.56	358.16
698.90	356.43
699.23	354.50
699.57	352.70
699.90	350.90
700.24	349.17
700.58	347.44
700.91	345.81
701.25	344.25
701.58	342.65
701.92	341.12
702.25	339.63
702.59	338.00
702.92	336.46
703.26	334.95
703.59	333.56
703.93	332.30
704.26	330.92
704.60	329.43
704.93	327.97
705.26	326.50
705.60	325.02
705.93	323.54
706.27	322.29
706.60	321.04
706.94	319.81
707.27	318.40
707.61	317.10
707.94	315.81
708.27	314.32
708.61	312.90
708.94	311.59
709.28	310.29
709.61	309.14
709.94	307.94
710.28	306.75
710.61	305.55
710.95	304.16
711.28	303.11
711.61	302.00
711.95	300.92
712.28	299.75
712.61	298.62
712.95	297.57
713.28	296.56
713.61	295.44
713.95	294.30
714.28	293.31
714.61	292.27
714.95	291.23
715.28	290.25
715.61	289.25
715.95	288.31
716.28	287.42
716.61	286.44
716.95	285.49
717.28	284.57
717.61	283.64
717.94	282.79
718.28	281.77
718.61	280.92
718.94	280.03
719.27	279.24
719.61	278.46
719.94	277.61
720.27	276.64
720.60	275.78
720.94	275.00
721.27	274.29
721.60	273.62
721.93	272.94
722.27	272.33
722.60	271.70
722.93	270.98
723.26	270.31
723.59	269.64
723.93	269.05
724.26	268.46
724.59	267.85
724.92	267.27
725.25	266.80
725.59	266.24
725.92	265.72
726.25	265.13
726.58	264.54
726.91	263.99
727.24	263.52
727.57	263.02
727.91	262.45
728.24	261.91
728.57	261.31
728.90	260.78
729.23	260.19
729.56	259.78
729.89	259.24
730.22	258.69
730.55	258.13
730.89	257.58
731.22	257.03
731.55	256.52
731.88	256.00
732.21	255.43
732.54	254.92
732.87	254.42
733.20	253.96
733.53	253.51
733.86	253.04
734.19	252.55
734.52	252.14
734.85	251.88
735.18	251.45
735.51	251.10
735.84	250.64
736.17	250.28
736.50	249.75
736.83	249.65
737.16	249.29
737.49	248.98
737.82	248.59
738.15	248.25
738.48	247.91
738.81	247.55
739.14	247.13
739.47	246.74
739.80	246.34
740.13	246.00
740.46	245.63
740.79	245.27
741.12	244.94
741.45	244.60
741.78	244.16
742.11	243.88
742.44	243.53
742.77	243.29
743.10	242.91
743.43	242.61
743.75	242.06
744.08	241.98
744.41	241.63
744.74	241.33
745.07	240.97
745.40	240.70
745.73	240.42
746.06	240.16
746.39	239.89
746.71	239.60
747.04	239.26
747.37	238.95
747.70	238.67
748.03	238.39
748.36	238.11
748.68	237.80
749.01	237.47
749.34	237.15
749.67	236.86
750.00	236.64
750.33	236.52
750.65	236.27
750.98	235.78
751.31	235.55
751.64	235.29
751.97	235.18
752.29	234.87
752.62	234.54
752.95	234.27
753.28	234.01
753.60	233.78
753.93	233.63
754.26	233.41
754.59	233.16
754.91	232.89
755.24	232.66
755.57	232.45
755.90	232.22
756.22	231.99
756.55	231.73
756.88	231.49
757.20	231.13
757.53	230.88
757.86	230.67
758.19	230.51
758.51	230.32
758.84	230.04
759.17	229.88
759.49	229.73
759.82	229.66
760.15	229.49
760.47	229.32
760.80	229.06
761.13	228.94
761.45	228.77
761.78	228.59
762.11	228.42
762.43	228.22
762.76	228.04
763.08	227.89
763.41	227.78
763.74	227.60
764.06	227.43
764.39	227.24
764.71	227.11
765.04	226.91
765.37	226.77
765.69	226.63
766.02	226.51
766.34	226.36
766.67	226.15
767.00	226.08
767.32	226.02
767.65	226.06
767.97	225.89
768.30	225.77
768.62	225.68
768.95	225.55
769.27	225.44
769.60	225.32
769.92	225.18
770.25	225.01
770.57	224.88
770.90	224.79
771.22	224.68
771.55	224.55
771.87	224.46
772.20	224.31
772.52	224.35
772.85	224.45
773.17	224.35
773.50	224.23
773.82	224.10
774.15	223.93
774.47	223.69
774.80	223.61
775.12	223.55
775.45	223.45
775.77	223.38
776.09	223.29
776.42	223.24
776.74	223.24
777.07	223.17
777.39	223.10
777.72	223.03
778.04	222.99
778.36	222.88
778.69	222.79
779.01	222.78
779.33	222.53
779.66	222.23
779.98	222.11
780.31	222.04
780.63	222.03
780.95	221.97
781.28	221.88
781.60	221.78
781.92	221.69
782.25	221.63
782.57	221.58
782.89	221.52
783.22	221.43
783.54	221.29
783.86	221.23
784.19	221.15
784.51	221.13
784.83	221.03
785.16	220.99
785.48	220.94
785.80	220.88
786.12	220.81
