SpectraSuite Data File
++++++++++++++++++++++++++++++++++++
Date: Tue Jan 29 16:29:14 EST 2013
User: group
Dark Spectrum Present: No
Reference Spectrum Present: No
Number of Sampled Component Spectra: 1
Spectrometers: USB2E7196
Integration Time (usec): 65000 (USB2E7196)
Spectra Averaged: 100 (USB2E7196)
Boxcar Smoothing: 10 (USB2E7196)
Correct for Electrical Dark: No (USB2E7196)
Strobe/Lamp Enabled: No (USB2E7196)
Correct for Detector Non-linearity: No (USB2E7196)
Correct for Stray Light: No (USB2E7196)
Number of Pixels in Processed Spectrum: 2048
>>>>>Begin Processed Spectral Data<<<<<
339.09	0.00
339.48	201.53
339.86	202.59
340.24	204.41
340.63	206.07
341.01	210.13
341.39	208.00
341.78	210.26
342.16	211.14
342.54	211.93
342.93	200.88
343.31	211.03
343.69	211.57
344.07	212.08
344.46	212.53
344.84	212.94
345.22	213.14
345.60	213.45
345.99	213.67
346.37	213.85
346.75	213.96
347.13	214.04
347.52	214.15
347.90	214.30
348.28	214.37
348.66	214.47
349.05	214.47
349.43	214.51
349.81	214.58
350.19	214.67
350.57	214.75
350.96	214.86
351.34	214.95
351.72	215.11
352.10	215.23
352.48	215.30
352.87	215.36
353.25	215.43
353.63	215.53
354.01	215.60
354.39	215.68
354.77	215.79
355.15	215.92
355.54	215.99
355.92	216.02
356.30	216.14
356.68	216.38
357.06	216.45
357.44	216.52
357.82	216.58
358.20	216.71
358.58	216.80
358.97	216.89
359.35	217.03
359.73	217.14
360.11	217.21
360.49	217.30
360.87	217.42
361.25	217.49
361.63	217.58
362.01	217.66
362.39	217.68
362.77	217.74
363.15	217.76
363.53	217.78
363.91	217.80
364.29	217.76
364.67	217.57
365.05	217.61
365.43	217.66
365.81	217.71
366.19	217.79
366.57	217.88
366.95	217.90
367.33	217.86
367.71	217.85
368.09	217.87
368.47	217.89
368.85	217.85
369.23	217.90
369.61	217.81
369.99	217.84
370.37	217.86
370.75	217.94
371.13	217.91
371.51	217.85
371.89	217.84
372.27	217.85
372.65	217.85
373.03	217.82
373.41	217.79
373.78	217.74
374.16	217.57
374.54	217.46
374.92	217.40
375.30	217.35
375.68	217.26
376.06	217.22
376.44	217.14
376.82	217.10
377.19	217.05
377.57	217.00
377.95	216.88
378.33	216.79
378.71	216.62
379.09	216.60
379.47	216.59
379.84	216.51
380.22	216.42
380.60	216.33
380.98	216.26
381.36	216.21
381.73	216.14
382.11	216.14
382.49	216.08
382.87	215.99
383.25	215.91
383.62	216.10
384.00	216.02
384.38	215.97
384.76	215.95
385.13	215.98
385.51	215.96
385.89	215.91
386.27	215.90
386.64	215.87
387.02	215.80
387.40	215.74
387.78	215.70
388.15	215.70
388.53	215.64
388.91	215.61
389.29	215.55
389.66	215.57
390.04	215.51
390.42	215.54
390.79	215.55
391.17	215.58
391.55	215.32
391.92	215.28
392.30	215.31
392.68	215.27
393.05	215.23
393.43	215.25
393.81	215.25
394.18	215.22
394.56	215.23
394.94	215.28
395.31	215.26
395.69	215.34
396.06	215.39
396.44	215.46
396.82	215.50
397.19	215.65
397.57	215.65
397.95	215.72
398.32	215.68
398.70	215.73
399.07	215.81
399.45	215.87
399.82	215.94
400.20	215.96
400.58	216.01
400.95	215.97
401.33	216.05
401.70	216.27
402.08	216.39
402.45	216.45
402.83	216.58
403.20	216.71
403.58	216.82
403.95	216.97
404.33	217.07
404.71	217.21
405.08	217.46
405.46	217.64
405.83	217.85
406.21	218.05
406.58	218.28
406.96	218.47
407.33	218.73
407.70	219.02
408.08	219.51
408.45	219.86
408.83	220.30
409.20	220.64
409.58	220.94
409.95	221.40
410.33	221.91
410.70	222.36
411.08	222.93
411.45	223.49
411.82	224.06
412.20	224.78
412.57	225.59
412.95	226.15
413.32	226.96
413.69	227.79
414.07	228.68
414.44	229.68
414.82	230.74
415.19	231.92
415.56	233.16
415.94	234.32
416.31	235.72
416.68	237.09
417.06	238.73
417.43	240.26
417.81	241.98
418.18	243.73
418.55	245.66
418.93	247.68
419.30	249.78
419.67	251.99
420.04	254.26
420.42	256.63
420.79	259.45
421.16	262.21
421.54	265.09
421.91	268.06
422.28	271.13
422.66	274.41
423.03	277.69
423.40	281.07
423.77	284.63
424.15	288.28
424.52	292.12
424.89	296.23
425.26	300.31
425.64	304.19
426.01	308.51
426.38	313.00
426.75	317.55
427.13	322.30
427.50	327.21
427.87	332.42
428.24	337.62
428.61	342.59
428.99	348.12
429.36	354.15
429.73	360.05
430.10	365.94
430.47	372.01
430.85	378.28
431.22	384.90
431.59	392.01
431.96	398.85
432.33	406.31
432.70	413.51
433.08	422.00
433.45	430.09
433.82	438.09
434.19	446.93
434.56	455.57
434.93	463.84
435.30	472.16
435.68	481.24
436.05	490.15
436.42	499.05
436.79	507.13
437.16	515.87
437.53	525.12
437.90	534.20
438.27	543.10
438.64	552.28
439.01	560.77
439.38	568.34
439.75	575.66
440.13	584.17
440.50	592.19
440.87	598.54
441.24	605.05
441.61	612.32
441.98	617.65
442.35	624.02
442.72	630.46
443.09	636.52
443.46	640.30
443.83	642.88
444.20	645.08
444.57	648.27
444.94	649.70
445.31	651.18
445.68	652.63
446.05	653.29
446.42	652.54
446.79	651.64
447.16	650.55
447.53	649.79
447.90	646.42
448.27	643.14
448.64	638.50
449.01	635.25
449.37	629.36
449.74	623.69
450.11	616.80
450.48	609.35
450.85	601.86
451.22	595.36
451.59	589.25
451.96	583.39
452.33	575.53
452.70	568.44
453.07	559.96
453.43	551.27
453.80	542.93
454.17	534.92
454.54	527.38
454.91	519.26
455.28	511.27
455.65	503.81
456.02	496.30
456.38	490.06
456.75	482.20
457.12	475.67
457.49	469.21
457.86	463.03
458.23	457.64
458.59	451.73
458.96	445.73
459.33	440.37
459.70	435.00
460.07	430.76
460.43	425.85
460.80	421.25
461.17	417.30
461.54	413.15
461.91	409.12
462.27	405.01
462.64	401.56
463.01	397.83
463.38	394.15
463.74	390.44
464.11	387.18
464.48	384.36
464.85	381.30
465.21	378.88
465.58	376.19
465.95	373.09
466.32	370.50
466.68	367.92
467.05	365.35
467.42	362.85
467.78	360.15
468.15	357.61
468.52	355.71
468.88	353.25
469.25	351.03
469.62	349.26
469.98	347.30
470.35	345.51
470.72	343.76
471.08	341.96
471.45	340.47
471.82	338.96
472.18	337.30
472.55	336.10
472.92	334.72
473.28	333.56
473.65	332.42
474.02	331.27
474.38	330.37
474.75	329.61
475.11	328.79
475.48	328.21
475.85	327.77
476.21	327.30
476.58	326.94
476.94	326.70
477.31	326.39
477.67	326.16
478.04	325.97
478.41	325.96
478.77	326.07
479.14	326.02
479.50	326.14
479.87	326.44
480.23	326.75
480.60	326.96
480.96	327.23
481.33	327.82
481.69	328.40
482.06	328.94
482.42	329.43
482.79	330.05
483.15	330.91
483.52	331.86
483.88	332.74
484.25	333.68
484.61	334.70
484.98	335.77
485.34	337.09
485.71	338.50
486.07	339.90
486.44	341.31
486.80	342.96
487.17	344.62
487.53	346.49
487.90	348.35
488.26	350.41
488.62	352.56
488.99	354.60
489.35	356.77
489.72	359.15
490.08	361.70
490.44	364.26
490.81	366.96
491.17	369.66
491.54	372.68
491.90	375.72
492.26	379.03
492.63	382.46
492.99	385.92
493.36	389.60
493.72	393.52
494.08	397.53
494.45	401.75
494.81	406.15
495.17	410.59
495.54	415.30
495.90	420.10
496.26	425.09
496.63	430.30
496.99	435.77
497.35	441.33
497.72	447.11
498.08	453.07
498.44	459.15
498.80	465.59
499.17	472.11
499.53	478.82
499.89	485.74
500.26	492.66
500.62	499.76
500.98	507.17
501.34	514.67
501.71	522.46
502.07	530.29
502.43	538.35
502.79	546.53
503.16	554.95
503.52	563.56
503.88	572.32
504.24	581.26
504.60	590.29
504.97	599.60
505.33	608.99
505.69	618.84
506.05	628.78
506.41	638.72
506.78	648.79
507.14	659.12
507.50	669.61
507.86	680.39
508.22	691.32
508.59	702.05
508.95	713.16
509.31	724.49
509.67	735.98
510.03	747.41
510.39	759.22
510.75	771.17
511.12	783.19
511.48	795.36
511.84	807.78
512.20	820.24
512.56	833.00
512.92	845.88
513.28	858.57
513.64	871.40
514.00	884.31
514.37	897.47
514.73	910.73
515.09	923.76
515.45	936.80
515.81	949.94
516.17	963.48
516.53	976.83
516.89	990.09
517.25	1003.36
517.61	1017.03
517.97	1030.52
518.33	1043.72
518.69	1057.37
519.05	1071.16
519.41	1084.97
519.77	1098.94
520.13	1112.33
520.49	1125.60
520.85	1139.23
521.21	1152.65
521.57	1166.46
521.93	1179.57
522.29	1193.36
522.65	1207.23
523.01	1221.03
523.37	1234.26
523.73	1247.68
524.09	1261.05
524.45	1274.59
524.81	1288.26
525.17	1301.76
525.53	1315.07
525.89	1328.52
526.25	1341.77
526.61	1354.76
526.97	1367.92
527.33	1381.06
527.68	1394.65
528.04	1408.34
528.40	1421.55
528.76	1435.12
529.12	1448.03
529.48	1461.50
529.84	1473.89
530.20	1486.76
530.56	1499.40
530.91	1512.85
531.27	1525.85
531.63	1538.65
531.99	1551.56
532.35	1563.78
532.71	1576.29
533.07	1589.36
533.42	1601.75
533.78	1614.04
534.14	1626.21
534.50	1637.55
534.86	1649.31
535.21	1660.32
535.57	1671.97
535.93	1683.34
536.29	1694.55
536.65	1706.23
537.00	1717.24
537.36	1728.87
537.72	1739.89
538.08	1751.38
538.44	1762.41
538.79	1773.56
539.15	1784.65
539.51	1795.54
539.87	1807.04
540.22	1817.96
540.58	1828.92
540.94	1839.87
541.29	1850.15
541.65	1860.01
542.01	1870.67
542.37	1880.72
542.72	1890.91
543.08	1900.63
543.44	1911.18
543.79	1920.56
544.15	1930.04
544.51	1940.26
544.87	1950.08
545.22	1959.40
545.58	1968.38
545.94	1977.48
546.29	1986.07
546.65	1994.49
547.01	2002.77
547.36	2010.59
547.72	2018.46
548.07	2026.02
548.43	2033.91
548.79	2041.84
549.14	2049.99
549.50	2058.53
549.86	2066.47
550.21	2074.03
550.57	2081.85
550.92	2088.72
551.28	2096.14
551.64	2103.52
551.99	2110.92
552.35	2118.17
552.70	2125.18
553.06	2131.83
553.41	2138.00
553.77	2144.53
554.13	2151.04
554.48	2158.09
554.84	2165.24
555.19	2171.81
555.55	2178.41
555.90	2184.79
556.26	2191.65
556.61	2197.85
556.97	2202.75
557.32	2208.62
557.68	2214.97
558.03	2220.84
558.39	2226.26
558.74	2232.38
559.10	2237.94
559.45	2243.56
559.81	2249.16
560.16	2254.67
560.52	2260.69
560.87	2267.13
561.23	2273.25
561.58	2279.86
561.94	2285.09
562.29	2289.84
562.64	2295.96
563.00	2301.71
563.35	2307.29
563.71	2313.21
564.06	2318.92
564.42	2324.89
564.77	2330.09
565.12	2335.52
565.48	2340.73
565.83	2346.26
566.19	2351.66
566.54	2357.03
566.89	2361.78
567.25	2366.40
567.60	2372.28
567.96	2377.49
568.31	2382.05
568.66	2386.17
569.02	2390.06
569.37	2393.78
569.72	2398.11
570.08	2401.66
570.43	2404.70
570.78	2407.92
571.14	2410.38
571.49	2413.59
571.84	2417.14
572.20	2419.99
572.55	2422.90
572.90	2425.06
573.26	2427.87
573.61	2430.52
573.96	2432.66
574.31	2434.45
574.67	2436.38
575.02	2437.02
575.37	2438.42
575.72	2439.21
576.08	2440.75
576.43	2440.92
576.78	2441.46
577.13	2443.18
577.49	2444.23
577.84	2445.19
578.19	2446.39
578.54	2446.92
578.90	2447.64
579.25	2447.38
579.60	2447.26
579.95	2446.60
580.30	2446.67
580.66	2446.03
581.01	2444.21
581.36	2441.96
581.71	2440.69
582.06	2439.51
582.42	2438.65
582.77	2436.32
583.12	2434.68
583.47	2433.23
583.82	2432.56
584.17	2431.25
584.53	2429.08
584.88	2427.08
585.23	2425.32
585.58	2423.07
585.93	2421.06
586.28	2418.81
586.63	2416.34
586.98	2414.22
587.34	2412.16
587.69	2409.84
588.04	2407.73
588.39	2406.42
588.74	2403.82
589.09	2401.13
589.44	2397.95
589.79	2395.45
590.14	2393.53
590.49	2390.59
590.84	2386.72
591.19	2383.55
591.54	2380.24
591.89	2376.15
592.25	2372.76
592.60	2368.55
592.95	2364.33
593.30	2360.16
593.65	2355.73
594.00	2351.30
594.35	2348.23
594.70	2343.60
595.05	2338.77
595.40	2333.19
595.75	2327.17
596.10	2323.60
596.45	2318.74
596.80	2314.05
597.15	2308.62
597.50	2302.65
597.85	2297.78
598.19	2292.53
598.54	2286.66
598.89	2281.51
599.24	2277.02
599.59	2270.84
599.94	2264.99
600.29	2258.99
600.64	2252.87
600.99	2246.03
601.34	2240.54
601.69	2233.39
602.04	2226.81
602.39	2220.14
602.74	2214.13
603.08	2208.72
603.43	2201.92
603.78	2194.90
604.13	2187.82
604.48	2180.55
604.83	2174.39
605.18	2168.15
605.53	2161.20
605.87	2154.20
606.22	2147.28
606.57	2139.25
606.92	2131.24
607.27	2124.27
607.62	2117.51
607.96	2110.55
608.31	2104.18
608.66	2096.43
609.01	2088.87
609.36	2081.72
609.70	2074.10
610.05	2066.30
610.40	2058.00
610.75	2049.84
611.10	2042.16
611.44	2033.23
611.79	2024.56
612.14	2014.63
612.49	2003.78
612.83	1994.40
613.18	1985.13
613.53	1975.76
613.88	1966.10
614.22	1957.46
614.57	1947.50
614.92	1936.86
615.27	1926.62
615.61	1916.30
615.96	1906.40
616.31	1896.67
616.65	1887.21
617.00	1877.21
617.35	1867.35
617.70	1857.38
618.04	1847.25
618.39	1836.99
618.74	1827.23
619.08	1817.44
619.43	1808.49
619.78	1800.12
620.12	1791.41
620.47	1781.79
620.82	1771.49
621.16	1761.59
621.51	1751.43
621.85	1741.49
622.20	1731.13
622.55	1720.56
622.89	1710.54
623.24	1700.83
623.59	1690.89
623.93	1680.73
624.28	1671.10
624.62	1661.00
624.97	1650.77
625.32	1640.95
625.66	1632.02
626.01	1623.31
626.35	1614.02
626.70	1603.95
627.04	1593.92
627.39	1583.77
627.73	1574.38
628.08	1565.35
628.43	1555.74
628.77	1546.59
629.12	1537.63
629.46	1529.75
629.81	1521.25
630.15	1511.71
630.50	1501.86
630.84	1491.41
631.19	1481.44
631.53	1472.13
631.88	1461.85
632.22	1451.72
632.57	1442.36
632.91	1432.14
633.26	1422.09
633.60	1412.44
633.95	1403.14
634.29	1393.65
634.64	1384.29
634.98	1374.30
635.32	1364.87
635.67	1356.34
636.01	1347.02
636.36	1337.23
636.70	1327.68
637.05	1318.33
637.39	1309.36
637.73	1300.68
638.08	1293.05
638.42	1284.84
638.77	1275.90
639.11	1267.61
639.45	1259.83
639.80	1251.10
640.14	1242.41
640.49	1233.50
640.83	1224.53
641.17	1216.27
641.52	1208.00
641.86	1199.43
642.20	1191.40
642.55	1182.69
642.89	1173.77
643.23	1165.00
643.58	1156.87
643.92	1147.68
644.26	1138.87
644.61	1130.33
644.95	1121.42
645.29	1112.13
645.64	1102.79
645.98	1094.18
646.32	1086.22
646.66	1077.59
647.01	1069.16
647.35	1060.87
647.69	1052.41
648.04	1044.07
648.38	1035.16
648.72	1026.20
649.06	1017.64
649.41	1009.42
649.75	1001.51
650.09	993.46
650.43	985.43
650.78	976.99
651.12	969.27
651.46	961.73
651.80	954.47
652.14	947.22
652.49	939.67
652.83	932.30
653.17	924.53
653.51	916.83
653.85	909.52
654.20	902.29
654.54	894.70
654.88	887.47
655.22	880.20
655.56	873.10
655.90	866.29
656.25	859.53
656.59	852.63
656.93	845.51
657.27	838.36
657.61	831.29
657.95	825.11
658.29	819.08
658.64	812.97
658.98	806.45
659.32	799.78
659.66	793.50
660.00	787.06
660.34	780.95
660.68	774.75
661.02	768.27
661.36	762.20
661.70	756.35
662.05	750.65
662.39	745.08
662.73	739.66
663.07	734.24
663.41	728.52
663.75	722.67
664.09	716.84
664.43	711.35
664.77	705.90
665.11	700.02
665.45	694.04
665.79	688.12
666.13	682.32
666.47	676.75
666.81	671.26
667.15	665.85
667.49	660.61
667.83	655.28
668.17	650.05
668.51	644.86
668.85	639.94
669.19	634.97
669.53	629.93
669.87	624.72
670.21	619.90
670.55	615.10
670.89	610.57
671.23	606.27
671.57	601.84
671.91	597.52
672.25	593.32
672.58	589.16
672.92	585.12
673.26	581.14
673.60	577.20
673.94	573.28
674.28	569.70
674.62	565.91
674.96	562.16
675.30	558.58
675.64	554.87
675.97	551.24
676.31	547.59
676.65	543.91
676.99	540.49
677.33	536.67
677.67	533.00
678.01	529.11
678.34	525.42
678.68	521.85
679.02	518.21
679.36	514.47
679.70	510.80
680.04	507.12
680.37	503.59
680.71	500.23
681.05	496.99
681.39	493.62
681.73	490.39
682.06	487.25
682.40	484.12
682.74	480.87
683.08	477.60
683.42	474.39
683.75	471.30
684.09	468.15
684.43	465.27
684.77	462.29
685.10	459.40
685.44	456.48
685.78	453.50
686.12	450.71
686.45	447.97
686.79	445.23
687.13	442.70
687.46	440.02
687.80	437.30
688.14	434.39
688.48	431.75
688.81	429.07
689.15	426.53
689.49	423.89
689.82	421.33
690.16	418.67
690.50	416.18
690.83	413.68
691.17	411.14
691.51	408.64
691.84	406.36
692.18	404.11
692.52	401.78
692.85	399.65
693.19	397.44
693.52	395.24
693.86	393.01
694.20	390.73
694.53	388.62
694.87	386.43
695.21	384.26
695.54	382.07
695.88	379.86
696.21	377.58
696.55	375.42
696.88	373.35
697.22	371.40
697.56	369.46
697.89	367.52
698.23	365.76
698.56	363.95
698.90	362.13
699.23	360.20
699.57	358.34
699.90	356.45
700.24	354.64
700.58	352.85
700.91	351.15
701.25	349.58
701.58	347.92
701.92	346.31
702.25	344.73
702.59	343.07
702.92	341.52
703.26	339.97
703.59	338.50
703.93	337.19
704.26	335.72
704.60	334.20
704.93	332.74
705.26	331.22
705.60	329.69
705.93	328.19
706.27	326.84
706.60	325.55
706.94	324.29
707.27	322.85
707.61	321.46
707.94	320.12
708.27	318.63
708.61	317.20
708.94	315.77
709.28	314.43
709.61	313.15
709.94	311.91
710.28	310.64
710.61	309.42
710.95	307.96
711.28	306.89
711.61	305.66
711.95	304.49
712.28	303.25
712.61	302.07
712.95	300.99
713.28	299.94
713.61	298.84
713.95	297.68
714.28	296.67
714.61	295.60
714.95	294.54
715.28	293.46
715.61	292.40
715.95	291.43
716.28	290.46
716.61	289.52
716.95	288.51
717.28	287.56
717.61	286.54
717.94	285.65
718.28	284.58
718.61	283.70
718.94	282.74
719.27	281.89
719.61	281.05
719.94	280.12
720.27	279.11
720.60	278.17
720.94	277.35
721.27	276.55
721.60	275.89
721.93	275.15
722.27	274.50
722.60	273.82
722.93	273.08
723.26	272.43
723.59	271.73
723.93	271.08
724.26	270.42
724.59	269.81
724.92	269.23
725.25	268.68
725.59	268.12
725.92	267.59
726.25	266.99
726.58	266.44
726.91	265.85
727.24	265.36
727.57	264.79
727.91	264.19
728.24	263.64
728.57	263.05
728.90	262.53
729.23	261.88
729.56	261.40
729.89	260.89
730.22	260.27
730.55	259.72
730.89	259.19
731.22	258.64
731.55	258.08
731.88	257.51
732.21	256.92
732.54	256.36
732.87	255.86
733.20	255.35
733.53	254.83
733.86	254.42
734.19	253.89
734.52	253.46
734.85	253.16
735.18	252.64
735.51	252.22
735.84	251.76
736.17	251.40
736.50	250.88
736.83	250.70
737.16	250.35
737.49	249.95
737.82	249.53
738.15	249.21
738.48	248.82
738.81	248.43
739.14	248.05
739.47	247.66
739.80	247.28
740.13	246.97
740.46	246.57
740.79	246.11
741.12	245.73
741.45	245.37
741.78	244.92
742.11	244.70
742.44	244.30
742.77	243.98
743.10	243.65
743.43	243.27
743.75	242.67
744.08	242.59
744.41	242.23
744.74	241.87
745.07	241.49
745.40	241.21
745.73	240.96
746.06	240.65
746.39	240.33
746.71	239.97
747.04	239.60
747.37	239.28
747.70	239.06
748.03	238.76
748.36	238.51
748.68	238.20
749.01	237.80
749.34	237.51
749.67	237.20
750.00	236.92
750.33	236.79
750.65	236.56
750.98	236.01
751.31	235.79
751.64	235.56
751.97	235.41
752.29	235.13
752.62	234.76
752.95	234.45
753.28	234.22
753.60	233.98
753.93	233.80
754.26	233.57
754.59	233.24
754.91	233.00
755.24	232.70
755.57	232.46
755.90	232.24
756.22	232.00
756.55	231.71
756.88	231.47
757.20	231.14
757.53	230.88
757.86	230.67
758.19	230.46
758.51	230.26
758.84	229.99
759.17	229.78
759.49	229.64
759.82	229.59
760.15	229.39
760.47	229.23
760.80	228.97
761.13	228.84
761.45	228.69
761.78	228.55
762.11	228.39
762.43	228.20
762.76	228.02
763.08	227.89
763.41	227.79
763.74	227.59
764.06	227.45
764.39	227.30
764.71	227.14
765.04	226.96
765.37	226.80
765.69	226.61
766.02	226.46
766.34	226.30
766.67	226.09
767.00	225.98
767.32	225.99
767.65	226.03
767.97	225.85
768.30	225.70
768.62	225.52
768.95	225.36
769.27	225.23
769.60	225.13
769.92	224.94
770.25	224.79
770.57	224.64
770.90	224.49
771.22	224.32
771.55	224.23
771.87	224.11
772.20	223.99
772.52	224.05
772.85	224.20
773.17	224.11
773.50	223.99
773.82	223.88
774.15	223.67
774.47	223.41
774.80	223.33
775.12	223.21
775.45	223.12
775.77	223.04
776.09	223.00
776.42	222.92
776.74	222.93
777.07	222.79
777.39	222.77
777.72	222.69
778.04	222.69
778.36	222.58
778.69	222.48
779.01	222.41
779.33	222.19
779.66	221.88
779.98	221.76
780.31	221.70
780.63	221.73
780.95	221.65
781.28	221.56
781.60	221.47
781.92	221.42
782.25	221.37
782.57	221.32
782.89	221.25
783.22	221.16
783.54	221.05
783.86	220.99
784.19	220.89
784.51	220.90
784.83	220.82
785.16	220.73
785.48	220.71
785.80	220.65
786.12	220.56
