SpectraSuite Data File
++++++++++++++++++++++++++++++++++++
Date: Tue Jan 29 16:28:34 EST 2013
User: group
Dark Spectrum Present: No
Reference Spectrum Present: No
Number of Sampled Component Spectra: 1
Spectrometers: USB2E7196
Integration Time (usec): 65000 (USB2E7196)
Spectra Averaged: 100 (USB2E7196)
Boxcar Smoothing: 10 (USB2E7196)
Correct for Electrical Dark: No (USB2E7196)
Strobe/Lamp Enabled: No (USB2E7196)
Correct for Detector Non-linearity: No (USB2E7196)
Correct for Stray Light: No (USB2E7196)
Number of Pixels in Processed Spectrum: 2048
>>>>>Begin Processed Spectral Data<<<<<
339.09	0.00
339.48	202.11
339.86	203.36
340.24	204.58
340.63	205.63
341.01	210.54
341.39	208.87
341.78	210.96
342.16	211.75
342.54	212.21
342.93	201.12
343.31	211.28
343.69	211.80
344.07	212.29
344.46	212.74
344.84	213.18
345.22	213.37
345.60	213.65
345.99	213.83
346.37	213.99
346.75	214.09
347.13	214.15
347.52	214.25
347.90	214.37
348.28	214.44
348.66	214.53
349.05	214.51
349.43	214.59
349.81	214.63
350.19	214.69
350.57	214.76
350.96	214.84
351.34	214.94
351.72	215.03
352.10	215.13
352.48	215.18
352.87	215.22
353.25	215.30
353.63	215.35
354.01	215.40
354.39	215.46
354.77	215.54
355.15	215.72
355.54	215.73
355.92	215.74
356.30	215.83
356.68	216.02
357.06	216.12
357.44	216.15
357.82	216.27
358.20	216.36
358.58	216.42
358.97	216.53
359.35	216.68
359.73	216.80
360.11	216.88
360.49	216.99
360.87	217.04
361.25	217.09
361.63	217.23
362.01	217.33
362.39	217.36
362.77	217.42
363.15	217.41
363.53	217.49
363.91	217.51
364.29	217.54
364.67	217.39
365.05	217.42
365.43	217.47
365.81	217.50
366.19	217.61
366.57	217.71
366.95	217.70
367.33	217.65
367.71	217.62
368.09	217.66
368.47	217.64
368.85	217.65
369.23	217.67
369.61	217.60
369.99	217.66
370.37	217.69
370.75	217.76
371.13	217.72
371.51	217.68
371.89	217.71
372.27	217.68
372.65	217.65
373.03	217.63
373.41	217.60
373.78	217.55
374.16	217.39
374.54	217.29
374.92	217.24
375.30	217.18
375.68	217.15
376.06	217.12
376.44	217.07
376.82	217.03
377.19	216.96
377.57	216.89
377.95	216.74
378.33	216.66
378.71	216.51
379.09	216.47
379.47	216.46
379.84	216.38
380.22	216.33
380.60	216.27
380.98	216.18
381.36	216.13
381.73	216.05
382.11	216.06
382.49	216.00
382.87	215.93
383.25	215.87
383.62	216.07
384.00	215.96
384.38	215.93
384.76	215.95
385.13	216.01
385.51	215.99
385.89	215.95
386.27	215.93
386.64	215.91
387.02	215.86
387.40	215.81
387.78	215.78
388.15	215.77
388.53	215.73
388.91	215.72
389.29	215.68
389.66	215.70
390.04	215.63
390.42	215.66
390.79	215.64
391.17	215.63
391.55	215.36
391.92	215.38
392.30	215.39
392.68	215.30
393.05	215.25
393.43	215.25
393.81	215.23
394.18	215.19
394.56	215.21
394.94	215.25
395.31	215.23
395.69	215.30
396.06	215.35
396.44	215.41
396.82	215.41
397.19	215.53
397.57	215.55
397.95	215.63
398.32	215.60
398.70	215.67
399.07	215.77
399.45	215.83
399.82	215.85
400.20	215.87
400.58	215.94
400.95	215.94
401.33	216.05
401.70	216.29
402.08	216.38
402.45	216.46
402.83	216.63
403.20	216.77
403.58	216.85
403.95	216.99
404.33	217.12
404.71	217.29
405.08	217.57
405.46	217.72
405.83	217.90
406.21	218.10
406.58	218.33
406.96	218.51
407.33	218.75
407.70	219.05
408.08	219.53
408.45	219.90
408.83	220.27
409.20	220.60
409.58	220.89
409.95	221.36
410.33	221.83
410.70	222.23
411.08	222.77
411.45	223.35
411.82	223.91
412.20	224.67
412.57	225.48
412.95	226.02
413.32	226.87
413.69	227.71
414.07	228.65
414.44	229.68
414.82	230.72
415.19	231.89
415.56	233.11
415.94	234.28
416.31	235.68
416.68	237.10
417.06	238.68
417.43	240.24
417.81	241.97
418.18	243.77
418.55	245.69
418.93	247.72
419.30	249.83
419.67	252.04
420.04	254.28
420.42	256.68
420.79	259.50
421.16	262.25
421.54	265.18
421.91	268.11
422.28	271.17
422.66	274.45
423.03	277.72
423.40	281.02
423.77	284.60
424.15	288.30
424.52	292.12
424.89	296.31
425.26	300.38
425.64	304.24
426.01	308.50
426.38	312.97
426.75	317.48
427.13	322.17
427.50	327.17
427.87	332.35
428.24	337.48
428.61	342.48
428.99	348.01
429.36	353.92
429.73	359.85
430.10	365.73
430.47	371.79
430.85	378.06
431.22	384.78
431.59	391.86
431.96	398.62
432.33	406.10
432.70	413.34
433.08	421.83
433.45	429.90
433.82	437.90
434.19	446.81
434.56	455.54
434.93	463.89
435.30	472.09
435.68	481.20
436.05	490.17
436.42	498.99
436.79	507.13
437.16	515.87
437.53	525.11
437.90	534.22
438.27	543.10
438.64	552.34
439.01	560.80
439.38	568.36
439.75	575.69
440.13	584.14
440.50	592.03
440.87	598.50
441.24	605.15
441.61	612.49
441.98	617.79
442.35	624.02
442.72	630.34
443.09	636.41
443.46	640.16
443.83	642.72
444.20	644.98
444.57	648.11
444.94	649.57
445.31	651.01
445.68	652.42
446.05	653.12
446.42	652.31
446.79	651.45
447.16	650.47
447.53	649.66
447.90	646.37
448.27	643.10
448.64	638.39
449.01	635.03
449.37	629.16
449.74	623.52
450.11	616.64
450.48	609.23
450.85	601.81
451.22	595.36
451.59	589.26
451.96	583.42
452.33	575.59
452.70	568.56
453.07	560.13
453.43	551.51
453.80	543.21
454.17	535.23
454.54	527.68
454.91	519.45
455.28	511.54
455.65	504.05
456.02	496.62
456.38	490.30
456.75	482.43
457.12	475.86
457.49	469.42
457.86	463.29
458.23	457.91
458.59	452.00
458.96	445.98
459.33	440.65
459.70	435.27
460.07	431.00
460.43	426.14
460.80	421.55
461.17	417.53
461.54	413.35
461.91	409.35
462.27	405.24
462.64	401.74
463.01	397.98
463.38	394.34
463.74	390.64
464.11	387.40
464.48	384.63
464.85	381.50
465.21	379.08
465.58	376.46
465.95	373.35
466.32	370.71
466.68	368.11
467.05	365.52
467.42	362.97
467.78	360.32
468.15	357.75
468.52	355.83
468.88	353.35
469.25	351.11
469.62	349.34
469.98	347.38
470.35	345.64
470.72	343.93
471.08	342.11
471.45	340.58
471.82	339.05
472.18	337.37
472.55	336.21
472.92	334.76
473.28	333.55
473.65	332.40
474.02	331.28
474.38	330.34
474.75	329.61
475.11	328.83
475.48	328.27
475.85	327.76
476.21	327.27
476.58	326.94
476.94	326.72
477.31	326.41
477.67	326.14
478.04	325.97
478.41	325.95
478.77	326.10
479.14	326.08
479.50	326.24
479.87	326.52
480.23	326.84
480.60	327.09
480.96	327.38
481.33	327.96
481.69	328.53
482.06	329.13
482.42	329.58
482.79	330.16
483.15	330.93
483.52	331.90
483.88	332.80
484.25	333.75
484.61	334.76
484.98	335.80
485.34	337.09
485.71	338.44
486.07	339.88
486.44	341.16
486.80	342.78
487.17	344.41
487.53	346.25
487.90	348.09
488.26	350.12
488.62	352.24
488.99	354.31
489.35	356.50
489.72	358.88
490.08	361.37
490.44	363.90
490.81	366.63
491.17	369.32
491.54	372.30
491.90	375.37
492.26	378.63
492.63	382.06
492.99	385.61
493.36	389.31
493.72	393.20
494.08	397.28
494.45	401.52
494.81	405.96
495.17	410.46
495.54	415.22
495.90	420.09
496.26	425.07
496.63	430.25
496.99	435.71
497.35	441.30
497.72	447.13
498.08	453.14
498.44	459.22
498.80	465.71
499.17	472.24
499.53	478.96
499.89	485.92
500.26	492.91
500.62	500.06
500.98	507.58
501.34	515.10
501.71	522.95
502.07	530.86
502.43	538.85
502.79	546.99
503.16	555.38
503.52	564.03
503.88	572.82
504.24	581.82
504.60	590.90
504.97	600.23
505.33	609.61
505.69	619.52
506.05	629.56
506.41	639.51
506.78	649.64
507.14	659.98
507.50	670.50
507.86	681.33
508.22	692.19
508.59	702.81
508.95	713.92
509.31	725.24
509.67	736.70
510.03	748.19
510.39	760.02
510.75	771.85
511.12	783.77
511.48	795.93
511.84	808.35
512.20	820.81
512.56	833.51
512.92	846.42
513.28	859.20
513.64	871.99
514.00	884.88
514.37	897.92
514.73	911.15
515.09	924.24
515.45	937.23
515.81	950.33
516.17	963.86
516.53	977.18
516.89	990.31
517.25	1003.56
517.61	1017.24
517.97	1030.74
518.33	1044.16
518.69	1057.92
519.05	1071.74
519.41	1085.57
519.77	1099.53
520.13	1112.93
520.49	1126.22
520.85	1139.73
521.21	1153.17
521.57	1167.01
521.93	1180.27
522.29	1194.13
522.65	1207.86
523.01	1221.58
523.37	1234.87
523.73	1248.28
524.09	1261.59
524.45	1275.15
524.81	1288.78
525.17	1302.32
525.53	1315.60
525.89	1328.98
526.25	1342.25
526.61	1355.31
526.97	1368.40
527.33	1381.44
527.68	1394.98
528.04	1408.66
528.40	1421.88
528.76	1435.20
529.12	1448.13
529.48	1461.44
529.84	1473.82
530.20	1486.62
530.56	1499.31
530.91	1512.75
531.27	1525.71
531.63	1538.63
531.99	1551.61
532.35	1564.09
532.71	1576.67
533.07	1589.80
533.42	1602.25
533.78	1614.49
534.14	1626.64
534.50	1638.16
534.86	1649.91
535.21	1661.02
535.57	1672.53
535.93	1683.93
536.29	1695.27
536.65	1706.92
537.00	1717.95
537.36	1729.42
537.72	1740.50
538.08	1752.04
538.44	1763.06
538.79	1774.25
539.15	1785.23
539.51	1796.11
539.87	1807.44
540.22	1818.32
540.58	1829.24
540.94	1840.20
541.29	1850.48
541.65	1860.23
542.01	1870.73
542.37	1880.84
542.72	1891.06
543.08	1901.00
543.44	1911.67
543.79	1921.07
544.15	1930.63
544.51	1940.86
544.87	1950.88
545.22	1960.27
545.58	1969.21
545.94	1978.10
546.29	1986.87
546.65	1995.36
547.01	2003.64
547.36	2011.41
547.72	2019.12
548.07	2026.80
548.43	2034.63
548.79	2042.58
549.14	2050.92
549.50	2059.49
549.86	2067.44
550.21	2074.87
550.57	2082.50
550.92	2089.26
551.28	2096.82
551.64	2104.01
551.99	2111.48
552.35	2118.61
552.70	2125.65
553.06	2132.41
553.41	2138.88
553.77	2145.33
554.13	2151.70
554.48	2158.76
554.84	2165.91
555.19	2172.62
555.55	2179.12
555.90	2185.54
556.26	2192.38
556.61	2198.62
556.97	2203.30
557.32	2209.29
557.68	2215.76
558.03	2221.64
558.39	2226.95
558.74	2232.92
559.10	2238.60
559.45	2244.24
559.81	2249.95
560.16	2255.46
560.52	2261.43
560.87	2267.75
561.23	2273.83
561.58	2280.67
561.94	2285.99
562.29	2290.71
562.64	2296.90
563.00	2302.69
563.35	2308.23
563.71	2314.09
564.06	2319.68
564.42	2325.76
564.77	2330.72
565.12	2336.12
565.48	2341.29
565.83	2346.86
566.19	2352.42
566.54	2357.86
566.89	2362.55
567.25	2367.15
567.60	2372.94
567.96	2378.11
568.31	2382.83
568.66	2387.22
569.02	2391.07
569.37	2394.71
569.72	2399.20
570.08	2402.50
570.43	2405.52
570.78	2408.60
571.14	2411.14
571.49	2414.22
571.84	2417.84
572.20	2420.79
572.55	2423.67
572.90	2426.07
573.26	2429.06
573.61	2431.58
573.96	2433.75
574.31	2435.72
574.67	2437.54
575.02	2438.29
575.37	2439.70
575.72	2440.41
576.08	2441.71
576.43	2441.79
576.78	2442.29
577.13	2443.83
577.49	2445.09
577.84	2446.08
578.19	2447.42
578.54	2447.96
578.90	2448.76
579.25	2448.55
579.60	2448.52
579.95	2447.78
580.30	2447.86
580.66	2447.03
581.01	2445.41
581.36	2442.87
581.71	2441.51
582.06	2440.44
582.42	2439.61
582.77	2437.25
583.12	2435.65
583.47	2434.19
583.82	2433.71
584.17	2432.45
584.53	2430.29
584.88	2428.18
585.23	2426.35
585.58	2423.95
585.93	2421.98
586.28	2419.75
586.63	2417.48
586.98	2415.31
587.34	2413.39
587.69	2410.82
588.04	2408.68
588.39	2407.02
588.74	2404.73
589.09	2401.98
589.44	2398.72
589.79	2396.08
590.14	2394.27
590.49	2391.34
590.84	2387.50
591.19	2384.10
591.54	2381.00
591.89	2377.16
592.25	2373.79
592.60	2369.45
592.95	2365.48
593.30	2361.35
593.65	2356.89
594.00	2352.38
594.35	2349.30
594.70	2344.55
595.05	2340.09
595.40	2334.56
595.75	2328.84
596.10	2325.19
596.45	2320.38
596.80	2315.80
597.15	2310.62
597.50	2304.65
597.85	2299.80
598.19	2294.65
598.54	2289.04
598.89	2283.62
599.24	2278.85
599.59	2272.85
599.94	2267.07
600.29	2260.95
600.64	2254.92
600.99	2248.13
601.34	2242.59
601.69	2235.55
602.04	2229.10
602.39	2222.33
602.74	2216.41
603.08	2210.81
603.43	2204.24
603.78	2197.36
604.13	2190.35
604.48	2183.04
604.83	2176.79
605.18	2170.43
605.53	2163.40
605.87	2156.19
606.22	2149.42
606.57	2141.46
606.92	2133.35
607.27	2126.29
607.62	2119.77
607.96	2112.70
608.31	2106.10
608.66	2098.41
609.01	2090.73
609.36	2083.58
609.70	2075.77
610.05	2067.75
610.40	2059.46
610.75	2050.99
611.10	2043.18
611.44	2034.13
611.79	2025.31
612.14	2015.40
612.49	2004.62
612.83	1995.16
613.18	1985.94
613.53	1976.48
613.88	1966.76
614.22	1957.99
614.57	1948.11
614.92	1937.35
615.27	1927.04
615.61	1916.98
615.96	1907.09
616.31	1897.32
616.65	1887.82
617.00	1878.01
617.35	1868.33
617.70	1858.48
618.04	1848.48
618.39	1838.18
618.74	1828.43
619.08	1818.83
619.43	1810.00
619.78	1801.73
620.12	1793.07
620.47	1783.32
620.82	1773.01
621.16	1763.21
621.51	1753.38
621.85	1743.44
622.20	1733.01
622.55	1722.30
622.89	1712.29
623.24	1702.51
623.59	1692.73
623.93	1682.47
624.28	1672.77
624.62	1662.61
624.97	1652.24
625.32	1642.32
625.66	1633.39
626.01	1624.65
626.35	1615.10
626.70	1604.96
627.04	1594.76
627.39	1584.47
627.73	1575.16
628.08	1566.14
628.43	1556.60
628.77	1547.21
629.12	1538.32
629.46	1530.45
629.81	1522.09
630.15	1512.40
630.50	1502.51
630.84	1491.98
631.19	1482.02
631.53	1472.57
631.88	1462.32
632.22	1452.28
632.57	1442.72
632.91	1432.43
633.26	1422.45
633.60	1412.78
633.95	1403.50
634.29	1393.94
634.64	1384.64
634.98	1374.58
635.32	1365.23
635.67	1356.65
636.01	1347.26
636.36	1337.45
636.70	1327.80
637.05	1318.44
637.39	1309.50
637.73	1300.71
638.08	1293.10
638.42	1284.93
638.77	1276.00
639.11	1267.69
639.45	1259.86
639.80	1251.36
640.14	1242.69
640.49	1233.73
640.83	1224.87
641.17	1216.59
641.52	1208.43
641.86	1199.83
642.20	1191.91
642.55	1183.08
642.89	1173.97
643.23	1165.27
643.58	1157.12
643.92	1148.11
644.26	1139.30
644.61	1130.77
644.95	1122.10
645.29	1112.79
645.64	1103.51
645.98	1094.97
646.32	1087.01
646.66	1078.34
647.01	1070.03
647.35	1061.86
647.69	1053.48
648.04	1045.17
648.38	1036.22
648.72	1027.30
649.06	1018.81
649.41	1010.57
649.75	1002.61
650.09	994.76
650.43	986.63
650.78	978.16
651.12	970.22
651.46	962.71
651.80	955.39
652.14	947.96
652.49	940.40
652.83	932.92
653.17	925.22
653.51	917.52
653.85	910.25
654.20	902.73
654.54	895.14
654.88	887.84
655.22	880.51
655.56	873.28
655.90	866.42
656.25	859.62
656.59	852.68
656.93	845.59
657.27	838.34
657.61	831.36
657.95	825.24
658.29	819.34
658.64	813.16
658.98	806.66
659.32	799.93
659.66	793.56
660.00	787.27
660.34	781.11
660.68	774.85
661.02	768.40
661.36	762.42
661.70	756.60
662.05	750.88
662.39	745.33
662.73	739.98
663.07	734.60
663.41	728.93
663.75	723.14
664.09	717.39
664.43	711.91
664.77	706.47
665.11	700.65
665.45	694.59
665.79	688.67
666.13	682.88
666.47	677.40
666.81	671.89
667.15	666.36
667.49	661.07
667.83	655.76
668.17	650.49
668.51	645.32
668.85	640.27
669.19	635.27
669.53	630.21
669.87	624.99
670.21	620.13
670.55	615.27
670.89	610.75
671.23	606.40
671.57	601.96
671.91	597.66
672.25	593.35
672.58	589.28
672.92	585.17
673.26	581.23
673.60	577.33
673.94	573.47
674.28	569.89
674.62	566.13
674.96	562.35
675.30	558.75
675.64	555.07
675.97	551.48
676.31	547.82
676.65	544.12
676.99	540.64
677.33	536.70
677.67	533.09
678.01	529.22
678.34	525.50
678.68	521.98
679.02	518.33
679.36	514.63
679.70	510.90
680.04	507.32
680.37	503.81
680.71	500.41
681.05	497.14
681.39	493.76
681.73	490.56
682.06	487.50
682.40	484.37
682.74	481.12
683.08	477.82
683.42	474.58
683.75	471.54
684.09	468.48
684.43	465.67
684.77	462.65
685.10	459.77
685.44	456.85
685.78	453.81
686.12	450.98
686.45	448.22
686.79	445.52
687.13	442.95
687.46	440.27
687.80	437.55
688.14	434.70
688.48	432.05
688.81	429.28
689.15	426.65
689.49	424.02
689.82	421.44
690.16	418.77
690.50	416.26
690.83	413.76
691.17	411.16
691.51	408.61
691.84	406.30
692.18	404.00
692.52	401.75
692.85	399.58
693.19	397.38
693.52	395.14
693.86	392.85
694.20	390.55
694.53	388.34
694.87	386.13
695.21	383.94
695.54	381.74
695.88	379.58
696.21	377.33
696.55	375.14
696.88	373.07
697.22	371.12
697.56	369.23
697.89	367.32
698.23	365.56
698.56	363.75
698.90	361.96
699.23	360.05
699.57	358.14
699.90	356.29
700.24	354.43
700.58	352.65
700.91	350.97
701.25	349.38
701.58	347.75
701.92	346.15
702.25	344.52
702.59	342.90
702.92	341.32
703.26	339.74
703.59	338.29
703.93	337.01
704.26	335.54
704.60	333.99
704.93	332.45
705.26	330.93
705.60	329.44
705.93	327.91
706.27	326.59
706.60	325.27
706.94	323.99
707.27	322.64
707.61	321.28
707.94	319.92
708.27	318.44
708.61	316.98
708.94	315.58
709.28	314.27
709.61	313.01
709.94	311.80
710.28	310.56
710.61	309.35
710.95	307.89
711.28	306.76
711.61	305.57
711.95	304.45
712.28	303.25
712.61	302.06
712.95	301.01
713.28	299.91
713.61	298.79
713.95	297.63
714.28	296.56
714.61	295.51
714.95	294.49
715.28	293.44
715.61	292.41
715.95	291.44
716.28	290.49
716.61	289.50
716.95	288.52
717.28	287.58
717.61	286.58
717.94	285.68
718.28	284.63
718.61	283.73
718.94	282.81
719.27	281.96
719.61	281.14
719.94	280.24
720.27	279.26
720.60	278.37
720.94	277.55
721.27	276.78
721.60	276.06
721.93	275.32
722.27	274.68
722.60	274.00
722.93	273.26
723.26	272.58
723.59	271.86
723.93	271.18
724.26	270.51
724.59	269.89
724.92	269.31
725.25	268.79
725.59	268.19
725.92	267.65
726.25	267.06
726.58	266.48
726.91	265.87
727.24	265.36
727.57	264.80
727.91	264.19
728.24	263.65
728.57	263.08
728.90	262.52
729.23	261.86
729.56	261.41
729.89	260.87
730.22	260.28
730.55	259.73
730.89	259.23
731.22	258.69
731.55	258.17
731.88	257.59
732.21	257.00
732.54	256.47
732.87	255.91
733.20	255.37
733.53	254.86
733.86	254.41
734.19	253.91
734.52	253.50
734.85	253.20
735.18	252.70
735.51	252.31
735.84	251.85
736.17	251.50
736.50	250.98
736.83	250.84
737.16	250.47
737.49	250.08
737.82	249.67
738.15	249.31
738.48	248.91
738.81	248.55
739.14	248.13
739.47	247.78
739.80	247.41
740.13	247.14
740.46	246.73
740.79	246.31
741.12	245.91
741.45	245.49
741.78	245.03
742.11	244.78
742.44	244.37
742.77	244.07
743.10	243.69
743.43	243.35
743.75	242.77
744.08	242.68
744.41	242.28
744.74	241.90
745.07	241.52
745.40	241.21
745.73	240.92
746.06	240.59
746.39	240.27
746.71	239.96
747.04	239.54
747.37	239.25
747.70	239.00
748.03	238.69
748.36	238.41
748.68	238.13
749.01	237.76
749.34	237.46
749.67	237.15
750.00	236.87
750.33	236.75
750.65	236.50
750.98	235.96
751.31	235.74
751.64	235.52
751.97	235.42
752.29	235.12
752.62	234.77
752.95	234.53
753.28	234.25
753.60	234.03
753.93	233.85
754.26	233.59
754.59	233.30
754.91	233.06
755.24	232.83
755.57	232.56
755.90	232.33
756.22	232.11
756.55	231.88
756.88	231.63
757.20	231.27
757.53	230.98
757.86	230.80
758.19	230.58
758.51	230.36
758.84	230.04
759.17	229.86
759.49	229.72
759.82	229.62
760.15	229.46
760.47	229.26
760.80	229.00
761.13	228.89
761.45	228.71
761.78	228.53
762.11	228.36
762.43	228.18
762.76	227.99
763.08	227.80
763.41	227.68
763.74	227.54
764.06	227.38
764.39	227.25
764.71	227.08
765.04	226.93
765.37	226.78
765.69	226.63
766.02	226.48
766.34	226.32
766.67	226.11
767.00	226.01
767.32	225.97
767.65	225.96
767.97	225.79
768.30	225.67
768.62	225.58
768.95	225.42
769.27	225.28
769.60	225.18
769.92	225.03
770.25	224.87
770.57	224.71
770.90	224.55
771.22	224.43
771.55	224.32
771.87	224.23
772.20	224.11
772.52	224.16
772.85	224.29
773.17	224.17
773.50	224.02
773.82	223.89
774.15	223.69
774.47	223.50
774.80	223.38
775.12	223.26
775.45	223.09
775.77	223.02
776.09	222.94
776.42	222.83
776.74	222.79
777.07	222.68
777.39	222.62
777.72	222.56
778.04	222.51
778.36	222.42
778.69	222.33
779.01	222.26
779.33	221.98
779.66	221.66
779.98	221.59
780.31	221.53
780.63	221.54
780.95	221.47
781.28	221.36
781.60	221.29
781.92	221.24
782.25	221.23
782.57	221.14
782.89	221.09
783.22	221.04
783.54	220.95
783.86	220.89
784.19	220.76
784.51	220.75
784.83	220.62
785.16	220.52
785.48	220.46
785.80	220.41
786.12	220.39
