SpectraSuite Data File
++++++++++++++++++++++++++++++++++++
Date: Tue Jan 29 16:40:43 EST 2013
User: group
Dark Spectrum Present: No
Reference Spectrum Present: No
Number of Sampled Component Spectra: 1
Spectrometers: USB2E7196
Integration Time (usec): 65000 (USB2E7196)
Spectra Averaged: 100 (USB2E7196)
Boxcar Smoothing: 10 (USB2E7196)
Correct for Electrical Dark: No (USB2E7196)
Strobe/Lamp Enabled: No (USB2E7196)
Correct for Detector Non-linearity: No (USB2E7196)
Correct for Stray Light: No (USB2E7196)
Number of Pixels in Processed Spectrum: 2048
>>>>>Begin Processed Spectral Data<<<<<
339.09	0.00
339.48	201.32
339.86	203.03
340.24	204.61
340.63	206.51
341.01	210.57
341.39	208.89
341.78	210.04
342.16	211.97
342.54	212.20
342.93	201.07
343.31	211.21
343.69	211.77
344.07	212.24
344.46	212.69
344.84	213.08
345.22	213.23
345.60	213.50
345.99	213.69
346.37	213.83
346.75	213.90
347.13	213.95
347.52	213.99
347.90	214.05
348.28	214.09
348.66	214.15
349.05	214.07
349.43	214.13
349.81	214.22
350.19	214.28
350.57	214.37
350.96	214.46
351.34	214.58
351.72	214.65
352.10	214.75
352.48	214.78
352.87	214.80
353.25	214.86
353.63	214.92
354.01	215.02
354.39	215.10
354.77	215.18
355.15	215.35
355.54	215.44
355.92	215.47
356.30	215.55
356.68	215.76
357.06	215.88
357.44	215.91
357.82	215.96
358.20	216.04
358.58	216.12
358.97	216.21
359.35	216.31
359.73	216.46
360.11	216.54
360.49	216.68
360.87	216.75
361.25	216.84
361.63	216.95
362.01	216.99
362.39	217.00
362.77	217.08
363.15	217.07
363.53	217.09
363.91	217.15
364.29	217.20
364.67	217.02
365.05	217.03
365.43	217.09
365.81	217.13
366.19	217.24
366.57	217.32
366.95	217.30
367.33	217.26
367.71	217.24
368.09	217.31
368.47	217.29
368.85	217.29
369.23	217.34
369.61	217.30
369.99	217.38
370.37	217.42
370.75	217.51
371.13	217.47
371.51	217.43
371.89	217.45
372.27	217.39
372.65	217.38
373.03	217.39
373.41	217.36
373.78	217.30
374.16	217.17
374.54	217.10
374.92	217.09
375.30	217.06
375.68	216.98
376.06	216.93
376.44	216.89
376.82	216.85
377.19	216.80
377.57	216.72
377.95	216.60
378.33	216.53
378.71	216.37
379.09	216.38
379.47	216.37
379.84	216.31
380.22	216.30
380.60	216.24
380.98	216.16
381.36	216.12
381.73	216.06
382.11	216.06
382.49	216.01
382.87	215.90
383.25	215.87
383.62	216.07
384.00	215.99
384.38	215.96
384.76	215.97
385.13	216.02
385.51	215.98
385.89	215.93
386.27	215.89
386.64	215.87
387.02	215.79
387.40	215.72
387.78	215.69
388.15	215.64
388.53	215.61
388.91	215.59
389.29	215.55
389.66	215.56
390.04	215.52
390.42	215.52
390.79	215.56
391.17	215.54
391.55	215.31
391.92	215.30
392.30	215.29
392.68	215.23
393.05	215.18
393.43	215.14
393.81	215.14
394.18	215.08
394.56	215.06
394.94	215.11
395.31	215.11
395.69	215.17
396.06	215.22
396.44	215.26
396.82	215.27
397.19	215.37
397.57	215.38
397.95	215.44
398.32	215.43
398.70	215.46
399.07	215.53
399.45	215.56
399.82	215.60
400.20	215.62
400.58	215.68
400.95	215.65
401.33	215.82
401.70	216.02
402.08	216.15
402.45	216.26
402.83	216.40
403.20	216.52
403.58	216.59
403.95	216.70
404.33	216.84
404.71	217.03
405.08	217.28
405.46	217.45
405.83	217.62
406.21	217.80
406.58	218.01
406.96	218.25
407.33	218.53
407.70	218.82
408.08	219.29
408.45	219.66
408.83	220.07
409.20	220.38
409.58	220.65
409.95	221.14
410.33	221.59
410.70	221.99
411.08	222.54
411.45	223.13
411.82	223.73
412.20	224.44
412.57	225.25
412.95	225.83
413.32	226.66
413.69	227.50
414.07	228.44
414.44	229.45
414.82	230.45
415.19	231.63
415.56	232.83
415.94	233.99
416.31	235.41
416.68	236.85
417.06	238.48
417.43	240.03
417.81	241.78
418.18	243.60
418.55	245.58
418.93	247.60
419.30	249.71
419.67	251.96
420.04	254.26
420.42	256.65
420.79	259.47
421.16	262.30
421.54	265.25
421.91	268.23
422.28	271.33
422.66	274.70
423.03	277.96
423.40	281.34
423.77	285.00
424.15	288.65
424.52	292.46
424.89	296.66
425.26	300.78
425.64	304.63
426.01	308.95
426.38	313.43
426.75	318.00
427.13	322.76
427.50	327.73
427.87	332.91
428.24	338.13
428.61	343.12
428.99	348.67
429.36	354.68
429.73	360.60
430.10	366.52
430.47	372.58
430.85	378.91
431.22	385.61
431.59	392.73
431.96	399.59
432.33	407.12
432.70	414.44
433.08	422.98
433.45	431.08
433.82	439.04
434.19	447.96
434.56	456.69
434.93	465.03
435.30	473.31
435.68	482.47
436.05	491.50
436.42	500.45
436.79	508.62
437.16	517.40
437.53	526.73
437.90	535.88
438.27	544.83
438.64	554.11
439.01	562.68
439.38	570.25
439.75	577.65
440.13	586.12
440.50	594.02
440.87	600.46
441.24	607.16
441.61	614.58
441.98	619.95
442.35	626.28
442.72	632.70
443.09	638.85
443.46	642.60
443.83	645.07
444.20	647.21
444.57	650.35
444.94	651.87
445.31	653.30
445.68	654.71
446.05	655.32
446.42	654.58
446.79	653.68
447.16	652.58
447.53	651.73
447.90	648.36
448.27	645.10
448.64	640.44
449.01	637.11
449.37	631.21
449.74	625.61
450.11	618.74
450.48	611.28
450.85	603.79
451.22	597.31
451.59	591.21
451.96	585.42
452.33	577.56
452.70	570.45
453.07	561.94
453.43	553.30
453.80	545.00
454.17	536.88
454.54	529.28
454.91	521.10
455.28	513.16
455.65	505.75
456.02	498.17
456.38	491.83
456.75	483.89
457.12	477.32
457.49	470.71
457.86	464.46
458.23	458.99
458.59	452.98
458.96	446.95
459.33	441.63
459.70	436.27
460.07	431.94
460.43	426.94
460.80	422.29
461.17	418.33
461.54	414.07
461.91	410.10
462.27	405.96
462.64	402.49
463.01	398.64
463.38	394.93
463.74	391.27
464.11	388.00
464.48	385.15
464.85	382.00
465.21	379.50
465.58	376.87
465.95	373.77
466.32	371.14
466.68	368.52
467.05	365.92
467.42	363.31
467.78	360.60
468.15	358.06
468.52	356.12
468.88	353.60
469.25	351.40
469.62	349.58
469.98	347.64
470.35	345.83
470.72	344.16
471.08	342.33
471.45	340.77
471.82	339.22
472.18	337.53
472.55	336.30
472.92	334.99
473.28	333.78
473.65	332.60
474.02	331.53
474.38	330.63
474.75	329.83
475.11	329.03
475.48	328.49
475.85	328.05
476.21	327.58
476.58	327.16
476.94	326.90
477.31	326.55
477.67	326.26
478.04	326.09
478.41	326.03
478.77	326.18
479.14	326.13
479.50	326.27
479.87	326.60
480.23	326.91
480.60	327.08
480.96	327.36
481.33	327.97
481.69	328.50
482.06	329.03
482.42	329.52
482.79	330.09
483.15	330.85
483.52	331.77
483.88	332.66
484.25	333.65
484.61	334.68
484.98	335.75
485.34	337.07
485.71	338.45
486.07	339.90
486.44	341.21
486.80	342.84
487.17	344.53
487.53	346.34
487.90	348.19
488.26	350.26
488.62	352.43
488.99	354.49
489.35	356.64
489.72	359.01
490.08	361.56
490.44	364.15
490.81	366.83
491.17	369.58
491.54	372.60
491.90	375.62
492.26	378.87
492.63	382.25
492.99	385.76
493.36	389.45
493.72	393.32
494.08	397.37
494.45	401.57
494.81	405.93
495.17	410.37
495.54	415.11
495.90	419.92
496.26	424.83
496.63	430.04
496.99	435.47
497.35	441.06
497.72	446.85
498.08	452.81
498.44	458.98
498.80	465.38
499.17	471.89
499.53	478.63
499.89	485.56
500.26	492.55
500.62	499.69
500.98	507.08
501.34	514.57
501.71	522.40
502.07	530.20
502.43	538.19
502.79	546.38
503.16	554.75
503.52	563.29
503.88	572.07
504.24	581.01
504.60	590.11
504.97	599.32
505.33	608.63
505.69	618.54
506.05	628.44
506.41	638.35
506.78	648.40
507.14	658.62
507.50	669.02
507.86	679.80
508.22	690.56
508.59	701.25
508.95	712.32
509.31	723.53
509.67	734.99
510.03	746.48
510.39	758.25
510.75	770.15
511.12	782.17
511.48	794.27
511.84	806.59
512.20	818.96
512.56	831.67
512.92	844.51
513.28	857.06
513.64	869.83
514.00	882.71
514.37	895.71
514.73	908.92
515.09	922.00
515.45	934.95
515.81	948.02
516.17	961.41
516.53	974.71
516.89	987.87
517.25	1001.14
517.61	1014.80
517.97	1028.21
518.33	1041.42
518.69	1055.08
519.05	1068.87
519.41	1082.59
519.77	1096.61
520.13	1109.98
520.49	1123.15
520.85	1136.75
521.21	1150.14
521.57	1163.82
521.93	1176.97
522.29	1190.75
522.65	1204.40
523.01	1218.03
523.37	1231.34
523.73	1244.88
524.09	1258.10
524.45	1271.67
524.81	1285.21
525.17	1298.51
525.53	1311.82
525.89	1325.37
526.25	1338.57
526.61	1351.57
526.97	1364.75
527.33	1377.72
527.68	1391.19
528.04	1404.77
528.40	1417.92
528.76	1431.43
529.12	1444.48
529.48	1458.00
529.84	1470.38
530.20	1483.29
530.56	1495.99
530.91	1509.40
531.27	1522.29
531.63	1535.11
531.99	1547.86
532.35	1560.32
532.71	1572.85
533.07	1585.84
533.42	1598.12
533.78	1610.30
534.14	1622.32
534.50	1633.60
534.86	1645.24
535.21	1656.30
535.57	1668.00
535.93	1679.34
536.29	1690.45
536.65	1702.02
537.00	1713.00
537.36	1724.46
537.72	1735.65
538.08	1747.24
538.44	1758.18
538.79	1769.34
539.15	1780.50
539.51	1791.45
539.87	1802.91
540.22	1813.89
540.58	1824.91
540.94	1835.85
541.29	1846.25
541.65	1856.31
542.01	1867.00
542.37	1877.23
542.72	1887.48
543.08	1897.30
543.44	1907.82
543.79	1917.19
544.15	1926.67
544.51	1936.70
544.87	1946.59
545.22	1955.81
545.58	1964.75
545.94	1973.77
546.29	1982.43
546.65	1990.80
547.01	1999.13
547.36	2006.88
547.72	2014.70
548.07	2022.37
548.43	2030.12
548.79	2038.07
549.14	2046.13
549.50	2054.69
549.86	2062.56
550.21	2070.09
550.57	2077.86
550.92	2084.80
551.28	2092.41
551.64	2099.74
551.99	2107.35
552.35	2114.66
552.70	2121.63
553.06	2128.21
553.41	2134.54
553.77	2141.02
554.13	2147.48
554.48	2154.48
554.84	2161.51
555.19	2168.07
555.55	2174.60
555.90	2181.01
556.26	2187.95
556.61	2194.15
556.97	2198.99
557.32	2204.85
557.68	2211.24
558.03	2217.03
558.39	2222.41
558.74	2228.49
559.10	2234.10
559.45	2239.73
559.81	2245.31
560.16	2250.93
560.52	2256.91
560.87	2263.33
561.23	2269.34
561.58	2275.99
561.94	2281.24
562.29	2285.92
562.64	2291.77
563.00	2297.33
563.35	2302.91
563.71	2308.51
564.06	2314.19
564.42	2320.17
564.77	2325.11
565.12	2330.37
565.48	2335.47
565.83	2340.81
566.19	2345.96
566.54	2351.37
566.89	2355.92
567.25	2360.47
567.60	2366.08
567.96	2371.14
568.31	2375.63
568.66	2379.78
569.02	2383.62
569.37	2387.35
569.72	2391.86
570.08	2395.45
570.43	2398.61
570.78	2401.63
571.14	2403.95
571.49	2406.92
571.84	2410.29
572.20	2413.29
572.55	2416.17
572.90	2418.34
573.26	2421.06
573.61	2423.68
573.96	2425.69
574.31	2427.64
574.67	2429.38
575.02	2430.06
575.37	2431.60
575.72	2432.22
576.08	2433.71
576.43	2433.75
576.78	2434.08
577.13	2435.41
577.49	2436.60
577.84	2437.51
578.19	2438.69
578.54	2439.28
578.90	2439.74
579.25	2439.58
579.60	2439.28
579.95	2438.54
580.30	2438.49
580.66	2437.77
581.01	2435.98
581.36	2433.47
581.71	2431.85
582.06	2430.59
582.42	2429.64
582.77	2427.09
583.12	2425.34
583.47	2423.70
583.82	2422.86
584.17	2421.51
584.53	2419.29
584.88	2416.95
585.23	2414.88
585.58	2412.49
585.93	2410.40
586.28	2408.34
586.63	2405.64
586.98	2403.39
587.34	2401.15
587.69	2398.68
588.04	2396.55
588.39	2394.96
588.74	2392.39
589.09	2389.52
589.44	2386.28
589.79	2383.56
590.14	2381.49
590.49	2378.61
590.84	2374.44
591.19	2371.38
591.54	2367.95
591.89	2363.79
592.25	2360.42
592.60	2356.05
592.95	2351.70
593.30	2347.39
593.65	2342.82
594.00	2338.38
594.35	2335.22
594.70	2330.53
595.05	2325.85
595.40	2320.28
595.75	2314.47
596.10	2310.65
596.45	2305.81
596.80	2301.10
597.15	2295.86
597.50	2290.05
597.85	2285.01
598.19	2280.02
598.54	2274.10
598.89	2268.91
599.24	2264.25
599.59	2258.05
599.94	2252.24
600.29	2246.27
600.64	2240.29
600.99	2233.51
601.34	2227.92
601.69	2220.91
602.04	2214.48
602.39	2207.77
602.74	2201.60
603.08	2195.86
603.43	2189.29
603.78	2182.40
604.13	2175.38
604.48	2168.06
604.83	2161.82
605.18	2155.53
605.53	2148.47
605.87	2141.40
606.22	2134.54
606.57	2126.71
606.92	2118.68
607.27	2111.74
607.62	2105.13
607.96	2098.06
608.31	2091.60
608.66	2083.89
609.01	2076.21
609.36	2068.95
609.70	2061.28
610.05	2053.59
610.40	2045.36
610.75	2037.03
611.10	2029.34
611.44	2020.42
611.79	2011.63
612.14	2001.67
612.49	1990.94
612.83	1981.66
613.18	1972.34
613.53	1962.91
613.88	1953.20
614.22	1944.67
614.57	1934.80
614.92	1924.13
615.27	1913.89
615.61	1903.64
615.96	1893.95
616.31	1884.38
616.65	1875.08
617.00	1865.36
617.35	1855.69
617.70	1845.90
618.04	1835.99
618.39	1825.78
618.74	1816.05
619.08	1806.38
619.43	1797.55
619.78	1789.32
620.12	1780.75
620.47	1771.18
620.82	1760.87
621.16	1751.16
621.51	1741.17
621.85	1731.28
622.20	1721.16
622.55	1710.74
622.89	1700.81
623.24	1691.14
623.59	1681.31
623.93	1671.27
624.28	1661.51
624.62	1651.44
624.97	1641.27
625.32	1631.33
625.66	1622.42
626.01	1613.70
626.35	1604.45
626.70	1594.42
627.04	1584.41
627.39	1574.23
627.73	1565.07
628.08	1556.19
628.43	1546.65
628.77	1537.51
629.12	1528.64
629.46	1520.62
629.81	1512.28
630.15	1502.89
630.50	1493.14
630.84	1482.71
631.19	1472.86
631.53	1463.50
631.88	1453.37
632.22	1443.38
632.57	1434.19
632.91	1424.21
633.26	1414.35
633.60	1404.83
633.95	1395.61
634.29	1386.18
634.64	1376.84
634.98	1366.85
635.32	1357.63
635.67	1349.13
636.01	1339.90
636.36	1330.21
636.70	1320.77
637.05	1311.40
637.39	1302.48
637.73	1293.82
638.08	1286.32
638.42	1278.17
638.77	1269.44
639.11	1261.11
639.45	1253.32
639.80	1244.80
640.14	1236.00
640.49	1227.17
640.83	1218.27
641.17	1210.16
641.52	1201.98
641.86	1193.51
642.20	1185.62
642.55	1177.06
642.89	1168.26
643.23	1159.53
643.58	1151.45
643.92	1142.37
644.26	1133.63
644.61	1125.19
644.95	1116.50
645.29	1107.25
645.64	1098.03
645.98	1089.63
646.32	1081.73
646.66	1073.26
647.01	1064.89
647.35	1056.72
647.69	1048.51
648.04	1040.27
648.38	1031.44
648.72	1022.67
649.06	1014.19
649.41	1005.97
649.75	997.97
650.09	990.14
650.43	982.16
650.78	973.86
651.12	966.23
651.46	958.80
651.80	951.57
652.14	944.21
652.49	936.72
652.83	929.38
653.17	921.64
653.51	914.09
653.85	906.84
654.20	899.58
654.54	892.13
654.88	884.82
655.22	877.65
655.56	870.53
655.90	863.71
656.25	857.05
656.59	850.13
656.93	843.14
657.27	835.96
657.61	828.98
657.95	822.84
658.29	816.90
658.64	810.88
658.98	804.42
659.32	797.83
659.66	791.61
660.00	785.19
660.34	779.06
660.68	772.88
661.02	766.44
661.36	760.48
661.70	754.70
662.05	749.03
662.39	743.52
662.73	738.20
663.07	732.83
663.41	727.21
663.75	721.55
664.09	715.83
664.43	710.36
664.77	705.00
665.11	699.18
665.45	693.28
665.79	687.39
666.13	681.63
666.47	676.07
666.81	670.56
667.15	665.16
667.49	659.91
667.83	654.64
668.17	649.52
668.51	644.33
668.85	639.36
669.19	634.50
669.53	629.47
669.87	624.32
670.21	619.52
670.55	614.73
670.89	610.22
671.23	605.88
671.57	601.43
671.91	597.14
672.25	592.95
672.58	588.72
672.92	584.59
673.26	580.65
673.60	576.81
673.94	572.96
674.28	569.35
674.62	565.58
674.96	561.82
675.30	558.23
675.64	554.59
675.97	551.01
676.31	547.30
676.65	543.70
676.99	540.25
677.33	536.42
677.67	532.78
678.01	528.97
678.34	525.25
678.68	521.70
679.02	518.07
679.36	514.33
679.70	510.70
680.04	507.15
680.37	503.64
680.71	500.23
681.05	497.04
681.39	493.73
681.73	490.59
682.06	487.50
682.40	484.40
682.74	481.16
683.08	477.84
683.42	474.65
683.75	471.56
684.09	468.51
684.43	465.62
684.77	462.63
685.10	459.72
685.44	456.81
685.78	453.90
686.12	451.03
686.45	448.27
686.79	445.56
687.13	442.97
687.46	440.33
687.80	437.61
688.14	434.73
688.48	432.06
688.81	429.29
689.15	426.66
689.49	423.96
689.82	421.40
690.16	418.80
690.50	416.34
690.83	413.82
691.17	411.23
691.51	408.72
691.84	406.48
692.18	404.25
692.52	401.97
692.85	399.82
693.19	397.68
693.52	395.49
693.86	393.26
694.20	390.99
694.53	388.79
694.87	386.57
695.21	384.42
695.54	382.25
695.88	380.09
696.21	377.86
696.55	375.71
696.88	373.64
697.22	371.66
697.56	369.68
697.89	367.76
698.23	365.95
698.56	364.15
698.90	362.31
699.23	360.33
699.57	358.47
699.90	356.56
700.24	354.73
700.58	352.95
700.91	351.29
701.25	349.76
701.58	348.14
701.92	346.51
702.25	344.87
702.59	343.20
702.92	341.61
703.26	340.02
703.59	338.54
703.93	337.21
704.26	335.76
704.60	334.21
704.93	332.73
705.26	331.20
705.60	329.69
705.93	328.14
706.27	326.82
706.60	325.57
706.94	324.31
707.27	322.91
707.61	321.57
707.94	320.17
708.27	318.65
708.61	317.21
708.94	315.83
709.28	314.49
709.61	313.25
709.94	312.02
710.28	310.79
710.61	309.58
710.95	308.16
711.28	307.05
711.61	305.85
711.95	304.65
712.28	303.43
712.61	302.22
712.95	301.13
713.28	300.07
713.61	298.84
713.95	297.68
714.28	296.67
714.61	295.58
714.95	294.50
715.28	293.45
715.61	292.37
715.95	291.42
716.28	290.47
716.61	289.48
716.95	288.47
717.28	287.54
717.61	286.55
717.94	285.63
718.28	284.60
718.61	283.70
718.94	282.78
719.27	281.94
719.61	281.12
719.94	280.25
720.27	279.25
720.60	278.37
720.94	277.57
721.27	276.76
721.60	276.07
721.93	275.35
722.27	274.74
722.60	274.09
722.93	273.33
723.26	272.66
723.59	271.96
723.93	271.36
724.26	270.69
724.59	270.06
724.92	269.45
725.25	268.90
725.59	268.29
725.92	267.77
726.25	267.17
726.58	266.58
726.91	265.97
727.24	265.44
727.57	264.86
727.91	264.26
728.24	263.68
728.57	263.04
728.90	262.51
729.23	261.85
729.56	261.39
729.89	260.84
730.22	260.28
730.55	259.70
730.89	259.10
731.22	258.55
731.55	258.00
731.88	257.48
732.21	256.91
732.54	256.38
732.87	255.83
733.20	255.33
733.53	254.81
733.86	254.39
734.19	253.88
734.52	253.51
734.85	253.18
735.18	252.71
735.51	252.39
735.84	251.93
736.17	251.53
736.50	250.99
736.83	250.83
737.16	250.43
737.49	250.03
737.82	249.62
738.15	249.25
738.48	248.88
738.81	248.47
739.14	248.02
739.47	247.62
739.80	247.25
740.13	246.90
740.46	246.49
740.79	246.05
741.12	245.68
741.45	245.28
741.78	244.82
742.11	244.54
742.44	244.12
742.77	243.80
743.10	243.45
743.43	243.09
743.75	242.54
744.08	242.45
744.41	242.12
744.74	241.79
745.07	241.42
745.40	241.09
745.73	240.82
746.06	240.53
746.39	240.24
746.71	239.86
747.04	239.48
747.37	239.16
747.70	238.93
748.03	238.63
748.36	238.36
748.68	238.06
749.01	237.64
749.34	237.38
749.67	237.09
750.00	236.81
750.33	236.66
750.65	236.37
750.98	235.82
751.31	235.57
751.64	235.36
751.97	235.22
752.29	234.95
752.62	234.60
752.95	234.35
753.28	234.05
753.60	233.83
753.93	233.69
754.26	233.51
754.59	233.21
754.91	232.95
755.24	232.70
755.57	232.45
755.90	232.26
756.22	231.97
756.55	231.73
756.88	231.46
757.20	231.12
757.53	230.85
757.86	230.65
758.19	230.47
758.51	230.22
758.84	229.90
759.17	229.69
759.49	229.54
759.82	229.42
760.15	229.28
760.47	229.09
760.80	228.82
761.13	228.65
761.45	228.40
761.78	228.22
762.11	228.02
762.43	227.85
762.76	227.65
763.08	227.53
763.41	227.38
763.74	227.20
764.06	227.01
764.39	226.86
764.71	226.71
765.04	226.51
765.37	226.38
765.69	226.25
766.02	226.09
766.34	225.90
766.67	225.67
767.00	225.55
767.32	225.54
767.65	225.53
767.97	225.36
768.30	225.27
768.62	225.14
768.95	225.01
769.27	224.89
769.60	224.83
769.92	224.62
770.25	224.46
770.57	224.31
770.90	224.23
771.22	224.10
771.55	223.95
771.87	223.86
772.20	223.76
772.52	223.80
772.85	223.96
773.17	223.85
773.50	223.74
773.82	223.63
774.15	223.41
774.47	223.18
774.80	223.06
775.12	222.97
775.45	222.89
775.77	222.82
776.09	222.71
776.42	222.62
776.74	222.64
777.07	222.54
777.39	222.46
777.72	222.34
778.04	222.30
778.36	222.22
778.69	222.15
779.01	222.05
779.33	221.82
779.66	221.46
779.98	221.39
780.31	221.32
780.63	221.31
780.95	221.30
781.28	221.23
781.60	221.15
781.92	221.08
782.25	220.99
782.57	220.91
782.89	220.81
783.22	220.69
783.54	220.57
783.86	220.55
784.19	220.46
784.51	220.49
784.83	220.39
785.16	220.33
785.48	220.27
785.80	220.20
786.12	220.15
