SpectraSuite Data File
++++++++++++++++++++++++++++++++++++
Date: Tue Jan 29 16:46:59 EST 2013
User: group
Dark Spectrum Present: No
Reference Spectrum Present: No
Number of Sampled Component Spectra: 1
Spectrometers: USB2E7196
Integration Time (usec): 65000 (USB2E7196)
Spectra Averaged: 100 (USB2E7196)
Boxcar Smoothing: 10 (USB2E7196)
Correct for Electrical Dark: No (USB2E7196)
Strobe/Lamp Enabled: No (USB2E7196)
Correct for Detector Non-linearity: No (USB2E7196)
Correct for Stray Light: No (USB2E7196)
Number of Pixels in Processed Spectrum: 2048
>>>>>Begin Processed Spectral Data<<<<<
339.09	0.00
339.48	201.54
339.86	203.09
340.24	204.99
340.63	206.19
341.01	211.01
341.39	208.91
341.78	210.68
342.16	211.54
342.54	212.11
342.93	201.03
343.31	211.20
343.69	211.76
344.07	212.24
344.46	212.68
344.84	213.11
345.22	213.28
345.60	213.55
345.99	213.71
346.37	213.84
346.75	213.95
347.13	214.04
347.52	214.10
347.90	214.18
348.28	214.25
348.66	214.39
349.05	214.33
349.43	214.41
349.81	214.47
350.19	214.51
350.57	214.57
350.96	214.72
351.34	214.81
351.72	214.87
352.10	214.99
352.48	215.03
352.87	215.05
353.25	215.07
353.63	215.14
354.01	215.20
354.39	215.30
354.77	215.35
355.15	215.47
355.54	215.49
355.92	215.52
356.30	215.57
356.68	215.71
357.06	215.80
357.44	215.85
357.82	215.91
358.20	215.99
358.58	216.04
358.97	216.08
359.35	216.15
359.73	216.28
360.11	216.31
360.49	216.39
360.87	216.44
361.25	216.54
361.63	216.61
362.01	216.67
362.39	216.65
362.77	216.73
363.15	216.73
363.53	216.80
363.91	216.82
364.29	216.87
364.67	216.73
365.05	216.76
365.43	216.77
365.81	216.81
366.19	216.90
366.57	216.98
366.95	216.97
367.33	216.94
367.71	216.91
368.09	216.95
368.47	216.94
368.85	216.91
369.23	216.91
369.61	216.85
369.99	216.93
370.37	216.95
370.75	217.02
371.13	216.99
371.51	216.96
371.89	216.98
372.27	216.95
372.65	216.90
373.03	216.85
373.41	216.82
373.78	216.78
374.16	216.65
374.54	216.57
374.92	216.52
375.30	216.46
375.68	216.39
376.06	216.34
376.44	216.28
376.82	216.29
377.19	216.25
377.57	216.21
377.95	216.09
378.33	216.01
378.71	215.83
379.09	215.80
379.47	215.77
379.84	215.69
380.22	215.62
380.60	215.58
380.98	215.54
381.36	215.48
381.73	215.39
382.11	215.40
382.49	215.38
382.87	215.32
383.25	215.30
383.62	215.51
384.00	215.41
384.38	215.40
384.76	215.40
385.13	215.42
385.51	215.38
385.89	215.33
386.27	215.33
386.64	215.33
387.02	215.29
387.40	215.25
387.78	215.22
388.15	215.21
388.53	215.17
388.91	215.14
389.29	215.13
389.66	215.17
390.04	215.13
390.42	215.12
390.79	215.14
391.17	215.12
391.55	214.87
391.92	214.91
392.30	214.92
392.68	214.84
393.05	214.85
393.43	214.88
393.81	214.87
394.18	214.86
394.56	214.86
394.94	214.91
395.31	214.89
395.69	214.98
396.06	215.00
396.44	215.00
396.82	215.00
397.19	215.11
397.57	215.09
397.95	215.13
398.32	215.12
398.70	215.17
399.07	215.26
399.45	215.29
399.82	215.31
400.20	215.33
400.58	215.41
400.95	215.35
401.33	215.43
401.70	215.66
402.08	215.73
402.45	215.81
402.83	215.95
403.20	216.10
403.58	216.18
403.95	216.33
404.33	216.52
404.71	216.70
405.08	216.96
405.46	217.11
405.83	217.33
406.21	217.53
406.58	217.77
406.96	218.02
407.33	218.32
407.70	218.63
408.08	219.11
408.45	219.48
408.83	219.92
409.20	220.27
409.58	220.53
409.95	221.00
410.33	221.51
410.70	221.92
411.08	222.46
411.45	223.02
411.82	223.61
412.20	224.30
412.57	225.14
412.95	225.72
413.32	226.61
413.69	227.42
414.07	228.34
414.44	229.32
414.82	230.31
415.19	231.46
415.56	232.67
415.94	233.86
416.31	235.27
416.68	236.67
417.06	238.27
417.43	239.87
417.81	241.67
418.18	243.44
418.55	245.39
418.93	247.43
419.30	249.59
419.67	251.83
420.04	254.09
420.42	256.48
420.79	259.33
421.16	262.13
421.54	265.04
421.91	268.05
422.28	271.15
422.66	274.47
423.03	277.76
423.40	281.11
423.77	284.70
424.15	288.37
424.52	292.25
424.89	296.49
425.26	300.58
425.64	304.46
426.01	308.71
426.38	313.24
426.75	317.78
427.13	322.51
427.50	327.48
427.87	332.73
428.24	337.92
428.61	342.93
428.99	348.41
429.36	354.47
429.73	360.38
430.10	366.28
430.47	372.37
430.85	378.67
431.22	385.38
431.59	392.51
431.96	399.35
432.33	406.82
432.70	414.06
433.08	422.59
433.45	430.68
433.82	438.84
434.19	447.71
434.56	456.50
434.93	464.84
435.30	473.16
435.68	482.34
436.05	491.36
436.42	500.33
436.79	508.58
437.16	517.42
437.53	526.70
437.90	535.93
438.27	544.92
438.64	554.20
439.01	562.80
439.38	570.43
439.75	577.78
440.13	586.20
440.50	594.20
440.87	600.69
441.24	607.38
441.61	614.68
441.98	620.08
442.35	626.43
442.72	632.83
443.09	638.96
443.46	642.69
443.83	645.26
444.20	647.46
444.57	650.62
444.94	652.06
445.31	653.54
445.68	654.94
446.05	655.55
446.42	654.76
446.79	653.88
447.16	652.87
447.53	652.08
447.90	648.79
448.27	645.50
448.64	640.84
449.01	637.45
449.37	631.58
449.74	625.90
450.11	618.94
450.48	611.51
450.85	604.02
451.22	597.57
451.59	591.43
451.96	585.56
452.33	577.69
452.70	570.58
453.07	562.05
453.43	553.43
453.80	545.13
454.17	537.21
454.54	529.57
454.91	521.30
455.28	513.32
455.65	505.94
456.02	498.38
456.38	491.99
456.75	484.07
457.12	477.40
457.49	470.86
457.86	464.66
458.23	459.21
458.59	453.20
458.96	447.17
459.33	441.80
459.70	436.43
460.07	432.13
460.43	427.16
460.80	422.57
461.17	418.53
461.54	414.31
461.91	410.19
462.27	406.04
462.64	402.60
463.01	398.79
463.38	395.02
463.74	391.32
464.11	388.04
464.48	385.28
464.85	382.23
465.21	379.80
465.58	377.19
465.95	374.05
466.32	371.42
466.68	368.74
467.05	366.16
467.42	363.54
467.78	360.83
468.15	358.29
468.52	356.36
468.88	353.80
469.25	351.55
469.62	349.73
469.98	347.78
470.35	345.95
470.72	344.21
471.08	342.38
471.45	340.81
471.82	339.29
472.18	337.58
472.55	336.34
472.92	334.90
473.28	333.61
473.65	332.48
474.02	331.37
474.38	330.48
474.75	329.71
475.11	328.89
475.48	328.30
475.85	327.82
476.21	327.26
476.58	326.92
476.94	326.65
477.31	326.34
477.67	326.05
478.04	325.86
478.41	325.80
478.77	325.97
479.14	325.95
479.50	326.07
479.87	326.36
480.23	326.68
480.60	326.91
480.96	327.22
481.33	327.79
481.69	328.36
482.06	328.86
482.42	329.30
482.79	329.89
483.15	330.63
483.52	331.58
483.88	332.46
484.25	333.38
484.61	334.43
484.98	335.49
485.34	336.83
485.71	338.21
486.07	339.65
486.44	340.94
486.80	342.56
487.17	344.22
487.53	346.06
487.90	347.92
488.26	349.98
488.62	352.13
488.99	354.16
489.35	356.32
489.72	358.73
490.08	361.29
490.44	363.85
490.81	366.63
491.17	369.36
491.54	372.37
491.90	375.41
492.26	378.65
492.63	382.05
492.99	385.50
493.36	389.16
493.72	393.09
494.08	397.16
494.45	401.37
494.81	405.73
495.17	410.17
495.54	414.89
495.90	419.68
496.26	424.60
496.63	429.83
496.99	435.24
497.35	440.81
497.72	446.59
498.08	452.56
498.44	458.61
498.80	464.96
499.17	471.44
499.53	478.21
499.89	485.06
500.26	492.04
500.62	499.11
500.98	506.50
501.34	514.00
501.71	521.72
502.07	529.51
502.43	537.57
502.79	545.75
503.16	554.13
503.52	562.78
503.88	571.55
504.24	580.46
504.60	589.50
504.97	598.72
505.33	607.98
505.69	617.79
506.05	627.69
506.41	637.63
506.78	647.73
507.14	657.86
507.50	668.38
507.86	679.08
508.22	689.84
508.59	700.53
508.95	711.57
509.31	722.79
509.67	734.23
510.03	745.59
510.39	757.31
510.75	769.15
511.12	781.00
511.48	792.97
511.84	805.22
512.20	817.59
512.56	830.22
512.92	843.15
513.28	855.82
513.64	868.51
514.00	881.37
514.37	894.32
514.73	907.54
515.09	920.47
515.45	933.40
515.81	946.55
516.17	959.92
516.53	973.14
516.89	986.27
517.25	999.52
517.61	1013.18
517.97	1026.54
518.33	1039.75
518.69	1053.32
519.05	1067.18
519.41	1080.93
519.77	1094.80
520.13	1108.11
520.49	1121.22
520.85	1134.62
521.21	1147.97
521.57	1161.61
521.93	1174.56
522.29	1188.24
522.65	1201.98
523.01	1215.71
523.37	1228.98
523.73	1242.30
524.09	1255.57
524.45	1269.04
524.81	1282.63
525.17	1295.91
525.53	1309.13
525.89	1322.55
526.25	1335.78
526.61	1348.52
526.97	1361.66
527.33	1374.71
527.68	1388.30
528.04	1401.94
528.40	1415.12
528.76	1428.59
529.12	1441.62
529.48	1455.18
529.84	1467.59
530.20	1480.29
530.56	1492.86
530.91	1506.07
531.27	1519.08
531.63	1531.73
531.99	1544.55
532.35	1556.75
532.71	1569.29
533.07	1582.35
533.42	1594.42
533.78	1606.50
534.14	1618.83
534.50	1630.12
534.86	1641.74
535.21	1652.63
535.57	1664.22
535.93	1675.46
536.29	1686.59
536.65	1698.13
537.00	1709.12
537.36	1720.63
537.72	1731.76
538.08	1743.31
538.44	1754.47
538.79	1765.62
539.15	1776.82
539.51	1787.72
539.87	1799.23
540.22	1810.13
540.58	1821.10
540.94	1832.26
541.29	1842.77
541.65	1852.65
542.01	1863.23
542.37	1873.38
542.72	1883.62
543.08	1893.41
543.44	1904.18
543.79	1913.66
544.15	1923.13
544.51	1933.17
544.87	1943.12
545.22	1952.49
545.58	1961.44
545.94	1970.32
546.29	1978.89
546.65	1987.26
547.01	1995.59
547.36	2003.36
547.72	2011.12
548.07	2018.62
548.43	2026.48
548.79	2034.39
549.14	2042.46
549.50	2051.09
549.86	2059.02
550.21	2066.57
550.57	2074.22
550.92	2080.95
551.28	2088.47
551.64	2095.73
551.99	2103.44
552.35	2110.60
552.70	2117.58
553.06	2124.22
553.41	2130.51
553.77	2137.15
554.13	2143.71
554.48	2150.70
554.84	2157.87
555.19	2164.47
555.55	2171.07
555.90	2177.44
556.26	2184.31
556.61	2190.54
556.97	2195.28
557.32	2201.18
557.68	2207.58
558.03	2213.45
558.39	2218.86
558.74	2224.90
559.10	2230.45
559.45	2235.91
559.81	2241.39
560.16	2246.72
560.52	2252.60
560.87	2259.02
561.23	2264.76
561.58	2271.21
561.94	2276.35
562.29	2280.97
562.64	2286.92
563.00	2292.46
563.35	2297.80
563.71	2303.38
564.06	2309.10
564.42	2315.01
564.77	2319.92
565.12	2325.09
565.48	2329.99
565.83	2335.31
566.19	2340.45
566.54	2345.74
566.89	2350.30
567.25	2354.80
567.60	2360.52
567.96	2365.51
568.31	2369.94
568.66	2374.15
569.02	2378.04
569.37	2381.78
569.72	2385.99
570.08	2389.63
570.43	2392.72
570.78	2395.82
571.14	2398.17
571.49	2401.06
571.84	2404.38
572.20	2407.24
572.55	2410.14
572.90	2412.41
573.26	2415.20
573.61	2417.82
573.96	2419.99
574.31	2421.82
574.67	2423.60
575.02	2424.11
575.37	2425.47
575.72	2426.01
576.08	2427.41
576.43	2427.35
576.78	2427.58
577.13	2429.02
577.49	2429.77
577.84	2430.67
578.19	2431.76
578.54	2432.26
578.90	2432.57
579.25	2432.40
579.60	2432.04
579.95	2431.07
580.30	2430.99
580.66	2430.15
581.01	2428.28
581.36	2425.68
581.71	2424.11
582.06	2422.78
582.42	2421.97
582.77	2419.62
583.12	2417.86
583.47	2416.24
583.82	2415.53
584.17	2414.23
584.53	2411.90
584.88	2409.71
585.23	2407.49
585.58	2405.06
585.93	2402.94
586.28	2400.84
586.63	2398.22
586.98	2395.97
587.34	2393.78
587.69	2391.09
588.04	2388.82
588.39	2387.19
588.74	2384.58
589.09	2381.73
589.44	2378.47
589.79	2375.73
590.14	2373.55
590.49	2370.66
590.84	2366.70
591.19	2363.45
591.54	2359.95
591.89	2355.76
592.25	2352.44
592.60	2348.26
592.95	2343.93
593.30	2339.65
593.65	2335.22
594.00	2330.79
594.35	2327.68
594.70	2323.04
595.05	2318.66
595.40	2313.08
595.75	2307.23
596.10	2303.45
596.45	2298.46
596.80	2293.74
597.15	2288.49
597.50	2282.53
597.85	2277.45
598.19	2272.25
598.54	2266.39
598.89	2261.18
599.24	2256.57
599.59	2250.24
599.94	2244.36
600.29	2238.49
600.64	2232.44
600.99	2225.41
601.34	2219.75
601.69	2212.67
602.04	2206.25
602.39	2199.47
602.74	2193.48
603.08	2187.92
603.43	2181.45
603.78	2174.69
604.13	2167.65
604.48	2160.28
604.83	2154.06
605.18	2147.97
605.53	2140.95
605.87	2133.89
606.22	2127.10
606.57	2119.20
606.92	2111.24
607.27	2104.34
607.62	2097.62
607.96	2090.63
608.31	2084.23
608.66	2076.49
609.01	2068.94
609.36	2061.87
609.70	2054.14
610.05	2046.19
610.40	2037.86
610.75	2029.42
611.10	2021.64
611.44	2012.64
611.79	2003.97
612.14	1994.05
612.49	1983.23
612.83	1973.88
613.18	1964.50
613.53	1955.20
613.88	1945.76
614.22	1937.30
614.57	1927.35
614.92	1916.92
615.27	1906.61
615.61	1896.49
615.96	1886.75
616.31	1877.11
616.65	1867.62
617.00	1858.04
617.35	1848.52
617.70	1838.90
618.04	1829.09
618.39	1818.98
618.74	1809.43
619.08	1799.86
619.43	1791.21
619.78	1782.91
620.12	1774.49
620.47	1765.04
620.82	1754.76
621.16	1744.88
621.51	1735.05
621.85	1725.32
622.20	1714.89
622.55	1704.56
622.89	1694.74
623.24	1685.24
623.59	1675.50
623.93	1665.48
624.28	1655.56
624.62	1645.44
624.97	1635.24
625.32	1625.40
625.66	1616.57
626.01	1607.95
626.35	1598.63
626.70	1588.76
627.04	1578.88
627.39	1568.71
627.73	1559.54
628.08	1550.81
628.43	1541.43
628.77	1532.20
629.12	1523.35
629.46	1515.58
629.81	1507.23
630.15	1497.85
630.50	1488.07
630.84	1477.69
631.19	1467.84
631.53	1458.73
631.88	1448.75
632.22	1438.75
632.57	1429.53
632.91	1419.48
633.26	1409.72
633.60	1400.23
633.95	1391.03
634.29	1381.57
634.64	1372.33
634.98	1362.43
635.32	1353.07
635.67	1344.63
636.01	1335.46
636.36	1325.78
636.70	1316.40
637.05	1307.07
637.39	1298.18
637.73	1289.65
638.08	1282.15
638.42	1274.02
638.77	1265.33
639.11	1257.11
639.45	1249.45
639.80	1240.92
640.14	1232.33
640.49	1223.45
640.83	1214.71
641.17	1206.41
641.52	1198.38
641.86	1189.96
642.20	1182.17
642.55	1173.59
642.89	1164.72
643.23	1156.10
643.58	1148.15
643.92	1139.15
644.26	1130.56
644.61	1122.27
644.95	1113.48
645.29	1104.34
645.64	1095.26
645.98	1086.73
646.32	1078.83
646.66	1070.25
647.01	1062.02
647.35	1053.86
647.69	1045.61
648.04	1037.44
648.38	1028.68
648.72	1019.89
649.06	1011.41
649.41	1003.28
649.75	995.47
650.09	987.62
650.43	979.63
650.78	971.33
651.12	963.66
651.46	956.27
651.80	948.98
652.14	941.77
652.49	934.22
652.83	926.92
653.17	919.31
653.51	911.72
653.85	904.53
654.20	897.33
654.54	889.92
654.88	882.72
655.22	875.52
655.56	868.63
655.90	861.88
656.25	855.23
656.59	848.41
656.93	841.36
657.27	834.32
657.61	827.32
657.95	821.19
658.29	815.27
658.64	809.23
658.98	802.78
659.32	796.22
659.66	790.03
660.00	783.73
660.34	777.61
660.68	771.52
661.02	765.22
661.36	759.10
661.70	753.28
662.05	747.69
662.39	742.17
662.73	736.76
663.07	731.36
663.41	725.71
663.75	719.91
664.09	714.22
664.43	708.71
664.77	703.46
665.11	697.67
665.45	691.79
665.79	685.88
666.13	680.21
666.47	674.69
666.81	669.28
667.15	663.86
667.49	658.70
667.83	653.47
668.17	648.17
668.51	643.17
668.85	638.25
669.19	633.28
669.53	628.21
669.87	623.06
670.21	618.27
670.55	613.54
670.89	609.10
671.23	604.76
671.57	600.46
671.91	596.14
672.25	591.93
672.58	587.73
672.92	583.72
673.26	579.77
673.60	575.91
673.94	572.08
674.28	568.49
674.62	564.72
674.96	560.95
675.30	557.46
675.64	553.73
675.97	550.08
676.31	546.48
676.65	542.90
676.99	539.47
677.33	535.67
677.67	532.03
678.01	528.19
678.34	524.55
678.68	520.98
679.02	517.33
679.36	513.63
679.70	509.97
680.04	506.32
680.37	502.83
680.71	499.47
681.05	496.27
681.39	492.94
681.73	489.73
682.06	486.65
682.40	483.54
682.74	480.42
683.08	477.21
683.42	473.99
683.75	470.91
684.09	467.81
684.43	464.95
684.77	462.04
685.10	459.13
685.44	456.15
685.78	453.21
686.12	450.41
686.45	447.66
686.79	445.07
687.13	442.52
687.46	439.87
687.80	437.18
688.14	434.29
688.48	431.63
688.81	428.93
689.15	426.36
689.49	423.70
689.82	421.06
690.16	418.48
690.50	416.00
690.83	413.48
691.17	411.00
691.51	408.54
691.84	406.20
692.18	403.95
692.52	401.75
692.85	399.52
693.19	397.36
693.52	395.17
693.86	392.93
694.20	390.75
694.53	388.59
694.87	386.36
695.21	384.20
695.54	382.04
695.88	379.84
696.21	377.59
696.55	375.40
696.88	373.32
697.22	371.33
697.56	369.39
697.89	367.52
698.23	365.66
698.56	363.84
698.90	362.02
699.23	360.11
699.57	358.19
699.90	356.32
700.24	354.45
700.58	352.71
700.91	351.01
701.25	349.40
701.58	347.80
701.92	346.22
702.25	344.58
702.59	342.95
702.92	341.36
703.26	339.77
703.59	338.36
703.93	337.06
704.26	335.56
704.60	334.02
704.93	332.47
705.26	330.95
705.60	329.47
705.93	327.91
706.27	326.57
706.60	325.29
706.94	324.10
707.27	322.69
707.61	321.34
707.94	319.94
708.27	318.38
708.61	316.93
708.94	315.49
709.28	314.15
709.61	312.86
709.94	311.69
710.28	310.49
710.61	309.22
710.95	307.79
711.28	306.68
711.61	305.50
711.95	304.39
712.28	303.16
712.61	301.94
712.95	300.93
713.28	299.88
713.61	298.71
713.95	297.54
714.28	296.50
714.61	295.44
714.95	294.39
715.28	293.36
715.61	292.24
715.95	291.27
716.28	290.36
716.61	289.43
716.95	288.40
717.28	287.45
717.61	286.46
717.94	285.55
718.28	284.53
718.61	283.64
718.94	282.74
719.27	281.89
719.61	281.10
719.94	280.18
720.27	279.17
720.60	278.29
720.94	277.47
721.27	276.69
721.60	275.94
721.93	275.21
722.27	274.58
722.60	273.93
722.93	273.19
723.26	272.46
723.59	271.70
723.93	271.05
724.26	270.41
724.59	269.76
724.92	269.16
725.25	268.63
725.59	268.01
725.92	267.47
726.25	266.92
726.58	266.29
726.91	265.68
727.24	265.17
727.57	264.60
727.91	263.96
728.24	263.42
728.57	262.85
728.90	262.32
729.23	261.66
729.56	261.23
729.89	260.70
730.22	260.13
730.55	259.58
730.89	259.02
731.22	258.43
731.55	257.92
731.88	257.37
732.21	256.78
732.54	256.24
732.87	255.66
733.20	255.14
733.53	254.66
733.86	254.20
734.19	253.69
734.52	253.28
734.85	252.98
735.18	252.47
735.51	252.11
735.84	251.66
736.17	251.26
736.50	250.69
736.83	250.52
737.16	250.12
737.49	249.74
737.82	249.32
738.15	248.95
738.48	248.55
738.81	248.16
739.14	247.73
739.47	247.34
739.80	246.98
740.13	246.59
740.46	246.19
740.79	245.77
741.12	245.41
741.45	244.99
741.78	244.54
742.11	244.25
742.44	243.83
742.77	243.50
743.10	243.16
743.43	242.82
743.75	242.26
744.08	242.22
744.41	241.85
744.74	241.53
745.07	241.18
745.40	240.89
745.73	240.61
746.06	240.29
746.39	239.98
746.71	239.63
747.04	239.28
747.37	238.98
747.70	238.74
748.03	238.41
748.36	238.18
748.68	237.87
749.01	237.51
749.34	237.20
749.67	236.90
750.00	236.62
750.33	236.47
750.65	236.21
750.98	235.67
751.31	235.40
751.64	235.14
751.97	235.00
752.29	234.72
752.62	234.36
752.95	234.14
753.28	233.89
753.60	233.67
753.93	233.52
754.26	233.28
754.59	233.01
754.91	232.79
755.24	232.53
755.57	232.25
755.90	232.04
756.22	231.79
756.55	231.54
756.88	231.27
757.20	230.93
757.53	230.66
757.86	230.44
758.19	230.28
758.51	230.06
758.84	229.72
759.17	229.50
759.49	229.38
759.82	229.25
760.15	229.06
760.47	228.87
760.80	228.58
761.13	228.45
761.45	228.23
761.78	228.02
762.11	227.84
762.43	227.69
762.76	227.50
763.08	227.36
763.41	227.21
763.74	227.06
764.06	226.91
764.39	226.75
764.71	226.56
765.04	226.38
765.37	226.23
765.69	226.09
766.02	225.97
766.34	225.77
766.67	225.56
767.00	225.47
767.32	225.39
767.65	225.42
767.97	225.25
768.30	225.11
768.62	225.00
768.95	224.85
769.27	224.68
769.60	224.59
769.92	224.43
770.25	224.25
770.57	224.08
770.90	223.95
771.22	223.84
771.55	223.73
771.87	223.65
772.20	223.55
772.52	223.62
772.85	223.73
773.17	223.65
773.50	223.53
773.82	223.40
774.15	223.22
774.47	222.99
774.80	222.87
775.12	222.80
775.45	222.70
775.77	222.62
776.09	222.54
776.42	222.44
776.74	222.43
777.07	222.33
777.39	222.28
777.72	222.19
778.04	222.14
778.36	222.06
778.69	221.97
779.01	221.92
779.33	221.67
779.66	221.36
779.98	221.24
780.31	221.19
780.63	221.19
780.95	221.17
781.28	221.08
781.60	220.97
781.92	220.90
782.25	220.84
782.57	220.77
782.89	220.71
783.22	220.63
783.54	220.50
783.86	220.47
784.19	220.41
784.51	220.41
784.83	220.30
785.16	220.25
785.48	220.22
785.80	220.15
786.12	220.12
