SpectraSuite Data File
++++++++++++++++++++++++++++++++++++
Date: Tue Jan 29 15:57:11 EST 2013
User: group
Dark Spectrum Present: No
Reference Spectrum Present: No
Number of Sampled Component Spectra: 1
Spectrometers: USB2E7196
Integration Time (usec): 65000 (USB2E7196)
Spectra Averaged: 100 (USB2E7196)
Boxcar Smoothing: 10 (USB2E7196)
Correct for Electrical Dark: No (USB2E7196)
Strobe/Lamp Enabled: No (USB2E7196)
Correct for Detector Non-linearity: No (USB2E7196)
Correct for Stray Light: No (USB2E7196)
Number of Pixels in Processed Spectrum: 2048
>>>>>Begin Processed Spectral Data<<<<<
339.09	0.00
339.48	202.45
339.86	204.21
340.24	205.28
340.63	207.28
341.01	211.73
341.39	209.63
341.78	211.50
342.16	212.39
342.54	212.81
342.93	201.86
343.31	212.06
343.69	212.63
344.07	213.12
344.46	213.62
344.84	214.01
345.22	214.16
345.60	214.45
345.99	214.63
346.37	214.78
346.75	214.89
347.13	215.00
347.52	215.10
347.90	215.21
348.28	215.28
348.66	215.36
349.05	215.37
349.43	215.44
349.81	215.54
350.19	215.61
350.57	215.69
350.96	215.76
351.34	215.88
351.72	215.97
352.10	216.08
352.48	216.11
352.87	216.16
353.25	216.24
353.63	216.30
354.01	216.38
354.39	216.47
354.77	216.57
355.15	216.69
355.54	216.73
355.92	216.73
356.30	216.78
356.68	216.99
357.06	217.07
357.44	217.08
357.82	217.13
358.20	217.23
358.58	217.26
358.97	217.33
359.35	217.43
359.73	217.54
360.11	217.59
360.49	217.66
360.87	217.71
361.25	217.81
361.63	217.95
362.01	218.01
362.39	218.05
362.77	218.11
363.15	218.16
363.53	218.19
363.91	218.22
364.29	218.26
364.67	218.10
365.05	218.14
365.43	218.24
365.81	218.26
366.19	218.36
366.57	218.47
366.95	218.46
367.33	218.42
367.71	218.42
368.09	218.45
368.47	218.45
368.85	218.46
369.23	218.48
369.61	218.37
369.99	218.42
370.37	218.40
370.75	218.46
371.13	218.37
371.51	218.34
371.89	218.36
372.27	218.37
372.65	218.34
373.03	218.30
373.41	218.19
373.78	218.16
374.16	217.99
374.54	217.84
374.92	217.80
375.30	217.73
375.68	217.64
376.06	217.60
376.44	217.53
376.82	217.47
377.19	217.40
377.57	217.36
377.95	217.25
378.33	217.21
378.71	217.06
379.09	217.05
379.47	217.03
379.84	216.94
380.22	216.89
380.60	216.83
380.98	216.75
381.36	216.73
381.73	216.66
382.11	216.68
382.49	216.66
382.87	216.61
383.25	216.59
383.62	216.80
384.00	216.73
384.38	216.68
384.76	216.69
385.13	216.71
385.51	216.68
385.89	216.63
386.27	216.60
386.64	216.58
387.02	216.52
387.40	216.47
387.78	216.47
388.15	216.41
388.53	216.36
388.91	216.37
389.29	216.31
389.66	216.32
390.04	216.29
390.42	216.33
390.79	216.34
391.17	216.31
391.55	216.05
391.92	216.06
392.30	216.09
392.68	216.04
393.05	216.01
393.43	216.02
393.81	216.02
394.18	216.01
394.56	216.03
394.94	216.06
395.31	216.08
395.69	216.16
396.06	216.21
396.44	216.27
396.82	216.26
397.19	216.41
397.57	216.43
397.95	216.45
398.32	216.42
398.70	216.45
399.07	216.54
399.45	216.59
399.82	216.64
400.20	216.67
400.58	216.75
400.95	216.77
401.33	216.86
401.70	217.04
402.08	217.12
402.45	217.19
402.83	217.36
403.20	217.45
403.58	217.55
403.95	217.69
404.33	217.85
404.71	218.00
405.08	218.24
405.46	218.40
405.83	218.62
406.21	218.81
406.58	219.04
406.96	219.24
407.33	219.49
407.70	219.74
408.08	220.21
408.45	220.54
408.83	220.91
409.20	221.25
409.58	221.51
409.95	221.93
410.33	222.40
410.70	222.81
411.08	223.33
411.45	223.84
411.82	224.36
412.20	225.03
412.57	225.82
412.95	226.34
413.32	227.15
413.69	227.92
414.07	228.80
414.44	229.73
414.82	230.73
415.19	231.83
415.56	232.97
415.94	234.07
416.31	235.42
416.68	236.75
417.06	238.31
417.43	239.81
417.81	241.50
418.18	243.17
418.55	245.00
418.93	246.97
419.30	248.99
419.67	251.12
420.04	253.29
420.42	255.57
420.79	258.31
421.16	261.02
421.54	263.84
421.91	266.63
422.28	269.60
422.66	272.73
423.03	275.86
423.40	279.10
423.77	282.57
424.15	286.09
424.52	289.76
424.89	293.69
425.26	297.61
425.64	301.35
426.01	305.45
426.38	309.74
426.75	314.08
427.13	318.67
427.50	323.47
427.87	328.47
428.24	333.46
428.61	338.25
428.99	343.52
429.36	349.28
429.73	355.03
430.10	360.67
430.47	366.51
430.85	372.60
431.22	379.05
431.59	385.92
431.96	392.49
432.33	399.72
432.70	406.72
433.08	414.94
433.45	422.67
433.82	430.41
434.19	438.97
434.56	447.34
434.93	455.36
435.30	463.31
435.68	472.07
436.05	480.74
436.42	489.24
436.79	497.07
437.16	505.50
437.53	514.42
437.90	523.24
438.27	531.78
438.64	540.62
439.01	548.82
439.38	556.11
439.75	563.20
440.13	571.26
440.50	578.88
440.87	585.01
441.24	591.44
441.61	598.47
441.98	603.60
442.35	609.65
442.72	615.71
443.09	621.51
443.46	625.08
443.83	627.51
444.20	629.62
444.57	632.57
444.94	633.87
445.31	635.14
445.68	636.39
446.05	637.03
446.42	636.21
446.79	635.25
447.16	634.19
447.53	633.32
447.90	630.14
448.27	626.94
448.64	622.51
449.01	619.25
449.37	613.59
449.74	608.11
450.11	601.47
450.48	594.29
450.85	587.09
451.22	580.84
451.59	574.86
451.96	569.28
452.33	561.74
452.70	554.98
453.07	546.91
453.43	538.67
453.80	530.73
454.17	523.09
454.54	515.85
454.91	508.00
455.28	500.44
455.65	493.36
456.02	486.28
456.38	480.22
456.75	472.69
457.12	466.38
457.49	460.18
457.86	454.28
458.23	449.18
458.59	443.60
458.96	437.85
459.33	432.81
459.70	427.69
460.07	423.64
460.43	418.97
460.80	414.59
461.17	410.82
461.54	406.81
461.91	402.97
462.27	399.03
462.64	395.76
463.01	392.09
463.38	388.49
463.74	384.89
464.11	381.77
464.48	379.05
464.85	376.11
465.21	373.80
465.58	371.32
465.95	368.33
466.32	365.80
466.68	363.37
467.05	360.93
467.42	358.49
467.78	355.94
468.15	353.51
468.52	351.72
468.88	349.29
469.25	347.16
469.62	345.47
469.98	343.64
470.35	341.90
470.72	340.27
471.08	338.58
471.45	337.20
471.82	335.73
472.18	334.13
472.55	333.05
472.92	331.75
473.28	330.59
473.65	329.48
474.02	328.41
474.38	327.59
474.75	326.87
475.11	326.08
475.48	325.58
475.85	325.14
476.21	324.68
476.58	324.37
476.94	324.22
477.31	323.99
477.67	323.76
478.04	323.64
478.41	323.68
478.77	323.87
479.14	323.81
479.50	323.98
479.87	324.29
480.23	324.59
480.60	324.84
480.96	325.16
481.33	325.80
481.69	326.41
482.06	326.92
482.42	327.41
482.79	328.05
483.15	328.88
483.52	329.84
483.88	330.78
484.25	331.77
484.61	332.78
484.98	333.82
485.34	335.20
485.71	336.60
486.07	337.98
486.44	339.33
486.80	340.97
487.17	342.57
487.53	344.39
487.90	346.23
488.26	348.24
488.62	350.37
488.99	352.38
489.35	354.51
489.72	356.90
490.08	359.44
490.44	361.99
490.81	364.65
491.17	367.38
491.54	370.33
491.90	373.38
492.26	376.58
492.63	379.99
492.99	383.45
493.36	387.09
493.72	391.00
494.08	394.95
494.45	399.12
494.81	403.51
495.17	407.97
495.54	412.67
495.90	417.48
496.26	422.38
496.63	427.60
496.99	432.96
497.35	438.54
497.72	444.30
498.08	450.19
498.44	456.24
498.80	462.64
499.17	469.09
499.53	475.78
499.89	482.68
500.26	489.60
500.62	496.62
500.98	504.01
501.34	511.43
501.71	519.20
502.07	527.02
502.43	534.99
502.79	543.11
503.16	551.48
503.52	560.01
503.88	568.73
504.24	577.64
504.60	586.71
504.97	595.92
505.33	605.16
505.69	615.08
506.05	624.90
506.41	634.66
506.78	644.73
507.14	654.95
507.50	665.36
507.86	676.00
508.22	686.79
508.59	697.35
508.95	708.41
509.31	719.67
509.67	731.07
510.03	742.49
510.39	754.18
510.75	765.93
511.12	777.88
511.48	789.93
511.84	802.08
512.20	814.30
512.56	826.82
512.92	839.60
513.28	852.09
513.64	864.73
514.00	877.55
514.37	890.39
514.73	903.27
515.09	916.09
515.45	928.80
515.81	941.72
516.17	954.94
516.53	968.00
516.89	980.94
517.25	994.03
517.61	1007.29
517.97	1020.50
518.33	1033.53
518.69	1046.90
519.05	1060.41
519.41	1073.86
519.77	1087.56
520.13	1100.67
520.49	1113.58
520.85	1126.78
521.21	1139.83
521.57	1153.27
521.93	1166.11
522.29	1179.71
522.65	1193.15
523.01	1206.52
523.37	1219.51
523.73	1232.57
524.09	1245.53
524.45	1258.66
524.81	1271.78
525.17	1285.02
525.53	1297.96
525.89	1310.97
526.25	1323.67
526.61	1336.19
526.97	1349.00
527.33	1361.56
527.68	1374.67
528.04	1387.82
528.40	1400.57
528.76	1413.68
529.12	1426.28
529.48	1439.32
529.84	1451.33
530.20	1463.77
530.56	1476.17
530.91	1489.09
531.27	1501.70
531.63	1514.10
531.99	1526.57
532.35	1538.53
532.71	1550.38
533.07	1562.80
533.42	1574.70
533.78	1586.55
534.14	1598.30
534.50	1609.11
534.86	1620.46
535.21	1631.07
535.57	1642.26
535.93	1653.23
536.29	1664.14
536.65	1675.11
537.00	1685.68
537.36	1696.53
537.72	1707.18
538.08	1718.17
538.44	1728.74
538.79	1739.45
539.15	1749.95
539.51	1760.31
539.87	1771.28
540.22	1781.79
540.58	1792.39
540.94	1802.89
541.29	1812.83
541.65	1822.32
542.01	1832.72
542.37	1842.43
542.72	1852.25
543.08	1861.73
543.44	1871.82
543.79	1880.80
544.15	1890.05
544.51	1899.79
544.87	1909.41
545.22	1918.12
545.58	1926.53
545.94	1935.04
546.29	1943.15
546.65	1951.17
547.01	1959.07
547.36	1966.39
547.72	1973.74
548.07	1981.06
548.43	1988.44
548.79	1995.95
549.14	2003.84
549.50	2011.84
549.86	2019.26
550.21	2026.43
550.57	2033.78
550.92	2040.30
551.28	2047.50
551.64	2054.53
551.99	2061.66
552.35	2068.60
552.70	2075.37
553.06	2081.87
553.41	2087.92
553.77	2094.27
554.13	2100.52
554.48	2107.25
554.84	2114.13
555.19	2120.60
555.55	2126.96
555.90	2133.23
556.26	2139.85
556.61	2145.53
556.97	2150.32
557.32	2156.25
557.68	2162.56
558.03	2168.20
558.39	2173.36
558.74	2179.17
559.10	2184.62
559.45	2190.12
559.81	2195.47
560.16	2201.09
560.52	2206.95
560.87	2213.39
561.23	2219.38
561.58	2225.97
561.94	2231.21
562.29	2235.99
562.64	2242.17
563.00	2247.77
563.35	2253.34
563.71	2259.26
564.06	2264.97
564.42	2270.85
564.77	2275.91
565.12	2281.03
565.48	2286.34
565.83	2292.16
566.19	2297.73
566.54	2303.13
566.89	2307.79
567.25	2312.54
567.60	2318.24
567.96	2323.50
568.31	2328.00
568.66	2332.20
569.02	2336.15
569.37	2339.87
569.72	2344.28
570.08	2347.86
570.43	2350.92
570.78	2354.06
571.14	2356.69
571.49	2360.06
571.84	2363.82
572.20	2366.65
572.55	2369.89
572.90	2372.13
573.26	2375.07
573.61	2377.49
573.96	2379.72
574.31	2381.93
574.67	2383.93
575.02	2384.97
575.37	2386.49
575.72	2387.42
576.08	2389.15
576.43	2389.54
576.78	2390.69
577.13	2392.68
577.49	2394.01
577.84	2395.44
578.19	2397.12
578.54	2398.02
578.90	2399.16
579.25	2399.19
579.60	2399.58
579.95	2399.09
580.30	2399.73
580.66	2399.11
581.01	2397.74
581.36	2395.97
581.71	2394.89
582.06	2394.23
582.42	2393.66
582.77	2391.90
583.12	2390.77
583.47	2389.80
583.82	2389.51
584.17	2388.26
584.53	2386.18
584.88	2384.45
585.23	2382.91
585.58	2380.87
585.93	2378.98
586.28	2377.12
586.63	2375.03
586.98	2373.09
587.34	2371.42
587.69	2369.28
588.04	2367.58
588.39	2366.39
588.74	2364.05
589.09	2361.75
589.44	2358.74
589.79	2356.55
590.14	2354.86
590.49	2351.99
590.84	2348.32
591.19	2345.69
591.54	2342.72
591.89	2339.00
592.25	2335.93
592.60	2331.92
592.95	2327.98
593.30	2324.08
593.65	2319.58
594.00	2315.50
594.35	2312.44
594.70	2307.94
595.05	2303.29
595.40	2298.04
595.75	2292.81
596.10	2289.26
596.45	2284.45
596.80	2280.21
597.15	2274.97
597.50	2269.21
597.85	2264.50
598.19	2259.41
598.54	2253.48
598.89	2248.59
599.24	2244.11
599.59	2238.10
599.94	2232.50
600.29	2226.72
600.64	2220.90
600.99	2214.48
601.34	2209.12
601.69	2202.38
602.04	2196.19
602.39	2189.95
602.74	2184.00
603.08	2178.36
603.43	2172.02
603.78	2165.31
604.13	2158.12
604.48	2150.95
604.83	2144.90
605.18	2138.67
605.53	2131.79
605.87	2124.91
606.22	2118.19
606.57	2110.44
606.92	2102.66
607.27	2095.74
607.62	2089.18
607.96	2082.29
608.31	2075.85
608.66	2067.99
609.01	2060.53
609.36	2053.46
609.70	2045.65
610.05	2038.08
610.40	2029.85
610.75	2021.65
611.10	2013.96
611.44	2005.38
611.79	1996.67
612.14	1986.67
612.49	1976.23
612.83	1967.17
613.18	1958.11
613.53	1948.75
613.88	1939.40
614.22	1930.89
614.57	1921.05
614.92	1910.55
615.27	1900.29
615.61	1890.26
615.96	1880.65
616.31	1871.06
616.65	1861.74
617.00	1851.91
617.35	1842.14
617.70	1832.41
618.04	1822.37
618.39	1812.08
618.74	1802.37
619.08	1792.98
619.43	1784.42
619.78	1776.20
620.12	1767.41
620.47	1757.54
620.82	1747.17
621.16	1737.29
621.51	1727.26
621.85	1717.31
622.20	1706.93
622.55	1696.40
622.89	1686.66
623.24	1676.98
623.59	1667.22
623.93	1657.07
624.28	1647.44
624.62	1637.22
624.97	1626.97
625.32	1617.18
625.66	1608.50
626.01	1599.51
626.35	1589.89
626.70	1579.74
627.04	1569.62
627.39	1559.63
627.73	1550.33
628.08	1541.27
628.43	1531.70
628.77	1522.41
629.12	1513.52
629.46	1505.66
629.81	1497.27
630.15	1487.48
630.50	1477.62
630.84	1467.24
631.19	1457.23
631.53	1447.81
631.88	1437.59
632.22	1427.64
632.57	1418.28
632.91	1408.13
633.26	1398.43
633.60	1388.94
633.95	1379.52
634.29	1370.09
634.64	1360.74
634.98	1350.89
635.32	1341.62
635.67	1332.91
636.01	1323.61
636.36	1313.89
636.70	1304.25
637.05	1294.86
637.39	1285.92
637.73	1277.27
638.08	1269.57
638.42	1261.24
638.77	1252.35
639.11	1244.18
639.45	1236.12
639.80	1227.36
640.14	1218.56
640.49	1209.55
640.83	1200.71
641.17	1192.76
641.52	1184.48
641.86	1175.75
642.20	1167.97
642.55	1159.33
642.89	1150.52
643.23	1141.87
643.58	1133.73
643.92	1124.55
644.26	1115.89
644.61	1107.46
644.95	1098.69
645.29	1089.40
645.64	1080.17
645.98	1071.84
646.32	1063.85
646.66	1055.38
647.01	1047.08
647.35	1038.89
647.69	1030.49
648.04	1022.13
648.38	1013.01
648.72	1004.21
649.06	995.79
649.41	987.55
649.75	979.56
650.09	971.66
650.43	963.57
650.78	955.27
651.12	947.85
651.46	940.51
651.80	933.15
652.14	925.81
652.49	918.32
652.83	911.09
653.17	903.34
653.51	895.72
653.85	888.52
654.20	881.24
654.54	873.72
654.88	866.67
655.22	859.54
655.56	852.66
655.90	845.99
656.25	839.34
656.59	832.32
656.93	825.31
657.27	818.25
657.61	811.38
657.95	805.41
658.29	799.51
658.64	793.32
658.98	787.00
659.32	780.49
659.66	774.29
660.00	768.01
660.34	761.95
660.68	756.01
661.02	749.76
661.36	743.96
661.70	738.25
662.05	732.57
662.39	727.16
662.73	721.89
663.07	716.55
663.41	710.99
663.75	705.41
664.09	699.93
664.43	694.59
664.77	689.25
665.11	683.39
665.45	677.39
665.79	671.66
666.13	666.03
666.47	660.57
666.81	655.13
667.15	649.88
667.49	644.84
667.83	639.58
668.17	634.43
668.51	629.33
668.85	624.49
669.19	619.64
669.53	614.67
669.87	609.57
670.21	604.81
670.55	600.11
670.89	595.75
671.23	591.50
671.57	587.15
671.91	582.96
672.25	578.91
672.58	574.93
672.92	570.95
673.26	567.09
673.60	563.36
673.94	559.71
674.28	556.07
674.62	552.36
674.96	548.64
675.30	545.11
675.64	541.49
675.97	537.96
676.31	534.42
676.65	530.88
676.99	527.47
677.33	523.72
677.67	520.18
678.01	516.42
678.34	512.79
678.68	509.36
679.02	505.81
679.36	502.16
679.70	498.57
680.04	495.09
680.37	491.66
680.71	488.36
681.05	485.21
681.39	482.03
681.73	478.91
682.06	475.93
682.40	472.88
682.74	469.75
683.08	466.60
683.42	463.49
683.75	460.57
684.09	457.64
684.43	454.92
684.77	452.04
685.10	449.19
685.44	446.29
685.78	443.41
686.12	440.75
686.45	438.10
686.79	435.52
687.13	433.02
687.46	430.47
687.80	427.84
688.14	425.09
688.48	422.56
688.81	419.95
689.15	417.42
689.49	414.91
689.82	412.43
690.16	409.96
690.50	407.53
690.83	405.04
691.17	402.57
691.51	400.15
691.84	397.94
692.18	395.83
692.52	393.74
692.85	391.65
693.19	389.49
693.52	387.36
693.86	385.22
694.20	383.10
694.53	381.04
694.87	378.88
695.21	376.83
695.54	374.68
695.88	372.58
696.21	370.44
696.55	368.39
696.88	366.39
697.22	364.45
697.56	362.60
697.89	360.77
698.23	359.05
698.56	357.30
698.90	355.56
699.23	353.66
699.57	351.82
699.90	350.01
700.24	348.30
700.58	346.60
700.91	345.01
701.25	343.45
701.58	341.87
701.92	340.32
702.25	338.74
702.59	337.20
702.92	335.69
703.26	334.19
703.59	332.79
703.93	331.58
704.26	330.17
704.60	328.72
704.93	327.28
705.26	325.80
705.60	324.36
705.93	322.94
706.27	321.69
706.60	320.45
706.94	319.27
707.27	317.92
707.61	316.61
707.94	315.27
708.27	313.81
708.61	312.43
708.94	311.09
709.28	309.85
709.61	308.65
709.94	307.53
710.28	306.36
710.61	305.19
710.95	303.79
711.28	302.74
711.61	301.62
711.95	300.53
712.28	299.38
712.61	298.25
712.95	297.22
713.28	296.20
713.61	295.10
713.95	293.97
714.28	292.95
714.61	291.94
714.95	290.95
715.28	289.95
715.61	288.91
715.95	288.04
716.28	287.10
716.61	286.15
716.95	285.17
717.28	284.30
717.61	283.35
717.94	282.51
718.28	281.47
718.61	280.62
718.94	279.78
719.27	278.97
719.61	278.18
719.94	277.32
720.27	276.37
720.60	275.56
720.94	274.82
721.27	274.16
721.60	273.50
721.93	272.77
722.27	272.18
722.60	271.53
722.93	270.81
723.26	270.16
723.59	269.53
723.93	268.91
724.26	268.26
724.59	267.66
724.92	267.05
725.25	266.57
725.59	266.02
725.92	265.48
726.25	264.91
726.58	264.38
726.91	263.83
727.24	263.34
727.57	262.77
727.91	262.16
728.24	261.61
728.57	261.02
728.90	260.51
729.23	259.91
729.56	259.52
729.89	259.01
730.22	258.46
730.55	257.92
730.89	257.45
731.22	256.93
731.55	256.43
731.88	255.96
732.21	255.42
732.54	254.92
732.87	254.47
733.20	254.02
733.53	253.55
733.86	253.13
734.19	252.62
734.52	252.24
734.85	251.98
735.18	251.50
735.51	251.13
735.84	250.73
736.17	250.37
736.50	249.88
736.83	249.75
737.16	249.37
737.49	249.01
737.82	248.58
738.15	248.26
738.48	247.94
738.81	247.54
739.14	247.18
739.47	246.80
739.80	246.40
740.13	246.12
740.46	245.73
740.79	245.34
741.12	245.01
741.45	244.65
741.78	244.23
742.11	243.99
742.44	243.64
742.77	243.36
743.10	243.05
743.43	242.67
743.75	242.10
744.08	242.05
744.41	241.74
744.74	241.39
745.07	241.00
745.40	240.70
745.73	240.47
746.06	240.15
746.39	239.89
746.71	239.58
747.04	239.20
747.37	238.92
747.70	238.63
748.03	238.39
748.36	238.10
748.68	237.78
749.01	237.43
749.34	237.16
749.67	236.85
750.00	236.56
750.33	236.46
750.65	236.25
750.98	235.75
751.31	235.49
751.64	235.27
751.97	235.17
752.29	234.87
752.62	234.55
752.95	234.31
753.28	234.08
753.60	233.82
753.93	233.66
754.26	233.46
754.59	233.19
754.91	232.92
755.24	232.72
755.57	232.49
755.90	232.26
756.22	232.04
756.55	231.80
756.88	231.57
757.20	231.21
757.53	230.94
757.86	230.72
758.19	230.52
758.51	230.34
758.84	230.04
759.17	229.85
759.49	229.67
759.82	229.60
760.15	229.39
760.47	229.23
760.80	228.97
761.13	228.80
761.45	228.63
761.78	228.47
762.11	228.33
762.43	228.14
762.76	227.95
763.08	227.82
763.41	227.69
763.74	227.57
764.06	227.42
764.39	227.26
764.71	227.12
765.04	226.99
765.37	226.83
765.69	226.69
766.02	226.58
766.34	226.43
766.67	226.20
767.00	226.09
767.32	226.07
767.65	226.08
767.97	225.97
768.30	225.88
768.62	225.72
768.95	225.52
769.27	225.44
769.60	225.36
769.92	225.19
770.25	225.01
770.57	224.85
770.90	224.75
771.22	224.65
771.55	224.55
771.87	224.43
772.20	224.34
772.52	224.38
772.85	224.51
773.17	224.43
773.50	224.35
773.82	224.25
774.15	224.03
774.47	223.80
774.80	223.67
775.12	223.59
775.45	223.53
775.77	223.49
776.09	223.40
776.42	223.31
776.74	223.34
777.07	223.27
777.39	223.20
777.72	223.12
778.04	223.09
778.36	223.01
778.69	222.93
779.01	222.83
779.33	222.57
779.66	222.26
779.98	222.14
780.31	222.08
780.63	222.10
780.95	222.10
781.28	222.02
781.60	221.95
781.92	221.84
782.25	221.77
782.57	221.71
782.89	221.65
783.22	221.57
783.54	221.42
783.86	221.36
784.19	221.30
784.51	221.31
784.83	221.19
785.16	221.12
785.48	221.05
785.80	220.99
786.12	220.99
