SpectraSuite Data File
++++++++++++++++++++++++++++++++++++
Date: Tue Jan 29 16:14:24 EST 2013
User: group
Dark Spectrum Present: No
Reference Spectrum Present: No
Number of Sampled Component Spectra: 1
Spectrometers: USB2E7196
Integration Time (usec): 65000 (USB2E7196)
Spectra Averaged: 100 (USB2E7196)
Boxcar Smoothing: 10 (USB2E7196)
Correct for Electrical Dark: No (USB2E7196)
Strobe/Lamp Enabled: No (USB2E7196)
Correct for Detector Non-linearity: No (USB2E7196)
Correct for Stray Light: No (USB2E7196)
Number of Pixels in Processed Spectrum: 2048
>>>>>Begin Processed Spectral Data<<<<<
339.09	0.00
339.48	202.37
339.86	203.46
340.24	205.08
340.63	207.18
341.01	211.44
341.39	209.23
341.78	211.07
342.16	212.90
342.54	212.24
342.93	201.75
343.31	211.93
343.69	212.51
344.07	212.99
344.46	213.48
344.84	213.87
345.22	214.03
345.60	214.29
345.99	214.47
346.37	214.58
346.75	214.69
347.13	214.77
347.52	214.87
347.90	214.98
348.28	214.99
348.66	215.11
349.05	215.06
349.43	215.14
349.81	215.18
350.19	215.23
350.57	215.30
350.96	215.37
351.34	215.49
351.72	215.56
352.10	215.68
352.48	215.71
352.87	215.77
353.25	215.85
353.63	215.96
354.01	216.05
354.39	216.12
354.77	216.23
355.15	216.32
355.54	216.36
355.92	216.34
356.30	216.46
356.68	216.64
357.06	216.73
357.44	216.78
357.82	216.84
358.20	216.96
358.58	217.01
358.97	217.10
359.35	217.18
359.73	217.28
360.11	217.33
360.49	217.40
360.87	217.40
361.25	217.43
361.63	217.51
362.01	217.57
362.39	217.60
362.77	217.66
363.15	217.69
363.53	217.73
363.91	217.80
364.29	217.79
364.67	217.63
365.05	217.64
365.43	217.67
365.81	217.71
366.19	217.78
366.57	217.86
366.95	217.80
367.33	217.75
367.71	217.74
368.09	217.78
368.47	217.76
368.85	217.77
369.23	217.81
369.61	217.73
369.99	217.78
370.37	217.79
370.75	217.84
371.13	217.77
371.51	217.69
371.89	217.67
372.27	217.66
372.65	217.65
373.03	217.63
373.41	217.60
373.78	217.56
374.16	217.42
374.54	217.30
374.92	217.27
375.30	217.24
375.68	217.16
376.06	217.13
376.44	217.08
376.82	217.06
377.19	217.00
377.57	216.94
377.95	216.81
378.33	216.75
378.71	216.59
379.09	216.59
379.47	216.57
379.84	216.50
380.22	216.42
380.60	216.34
380.98	216.27
381.36	216.18
381.73	216.11
382.11	216.10
382.49	216.09
382.87	216.02
383.25	216.00
383.62	216.19
384.00	216.09
384.38	216.07
384.76	216.09
385.13	216.18
385.51	216.16
385.89	216.13
386.27	216.10
386.64	216.12
387.02	216.06
387.40	216.03
387.78	216.05
388.15	216.04
388.53	216.03
388.91	215.99
389.29	215.99
389.66	216.02
390.04	215.97
390.42	215.98
390.79	216.00
391.17	215.96
391.55	215.73
391.92	215.76
392.30	215.75
392.68	215.68
393.05	215.61
393.43	215.61
393.81	215.58
394.18	215.54
394.56	215.50
394.94	215.54
395.31	215.53
395.69	215.56
396.06	215.58
396.44	215.58
396.82	215.61
397.19	215.74
397.57	215.72
397.95	215.77
398.32	215.74
398.70	215.78
399.07	215.86
399.45	215.92
399.82	215.96
400.20	216.02
400.58	216.07
400.95	216.06
401.33	216.17
401.70	216.39
402.08	216.49
402.45	216.60
402.83	216.72
403.20	216.84
403.58	216.93
403.95	217.08
404.33	217.27
404.71	217.43
405.08	217.68
405.46	217.87
405.83	218.06
406.21	218.28
406.58	218.51
406.96	218.74
407.33	218.99
407.70	219.27
408.08	219.70
408.45	220.05
408.83	220.42
409.20	220.73
409.58	220.99
409.95	221.45
410.33	221.90
410.70	222.30
411.08	222.85
411.45	223.39
411.82	223.97
412.20	224.62
412.57	225.42
412.95	225.96
413.32	226.77
413.69	227.55
414.07	228.42
414.44	229.38
414.82	230.38
415.19	231.51
415.56	232.64
415.94	233.76
416.31	235.12
416.68	236.47
417.06	238.02
417.43	239.55
417.81	241.23
418.18	242.96
418.55	244.84
418.93	246.76
419.30	248.81
419.67	250.98
420.04	253.20
420.42	255.46
420.79	258.18
421.16	260.86
421.54	263.69
421.91	266.55
422.28	269.51
422.66	272.70
423.03	275.86
423.40	279.12
423.77	282.62
424.15	286.16
424.52	289.91
424.89	293.95
425.26	297.91
425.64	301.65
426.01	305.78
426.38	310.11
426.75	314.49
427.13	319.04
427.50	323.80
427.87	328.81
428.24	333.83
428.61	338.66
428.99	344.02
429.36	349.85
429.73	355.59
430.10	361.27
430.47	367.11
430.85	373.20
431.22	379.69
431.59	386.56
431.96	393.14
432.33	400.33
432.70	407.30
433.08	415.51
433.45	423.29
433.82	431.09
434.19	439.67
434.56	448.16
434.93	456.22
435.30	464.20
435.68	472.97
436.05	481.70
436.42	490.30
436.79	498.12
437.16	506.57
437.53	515.51
437.90	524.29
438.27	532.90
438.64	541.73
439.01	549.93
439.38	557.23
439.75	564.32
440.13	572.54
440.50	580.33
440.87	586.53
441.24	592.90
441.61	599.93
441.98	605.09
442.35	611.13
442.72	617.26
443.09	623.09
443.46	626.68
443.83	629.07
444.20	631.20
444.57	634.23
444.94	635.58
445.31	636.93
445.68	638.30
446.05	638.94
446.42	638.21
446.79	637.28
447.16	636.19
447.53	635.44
447.90	632.12
448.27	628.79
448.64	624.28
449.01	621.09
449.37	615.40
449.74	609.90
450.11	603.22
450.48	596.02
450.85	588.86
451.22	582.70
451.59	576.82
451.96	571.14
452.33	563.60
452.70	556.75
453.07	548.60
453.43	540.30
453.80	532.26
454.17	524.63
454.54	517.33
454.91	509.49
455.28	501.82
455.65	494.73
456.02	487.56
456.38	481.49
456.75	473.96
457.12	467.68
457.49	461.47
457.86	455.56
458.23	450.41
458.59	444.77
458.96	438.91
459.33	433.78
459.70	428.63
460.07	424.50
460.43	419.84
460.80	415.43
461.17	411.62
461.54	407.60
461.91	403.67
462.27	399.77
462.64	396.48
463.01	392.83
463.38	389.25
463.74	385.73
464.11	382.57
464.48	379.82
464.85	376.77
465.21	374.42
465.58	371.89
465.95	368.86
466.32	366.29
466.68	363.81
467.05	361.31
467.42	358.90
467.78	356.36
468.15	353.93
468.52	352.13
468.88	349.71
469.25	347.60
469.62	345.89
469.98	344.05
470.35	342.30
470.72	340.68
471.08	338.95
471.45	337.46
471.82	336.02
472.18	334.41
472.55	333.27
472.92	331.95
473.28	330.79
473.65	329.73
474.02	328.72
474.38	327.90
474.75	327.17
475.11	326.38
475.48	325.83
475.85	325.39
476.21	324.93
476.58	324.60
476.94	324.38
477.31	324.15
477.67	323.88
478.04	323.78
478.41	323.72
478.77	323.94
479.14	323.94
479.50	324.07
479.87	324.41
480.23	324.74
480.60	324.99
480.96	325.26
481.33	325.86
481.69	326.42
482.06	326.96
482.42	327.47
482.79	328.08
483.15	328.90
483.52	329.85
483.88	330.71
484.25	331.69
484.61	332.71
484.98	333.75
485.34	335.09
485.71	336.43
486.07	337.91
486.44	339.20
486.80	340.79
487.17	342.51
487.53	344.33
487.90	346.24
488.26	348.29
488.62	350.46
488.99	352.48
489.35	354.59
489.72	356.96
490.08	359.46
490.44	362.00
490.81	364.61
491.17	367.31
491.54	370.29
491.90	373.27
492.26	376.53
492.63	379.87
492.99	383.33
493.36	386.99
493.72	390.81
494.08	394.80
494.45	399.03
494.81	403.35
495.17	407.79
495.54	412.42
495.90	417.24
496.26	422.11
496.63	427.26
496.99	432.66
497.35	438.21
497.72	444.00
498.08	449.90
498.44	456.00
498.80	462.37
499.17	468.87
499.53	475.55
499.89	482.35
500.26	489.30
500.62	496.37
500.98	503.74
501.34	511.14
501.71	518.93
502.07	526.64
502.43	534.61
502.79	542.68
503.16	551.02
503.52	559.58
503.88	568.31
504.24	577.23
504.60	586.23
504.97	595.35
505.33	604.56
505.69	614.38
506.05	624.17
506.41	633.94
506.78	643.83
507.14	654.05
507.50	664.48
507.86	675.08
508.22	685.81
508.59	696.43
508.95	707.42
509.31	718.54
509.67	729.93
510.03	741.30
510.39	752.95
510.75	764.72
511.12	776.54
511.48	788.56
511.84	800.66
512.20	812.84
512.56	825.40
512.92	838.05
513.28	850.50
513.64	863.13
514.00	875.81
514.37	888.70
514.73	901.65
515.09	914.47
515.45	927.07
515.81	939.89
516.17	953.04
516.53	966.04
516.89	978.98
517.25	992.01
517.61	1005.29
517.97	1018.45
518.33	1031.38
518.69	1044.66
519.05	1058.09
519.41	1071.54
519.77	1085.25
520.13	1098.29
520.49	1111.29
520.85	1124.50
521.21	1137.64
521.57	1151.16
521.93	1164.02
522.29	1177.48
522.65	1190.77
523.01	1204.20
523.37	1217.08
523.73	1230.11
524.09	1243.10
524.45	1256.23
524.81	1269.47
525.17	1282.54
525.53	1295.48
525.89	1308.49
526.25	1321.31
526.61	1333.89
526.97	1346.67
527.33	1359.25
527.68	1372.48
528.04	1385.63
528.40	1398.47
528.76	1411.54
529.12	1424.00
529.48	1436.99
529.84	1448.94
530.20	1461.49
530.56	1473.82
530.91	1486.90
531.27	1499.42
531.63	1511.90
531.99	1524.32
532.35	1536.24
532.71	1548.27
533.07	1560.84
533.42	1572.74
533.78	1584.58
534.14	1596.29
534.50	1607.29
534.86	1618.57
535.21	1629.02
535.57	1640.17
535.93	1651.17
536.29	1661.84
536.65	1672.98
537.00	1683.66
537.36	1694.74
537.72	1705.34
538.08	1716.33
538.44	1726.79
538.79	1737.54
539.15	1748.06
539.51	1758.51
539.87	1769.52
540.22	1780.03
540.58	1790.44
540.94	1801.08
541.29	1810.95
541.65	1820.58
542.01	1830.90
542.37	1840.70
542.72	1850.58
543.08	1860.08
543.44	1870.08
543.79	1879.10
544.15	1888.20
544.51	1897.89
544.87	1907.31
545.22	1916.33
545.58	1925.03
545.94	1933.61
546.29	1941.92
546.65	1949.96
547.01	1957.83
547.36	1965.07
547.72	1972.53
548.07	1980.03
548.43	1987.41
548.79	1994.99
549.14	2002.70
549.50	2010.60
549.86	2018.18
550.21	2025.40
550.57	2032.71
550.92	2039.25
551.28	2046.61
551.64	2053.85
551.99	2061.06
552.35	2068.12
552.70	2074.66
553.06	2081.23
553.41	2087.35
553.77	2093.57
554.13	2099.83
554.48	2106.71
554.84	2113.72
555.19	2120.09
555.55	2126.37
555.90	2132.65
556.26	2139.41
556.61	2145.26
556.97	2150.06
557.32	2155.72
557.68	2161.96
558.03	2167.69
558.39	2173.01
558.74	2178.79
559.10	2184.20
559.45	2189.68
559.81	2195.14
560.16	2200.64
560.52	2206.40
560.87	2212.89
561.23	2218.84
561.58	2225.43
561.94	2230.67
562.29	2235.49
562.64	2241.55
563.00	2247.10
563.35	2252.46
563.71	2258.31
564.06	2264.01
564.42	2269.99
564.77	2275.13
565.12	2280.38
565.48	2285.62
565.83	2291.19
566.19	2296.73
566.54	2301.98
566.89	2306.57
567.25	2311.24
567.60	2316.95
567.96	2322.10
568.31	2326.49
568.66	2330.72
569.02	2334.65
569.37	2338.34
569.72	2342.68
570.08	2346.40
570.43	2349.53
570.78	2352.83
571.14	2355.34
571.49	2358.56
571.84	2362.09
572.20	2365.06
572.55	2368.26
572.90	2370.57
573.26	2373.48
573.61	2375.94
573.96	2378.29
574.31	2380.44
574.67	2382.31
575.02	2383.32
575.37	2384.75
575.72	2385.82
576.08	2387.60
576.43	2387.96
576.78	2388.79
577.13	2390.71
577.49	2391.86
577.84	2393.35
578.19	2394.91
578.54	2395.69
578.90	2396.68
579.25	2396.78
579.60	2396.95
579.95	2396.31
580.30	2396.67
580.66	2396.08
581.01	2394.60
581.36	2392.56
581.71	2391.28
582.06	2390.41
582.42	2389.59
582.77	2387.63
583.12	2386.25
583.47	2385.11
583.82	2384.61
584.17	2383.44
584.53	2381.18
584.88	2379.35
585.23	2377.40
585.58	2375.20
585.93	2373.13
586.28	2371.08
586.63	2368.78
586.98	2366.74
587.34	2364.83
587.69	2362.69
588.04	2360.88
588.39	2359.60
588.74	2357.31
589.09	2354.92
589.44	2352.09
589.79	2350.03
590.14	2348.17
590.49	2345.35
590.84	2341.55
591.19	2338.80
591.54	2335.73
591.89	2331.87
592.25	2328.78
592.60	2324.82
592.95	2320.87
593.30	2316.92
593.65	2312.67
594.00	2308.61
594.35	2305.66
594.70	2301.23
595.05	2296.56
595.40	2291.25
595.75	2285.82
596.10	2282.26
596.45	2277.51
596.80	2272.94
597.15	2267.69
597.50	2261.97
597.85	2257.17
598.19	2252.05
598.54	2246.27
598.89	2241.25
599.24	2236.98
599.59	2230.88
599.94	2225.22
600.29	2219.42
600.64	2213.73
600.99	2207.05
601.34	2201.59
601.69	2194.55
602.04	2188.21
602.39	2181.75
602.74	2175.76
603.08	2170.31
603.43	2163.92
603.78	2157.22
604.13	2150.29
604.48	2143.19
604.83	2137.22
605.18	2131.03
605.53	2124.18
605.87	2117.18
606.22	2110.47
606.57	2102.59
606.92	2094.81
607.27	2087.75
607.62	2081.20
607.96	2074.21
608.31	2067.82
608.66	2060.16
609.01	2052.80
609.36	2045.86
609.70	2038.33
610.05	2030.71
610.40	2022.48
610.75	2014.15
611.10	2006.61
611.44	1997.83
611.79	1989.10
612.14	1979.27
612.49	1968.90
612.83	1959.80
613.18	1950.82
613.53	1941.58
613.88	1932.12
614.22	1923.54
614.57	1913.85
614.92	1903.40
615.27	1893.31
615.61	1883.39
615.96	1873.78
616.31	1864.26
616.65	1854.93
617.00	1845.14
617.35	1835.46
617.70	1825.72
618.04	1815.72
618.39	1805.41
618.74	1795.82
619.08	1786.29
619.43	1777.57
619.78	1769.19
620.12	1760.42
620.47	1750.61
620.82	1740.35
621.16	1730.55
621.51	1720.66
621.85	1710.95
622.20	1700.52
622.55	1690.01
622.89	1680.29
623.24	1670.63
623.59	1660.89
623.93	1650.78
624.28	1641.03
624.62	1631.05
624.97	1620.77
625.32	1611.19
625.66	1602.51
626.01	1593.77
626.35	1584.48
626.70	1574.37
627.04	1564.31
627.39	1554.33
627.73	1545.10
628.08	1535.97
628.43	1526.53
628.77	1517.38
629.12	1508.51
629.46	1500.71
629.81	1492.32
630.15	1482.63
630.50	1472.85
630.84	1462.35
631.19	1452.47
631.53	1443.02
631.88	1432.85
632.22	1422.95
632.57	1413.61
632.91	1403.36
633.26	1393.48
633.60	1383.94
633.95	1374.82
634.29	1365.44
634.64	1356.03
634.98	1346.11
635.32	1336.92
635.67	1328.36
636.01	1319.10
636.36	1309.27
636.70	1299.73
637.05	1290.45
637.39	1281.58
637.73	1272.90
638.08	1265.50
638.42	1257.23
638.77	1248.72
639.11	1240.52
639.45	1232.73
639.80	1224.08
640.14	1215.45
640.49	1206.60
640.83	1197.81
641.17	1189.74
641.52	1181.54
641.86	1173.05
642.20	1165.25
642.55	1156.69
642.89	1147.92
643.23	1139.29
643.58	1131.27
643.92	1122.33
644.26	1113.69
644.61	1105.29
644.95	1096.56
645.29	1087.36
645.64	1078.32
645.98	1069.88
646.32	1062.06
646.66	1053.52
647.01	1045.20
647.35	1037.12
647.69	1028.94
648.04	1020.62
648.38	1011.68
648.72	1002.98
649.06	994.65
649.41	986.54
649.75	978.68
650.09	970.79
650.43	962.80
650.78	954.62
651.12	947.07
651.46	939.76
651.80	932.50
652.14	925.26
652.49	917.75
652.83	910.51
653.17	902.84
653.51	895.22
653.85	888.00
654.20	880.81
654.54	873.35
654.88	866.15
655.22	859.05
655.56	852.10
655.90	845.47
656.25	838.84
656.59	831.99
656.93	824.99
657.27	817.95
657.61	811.07
657.95	805.01
658.29	799.07
658.64	792.99
658.98	786.69
659.32	780.22
659.66	774.10
660.00	767.83
660.34	761.83
660.68	755.68
661.02	749.49
661.36	743.65
661.70	737.88
662.05	732.25
662.39	726.89
662.73	721.62
663.07	716.33
663.41	710.79
663.75	705.17
664.09	699.59
664.43	694.24
664.77	688.99
665.11	683.26
665.45	677.49
665.79	671.68
666.13	665.98
666.47	660.57
666.81	655.17
667.15	649.89
667.49	644.84
667.83	639.75
668.17	634.60
668.51	629.51
668.85	624.74
669.19	619.92
669.53	614.96
669.87	609.94
670.21	605.18
670.55	600.49
670.89	596.20
671.23	592.04
671.57	587.76
671.91	583.53
672.25	579.49
672.58	575.40
672.92	571.51
673.26	567.67
673.60	563.92
673.94	560.23
674.28	556.68
674.62	552.93
674.96	549.25
675.30	545.88
675.64	542.33
675.97	538.82
676.31	535.32
676.65	531.77
676.99	528.36
677.33	524.58
677.67	521.00
678.01	517.18
678.34	513.52
678.68	510.04
679.02	506.50
679.36	502.83
679.70	499.30
680.04	495.80
680.37	492.46
680.71	489.20
681.05	486.02
681.39	482.84
681.73	479.76
682.06	476.75
682.40	473.65
682.74	470.48
683.08	467.31
683.42	464.19
683.75	461.22
684.09	458.26
684.43	455.54
684.77	452.68
685.10	449.89
685.44	447.04
685.78	444.22
686.12	441.53
686.45	438.87
686.79	436.21
687.13	433.76
687.46	431.14
687.80	428.50
688.14	425.72
688.48	423.11
688.81	420.47
689.15	417.93
689.49	415.39
689.82	412.96
690.16	410.48
690.50	408.06
690.83	405.66
691.17	403.14
691.51	400.74
691.84	398.57
692.18	396.41
692.52	394.26
692.85	392.15
693.19	390.04
693.52	387.89
693.86	385.73
694.20	383.59
694.53	381.51
694.87	379.34
695.21	377.25
695.54	375.12
695.88	372.99
696.21	370.88
696.55	368.77
696.88	366.73
697.22	364.77
697.56	362.93
697.89	361.09
698.23	359.41
698.56	357.66
698.90	355.94
699.23	354.09
699.57	352.24
699.90	350.45
700.24	348.67
700.58	346.99
700.91	345.38
701.25	343.82
701.58	342.25
701.92	340.71
702.25	339.14
702.59	337.61
702.92	336.13
703.26	334.62
703.59	333.20
703.93	331.98
704.26	330.56
704.60	329.10
704.93	327.65
705.26	326.17
705.60	324.71
705.93	323.21
706.27	321.89
706.60	320.66
706.94	319.43
707.27	318.10
707.61	316.76
707.94	315.44
708.27	313.97
708.61	312.55
708.94	311.22
709.28	310.00
709.61	308.78
709.94	307.62
710.28	306.44
710.61	305.27
710.95	303.86
711.28	302.82
711.61	301.64
711.95	300.54
712.28	299.40
712.61	298.24
712.95	297.23
713.28	296.22
713.61	295.12
713.95	294.01
714.28	292.99
714.61	292.00
714.95	291.01
715.28	290.02
715.61	289.05
715.95	288.12
716.28	287.21
716.61	286.28
716.95	285.29
717.28	284.40
717.61	283.48
717.94	282.64
718.28	281.65
718.61	280.84
718.94	279.95
719.27	279.11
719.61	278.36
719.94	277.51
720.27	276.58
720.60	275.74
720.94	275.00
721.27	274.27
721.60	273.60
721.93	272.94
722.27	272.34
722.60	271.69
722.93	271.01
723.26	270.37
723.59	269.67
723.93	269.10
724.26	268.48
724.59	267.83
724.92	267.28
725.25	266.76
725.59	266.14
725.92	265.62
726.25	265.09
726.58	264.49
726.91	263.93
727.24	263.45
727.57	262.94
727.91	262.32
728.24	261.81
728.57	261.24
728.90	260.66
729.23	260.01
729.56	259.62
729.89	259.08
730.22	258.54
730.55	258.07
730.89	257.52
731.22	256.98
731.55	256.49
731.88	255.96
732.21	255.40
732.54	254.89
732.87	254.40
733.20	253.89
733.53	253.46
733.86	253.01
734.19	252.50
734.52	252.05
734.85	251.79
735.18	251.31
735.51	250.93
735.84	250.51
736.17	250.16
736.50	249.60
736.83	249.49
737.16	249.10
737.49	248.69
737.82	248.30
738.15	247.94
738.48	247.57
738.81	247.19
739.14	246.85
739.47	246.53
739.80	246.19
740.13	245.87
740.46	245.45
740.79	245.07
741.12	244.73
741.45	244.40
741.78	243.97
742.11	243.73
742.44	243.37
742.77	243.09
743.10	242.75
743.43	242.41
743.75	241.81
744.08	241.72
744.41	241.40
744.74	241.03
745.07	240.69
745.40	240.42
745.73	240.17
746.06	239.85
746.39	239.54
746.71	239.19
747.04	238.87
747.37	238.58
747.70	238.32
748.03	238.03
748.36	237.76
748.68	237.45
749.01	237.08
749.34	236.78
749.67	236.49
750.00	236.25
750.33	236.17
750.65	235.91
750.98	235.41
751.31	235.17
751.64	234.97
751.97	234.85
752.29	234.59
752.62	234.29
752.95	234.01
753.28	233.75
753.60	233.54
753.93	233.35
754.26	233.16
754.59	232.88
754.91	232.65
755.24	232.46
755.57	232.21
755.90	232.01
756.22	231.79
756.55	231.54
756.88	231.30
757.20	230.93
757.53	230.70
757.86	230.53
758.19	230.29
758.51	230.08
758.84	229.80
759.17	229.60
759.49	229.42
759.82	229.34
760.15	229.19
760.47	228.95
760.80	228.71
761.13	228.55
761.45	228.36
761.78	228.17
762.11	227.96
762.43	227.77
762.76	227.58
763.08	227.46
763.41	227.30
763.74	227.15
764.06	226.98
764.39	226.83
764.71	226.69
765.04	226.55
765.37	226.38
765.69	226.22
766.02	226.07
766.34	225.91
766.67	225.70
767.00	225.60
767.32	225.60
767.65	225.60
767.97	225.45
768.30	225.36
768.62	225.25
768.95	225.14
769.27	225.04
769.60	224.97
769.92	224.80
770.25	224.65
770.57	224.56
770.90	224.46
771.22	224.35
771.55	224.24
771.87	224.15
772.20	224.08
772.52	224.15
772.85	224.27
773.17	224.17
773.50	224.06
773.82	223.92
774.15	223.74
774.47	223.55
774.80	223.45
775.12	223.33
775.45	223.27
775.77	223.18
776.09	223.09
776.42	223.01
776.74	222.99
777.07	222.90
777.39	222.81
777.72	222.72
778.04	222.65
778.36	222.55
778.69	222.48
779.01	222.39
779.33	222.13
779.66	221.85
779.98	221.78
780.31	221.70
780.63	221.68
780.95	221.61
781.28	221.50
781.60	221.43
781.92	221.37
782.25	221.31
782.57	221.23
782.89	221.17
783.22	221.07
783.54	220.96
783.86	220.94
784.19	220.84
784.51	220.82
784.83	220.74
785.16	220.66
785.48	220.58
785.80	220.53
786.12	220.46
