SpectraSuite Data File
++++++++++++++++++++++++++++++++++++
Date: Tue Jan 29 16:05:41 EST 2013
User: group
Dark Spectrum Present: No
Reference Spectrum Present: No
Number of Sampled Component Spectra: 1
Spectrometers: USB2E7196
Integration Time (usec): 65000 (USB2E7196)
Spectra Averaged: 100 (USB2E7196)
Boxcar Smoothing: 10 (USB2E7196)
Correct for Electrical Dark: No (USB2E7196)
Strobe/Lamp Enabled: No (USB2E7196)
Correct for Detector Non-linearity: No (USB2E7196)
Correct for Stray Light: No (USB2E7196)
Number of Pixels in Processed Spectrum: 2048
>>>>>Begin Processed Spectral Data<<<<<
339.09	0.00
339.48	202.79
339.86	204.17
340.24	205.69
340.63	207.41
341.01	211.56
341.39	209.85
341.78	210.48
342.16	212.62
342.54	212.67
342.93	201.99
343.31	212.19
343.69	212.72
344.07	213.19
344.46	213.63
344.84	214.00
345.22	214.16
345.60	214.41
345.99	214.64
346.37	214.77
346.75	214.89
347.13	214.97
347.52	215.03
347.90	215.14
348.28	215.15
348.66	215.21
349.05	215.19
349.43	215.23
349.81	215.29
350.19	215.32
350.57	215.38
350.96	215.49
351.34	215.59
351.72	215.71
352.10	215.82
352.48	215.91
352.87	215.95
353.25	216.03
353.63	216.10
354.01	216.16
354.39	216.25
354.77	216.32
355.15	216.48
355.54	216.51
355.92	216.54
356.30	216.65
356.68	216.84
357.06	216.90
357.44	216.92
357.82	217.01
358.20	217.11
358.58	217.14
358.97	217.15
359.35	217.26
359.73	217.35
360.11	217.39
360.49	217.45
360.87	217.52
361.25	217.59
361.63	217.71
362.01	217.77
362.39	217.78
362.77	217.84
363.15	217.81
363.53	217.85
363.91	217.90
364.29	217.89
364.67	217.72
365.05	217.72
365.43	217.78
365.81	217.80
366.19	217.87
366.57	217.96
366.95	218.01
367.33	217.95
367.71	217.94
368.09	217.99
368.47	217.95
368.85	217.93
369.23	217.97
369.61	217.88
369.99	217.95
370.37	217.95
370.75	218.04
371.13	218.04
371.51	217.97
371.89	217.93
372.27	217.95
372.65	217.94
373.03	217.92
373.41	217.88
373.78	217.85
374.16	217.71
374.54	217.64
374.92	217.60
375.30	217.55
375.68	217.45
376.06	217.40
376.44	217.35
376.82	217.33
377.19	217.24
377.57	217.19
377.95	217.05
378.33	217.01
378.71	216.82
379.09	216.78
379.47	216.79
379.84	216.71
380.22	216.66
380.60	216.59
380.98	216.55
381.36	216.50
381.73	216.42
382.11	216.43
382.49	216.40
382.87	216.32
383.25	216.30
383.62	216.53
384.00	216.43
384.38	216.38
384.76	216.36
385.13	216.39
385.51	216.36
385.89	216.32
386.27	216.28
386.64	216.27
387.02	216.23
387.40	216.18
387.78	216.16
388.15	216.12
388.53	216.10
388.91	216.06
389.29	216.03
389.66	216.07
390.04	216.03
390.42	216.03
390.79	216.02
391.17	216.00
391.55	215.76
391.92	215.78
392.30	215.81
392.68	215.77
393.05	215.73
393.43	215.73
393.81	215.73
394.18	215.71
394.56	215.72
394.94	215.73
395.31	215.72
395.69	215.81
396.06	215.86
396.44	215.87
396.82	215.90
397.19	216.03
397.57	216.02
397.95	216.06
398.32	216.00
398.70	216.07
399.07	216.14
399.45	216.21
399.82	216.24
400.20	216.25
400.58	216.34
400.95	216.34
401.33	216.45
401.70	216.66
402.08	216.78
402.45	216.86
402.83	217.00
403.20	217.14
403.58	217.19
403.95	217.31
404.33	217.49
404.71	217.64
405.08	217.92
405.46	218.07
405.83	218.26
406.21	218.47
406.58	218.69
406.96	218.90
407.33	219.13
407.70	219.41
408.08	219.91
408.45	220.25
408.83	220.65
409.20	220.99
409.58	221.25
409.95	221.68
410.33	222.14
410.70	222.58
411.08	223.11
411.45	223.69
411.82	224.26
412.20	224.92
412.57	225.73
412.95	226.23
413.32	227.06
413.69	227.88
414.07	228.76
414.44	229.72
414.82	230.70
415.19	231.84
415.56	232.94
415.94	234.08
416.31	235.43
416.68	236.77
417.06	238.29
417.43	239.78
417.81	241.45
418.18	243.16
418.55	245.03
418.93	246.95
419.30	248.95
419.67	251.05
420.04	253.21
420.42	255.50
420.79	258.25
421.16	260.93
421.54	263.70
421.91	266.59
422.28	269.55
422.66	272.71
423.03	275.84
423.40	279.15
423.77	282.60
424.15	286.12
424.52	289.82
424.89	293.87
425.26	297.81
425.64	301.57
426.01	305.71
426.38	310.01
426.75	314.41
427.13	319.01
427.50	323.88
427.87	328.91
428.24	333.94
428.61	338.76
428.99	344.07
429.36	349.89
429.73	355.59
430.10	361.30
430.47	367.15
430.85	373.23
431.22	379.72
431.59	386.59
431.96	393.21
432.33	400.42
432.70	407.43
433.08	415.63
433.45	423.38
433.82	431.16
434.19	439.73
434.56	448.17
434.93	456.18
435.30	464.20
435.68	472.98
436.05	481.61
436.42	490.20
436.79	498.09
437.16	506.61
437.53	515.56
437.90	524.36
438.27	533.00
438.64	541.90
439.01	550.06
439.38	557.39
439.75	564.42
440.13	572.54
440.50	580.24
440.87	586.51
441.24	592.97
441.61	600.02
441.98	605.21
442.35	611.24
442.72	617.34
443.09	623.08
443.46	626.68
443.83	629.11
444.20	631.13
444.57	634.13
444.94	635.38
445.31	636.71
445.68	638.00
446.05	638.62
446.42	637.85
446.79	636.93
447.16	635.85
447.53	635.13
447.90	631.96
448.27	628.73
448.64	624.17
449.01	620.92
449.37	615.21
449.74	609.73
450.11	603.07
450.48	595.93
450.85	588.77
451.22	582.55
451.59	576.66
451.96	571.07
452.33	563.49
452.70	556.72
453.07	548.56
453.43	540.31
453.80	532.34
454.17	524.64
454.54	517.39
454.91	509.50
455.28	501.81
455.65	494.68
456.02	487.49
456.38	481.46
456.75	473.90
457.12	467.57
457.49	461.31
457.86	455.36
458.23	450.23
458.59	444.47
458.96	438.72
459.33	433.64
459.70	428.54
460.07	424.46
460.43	419.77
460.80	415.37
461.17	411.48
461.54	407.43
461.91	403.52
462.27	399.57
462.64	396.27
463.01	392.55
463.38	388.98
463.74	385.37
464.11	382.19
464.48	379.46
464.85	376.50
465.21	374.17
465.58	371.67
465.95	368.60
466.32	366.14
466.68	363.61
467.05	361.10
467.42	358.59
467.78	355.98
468.15	353.49
468.52	351.66
468.88	349.31
469.25	347.16
469.62	345.52
469.98	343.67
470.35	341.97
470.72	340.42
471.08	338.71
471.45	337.27
471.82	335.81
472.18	334.25
472.55	333.12
472.92	331.82
473.28	330.66
473.65	329.58
474.02	328.54
474.38	327.70
474.75	327.02
475.11	326.31
475.48	325.80
475.85	325.44
476.21	325.02
476.58	324.72
476.94	324.47
477.31	324.17
477.67	323.91
478.04	323.78
478.41	323.79
478.77	324.00
479.14	324.02
479.50	324.16
479.87	324.46
480.23	324.77
480.60	325.03
480.96	325.36
481.33	326.00
481.69	326.59
482.06	327.16
482.42	327.62
482.79	328.22
483.15	329.03
483.52	329.98
483.88	330.89
484.25	331.82
484.61	332.92
484.98	333.98
485.34	335.31
485.71	336.69
486.07	338.10
486.44	339.37
486.80	340.98
487.17	342.71
487.53	344.57
487.90	346.48
488.26	348.48
488.62	350.56
488.99	352.61
489.35	354.70
489.72	357.06
490.08	359.62
490.44	362.15
490.81	364.85
491.17	367.58
491.54	370.51
491.90	373.53
492.26	376.75
492.63	380.16
492.99	383.59
493.36	387.21
493.72	391.07
494.08	395.13
494.45	399.31
494.81	403.63
495.17	408.03
495.54	412.67
495.90	417.54
496.26	422.52
496.63	427.69
496.99	433.14
497.35	438.63
497.72	444.43
498.08	450.37
498.44	456.42
498.80	462.75
499.17	469.27
499.53	475.93
499.89	482.79
500.26	489.78
500.62	496.91
500.98	504.31
501.34	511.72
501.71	519.46
502.07	527.23
502.43	535.10
502.79	543.22
503.16	551.53
503.52	560.04
503.88	568.70
504.24	577.68
504.60	586.65
504.97	595.88
505.33	605.05
505.69	614.84
506.05	624.65
506.41	634.43
506.78	644.41
507.14	654.61
507.50	665.05
507.86	675.64
508.22	686.37
508.59	696.98
508.95	708.06
509.31	719.19
509.67	730.62
510.03	742.12
510.39	753.84
510.75	765.68
511.12	777.45
511.48	789.57
511.84	801.65
512.20	814.01
512.56	826.62
512.92	839.37
513.28	851.90
513.64	864.59
514.00	877.37
514.37	890.16
514.73	903.20
515.09	916.00
515.45	928.78
515.81	941.69
516.17	955.07
516.53	968.06
516.89	981.05
517.25	994.07
517.61	1007.38
517.97	1020.54
518.33	1033.52
518.69	1046.97
519.05	1060.46
519.41	1073.97
519.77	1087.61
520.13	1100.64
520.49	1113.70
520.85	1126.92
521.21	1140.07
521.57	1153.58
521.93	1166.60
522.29	1180.13
522.65	1193.66
523.01	1207.07
523.37	1219.95
523.73	1232.85
524.09	1245.80
524.45	1258.95
524.81	1272.14
525.17	1285.25
525.53	1298.32
525.89	1311.40
526.25	1324.37
526.61	1336.75
526.97	1349.42
527.33	1362.08
527.68	1375.30
528.04	1388.40
528.40	1401.22
528.76	1414.20
529.12	1426.77
529.48	1439.81
529.84	1451.82
530.20	1464.18
530.56	1476.59
530.91	1489.58
531.27	1502.14
531.63	1514.61
531.99	1527.08
532.35	1539.00
532.71	1551.10
533.07	1563.50
533.42	1575.44
533.78	1587.22
534.14	1599.17
534.50	1610.23
534.86	1621.52
535.21	1632.11
535.57	1643.31
535.93	1654.36
536.29	1665.32
536.65	1676.37
537.00	1687.01
537.36	1698.06
537.72	1708.92
538.08	1719.85
538.44	1730.53
538.79	1741.32
539.15	1751.97
539.51	1762.40
539.87	1773.61
540.22	1784.20
540.58	1794.80
540.94	1805.28
541.29	1815.19
541.65	1824.67
542.01	1834.95
542.37	1844.65
542.72	1854.53
543.08	1864.11
543.44	1874.29
543.79	1883.24
544.15	1892.54
544.51	1902.16
544.87	1911.60
545.22	1920.33
545.58	1929.01
545.94	1937.65
546.29	1945.99
546.65	1954.06
547.01	1962.17
547.36	1969.50
547.72	1976.99
548.07	1984.51
548.43	1992.07
548.79	1999.74
549.14	2007.67
549.50	2015.81
549.86	2023.45
550.21	2030.56
550.57	2038.11
550.92	2044.64
551.28	2052.01
551.64	2059.09
551.99	2066.36
552.35	2073.46
552.70	2080.14
553.06	2086.61
553.41	2092.61
553.77	2098.90
554.13	2105.07
554.48	2111.81
554.84	2118.65
555.19	2125.01
555.55	2131.31
555.90	2137.50
556.26	2144.08
556.61	2149.92
556.97	2154.70
557.32	2160.43
557.68	2166.92
558.03	2172.40
558.39	2177.50
558.74	2183.35
559.10	2188.72
559.45	2194.27
559.81	2199.80
560.16	2205.39
560.52	2211.19
560.87	2217.70
561.23	2223.73
561.58	2230.51
561.94	2235.66
562.29	2240.45
562.64	2246.62
563.00	2252.16
563.35	2257.87
563.71	2263.66
564.06	2269.22
564.42	2275.24
564.77	2280.45
565.12	2285.51
565.48	2290.70
565.83	2296.49
566.19	2301.94
566.54	2307.56
566.89	2312.26
567.25	2316.75
567.60	2322.44
567.96	2327.79
568.31	2332.27
568.66	2336.36
569.02	2340.28
569.37	2344.28
569.72	2348.94
570.08	2352.44
570.43	2355.63
570.78	2358.73
571.14	2361.36
571.49	2364.59
571.84	2368.21
572.20	2371.16
572.55	2374.41
572.90	2376.73
573.26	2379.69
573.61	2382.28
573.96	2384.33
574.31	2386.36
574.67	2388.48
575.02	2389.55
575.37	2391.05
575.72	2392.15
576.08	2393.87
576.43	2394.21
576.78	2394.93
577.13	2396.63
577.49	2397.96
577.84	2399.42
578.19	2401.03
578.54	2402.03
578.90	2403.28
579.25	2403.28
579.60	2403.46
579.95	2402.85
580.30	2403.42
580.66	2402.81
581.01	2401.33
581.36	2399.43
581.71	2398.37
582.06	2397.55
582.42	2396.82
582.77	2394.64
583.12	2393.20
583.47	2392.13
583.82	2391.71
584.17	2390.48
584.53	2388.55
584.88	2386.61
585.23	2384.78
585.58	2382.62
585.93	2380.52
586.28	2378.41
586.63	2376.23
586.98	2374.28
587.34	2372.60
587.69	2370.36
588.04	2368.62
588.39	2367.32
588.74	2365.02
589.09	2362.66
589.44	2359.74
589.79	2357.45
590.14	2355.90
590.49	2353.11
590.84	2349.47
591.19	2346.63
591.54	2343.53
591.89	2339.50
592.25	2336.45
592.60	2332.45
592.95	2328.38
593.30	2324.46
593.65	2320.20
594.00	2315.96
594.35	2313.02
594.70	2308.37
595.05	2303.67
595.40	2298.27
595.75	2292.91
596.10	2289.40
596.45	2284.50
596.80	2280.16
597.15	2275.07
597.50	2269.23
597.85	2264.45
598.19	2259.32
598.54	2253.53
598.89	2248.66
599.24	2244.24
599.59	2238.30
599.94	2232.69
600.29	2227.00
600.64	2221.09
600.99	2214.71
601.34	2209.32
601.69	2202.29
602.04	2196.08
602.39	2189.79
602.74	2183.85
603.08	2178.26
603.43	2171.83
603.78	2165.32
604.13	2158.19
604.48	2151.01
604.83	2145.06
605.18	2138.88
605.53	2132.06
605.87	2125.14
606.22	2118.32
606.57	2110.50
606.92	2102.61
607.27	2095.74
607.62	2089.16
607.96	2082.29
608.31	2075.75
608.66	2068.09
609.01	2060.64
609.36	2053.55
609.70	2045.80
610.05	2038.14
610.40	2029.99
610.75	2021.82
611.10	2014.08
611.44	2005.36
611.79	1996.65
612.14	1986.68
612.49	1976.19
612.83	1967.02
613.18	1958.04
613.53	1948.80
613.88	1939.33
614.22	1930.86
614.57	1920.88
614.92	1910.46
615.27	1900.49
615.61	1890.50
615.96	1880.83
616.31	1871.33
616.65	1862.09
617.00	1852.30
617.35	1842.73
617.70	1832.99
618.04	1822.82
618.39	1812.57
618.74	1802.86
619.08	1793.42
619.43	1784.80
619.78	1776.64
620.12	1767.75
620.47	1757.79
620.82	1747.48
621.16	1737.71
621.51	1727.66
621.85	1717.85
622.20	1707.23
622.55	1696.57
622.89	1686.72
623.24	1677.11
623.59	1667.35
623.93	1657.08
624.28	1647.55
624.62	1637.32
624.97	1627.00
625.32	1617.24
625.66	1608.46
626.01	1599.60
626.35	1590.14
626.70	1580.03
627.04	1569.85
627.39	1559.95
627.73	1550.78
628.08	1541.70
628.43	1532.06
628.77	1522.86
629.12	1514.01
629.46	1506.21
629.81	1497.74
630.15	1488.00
630.50	1478.06
630.84	1467.58
631.19	1457.86
631.53	1448.29
631.88	1438.08
632.22	1428.06
632.57	1418.74
632.91	1408.47
633.26	1398.68
633.60	1389.16
633.95	1379.83
634.29	1370.33
634.64	1360.89
634.98	1350.96
635.32	1341.76
635.67	1333.26
636.01	1323.94
636.36	1314.07
636.70	1304.47
637.05	1295.10
637.39	1286.21
637.73	1277.48
638.08	1269.88
638.42	1261.46
638.77	1252.65
639.11	1244.46
639.45	1236.54
639.80	1227.90
640.14	1219.27
640.49	1210.35
640.83	1201.51
641.17	1193.35
641.52	1185.16
641.86	1176.58
642.20	1168.72
642.55	1160.08
642.89	1151.14
643.23	1142.46
643.58	1134.41
643.92	1125.45
644.26	1116.90
644.61	1108.39
644.95	1099.79
645.29	1090.42
645.64	1081.31
645.98	1073.03
646.32	1065.00
646.66	1056.51
647.01	1048.05
647.35	1039.87
647.69	1031.49
648.04	1023.13
648.38	1014.17
648.72	1005.45
649.06	997.04
649.41	988.77
649.75	980.76
650.09	972.97
650.43	964.95
650.78	956.70
651.12	949.06
651.46	941.64
651.80	934.39
652.14	926.92
652.49	919.55
652.83	912.24
653.17	904.47
653.51	896.93
653.85	889.73
654.20	882.55
654.54	875.01
654.88	867.88
655.22	860.77
655.56	853.86
655.90	847.15
656.25	840.52
656.59	833.62
656.93	826.62
657.27	819.51
657.61	812.67
657.95	806.66
658.29	800.84
658.64	794.67
658.98	788.31
659.32	781.88
659.66	775.62
660.00	769.24
660.34	763.28
660.68	757.21
661.02	751.02
661.36	745.20
661.70	739.47
662.05	733.79
662.39	728.29
662.73	723.02
663.07	717.62
663.41	712.09
663.75	706.52
664.09	701.07
664.43	695.75
664.77	690.43
665.11	684.59
665.45	678.66
665.79	672.94
666.13	667.31
666.47	661.88
666.81	656.52
667.15	651.33
667.49	646.16
667.83	640.92
668.17	635.73
668.51	630.68
668.85	625.89
669.19	621.11
669.53	616.15
669.87	611.05
670.21	606.30
670.55	601.61
670.89	597.26
671.23	592.94
671.57	588.62
671.91	584.36
672.25	580.34
672.58	576.27
672.92	572.27
673.26	568.39
673.60	564.59
673.94	560.93
674.28	557.34
674.62	553.67
674.96	550.05
675.30	546.59
675.64	542.94
675.97	539.40
676.31	535.82
676.65	532.25
676.99	528.87
677.33	525.11
677.67	521.50
678.01	517.66
678.34	514.01
678.68	510.56
679.02	507.02
679.36	503.30
679.70	499.71
680.04	496.27
680.37	492.87
680.71	489.63
681.05	486.45
681.39	483.30
681.73	480.17
682.06	477.23
682.40	474.19
682.74	471.01
683.08	467.80
683.42	464.67
683.75	461.77
684.09	458.76
684.43	455.97
684.77	453.09
685.10	450.35
685.44	447.54
685.78	444.65
686.12	441.91
686.45	439.22
686.79	436.62
687.13	434.06
687.46	431.50
687.80	428.83
688.14	425.99
688.48	423.41
688.81	420.79
689.15	418.21
689.49	415.62
689.82	413.18
690.16	410.63
690.50	408.24
690.83	405.78
691.17	403.33
691.51	400.97
691.84	398.80
692.18	396.64
692.52	394.45
692.85	392.37
693.19	390.32
693.52	388.26
693.86	386.05
694.20	383.96
694.53	381.85
694.87	379.70
695.21	377.62
695.54	375.48
695.88	373.39
696.21	371.26
696.55	369.18
696.88	367.18
697.22	365.29
697.56	363.41
697.89	361.61
698.23	359.90
698.56	358.14
698.90	356.40
699.23	354.48
699.57	352.69
699.90	350.87
700.24	349.13
700.58	347.36
700.91	345.76
701.25	344.23
701.58	342.71
701.92	341.15
702.25	339.62
702.59	338.01
702.92	336.50
703.26	334.94
703.59	333.52
703.93	332.29
704.26	330.86
704.60	329.45
704.93	327.98
705.26	326.51
705.60	325.05
705.93	323.59
706.27	322.30
706.60	321.01
706.94	319.79
707.27	318.38
707.61	317.10
707.94	315.76
708.27	314.26
708.61	312.83
708.94	311.52
709.28	310.28
709.61	309.10
709.94	307.89
710.28	306.70
710.61	305.53
710.95	304.14
711.28	303.05
711.61	301.82
711.95	300.73
712.28	299.58
712.61	298.45
712.95	297.38
713.28	296.40
713.61	295.30
713.95	294.19
714.28	293.24
714.61	292.23
714.95	291.27
715.28	290.27
715.61	289.26
715.95	288.33
716.28	287.40
716.61	286.44
716.95	285.50
717.28	284.62
717.61	283.70
717.94	282.86
718.28	281.90
718.61	281.08
718.94	280.17
719.27	279.34
719.61	278.52
719.94	277.70
720.27	276.74
720.60	275.93
720.94	275.18
721.27	274.42
721.60	273.75
721.93	273.04
722.27	272.44
722.60	271.81
722.93	271.12
723.26	270.48
723.59	269.81
723.93	269.19
724.26	268.55
724.59	267.92
724.92	267.32
725.25	266.85
725.59	266.27
725.92	265.74
726.25	265.21
726.58	264.67
726.91	264.08
727.24	263.60
727.57	263.04
727.91	262.40
728.24	261.90
728.57	261.29
728.90	260.79
729.23	260.20
729.56	259.75
729.89	259.25
730.22	258.72
730.55	258.22
730.89	257.68
731.22	257.15
731.55	256.60
731.88	256.12
732.21	255.54
732.54	255.04
732.87	254.55
733.20	254.08
733.53	253.59
733.86	253.18
734.19	252.69
734.52	252.30
734.85	252.02
735.18	251.54
735.51	251.19
735.84	250.76
736.17	250.35
736.50	249.86
736.83	249.66
737.16	249.27
737.49	248.89
737.82	248.48
738.15	248.17
738.48	247.86
738.81	247.42
739.14	246.99
739.47	246.64
739.80	246.25
740.13	245.93
740.46	245.55
740.79	245.11
741.12	244.75
741.45	244.39
741.78	243.95
742.11	243.67
742.44	243.29
742.77	243.00
743.10	242.69
743.43	242.35
743.75	241.84
744.08	241.75
744.41	241.41
744.74	241.08
745.07	240.69
745.40	240.41
745.73	240.20
746.06	239.93
746.39	239.63
746.71	239.29
747.04	238.95
747.37	238.65
747.70	238.44
748.03	238.15
748.36	237.86
748.68	237.60
749.01	237.30
749.34	237.00
749.67	236.66
750.00	236.40
750.33	236.29
750.65	236.03
750.98	235.57
751.31	235.32
751.64	235.12
751.97	235.01
752.29	234.74
752.62	234.38
752.95	234.11
753.28	233.88
753.60	233.66
753.93	233.48
754.26	233.28
754.59	232.99
754.91	232.79
755.24	232.57
755.57	232.33
755.90	232.08
756.22	231.87
756.55	231.66
756.88	231.42
757.20	231.08
757.53	230.83
757.86	230.61
758.19	230.39
758.51	230.20
758.84	229.90
759.17	229.68
759.49	229.56
759.82	229.49
760.15	229.34
760.47	229.20
760.80	228.93
761.13	228.78
761.45	228.62
761.78	228.46
762.11	228.27
762.43	228.07
762.76	227.93
763.08	227.83
763.41	227.69
763.74	227.52
764.06	227.32
764.39	227.20
764.71	227.05
765.04	226.92
765.37	226.77
765.69	226.66
766.02	226.50
766.34	226.34
766.67	226.12
767.00	226.00
767.32	225.96
767.65	225.96
767.97	225.79
768.30	225.69
768.62	225.52
768.95	225.41
769.27	225.31
769.60	225.20
769.92	225.02
770.25	224.87
770.57	224.74
770.90	224.65
771.22	224.52
771.55	224.39
771.87	224.30
772.20	224.16
772.52	224.19
772.85	224.38
773.17	224.28
773.50	224.18
773.82	224.04
774.15	223.86
774.47	223.66
774.80	223.57
775.12	223.48
775.45	223.40
775.77	223.29
776.09	223.21
776.42	223.10
776.74	223.09
777.07	223.00
777.39	222.94
777.72	222.84
778.04	222.77
778.36	222.70
778.69	222.63
779.01	222.57
779.33	222.31
779.66	221.98
779.98	221.91
780.31	221.87
780.63	221.89
780.95	221.87
781.28	221.78
781.60	221.70
781.92	221.60
782.25	221.54
782.57	221.49
782.89	221.45
783.22	221.39
783.54	221.28
783.86	221.25
784.19	221.17
784.51	221.15
784.83	221.07
785.16	220.98
785.48	220.92
785.80	220.89
786.12	220.85
