SpectraSuite Data File
++++++++++++++++++++++++++++++++++++
Date: Tue Jan 29 16:52:34 EST 2013
User: group
Dark Spectrum Present: No
Reference Spectrum Present: No
Number of Sampled Component Spectra: 1
Spectrometers: USB2E7196
Integration Time (usec): 65000 (USB2E7196)
Spectra Averaged: 100 (USB2E7196)
Boxcar Smoothing: 10 (USB2E7196)
Correct for Electrical Dark: No (USB2E7196)
Strobe/Lamp Enabled: No (USB2E7196)
Correct for Detector Non-linearity: No (USB2E7196)
Correct for Stray Light: No (USB2E7196)
Number of Pixels in Processed Spectrum: 2048
>>>>>Begin Processed Spectral Data<<<<<
339.09	0.00
339.48	201.39
339.86	203.19
340.24	204.15
340.63	205.35
341.01	210.70
341.39	208.42
341.78	210.26
342.16	211.63
342.54	211.48
342.93	200.77
343.31	210.91
343.69	211.45
344.07	211.92
344.46	212.37
344.84	212.82
345.22	212.96
345.60	213.25
345.99	213.43
346.37	213.56
346.75	213.69
347.13	213.78
347.52	213.88
347.90	213.96
348.28	214.00
348.66	214.09
349.05	214.08
349.43	214.14
349.81	214.23
350.19	214.32
350.57	214.41
350.96	214.50
351.34	214.62
351.72	214.73
352.10	214.83
352.48	214.92
352.87	214.97
353.25	215.05
353.63	215.09
354.01	215.15
354.39	215.24
354.77	215.32
355.15	215.48
355.54	215.50
355.92	215.55
356.30	215.62
356.68	215.81
357.06	215.87
357.44	215.89
357.82	215.94
358.20	215.98
358.58	216.02
358.97	216.11
359.35	216.18
359.73	216.26
360.11	216.29
360.49	216.34
360.87	216.38
361.25	216.43
361.63	216.52
362.01	216.58
362.39	216.54
362.77	216.58
363.15	216.59
363.53	216.60
363.91	216.60
364.29	216.63
364.67	216.44
365.05	216.47
365.43	216.52
365.81	216.54
366.19	216.64
366.57	216.73
366.95	216.69
367.33	216.65
367.71	216.66
368.09	216.69
368.47	216.68
368.85	216.64
369.23	216.69
369.61	216.62
369.99	216.68
370.37	216.75
370.75	216.82
371.13	216.74
371.51	216.73
371.89	216.73
372.27	216.71
372.65	216.72
373.03	216.68
373.41	216.62
373.78	216.59
374.16	216.43
374.54	216.34
374.92	216.28
375.30	216.26
375.68	216.17
376.06	216.16
376.44	216.09
376.82	216.07
377.19	216.01
377.57	215.94
377.95	215.80
378.33	215.73
378.71	215.56
379.09	215.53
379.47	215.52
379.84	215.45
380.22	215.39
380.60	215.28
380.98	215.22
381.36	215.18
381.73	215.09
382.11	215.11
382.49	215.05
382.87	215.01
383.25	214.96
383.62	215.19
384.00	215.09
384.38	215.06
384.76	215.09
385.13	215.14
385.51	215.12
385.89	215.06
386.27	215.05
386.64	215.06
387.02	215.05
387.40	214.96
387.78	214.95
388.15	214.94
388.53	214.92
388.91	214.89
389.29	214.84
389.66	214.88
390.04	214.85
390.42	214.90
390.79	214.92
391.17	214.89
391.55	214.62
391.92	214.63
392.30	214.66
392.68	214.61
393.05	214.55
393.43	214.58
393.81	214.61
394.18	214.57
394.56	214.55
394.94	214.57
395.31	214.59
395.69	214.65
396.06	214.68
396.44	214.75
396.82	214.80
397.19	214.94
397.57	214.94
397.95	215.00
398.32	214.95
398.70	214.99
399.07	215.05
399.45	215.13
399.82	215.19
400.20	215.19
400.58	215.24
400.95	215.24
401.33	215.33
401.70	215.53
402.08	215.63
402.45	215.73
402.83	215.90
403.20	216.03
403.58	216.07
403.95	216.25
404.33	216.40
404.71	216.54
405.08	216.78
405.46	216.97
405.83	217.15
406.21	217.35
406.58	217.60
406.96	217.85
407.33	218.10
407.70	218.41
408.08	218.92
408.45	219.28
408.83	219.67
409.20	220.03
409.58	220.31
409.95	220.76
410.33	221.26
410.70	221.67
411.08	222.25
411.45	222.87
411.82	223.43
412.20	224.12
412.57	224.95
412.95	225.54
413.32	226.37
413.69	227.21
414.07	228.13
414.44	229.14
414.82	230.16
415.19	231.36
415.56	232.55
415.94	233.71
416.31	235.12
416.68	236.48
417.06	238.11
417.43	239.65
417.81	241.45
418.18	243.24
418.55	245.19
418.93	247.21
419.30	249.33
419.67	251.55
420.04	253.84
420.42	256.25
420.79	259.10
421.16	261.90
421.54	264.83
421.91	267.84
422.28	270.92
422.66	274.23
423.03	277.50
423.40	280.89
423.77	284.54
424.15	288.23
424.52	292.14
424.89	296.32
425.26	300.41
425.64	304.29
426.01	308.58
426.38	313.12
426.75	317.65
427.13	322.41
427.50	327.39
427.87	332.62
428.24	337.82
428.61	342.79
428.99	348.37
429.36	354.37
429.73	360.32
430.10	366.23
430.47	372.32
430.85	378.64
431.22	385.36
431.59	392.50
431.96	399.34
432.33	406.88
432.70	414.18
433.08	422.80
433.45	430.94
433.82	439.08
434.19	447.96
434.56	456.76
434.93	465.13
435.30	473.48
435.68	482.61
436.05	491.66
436.42	500.62
436.79	508.77
437.16	517.62
437.53	526.90
437.90	536.12
438.27	545.08
438.64	554.32
439.01	562.92
439.38	570.52
439.75	577.88
440.13	586.33
440.50	594.28
440.87	600.74
441.24	607.34
441.61	614.64
441.98	620.02
442.35	626.37
442.72	632.68
443.09	638.85
443.46	642.70
443.83	645.23
444.20	647.49
444.57	650.70
444.94	652.16
445.31	653.66
445.68	655.07
446.05	655.75
446.42	654.99
446.79	654.06
447.16	653.02
447.53	652.27
447.90	648.93
448.27	645.72
448.64	641.07
449.01	637.86
449.37	631.99
449.74	626.32
450.11	619.43
450.48	612.13
450.85	604.55
451.22	597.99
451.59	591.85
451.96	585.99
452.33	578.06
452.70	570.91
453.07	562.39
453.43	553.72
453.80	545.42
454.17	537.43
454.54	529.82
454.91	521.54
455.28	513.48
455.65	506.01
456.02	498.44
456.38	492.02
456.75	484.01
457.12	477.37
457.49	470.82
457.86	464.54
458.23	459.03
458.59	453.11
458.96	447.05
459.33	441.68
459.70	436.29
460.07	432.01
460.43	427.08
460.80	422.44
461.17	418.43
461.54	414.16
461.91	410.10
462.27	405.95
462.64	402.51
463.01	398.72
463.38	395.04
463.74	391.31
464.11	388.09
464.48	385.26
464.85	382.12
465.21	379.65
465.58	377.01
465.95	373.87
466.32	371.20
466.68	368.62
467.05	366.04
467.42	363.42
467.78	360.69
468.15	358.14
468.52	356.23
468.88	353.71
469.25	351.47
469.62	349.65
469.98	347.65
470.35	345.83
470.72	344.17
471.08	342.35
471.45	340.84
471.82	339.25
472.18	337.53
472.55	336.31
472.92	334.89
473.28	333.67
473.65	332.50
474.02	331.36
474.38	330.47
474.75	329.61
475.11	328.76
475.48	328.16
475.85	327.63
476.21	327.13
476.58	326.76
476.94	326.48
477.31	326.15
477.67	325.92
478.04	325.73
478.41	325.65
478.77	325.80
479.14	325.70
479.50	325.82
479.87	326.10
480.23	326.46
480.60	326.73
480.96	326.91
481.33	327.53
481.69	328.11
482.06	328.59
482.42	329.13
482.79	329.76
483.15	330.55
483.52	331.53
483.88	332.38
484.25	333.32
484.61	334.37
484.98	335.44
485.34	336.71
485.71	338.07
486.07	339.49
486.44	340.82
486.80	342.43
487.17	344.13
487.53	345.98
487.90	347.79
488.26	349.85
488.62	352.03
488.99	354.07
489.35	356.27
489.72	358.68
490.08	361.19
490.44	363.77
490.81	366.46
491.17	369.17
491.54	372.17
491.90	375.22
492.26	378.42
492.63	381.82
492.99	385.30
493.36	388.94
493.72	392.79
494.08	396.76
494.45	401.01
494.81	405.32
495.17	409.72
495.54	414.43
495.90	419.24
496.26	424.19
496.63	429.36
496.99	434.79
497.35	440.31
497.72	446.09
498.08	452.02
498.44	458.14
498.80	464.51
499.17	470.98
499.53	477.65
499.89	484.56
500.26	491.56
500.62	498.63
500.98	506.01
501.34	513.46
501.71	521.21
502.07	528.96
502.43	537.00
502.79	545.19
503.16	553.53
503.52	562.09
503.88	570.73
504.24	579.66
504.60	588.68
504.97	597.89
505.33	607.11
505.69	616.96
506.05	626.76
506.41	636.59
506.78	646.64
507.14	656.86
507.50	667.25
507.86	677.89
508.22	688.65
508.59	699.29
508.95	710.41
509.31	721.59
509.67	733.00
510.03	744.35
510.39	755.98
510.75	767.72
511.12	779.59
511.48	791.63
511.84	803.84
512.20	816.10
512.56	828.80
512.92	841.61
513.28	854.20
513.64	867.03
514.00	879.92
514.37	892.86
514.73	905.98
515.09	919.06
515.45	932.02
515.81	945.06
516.17	958.49
516.53	971.71
516.89	984.90
517.25	998.16
517.61	1011.63
517.97	1025.06
518.33	1038.34
518.69	1051.94
519.05	1065.75
519.41	1079.46
519.77	1093.45
520.13	1106.73
520.49	1119.89
520.85	1133.32
521.21	1146.52
521.57	1160.14
521.93	1173.16
522.29	1186.90
522.65	1200.41
523.01	1213.98
523.37	1227.30
523.73	1240.66
524.09	1253.77
524.45	1267.22
524.81	1280.73
525.17	1294.17
525.53	1307.34
525.89	1320.59
526.25	1333.69
526.61	1346.57
526.97	1359.67
527.33	1372.57
527.68	1386.00
528.04	1399.65
528.40	1412.77
528.76	1426.31
529.12	1439.24
529.48	1452.72
529.84	1465.04
530.20	1477.87
530.56	1490.56
530.91	1503.81
531.27	1516.75
531.63	1529.51
531.99	1542.15
532.35	1554.34
532.71	1566.73
533.07	1579.78
533.42	1592.15
533.78	1604.28
534.14	1616.39
534.50	1627.80
534.86	1639.36
535.21	1650.32
535.57	1661.91
535.93	1673.26
536.29	1684.30
536.65	1695.93
537.00	1706.90
537.36	1718.30
537.72	1729.27
538.08	1740.65
538.44	1751.66
538.79	1762.80
539.15	1773.87
539.51	1785.00
539.87	1796.40
540.22	1807.41
540.58	1818.35
540.94	1829.28
541.29	1839.74
541.65	1849.53
542.01	1859.93
542.37	1870.23
542.72	1880.56
543.08	1890.29
543.44	1900.84
543.79	1910.05
544.15	1919.52
544.51	1929.52
544.87	1939.65
545.22	1949.06
545.58	1958.11
545.94	1967.03
546.29	1975.51
546.65	1983.95
547.01	1992.08
547.36	1999.88
547.72	2007.61
548.07	2015.25
548.43	2023.11
548.79	2030.88
549.14	2039.12
549.50	2047.67
549.86	2055.44
550.21	2062.84
550.57	2070.64
550.92	2077.45
551.28	2085.20
551.64	2092.46
551.99	2099.92
552.35	2106.99
552.70	2113.97
553.06	2120.63
553.41	2126.91
553.77	2133.45
554.13	2139.73
554.48	2146.82
554.84	2153.97
555.19	2160.58
555.55	2166.99
555.90	2173.26
556.26	2180.14
556.61	2186.28
556.97	2191.10
557.32	2197.00
557.68	2203.37
558.03	2209.08
558.39	2214.49
558.74	2220.52
559.10	2226.03
559.45	2231.69
559.81	2237.19
560.16	2242.54
560.52	2248.32
560.87	2254.72
561.23	2260.49
561.58	2267.23
561.94	2272.25
562.29	2276.82
562.64	2282.73
563.00	2288.45
563.35	2293.89
563.71	2299.56
564.06	2305.19
564.42	2311.22
564.77	2316.02
565.12	2321.27
565.48	2326.19
565.83	2331.57
566.19	2336.72
566.54	2342.00
566.89	2346.36
567.25	2350.81
567.60	2356.58
567.96	2361.54
568.31	2365.87
568.66	2370.10
569.02	2373.64
569.37	2377.34
569.72	2381.73
570.08	2385.06
570.43	2388.00
570.78	2391.04
571.14	2393.38
571.49	2396.50
571.84	2399.59
572.20	2402.64
572.55	2405.43
572.90	2407.79
573.26	2410.43
573.61	2412.91
573.96	2414.89
574.31	2416.91
574.67	2418.74
575.02	2419.27
575.37	2420.73
575.72	2421.36
576.08	2422.70
576.43	2422.92
576.78	2423.29
577.13	2424.69
577.49	2425.85
577.84	2426.71
578.19	2427.85
578.54	2428.23
578.90	2428.49
579.25	2428.33
579.60	2427.84
579.95	2426.89
580.30	2426.66
580.66	2425.84
581.01	2423.98
581.36	2421.13
581.71	2419.50
582.06	2418.10
582.42	2416.98
582.77	2414.41
583.12	2412.57
583.47	2410.96
583.82	2410.19
584.17	2408.62
584.53	2406.24
584.88	2403.86
585.23	2401.69
585.58	2399.15
585.93	2397.04
586.28	2394.70
586.63	2392.09
586.98	2389.77
587.34	2387.60
587.69	2384.76
588.04	2382.35
588.39	2380.79
588.74	2378.43
589.09	2375.52
589.44	2372.21
589.79	2369.58
590.14	2367.41
590.49	2364.49
590.84	2360.44
591.19	2356.99
591.54	2353.68
591.89	2349.43
592.25	2346.07
592.60	2341.75
592.95	2337.45
593.30	2333.22
593.65	2328.71
594.00	2324.16
594.35	2321.11
594.70	2316.31
595.05	2311.95
595.40	2306.48
595.75	2300.56
596.10	2296.80
596.45	2291.76
596.80	2286.94
597.15	2281.58
597.50	2275.67
597.85	2270.71
598.19	2265.54
598.54	2259.82
598.89	2254.55
599.24	2249.96
599.59	2243.82
599.94	2237.85
600.29	2231.91
600.64	2225.95
600.99	2219.12
601.34	2213.60
601.69	2206.49
602.04	2200.25
602.39	2193.53
602.74	2187.43
603.08	2181.84
603.43	2175.29
603.78	2168.60
604.13	2161.51
604.48	2154.14
604.83	2148.04
605.18	2141.75
605.53	2134.95
605.87	2127.87
606.22	2121.11
606.57	2113.17
606.92	2105.13
607.27	2098.25
607.62	2091.57
607.96	2084.54
608.31	2078.18
608.66	2070.40
609.01	2062.87
609.36	2055.68
609.70	2047.89
610.05	2040.01
610.40	2031.62
610.75	2023.35
611.10	2015.54
611.44	2006.77
611.79	1998.29
612.14	1988.24
612.49	1977.61
612.83	1968.17
613.18	1958.85
613.53	1949.49
613.88	1940.01
614.22	1931.39
614.57	1921.62
614.92	1911.13
615.27	1900.84
615.61	1890.68
615.96	1881.15
616.31	1871.57
616.65	1862.14
617.00	1852.58
617.35	1843.04
617.70	1833.42
618.04	1823.56
618.39	1813.61
618.74	1804.07
619.08	1794.42
619.43	1785.88
619.78	1777.65
620.12	1769.12
620.47	1759.68
620.82	1749.32
621.16	1739.71
621.51	1729.94
621.85	1720.31
622.20	1710.15
622.55	1699.78
622.89	1689.88
623.24	1680.23
623.59	1670.46
623.93	1660.48
624.28	1650.70
624.62	1640.78
624.97	1630.55
625.32	1620.80
625.66	1611.89
626.01	1603.24
626.35	1594.03
626.70	1584.03
627.04	1574.15
627.39	1564.16
627.73	1555.07
628.08	1546.44
628.43	1536.83
628.77	1527.77
629.12	1518.96
629.46	1511.14
629.81	1502.84
630.15	1493.63
630.50	1483.96
630.84	1473.65
631.19	1463.77
631.53	1454.63
631.88	1444.57
632.22	1434.81
632.57	1425.53
632.91	1415.61
633.26	1405.85
633.60	1396.41
633.95	1387.32
634.29	1377.96
634.64	1368.74
634.98	1358.79
635.32	1349.58
635.67	1341.33
636.01	1332.14
636.36	1322.41
636.70	1313.09
637.05	1303.83
637.39	1295.04
637.73	1286.48
638.08	1278.99
638.42	1270.97
638.77	1262.31
639.11	1254.08
639.45	1246.35
639.80	1237.95
640.14	1229.38
640.49	1220.58
640.83	1211.78
641.17	1203.68
641.52	1195.63
641.86	1187.13
642.20	1179.46
642.55	1171.05
642.89	1162.14
643.23	1153.63
643.58	1145.73
643.92	1136.71
644.26	1128.18
644.61	1119.70
644.95	1110.98
645.29	1101.89
645.64	1092.86
645.98	1084.52
646.32	1076.79
646.66	1068.28
647.01	1060.09
647.35	1051.95
647.69	1043.76
648.04	1035.63
648.38	1026.89
648.72	1018.23
649.06	1009.89
649.41	1001.66
649.75	993.70
650.09	985.98
650.43	977.97
650.78	969.61
651.12	962.07
651.46	954.72
651.80	947.60
652.14	940.40
652.49	932.94
652.83	925.65
653.17	917.90
653.51	910.35
653.85	903.31
654.20	896.10
654.54	888.73
654.88	881.49
655.22	874.36
655.56	867.40
655.90	860.54
656.25	853.86
656.59	847.08
656.93	840.07
657.27	832.99
657.61	825.97
657.95	819.93
658.29	813.93
658.64	807.83
658.98	801.43
659.32	794.93
659.66	788.76
660.00	782.46
660.34	776.40
660.68	770.24
661.02	763.84
661.36	757.87
661.70	752.08
662.05	746.51
662.39	741.02
662.73	735.62
663.07	730.20
663.41	724.64
663.75	718.94
664.09	713.20
664.43	707.74
664.77	702.56
665.11	696.72
665.45	690.88
665.79	685.03
666.13	679.32
666.47	673.85
666.81	668.31
667.15	662.94
667.49	657.82
667.83	652.65
668.17	647.44
668.51	642.30
668.85	637.38
669.19	632.45
669.53	627.37
669.87	622.27
670.21	617.50
670.55	612.80
670.89	608.37
671.23	604.11
671.57	599.72
671.91	595.41
672.25	591.23
672.58	587.07
672.92	583.01
673.26	579.03
673.60	575.14
673.94	571.37
674.28	567.77
674.62	564.06
674.96	560.34
675.30	556.85
675.64	553.16
675.97	549.57
676.31	546.00
676.65	542.45
676.99	539.01
677.33	535.25
677.67	531.57
678.01	527.67
678.34	524.00
678.68	520.47
679.02	516.84
679.36	513.17
679.70	509.56
680.04	505.99
680.37	502.55
680.71	499.20
681.05	496.00
681.39	492.69
681.73	489.46
682.06	486.32
682.40	483.19
682.74	480.07
683.08	476.80
683.42	473.52
683.75	470.47
684.09	467.38
684.43	464.53
684.77	461.58
685.10	458.75
685.44	455.85
685.78	452.94
686.12	450.12
686.45	447.42
686.79	444.71
687.13	442.13
687.46	439.51
687.80	436.79
688.14	433.91
688.48	431.24
688.81	428.51
689.15	425.89
689.49	423.22
689.82	420.67
690.16	418.03
690.50	415.59
690.83	413.04
691.17	410.49
691.51	408.00
691.84	405.75
692.18	403.45
692.52	401.21
692.85	399.04
693.19	396.85
693.52	394.65
693.86	392.40
694.20	390.19
694.53	388.01
694.87	385.83
695.21	383.72
695.54	381.57
695.88	379.38
696.21	377.19
696.55	375.12
696.88	372.98
697.22	371.00
697.56	369.11
697.89	367.20
698.23	365.43
698.56	363.61
698.90	361.78
699.23	359.92
699.57	358.04
699.90	356.11
700.24	354.29
700.58	352.51
700.91	350.84
701.25	349.28
701.58	347.61
701.92	345.99
702.25	344.34
702.59	342.67
702.92	341.08
703.26	339.54
703.59	337.96
703.93	336.69
704.26	335.23
704.60	333.69
704.93	332.19
705.26	330.66
705.60	329.18
705.93	327.60
706.27	326.25
706.60	324.93
706.94	323.73
707.27	322.36
707.61	320.98
707.94	319.57
708.27	318.03
708.61	316.60
708.94	315.20
709.28	313.87
709.61	312.62
709.94	311.42
710.28	310.15
710.61	308.99
710.95	307.55
711.28	306.49
711.61	305.30
711.95	304.16
712.28	302.96
712.61	301.76
712.95	300.75
713.28	299.64
713.61	298.49
713.95	297.30
714.28	296.20
714.61	295.14
714.95	294.12
715.28	293.11
715.61	292.05
715.95	291.09
716.28	290.13
716.61	289.15
716.95	288.14
717.28	287.19
717.61	286.21
717.94	285.29
718.28	284.21
718.61	283.30
718.94	282.40
719.27	281.52
719.61	280.71
719.94	279.83
720.27	278.89
720.60	278.03
720.94	277.22
721.27	276.47
721.60	275.79
721.93	275.07
722.27	274.41
722.60	273.74
722.93	272.99
723.26	272.31
723.59	271.59
723.93	270.93
724.26	270.27
724.59	269.59
724.92	268.98
725.25	268.44
725.59	267.85
725.92	267.29
726.25	266.72
726.58	266.09
726.91	265.48
727.24	264.91
727.57	264.32
727.91	263.71
728.24	263.15
728.57	262.52
728.90	261.95
729.23	261.30
729.56	260.85
729.89	260.35
730.22	259.78
730.55	259.22
730.89	258.70
731.22	258.18
731.55	257.67
731.88	257.13
732.21	256.60
732.54	256.06
732.87	255.56
733.20	255.04
733.53	254.59
733.86	254.12
734.19	253.62
734.52	253.23
734.85	252.88
735.18	252.36
735.51	252.01
735.84	251.57
736.17	251.15
736.50	250.63
736.83	250.41
737.16	250.02
737.49	249.64
737.82	249.19
738.15	248.78
738.48	248.38
738.81	247.96
739.14	247.50
739.47	247.13
739.80	246.73
740.13	246.39
740.46	245.99
740.79	245.61
741.12	245.26
741.45	244.83
741.78	244.41
742.11	244.16
742.44	243.75
742.77	243.45
743.10	243.15
743.43	242.78
743.75	242.20
744.08	242.15
744.41	241.78
744.74	241.47
745.07	241.13
745.40	240.86
745.73	240.64
746.06	240.33
746.39	240.01
746.71	239.68
747.04	239.33
747.37	238.99
747.70	238.73
748.03	238.41
748.36	238.15
748.68	237.83
749.01	237.51
749.34	237.21
749.67	236.90
750.00	236.61
750.33	236.47
750.65	236.23
750.98	235.70
751.31	235.46
751.64	235.21
751.97	235.07
752.29	234.77
752.62	234.39
752.95	234.15
753.28	233.89
753.60	233.62
753.93	233.46
754.26	233.25
754.59	232.94
754.91	232.70
755.24	232.45
755.57	232.20
755.90	231.93
756.22	231.68
756.55	231.45
756.88	231.20
757.20	230.85
757.53	230.57
757.86	230.35
758.19	230.12
758.51	229.88
758.84	229.58
759.17	229.39
759.49	229.22
759.82	229.15
760.15	228.99
760.47	228.79
760.80	228.52
761.13	228.34
761.45	228.14
761.78	227.95
762.11	227.76
762.43	227.62
762.76	227.43
763.08	227.29
763.41	227.11
763.74	226.98
764.06	226.85
764.39	226.70
764.71	226.53
765.04	226.39
765.37	226.26
765.69	226.10
766.02	225.91
766.34	225.76
766.67	225.50
767.00	225.37
767.32	225.32
767.65	225.31
767.97	225.16
768.30	225.03
768.62	224.93
768.95	224.80
769.27	224.64
769.60	224.55
769.92	224.39
770.25	224.25
770.57	224.05
770.90	223.90
771.22	223.77
771.55	223.66
771.87	223.53
772.20	223.39
772.52	223.47
772.85	223.64
773.17	223.52
773.50	223.41
773.82	223.26
774.15	223.08
774.47	222.88
774.80	222.74
775.12	222.66
775.45	222.54
775.77	222.47
776.09	222.41
776.42	222.34
776.74	222.31
777.07	222.20
777.39	222.10
777.72	221.99
778.04	221.95
778.36	221.85
778.69	221.80
779.01	221.73
779.33	221.45
779.66	221.13
779.98	221.04
780.31	220.96
780.63	221.00
780.95	220.98
781.28	220.90
781.60	220.83
781.92	220.74
782.25	220.68
782.57	220.60
782.89	220.48
783.22	220.36
783.54	220.22
783.86	220.17
784.19	220.11
784.51	220.09
784.83	219.98
785.16	219.91
785.48	219.79
785.80	219.73
786.12	219.68
