SpectraSuite Data File
++++++++++++++++++++++++++++++++++++
Date: Tue Jan 29 16:16:51 EST 2013
User: group
Dark Spectrum Present: No
Reference Spectrum Present: No
Number of Sampled Component Spectra: 1
Spectrometers: USB2E7196
Integration Time (usec): 65000 (USB2E7196)
Spectra Averaged: 100 (USB2E7196)
Boxcar Smoothing: 10 (USB2E7196)
Correct for Electrical Dark: No (USB2E7196)
Strobe/Lamp Enabled: No (USB2E7196)
Correct for Detector Non-linearity: No (USB2E7196)
Correct for Stray Light: No (USB2E7196)
Number of Pixels in Processed Spectrum: 2048
>>>>>Begin Processed Spectral Data<<<<<
339.09	0.00
339.48	202.46
339.86	203.75
340.24	205.28
340.63	206.30
341.01	210.95
341.39	209.21
341.78	210.91
342.16	213.25
342.54	211.99
342.93	201.66
343.31	211.86
343.69	212.41
344.07	212.87
344.46	213.32
344.84	213.75
345.22	213.95
345.60	214.22
345.99	214.43
346.37	214.52
346.75	214.65
347.13	214.76
347.52	214.83
347.90	214.96
348.28	215.03
348.66	215.10
349.05	215.07
349.43	215.13
349.81	215.19
350.19	215.24
350.57	215.32
350.96	215.39
351.34	215.51
351.72	215.61
352.10	215.77
352.48	215.82
352.87	215.88
353.25	215.95
353.63	216.02
354.01	216.09
354.39	216.17
354.77	216.27
355.15	216.40
355.54	216.46
355.92	216.46
356.30	216.50
356.68	216.71
357.06	216.80
357.44	216.85
357.82	216.90
358.20	216.98
358.58	217.04
358.97	217.09
359.35	217.22
359.73	217.31
360.11	217.37
360.49	217.46
360.87	217.50
361.25	217.54
361.63	217.65
362.01	217.72
362.39	217.75
362.77	217.80
363.15	217.81
363.53	217.86
363.91	217.91
364.29	217.94
364.67	217.78
365.05	217.81
365.43	217.84
365.81	217.90
366.19	218.01
366.57	218.10
366.95	218.14
367.33	218.06
367.71	218.06
368.09	218.08
368.47	218.07
368.85	218.07
369.23	218.14
369.61	218.06
369.99	218.07
370.37	218.09
370.75	218.16
371.13	218.10
371.51	218.06
371.89	218.08
372.27	218.05
372.65	218.05
373.03	218.01
373.41	217.97
373.78	217.90
374.16	217.77
374.54	217.67
374.92	217.62
375.30	217.60
375.68	217.54
376.06	217.47
376.44	217.43
376.82	217.38
377.19	217.32
377.57	217.28
377.95	217.21
378.33	217.15
378.71	216.97
379.09	216.97
379.47	216.95
379.84	216.84
380.22	216.78
380.60	216.67
380.98	216.65
381.36	216.59
381.73	216.55
382.11	216.55
382.49	216.53
382.87	216.45
383.25	216.40
383.62	216.57
384.00	216.51
384.38	216.49
384.76	216.49
385.13	216.51
385.51	216.47
385.89	216.39
386.27	216.35
386.64	216.36
387.02	216.28
387.40	216.20
387.78	216.21
388.15	216.19
388.53	216.14
388.91	216.08
389.29	216.05
389.66	216.03
390.04	215.95
390.42	215.94
390.79	215.94
391.17	215.89
391.55	215.62
391.92	215.63
392.30	215.59
392.68	215.52
393.05	215.50
393.43	215.51
393.81	215.49
394.18	215.49
394.56	215.50
394.94	215.58
395.31	215.56
395.69	215.62
396.06	215.66
396.44	215.73
396.82	215.75
397.19	215.87
397.57	215.86
397.95	215.93
398.32	215.87
398.70	215.91
399.07	216.03
399.45	216.08
399.82	216.10
400.20	216.14
400.58	216.23
400.95	216.18
401.33	216.30
401.70	216.56
402.08	216.62
402.45	216.69
402.83	216.79
403.20	216.94
403.58	217.03
403.95	217.21
404.33	217.35
404.71	217.49
405.08	217.74
405.46	217.93
405.83	218.10
406.21	218.32
406.58	218.56
406.96	218.77
407.33	219.02
407.70	219.31
408.08	219.79
408.45	220.12
408.83	220.53
409.20	220.82
409.58	221.04
409.95	221.49
410.33	221.97
410.70	222.38
411.08	222.94
411.45	223.49
411.82	224.01
412.20	224.67
412.57	225.51
412.95	226.00
413.32	226.81
413.69	227.62
414.07	228.49
414.44	229.44
414.82	230.42
415.19	231.59
415.56	232.74
415.94	233.87
416.31	235.27
416.68	236.60
417.06	238.15
417.43	239.67
417.81	241.34
418.18	243.08
418.55	244.97
418.93	246.90
419.30	248.93
419.67	251.10
420.04	253.31
420.42	255.59
420.79	258.37
421.16	261.05
421.54	263.90
421.91	266.83
422.28	269.80
422.66	273.01
423.03	276.14
423.40	279.37
423.77	282.87
424.15	286.37
424.52	290.12
424.89	294.15
425.26	298.07
425.64	301.86
426.01	305.97
426.38	310.27
426.75	314.67
427.13	319.23
427.50	324.05
427.87	329.06
428.24	334.09
428.61	338.89
428.99	344.20
429.36	349.97
429.73	355.66
430.10	361.36
430.47	367.22
430.85	373.36
431.22	379.84
431.59	386.69
431.96	393.33
432.33	400.56
432.70	407.57
433.08	415.84
433.45	423.62
433.82	431.35
434.19	439.93
434.56	448.34
434.93	456.40
435.30	464.34
435.68	473.14
436.05	481.77
436.42	490.35
436.79	498.25
437.16	506.69
437.53	515.62
437.90	524.42
438.27	532.92
438.64	541.79
439.01	550.00
439.38	557.31
439.75	564.36
440.13	572.47
440.50	580.13
440.87	586.31
441.24	592.70
441.61	599.78
441.98	604.96
442.35	611.04
442.72	617.13
443.09	622.95
443.46	626.59
443.83	629.00
444.20	631.14
444.57	634.18
444.94	635.58
445.31	636.96
445.68	638.33
446.05	639.02
446.42	638.24
446.79	637.38
447.16	636.33
447.53	635.52
447.90	632.31
448.27	629.14
448.64	624.67
449.01	621.44
449.37	615.77
449.74	610.29
450.11	603.59
450.48	596.50
450.85	589.36
451.22	583.08
451.59	577.21
451.96	571.58
452.33	563.93
452.70	557.12
453.07	548.92
453.43	540.59
453.80	532.51
454.17	524.80
454.54	517.51
454.91	509.60
455.28	501.97
455.65	494.82
456.02	487.58
456.38	481.49
456.75	473.99
457.12	467.65
457.49	461.39
457.86	455.42
458.23	450.24
458.59	444.56
458.96	438.82
459.33	433.70
459.70	428.53
460.07	424.44
460.43	419.70
460.80	415.37
461.17	411.52
461.54	407.54
461.91	403.66
462.27	399.69
462.64	396.39
463.01	392.72
463.38	389.22
463.74	385.68
464.11	382.53
464.48	379.73
464.85	376.74
465.21	374.46
465.58	371.97
465.95	368.90
466.32	366.35
466.68	363.85
467.05	361.38
467.42	358.95
467.78	356.40
468.15	353.99
468.52	352.12
468.88	349.77
469.25	347.70
469.62	346.01
469.98	344.20
470.35	342.50
470.72	340.89
471.08	339.15
471.45	337.71
471.82	336.27
472.18	334.67
472.55	333.52
472.92	332.13
473.28	330.96
473.65	329.88
474.02	328.87
474.38	328.01
474.75	327.31
475.11	326.52
475.48	325.98
475.85	325.51
476.21	325.07
476.58	324.65
476.94	324.43
477.31	324.13
477.67	323.83
478.04	323.70
478.41	323.66
478.77	323.79
479.14	323.76
479.50	323.88
479.87	324.24
480.23	324.57
480.60	324.87
480.96	325.17
481.33	325.78
481.69	326.32
482.06	326.85
482.42	327.29
482.79	327.94
483.15	328.76
483.52	329.76
483.88	330.69
484.25	331.73
484.61	332.77
484.98	333.85
485.34	335.13
485.71	336.47
486.07	337.95
486.44	339.27
486.80	340.89
487.17	342.54
487.53	344.31
487.90	346.12
488.26	348.12
488.62	350.30
488.99	352.35
489.35	354.52
489.72	356.89
490.08	359.45
490.44	361.98
490.81	364.67
491.17	367.39
491.54	370.29
491.90	373.30
492.26	376.50
492.63	379.86
492.99	383.40
493.36	387.09
493.72	390.90
494.08	394.89
494.45	399.06
494.81	403.46
495.17	407.88
495.54	412.64
495.90	417.46
496.26	422.35
496.63	427.47
496.99	432.83
497.35	438.33
497.72	444.11
498.08	450.00
498.44	455.99
498.80	462.33
499.17	468.83
499.53	475.49
499.89	482.30
500.26	489.24
500.62	496.27
500.98	503.64
501.34	511.07
501.71	518.78
502.07	526.55
502.43	534.46
502.79	542.62
503.16	550.96
503.52	559.53
503.88	568.17
504.24	577.09
504.60	586.04
504.97	595.26
505.33	604.46
505.69	614.25
506.05	624.13
506.41	633.82
506.78	643.74
507.14	653.87
507.50	664.24
507.86	674.83
508.22	685.51
508.59	696.04
508.95	707.03
509.31	718.24
509.67	729.68
510.03	741.08
510.39	752.65
510.75	764.30
511.12	776.13
511.48	788.11
511.84	800.20
512.20	812.44
512.56	824.97
512.92	837.62
513.28	850.10
513.64	862.62
514.00	875.42
514.37	888.26
514.73	901.29
515.09	914.14
515.45	926.86
515.81	939.76
516.17	953.00
516.53	966.04
516.89	978.92
517.25	991.80
517.61	1005.04
517.97	1018.20
518.33	1031.25
518.69	1044.49
519.05	1058.09
519.41	1071.56
519.77	1085.17
520.13	1098.22
520.49	1111.15
520.85	1124.30
521.21	1137.45
521.57	1150.81
521.93	1163.68
522.29	1177.10
522.65	1190.48
523.01	1203.92
523.37	1216.77
523.73	1229.76
524.09	1242.60
524.45	1255.72
524.81	1268.97
525.17	1281.97
525.53	1294.90
525.89	1307.81
526.25	1320.65
526.61	1333.14
526.97	1345.86
527.33	1358.46
527.68	1371.62
528.04	1384.72
528.40	1397.51
528.76	1410.47
529.12	1423.03
529.48	1435.94
529.84	1447.93
530.20	1460.49
530.56	1472.74
530.91	1485.72
531.27	1498.27
531.63	1510.78
531.99	1523.15
532.35	1535.06
532.71	1547.16
533.07	1559.61
533.42	1571.48
533.78	1583.29
534.14	1595.01
534.50	1606.00
534.86	1617.47
535.21	1627.88
535.57	1639.01
535.93	1650.07
536.29	1660.86
536.65	1672.01
537.00	1682.71
537.36	1693.68
537.72	1704.18
538.08	1715.17
538.44	1725.73
538.79	1736.47
539.15	1746.93
539.51	1757.48
539.87	1768.56
540.22	1779.06
540.58	1789.75
540.94	1800.42
541.29	1810.28
541.65	1819.74
542.01	1829.98
542.37	1839.51
542.72	1849.49
543.08	1858.98
543.44	1869.05
543.79	1878.07
544.15	1887.21
544.51	1896.81
544.87	1906.33
545.22	1915.31
545.58	1923.95
545.94	1932.61
546.29	1940.84
546.65	1949.04
547.01	1956.98
547.36	1964.30
547.72	1971.90
548.07	1979.25
548.43	1986.69
548.79	1994.25
549.14	2002.21
549.50	2010.39
549.86	2018.03
550.21	2025.18
550.57	2032.64
550.92	2039.18
551.28	2046.50
551.64	2053.52
551.99	2060.77
552.35	2067.85
552.70	2074.46
553.06	2080.96
553.41	2087.05
553.77	2093.38
554.13	2099.46
554.48	2106.29
554.84	2113.13
555.19	2119.34
555.55	2125.71
555.90	2131.80
556.26	2138.58
556.61	2144.31
556.97	2148.99
557.32	2154.74
557.68	2161.12
558.03	2166.84
558.39	2171.99
558.74	2177.85
559.10	2183.30
559.45	2188.78
559.81	2194.10
560.16	2199.66
560.52	2205.33
560.87	2211.74
561.23	2217.71
561.58	2224.38
561.94	2229.60
562.29	2234.37
562.64	2240.50
563.00	2246.00
563.35	2251.66
563.71	2257.38
564.06	2263.10
564.42	2269.14
564.77	2274.29
565.12	2279.49
565.48	2284.54
565.83	2290.08
566.19	2295.59
566.54	2301.09
566.89	2305.78
567.25	2310.46
567.60	2316.10
567.96	2321.39
568.31	2325.88
568.66	2330.03
569.02	2334.00
569.37	2337.60
569.72	2342.03
570.08	2345.63
570.43	2348.68
570.78	2351.72
571.14	2354.44
571.49	2357.62
571.84	2361.05
572.20	2363.87
572.55	2366.91
572.90	2369.25
573.26	2372.25
573.61	2374.76
573.96	2376.92
574.31	2379.00
574.67	2381.01
575.02	2381.97
575.37	2383.44
575.72	2384.46
576.08	2386.13
576.43	2386.33
576.78	2387.13
577.13	2388.95
577.49	2390.17
577.84	2391.62
578.19	2393.22
578.54	2393.75
578.90	2394.82
579.25	2394.81
579.60	2395.06
579.95	2394.48
580.30	2394.94
580.66	2394.37
581.01	2392.69
581.36	2390.60
581.71	2389.60
582.06	2388.72
582.42	2388.04
582.77	2386.08
583.12	2384.51
583.47	2383.25
583.82	2382.90
584.17	2381.77
584.53	2379.73
584.88	2377.80
585.23	2375.86
585.58	2373.71
585.93	2371.80
586.28	2369.54
586.63	2367.49
586.98	2365.49
587.34	2363.61
587.69	2361.44
588.04	2359.67
588.39	2358.49
588.74	2356.21
589.09	2353.49
589.44	2350.54
589.79	2348.15
590.14	2346.45
590.49	2343.83
590.84	2340.16
591.19	2337.28
591.54	2334.16
591.89	2330.19
592.25	2327.04
592.60	2323.12
592.95	2319.13
593.30	2315.25
593.65	2311.07
594.00	2306.90
594.35	2303.81
594.70	2299.43
595.05	2294.81
595.40	2289.42
595.75	2283.92
596.10	2280.33
596.45	2275.67
596.80	2271.13
597.15	2266.03
597.50	2260.20
597.85	2255.30
598.19	2250.26
598.54	2244.58
598.89	2239.63
599.24	2235.30
599.59	2229.35
599.94	2223.82
600.29	2217.99
600.64	2211.96
600.99	2205.32
601.34	2199.72
601.69	2192.92
602.04	2186.56
602.39	2180.08
602.74	2174.07
603.08	2168.64
603.43	2162.23
603.78	2155.39
604.13	2148.44
604.48	2141.30
604.83	2135.20
605.18	2128.94
605.53	2122.12
605.87	2115.08
606.22	2108.38
606.57	2100.58
606.92	2092.93
607.27	2085.90
607.62	2079.37
607.96	2072.64
608.31	2066.23
608.66	2058.55
609.01	2051.06
609.36	2044.03
609.70	2036.41
610.05	2028.68
610.40	2020.34
610.75	2012.16
611.10	2004.57
611.44	1995.85
611.79	1987.18
612.14	1977.29
612.49	1966.89
612.83	1957.78
613.18	1948.75
613.53	1939.38
613.88	1929.82
614.22	1921.03
614.57	1911.20
614.92	1900.77
615.27	1890.75
615.61	1880.90
615.96	1871.30
616.31	1861.71
616.65	1852.47
617.00	1842.58
617.35	1833.07
617.70	1823.58
618.04	1813.56
618.39	1803.33
618.74	1793.70
619.08	1784.21
619.43	1775.69
619.78	1767.50
620.12	1758.78
620.47	1749.01
620.82	1738.83
621.16	1729.09
621.51	1719.19
621.85	1709.39
622.20	1698.92
622.55	1688.30
622.89	1678.43
623.24	1668.80
623.59	1659.22
623.93	1649.04
624.28	1639.55
624.62	1629.57
624.97	1619.30
625.32	1609.64
625.66	1601.01
626.01	1592.24
626.35	1582.81
626.70	1572.72
627.04	1562.57
627.39	1552.51
627.73	1543.36
628.08	1534.37
628.43	1524.90
628.77	1515.79
629.12	1506.90
629.46	1499.14
629.81	1490.84
630.15	1481.33
630.50	1471.56
630.84	1460.96
631.19	1451.10
631.53	1441.70
631.88	1431.51
632.22	1421.48
632.57	1412.06
632.91	1401.84
633.26	1392.07
633.60	1382.64
633.95	1373.36
634.29	1364.04
634.64	1354.75
634.98	1344.91
635.32	1335.63
635.67	1327.13
636.01	1317.95
636.36	1308.25
636.70	1298.79
637.05	1289.40
637.39	1280.46
637.73	1271.84
638.08	1264.45
638.42	1256.29
638.77	1247.52
639.11	1239.34
639.45	1231.55
639.80	1222.94
640.14	1214.31
640.49	1205.49
640.83	1196.60
641.17	1188.54
641.52	1180.39
641.86	1171.82
642.20	1163.89
642.55	1155.34
642.89	1146.47
643.23	1137.76
643.58	1129.74
643.92	1120.77
644.26	1112.19
644.61	1103.83
644.95	1095.19
645.29	1085.95
645.64	1076.90
645.98	1068.63
646.32	1060.80
646.66	1052.38
647.01	1044.32
647.35	1036.30
647.69	1027.98
648.04	1019.81
648.38	1011.04
648.72	1002.37
649.06	994.01
649.41	985.94
649.75	977.99
650.09	970.26
650.43	962.39
650.78	954.24
651.12	946.61
651.46	939.26
651.80	932.11
652.14	924.80
652.49	917.36
652.83	910.07
653.17	902.44
653.51	894.84
653.85	887.63
654.20	880.34
654.54	872.92
654.88	865.82
655.22	858.68
655.56	851.74
655.90	845.00
656.25	838.43
656.59	831.60
656.93	824.70
657.27	817.64
657.61	810.83
657.95	804.77
658.29	799.02
658.64	792.99
658.98	786.60
659.32	780.14
659.66	774.04
660.00	767.77
660.34	761.73
660.68	755.66
661.02	749.47
661.36	743.71
661.70	738.00
662.05	732.35
662.39	726.99
662.73	721.62
663.07	716.35
663.41	710.76
663.75	705.15
664.09	699.64
664.43	694.31
664.77	688.98
665.11	683.23
665.45	677.38
665.79	671.65
666.13	666.06
666.47	660.66
666.81	655.27
667.15	650.02
667.49	645.00
667.83	639.87
668.17	634.75
668.51	629.61
668.85	624.75
669.19	619.96
669.53	615.02
669.87	610.04
670.21	605.37
670.55	600.74
670.89	596.45
671.23	592.20
671.57	587.93
671.91	583.74
672.25	579.70
672.58	575.63
672.92	571.66
673.26	567.74
673.60	563.99
673.94	560.28
674.28	556.78
674.62	553.02
674.96	549.32
675.30	545.85
675.64	542.27
675.97	538.74
676.31	535.20
676.65	531.67
676.99	528.30
677.33	524.48
677.67	520.95
678.01	517.10
678.34	513.53
678.68	510.05
679.02	506.53
679.36	502.94
679.70	499.29
680.04	495.82
680.37	492.49
680.71	489.20
681.05	486.06
681.39	482.78
681.73	479.69
682.06	476.72
682.40	473.68
682.74	470.56
683.08	467.43
683.42	464.34
683.75	461.41
684.09	458.42
684.43	455.64
684.77	452.73
685.10	449.98
685.44	447.07
685.78	444.17
686.12	441.48
686.45	438.77
686.79	436.19
687.13	433.70
687.46	431.09
687.80	428.47
688.14	425.67
688.48	423.14
688.81	420.51
689.15	418.01
689.49	415.44
689.82	412.95
690.16	410.37
690.50	407.95
690.83	405.48
691.17	403.03
691.51	400.64
691.84	398.52
692.18	396.34
692.52	394.27
692.85	392.19
693.19	390.11
693.52	387.97
693.86	385.82
694.20	383.69
694.53	381.59
694.87	379.44
695.21	377.39
695.54	375.24
695.88	373.16
696.21	371.01
696.55	368.98
696.88	366.98
697.22	365.07
697.56	363.21
697.89	361.37
698.23	359.65
698.56	357.91
698.90	356.12
699.23	354.26
699.57	352.40
699.90	350.63
700.24	348.83
700.58	347.13
700.91	345.52
701.25	344.01
701.58	342.46
701.92	340.89
702.25	339.33
702.59	337.78
702.92	336.30
703.26	334.76
703.59	333.30
703.93	332.13
704.26	330.77
704.60	329.32
704.93	327.90
705.26	326.45
705.60	325.03
705.93	323.56
706.27	322.30
706.60	321.09
706.94	319.86
707.27	318.47
707.61	317.16
707.94	315.85
708.27	314.36
708.61	312.95
708.94	311.68
709.28	310.44
709.61	309.28
709.94	308.09
710.28	306.94
710.61	305.79
710.95	304.37
711.28	303.31
711.61	302.13
711.95	301.04
712.28	299.84
712.61	298.64
712.95	297.62
713.28	296.63
713.61	295.47
713.95	294.37
714.28	293.39
714.61	292.38
714.95	291.41
715.28	290.39
715.61	289.38
715.95	288.41
716.28	287.49
716.61	286.51
716.95	285.54
717.28	284.61
717.61	283.68
717.94	282.81
718.28	281.82
718.61	280.98
718.94	280.09
719.27	279.27
719.61	278.54
719.94	277.68
720.27	276.69
720.60	275.88
720.94	275.09
721.27	274.35
721.60	273.69
721.93	272.96
722.27	272.37
722.60	271.73
722.93	271.02
723.26	270.36
723.59	269.68
723.93	269.05
724.26	268.41
724.59	267.79
724.92	267.22
725.25	266.70
725.59	266.14
725.92	265.62
726.25	265.08
726.58	264.47
726.91	263.89
727.24	263.40
727.57	262.85
727.91	262.26
728.24	261.71
728.57	261.10
728.90	260.58
729.23	259.97
729.56	259.56
729.89	259.06
730.22	258.48
730.55	257.95
730.89	257.40
731.22	256.90
731.55	256.36
731.88	255.85
732.21	255.31
732.54	254.80
732.87	254.27
733.20	253.78
733.53	253.32
733.86	252.89
734.19	252.40
734.52	251.99
734.85	251.71
735.18	251.27
735.51	250.91
735.84	250.51
736.17	250.16
736.50	249.60
736.83	249.46
737.16	249.11
737.49	248.77
737.82	248.41
738.15	248.05
738.48	247.74
738.81	247.32
739.14	246.91
739.47	246.53
739.80	246.19
740.13	245.86
740.46	245.49
740.79	245.10
741.12	244.77
741.45	244.40
741.78	243.97
742.11	243.70
742.44	243.38
742.77	243.06
743.10	242.69
743.43	242.43
743.75	241.85
744.08	241.80
744.41	241.40
744.74	241.10
745.07	240.74
745.40	240.41
745.73	240.20
746.06	239.91
746.39	239.63
746.71	239.30
747.04	238.97
747.37	238.67
747.70	238.40
748.03	238.07
748.36	237.82
748.68	237.53
749.01	237.18
749.34	236.86
749.67	236.60
750.00	236.34
750.33	236.20
750.65	235.98
750.98	235.44
751.31	235.23
751.64	235.01
751.97	234.90
752.29	234.64
752.62	234.31
752.95	234.07
753.28	233.80
753.60	233.57
753.93	233.40
754.26	233.21
754.59	232.98
754.91	232.78
755.24	232.53
755.57	232.32
755.90	232.13
756.22	231.89
756.55	231.66
756.88	231.40
757.20	231.02
757.53	230.76
757.86	230.55
758.19	230.37
758.51	230.14
758.84	229.82
759.17	229.62
759.49	229.44
759.82	229.37
760.15	229.23
760.47	229.06
760.80	228.79
761.13	228.62
761.45	228.40
761.78	228.23
762.11	228.04
762.43	227.82
762.76	227.66
763.08	227.51
763.41	227.35
763.74	227.22
764.06	227.10
764.39	226.97
764.71	226.83
765.04	226.65
765.37	226.49
765.69	226.37
766.02	226.23
766.34	226.11
766.67	225.88
767.00	225.78
767.32	225.74
767.65	225.75
767.97	225.61
768.30	225.53
768.62	225.39
768.95	225.29
769.27	225.19
769.60	225.07
769.92	224.90
770.25	224.73
770.57	224.57
770.90	224.45
771.22	224.32
771.55	224.21
771.87	224.15
772.20	224.05
772.52	224.13
772.85	224.29
773.17	224.19
773.50	224.06
773.82	223.92
774.15	223.75
774.47	223.54
774.80	223.44
775.12	223.32
775.45	223.22
775.77	223.11
776.09	223.06
776.42	222.98
776.74	222.98
777.07	222.92
777.39	222.84
777.72	222.74
778.04	222.68
778.36	222.55
778.69	222.46
779.01	222.43
779.33	222.15
779.66	221.82
779.98	221.72
780.31	221.66
780.63	221.67
780.95	221.61
781.28	221.54
781.60	221.45
781.92	221.39
782.25	221.33
782.57	221.28
782.89	221.16
783.22	221.09
783.54	220.96
783.86	220.92
784.19	220.85
784.51	220.86
784.83	220.76
785.16	220.70
785.48	220.64
785.80	220.55
786.12	220.51
