SpectraSuite Data File
++++++++++++++++++++++++++++++++++++
Date: Tue Jan 29 15:59:25 EST 2013
User: group
Dark Spectrum Present: No
Reference Spectrum Present: No
Number of Sampled Component Spectra: 1
Spectrometers: USB2E7196
Integration Time (usec): 65000 (USB2E7196)
Spectra Averaged: 100 (USB2E7196)
Boxcar Smoothing: 10 (USB2E7196)
Correct for Electrical Dark: No (USB2E7196)
Strobe/Lamp Enabled: No (USB2E7196)
Correct for Detector Non-linearity: No (USB2E7196)
Correct for Stray Light: No (USB2E7196)
Number of Pixels in Processed Spectrum: 2048
>>>>>Begin Processed Spectral Data<<<<<
339.09	0.00
339.48	202.42
339.86	203.54
340.24	205.79
340.63	207.21
341.01	211.15
341.39	209.48
341.78	210.81
342.16	212.98
342.54	213.02
342.93	201.91
343.31	212.13
343.69	212.72
344.07	213.23
344.46	213.68
344.84	214.07
345.22	214.27
345.60	214.53
345.99	214.76
346.37	214.88
346.75	214.97
347.13	215.07
347.52	215.13
347.90	215.26
348.28	215.31
348.66	215.39
349.05	215.35
349.43	215.45
349.81	215.53
350.19	215.58
350.57	215.68
350.96	215.78
351.34	215.88
351.72	215.97
352.10	216.09
352.48	216.17
352.87	216.24
353.25	216.32
353.63	216.42
354.01	216.51
354.39	216.60
354.77	216.69
355.15	216.81
355.54	216.89
355.92	216.91
356.30	216.97
356.68	217.16
357.06	217.24
357.44	217.27
357.82	217.33
358.20	217.39
358.58	217.46
358.97	217.53
359.35	217.61
359.73	217.67
360.11	217.70
360.49	217.75
360.87	217.79
361.25	217.86
361.63	217.96
362.01	218.01
362.39	218.03
362.77	218.08
363.15	218.12
363.53	218.15
363.91	218.19
364.29	218.20
364.67	218.03
365.05	218.04
365.43	218.08
365.81	218.12
366.19	218.23
366.57	218.32
366.95	218.30
367.33	218.28
367.71	218.29
368.09	218.32
368.47	218.31
368.85	218.30
369.23	218.30
369.61	218.21
369.99	218.22
370.37	218.23
370.75	218.30
371.13	218.21
371.51	218.16
371.89	218.16
372.27	218.16
372.65	218.16
373.03	218.15
373.41	218.09
373.78	218.06
374.16	217.92
374.54	217.82
374.92	217.80
375.30	217.75
375.68	217.66
376.06	217.64
376.44	217.60
376.82	217.56
377.19	217.54
377.57	217.48
377.95	217.38
378.33	217.30
378.71	217.15
379.09	217.15
379.47	217.15
379.84	217.07
380.22	216.99
380.60	216.89
380.98	216.82
381.36	216.77
381.73	216.66
382.11	216.66
382.49	216.60
382.87	216.49
383.25	216.46
383.62	216.67
384.00	216.59
384.38	216.56
384.76	216.57
385.13	216.59
385.51	216.59
385.89	216.52
386.27	216.48
386.64	216.48
387.02	216.44
387.40	216.39
387.78	216.36
388.15	216.35
388.53	216.34
388.91	216.35
389.29	216.32
389.66	216.38
390.04	216.29
390.42	216.29
390.79	216.31
391.17	216.29
391.55	216.01
391.92	216.02
392.30	216.00
392.68	215.95
393.05	215.89
393.43	215.88
393.81	215.91
394.18	215.91
394.56	215.90
394.94	215.94
395.31	215.91
395.69	215.97
396.06	216.05
396.44	216.10
396.82	216.07
397.19	216.23
397.57	216.22
397.95	216.33
398.32	216.33
398.70	216.40
399.07	216.47
399.45	216.55
399.82	216.56
400.20	216.62
400.58	216.68
400.95	216.67
401.33	216.78
401.70	216.98
402.08	217.07
402.45	217.17
402.83	217.27
403.20	217.39
403.58	217.47
403.95	217.55
404.33	217.67
404.71	217.81
405.08	218.01
405.46	218.18
405.83	218.34
406.21	218.53
406.58	218.75
406.96	218.95
407.33	219.23
407.70	219.54
408.08	219.99
408.45	220.31
408.83	220.72
409.20	221.05
409.58	221.32
409.95	221.79
410.33	222.22
410.70	222.65
411.08	223.17
411.45	223.74
411.82	224.32
412.20	225.00
412.57	225.79
412.95	226.35
413.32	227.13
413.69	227.91
414.07	228.76
414.44	229.71
414.82	230.68
415.19	231.80
415.56	232.94
415.94	234.03
416.31	235.36
416.68	236.69
417.06	238.23
417.43	239.75
417.81	241.40
418.18	243.14
418.55	244.99
418.93	246.94
419.30	248.94
419.67	251.10
420.04	253.28
420.42	255.59
420.79	258.31
421.16	261.00
421.54	263.81
421.91	266.69
422.28	269.65
422.66	272.83
423.03	275.95
423.40	279.15
423.77	282.60
424.15	286.14
424.52	289.85
424.89	293.87
425.26	297.77
425.64	301.52
426.01	305.64
426.38	309.95
426.75	314.37
427.13	318.94
427.50	323.72
427.87	328.73
428.24	333.78
428.61	338.56
428.99	343.88
429.36	349.68
429.73	355.38
430.10	361.03
430.47	366.87
430.85	372.94
431.22	379.38
431.59	386.29
431.96	392.85
432.33	400.11
432.70	407.14
433.08	415.32
433.45	423.06
433.82	430.79
434.19	439.31
434.56	447.69
434.93	455.71
435.30	463.72
435.68	472.49
436.05	481.09
436.42	489.68
436.79	497.52
437.16	505.97
437.53	514.86
437.90	523.67
438.27	532.22
438.64	541.15
439.01	549.37
439.38	556.66
439.75	563.75
440.13	571.79
440.50	579.44
440.87	585.61
441.24	592.01
441.61	598.99
441.98	604.13
442.35	610.13
442.72	616.15
443.09	621.87
443.46	625.47
443.83	627.86
444.20	629.93
444.57	632.94
444.94	634.26
445.31	635.65
445.68	636.98
446.05	637.59
446.42	636.74
446.79	635.83
447.16	634.71
447.53	633.86
447.90	630.62
448.27	627.32
448.64	622.82
449.01	619.52
449.37	613.89
449.74	608.43
450.11	601.82
450.48	594.76
450.85	587.64
451.22	581.37
451.59	575.49
451.96	569.88
452.33	562.28
452.70	555.44
453.07	547.23
453.43	538.94
453.80	530.95
454.17	523.28
454.54	516.01
454.91	508.27
455.28	500.71
455.65	493.63
456.02	486.48
456.38	480.46
456.75	473.04
457.12	466.77
457.49	460.61
457.86	454.67
458.23	449.52
458.59	443.87
458.96	438.18
459.33	433.09
459.70	427.94
460.07	423.85
460.43	419.21
460.80	414.85
461.17	411.07
461.54	407.10
461.91	403.23
462.27	399.31
462.64	396.01
463.01	392.32
463.38	388.76
463.74	385.23
464.11	382.13
464.48	379.38
464.85	376.44
465.21	374.12
465.58	371.63
465.95	368.60
466.32	366.03
466.68	363.53
467.05	361.08
467.42	358.68
467.78	356.17
468.15	353.74
468.52	351.95
468.88	349.49
469.25	347.36
469.62	345.66
469.98	343.78
470.35	342.05
470.72	340.47
471.08	338.78
471.45	337.38
471.82	335.90
472.18	334.35
472.55	333.22
472.92	331.90
473.28	330.73
473.65	329.67
474.02	328.69
474.38	327.86
474.75	327.14
475.11	326.35
475.48	325.83
475.85	325.37
476.21	324.94
476.58	324.65
476.94	324.47
477.31	324.22
477.67	324.05
478.04	323.88
478.41	323.89
478.77	324.04
479.14	323.99
479.50	324.17
479.87	324.43
480.23	324.72
480.60	324.94
480.96	325.25
481.33	325.87
481.69	326.41
482.06	326.94
482.42	327.42
482.79	328.05
483.15	328.87
483.52	329.88
483.88	330.76
484.25	331.73
484.61	332.72
484.98	333.76
485.34	335.07
485.71	336.48
486.07	337.92
486.44	339.26
486.80	340.90
487.17	342.54
487.53	344.37
487.90	346.25
488.26	348.33
488.62	350.51
488.99	352.52
489.35	354.71
489.72	357.05
490.08	359.57
490.44	362.12
490.81	364.80
491.17	367.52
491.54	370.53
491.90	373.57
492.26	376.88
492.63	380.34
492.99	383.77
493.36	387.41
493.72	391.29
494.08	395.30
494.45	399.50
494.81	403.85
495.17	408.32
495.54	413.02
495.90	417.76
496.26	422.64
496.63	427.89
496.99	433.26
497.35	438.80
497.72	444.58
498.08	450.51
498.44	456.50
498.80	462.81
499.17	469.23
499.53	475.92
499.89	482.79
500.26	489.72
500.62	496.75
500.98	504.07
501.34	511.55
501.71	519.25
502.07	527.03
502.43	535.01
502.79	543.07
503.16	551.36
503.52	559.92
503.88	568.60
504.24	577.48
504.60	586.50
504.97	595.70
505.33	605.01
505.69	614.93
506.05	624.92
506.41	634.77
506.78	644.79
507.14	654.96
507.50	665.30
507.86	675.93
508.22	686.73
508.59	697.41
508.95	708.43
509.31	719.61
509.67	730.97
510.03	742.39
510.39	754.12
510.75	765.96
511.12	777.85
511.48	789.82
511.84	801.98
512.20	814.19
512.56	826.81
512.92	839.50
513.28	852.01
513.64	864.58
514.00	877.37
514.37	890.30
514.73	903.32
515.09	916.31
515.45	929.04
515.81	941.95
516.17	955.19
516.53	968.16
516.89	981.21
517.25	994.25
517.61	1007.58
517.97	1020.83
518.33	1033.80
518.69	1047.14
519.05	1060.77
519.41	1074.25
519.77	1087.97
520.13	1100.96
520.49	1113.94
520.85	1127.07
521.21	1140.16
521.57	1153.54
521.93	1166.37
522.29	1179.95
522.65	1193.41
523.01	1206.73
523.37	1219.74
523.73	1232.85
524.09	1245.86
524.45	1259.00
524.81	1272.19
525.17	1285.33
525.53	1298.19
525.89	1311.22
526.25	1324.09
526.61	1336.60
526.97	1349.41
527.33	1362.15
527.68	1375.36
528.04	1388.45
528.40	1401.31
528.76	1414.39
529.12	1427.01
529.48	1440.03
529.84	1452.09
530.20	1464.35
530.56	1476.81
530.91	1489.81
531.27	1502.31
531.63	1514.72
531.99	1527.25
532.35	1539.18
532.71	1551.25
533.07	1563.73
533.42	1575.68
533.78	1587.57
534.14	1599.37
534.50	1610.23
534.86	1621.42
535.21	1632.11
535.57	1643.37
535.93	1654.25
536.29	1665.03
536.65	1676.14
537.00	1686.78
537.36	1697.74
537.72	1708.55
538.08	1719.54
538.44	1730.16
538.79	1740.88
539.15	1751.48
539.51	1761.86
539.87	1772.98
540.22	1783.34
540.58	1794.09
540.94	1804.57
541.29	1814.46
541.65	1823.85
542.01	1834.23
542.37	1844.01
542.72	1853.87
543.08	1863.36
543.44	1873.55
543.79	1882.52
544.15	1891.62
544.51	1901.34
544.87	1910.79
545.22	1919.53
545.58	1928.12
545.94	1936.53
546.29	1944.78
546.65	1952.87
547.01	1960.76
547.36	1968.10
547.72	1975.66
548.07	1982.98
548.43	1990.36
548.79	1998.07
549.14	2005.92
549.50	2013.95
549.86	2021.34
550.21	2028.37
550.57	2035.81
550.92	2042.44
551.28	2049.79
551.64	2056.83
551.99	2064.15
552.35	2071.09
552.70	2077.74
553.06	2084.24
553.41	2090.31
553.77	2096.68
554.13	2102.95
554.48	2109.87
554.84	2116.74
555.19	2123.16
555.55	2129.46
555.90	2135.70
556.26	2142.17
556.61	2148.07
556.97	2152.86
557.32	2158.93
557.68	2165.29
558.03	2170.86
558.39	2175.95
558.74	2181.82
559.10	2187.42
559.45	2192.88
559.81	2198.24
560.16	2203.89
560.52	2209.79
560.87	2216.22
561.23	2222.16
561.58	2228.72
561.94	2233.91
562.29	2238.86
562.64	2244.90
563.00	2250.49
563.35	2256.18
563.71	2262.06
564.06	2267.74
564.42	2273.63
564.77	2278.72
565.12	2283.93
565.48	2289.22
565.83	2295.00
566.19	2300.56
566.54	2306.07
566.89	2310.70
567.25	2315.67
567.60	2321.43
567.96	2326.68
568.31	2331.26
568.66	2335.49
569.02	2339.45
569.37	2343.21
569.72	2347.64
570.08	2351.27
570.43	2354.42
570.78	2357.57
571.14	2360.32
571.49	2363.52
571.84	2367.27
572.20	2370.13
572.55	2373.39
572.90	2375.66
573.26	2378.69
573.61	2381.08
573.96	2383.25
574.31	2385.29
574.67	2387.17
575.02	2388.15
575.37	2389.63
575.72	2390.66
576.08	2392.27
576.43	2392.70
576.78	2393.54
577.13	2395.34
577.49	2396.73
577.84	2398.29
578.19	2399.87
578.54	2400.79
578.90	2402.11
579.25	2402.13
579.60	2402.44
579.95	2401.90
580.30	2402.52
580.66	2401.80
581.01	2400.46
581.36	2398.55
581.71	2397.46
582.06	2396.74
582.42	2396.17
582.77	2394.33
583.12	2393.00
583.47	2392.06
583.82	2391.78
584.17	2390.79
584.53	2388.79
584.88	2386.83
585.23	2385.00
585.58	2382.93
585.93	2380.74
586.28	2378.66
586.63	2376.60
586.98	2374.50
587.34	2372.92
587.69	2370.74
588.04	2368.95
588.39	2367.75
588.74	2365.37
589.09	2363.16
589.44	2360.22
589.79	2357.95
590.14	2356.23
590.49	2353.52
590.84	2350.02
591.19	2347.17
591.54	2344.04
591.89	2340.28
592.25	2337.37
592.60	2333.36
592.95	2329.45
593.30	2325.62
593.65	2321.34
594.00	2317.13
594.35	2314.25
594.70	2309.66
595.05	2305.12
595.40	2299.90
595.75	2294.50
596.10	2291.00
596.45	2286.27
596.80	2281.92
597.15	2276.85
597.50	2270.96
597.85	2266.20
598.19	2260.96
598.54	2255.29
598.89	2250.35
599.24	2245.88
599.59	2239.85
599.94	2234.38
600.29	2228.70
600.64	2222.96
600.99	2216.45
601.34	2211.09
601.69	2204.16
602.04	2198.04
602.39	2191.57
602.74	2185.69
603.08	2180.29
603.43	2173.91
603.78	2167.22
604.13	2160.07
604.48	2152.85
604.83	2147.02
605.18	2140.82
605.53	2134.05
605.87	2127.00
606.22	2120.13
606.57	2112.34
606.92	2104.46
607.27	2097.45
607.62	2090.79
607.96	2083.75
608.31	2077.35
608.66	2069.62
609.01	2062.16
609.36	2054.97
609.70	2047.38
610.05	2039.78
610.40	2031.48
610.75	2023.22
611.10	2015.51
611.44	2006.98
611.79	1998.31
612.14	1988.25
612.49	1977.72
612.83	1968.52
613.18	1959.43
613.53	1950.18
613.88	1940.58
614.22	1932.14
614.57	1922.31
614.92	1911.86
615.27	1901.88
615.61	1891.73
615.96	1882.13
616.31	1872.77
616.65	1863.43
617.00	1853.51
617.35	1843.72
617.70	1833.91
618.04	1823.82
618.39	1813.51
618.74	1803.69
619.08	1794.09
619.43	1785.42
619.78	1777.25
620.12	1768.44
620.47	1758.65
620.82	1748.34
621.16	1738.62
621.51	1728.54
621.85	1718.66
622.20	1708.05
622.55	1697.35
622.89	1687.59
623.24	1677.85
623.59	1667.77
623.93	1657.63
624.28	1647.93
624.62	1637.75
624.97	1627.44
625.32	1617.87
625.66	1609.00
626.01	1600.16
626.35	1590.65
626.70	1580.54
627.04	1570.38
627.39	1560.41
627.73	1551.09
628.08	1542.12
628.43	1532.56
628.77	1523.26
629.12	1514.34
629.46	1506.51
629.81	1498.12
630.15	1488.41
630.50	1478.52
630.84	1468.17
631.19	1458.25
631.53	1448.79
631.88	1438.73
632.22	1428.76
632.57	1419.32
632.91	1409.20
633.26	1399.29
633.60	1389.69
633.95	1380.30
634.29	1370.94
634.64	1361.36
634.98	1351.55
635.32	1342.14
635.67	1333.57
636.01	1324.38
636.36	1314.54
636.70	1305.03
637.05	1295.65
637.39	1286.73
637.73	1278.02
638.08	1270.39
638.42	1262.07
638.77	1253.28
639.11	1244.90
639.45	1237.09
639.80	1228.45
640.14	1219.73
640.49	1210.91
640.83	1202.15
641.17	1194.10
641.52	1185.74
641.86	1177.25
642.20	1169.20
642.55	1160.51
642.89	1151.64
643.23	1142.99
643.58	1134.91
643.92	1125.88
644.26	1117.23
644.61	1108.70
644.95	1099.95
645.29	1090.60
645.64	1081.53
645.98	1073.30
646.32	1065.33
646.66	1056.73
647.01	1048.22
647.35	1040.03
647.69	1031.51
648.04	1023.20
648.38	1014.23
648.72	1005.43
649.06	996.93
649.41	988.83
649.75	980.96
650.09	972.98
650.43	964.86
650.78	956.64
651.12	948.95
651.46	941.51
651.80	934.24
652.14	926.95
652.49	919.48
652.83	912.10
653.17	904.24
653.51	896.70
653.85	889.41
654.20	882.23
654.54	874.67
654.88	867.66
655.22	860.51
655.56	853.52
655.90	846.80
656.25	840.19
656.59	833.19
656.93	826.15
657.27	819.02
657.61	812.14
657.95	806.02
658.29	800.14
658.64	794.05
658.98	787.63
659.32	781.09
659.66	774.98
660.00	768.67
660.34	762.67
660.68	756.56
661.02	750.42
661.36	744.60
661.70	738.93
662.05	733.19
662.39	727.72
662.73	722.39
663.07	717.05
663.41	711.55
663.75	705.95
664.09	700.37
664.43	695.09
664.77	689.77
665.11	684.00
665.45	678.11
665.79	672.39
666.13	666.76
666.47	661.31
666.81	655.85
667.15	650.55
667.49	645.42
667.83	640.21
668.17	634.96
668.51	629.89
668.85	625.00
669.19	620.21
669.53	615.20
669.87	610.16
670.21	605.45
670.55	600.69
670.89	596.40
671.23	592.26
671.57	587.96
671.91	583.77
672.25	579.76
672.58	575.69
672.92	571.64
673.26	567.77
673.60	563.98
673.94	560.25
674.28	556.64
674.62	552.93
674.96	549.27
675.30	545.80
675.64	542.19
675.97	538.66
676.31	535.15
676.65	531.62
676.99	528.23
677.33	524.45
677.67	520.80
678.01	516.93
678.34	513.30
678.68	509.79
679.02	506.19
679.36	502.48
679.70	498.93
680.04	495.48
680.37	492.16
680.71	488.95
681.05	485.85
681.39	482.71
681.73	479.63
682.06	476.60
682.40	473.61
682.74	470.47
683.08	467.32
683.42	464.14
683.75	461.26
684.09	458.33
684.43	455.55
684.77	452.71
685.10	449.95
685.44	447.10
685.78	444.27
686.12	441.56
686.45	438.90
686.79	436.28
687.13	433.77
687.46	431.16
687.80	428.47
688.14	425.64
688.48	423.06
688.81	420.39
689.15	417.86
689.49	415.26
689.82	412.76
690.16	410.27
690.50	407.88
690.83	405.40
691.17	402.94
691.51	400.58
691.84	398.46
692.18	396.28
692.52	394.06
692.85	391.98
693.19	389.90
693.52	387.76
693.86	385.63
694.20	383.46
694.53	381.36
694.87	379.25
695.21	377.21
695.54	375.12
695.88	373.01
696.21	370.88
696.55	368.78
696.88	366.78
697.22	364.82
697.56	363.01
697.89	361.17
698.23	359.42
698.56	357.69
698.90	355.90
699.23	354.01
699.57	352.19
699.90	350.39
700.24	348.64
700.58	346.92
700.91	345.29
701.25	343.78
701.58	342.23
701.92	340.65
702.25	339.09
702.59	337.47
702.92	336.01
703.26	334.50
703.59	333.12
703.93	331.91
704.26	330.51
704.60	329.02
704.93	327.60
705.26	326.12
705.60	324.67
705.93	323.25
706.27	322.00
706.60	320.80
706.94	319.58
707.27	318.18
707.61	316.91
707.94	315.58
708.27	314.13
708.61	312.75
708.94	311.46
709.28	310.25
709.61	309.09
709.94	307.91
710.28	306.72
710.61	305.52
710.95	304.10
711.28	302.99
711.61	301.84
711.95	300.69
712.28	299.52
712.61	298.32
712.95	297.30
713.28	296.26
713.61	295.11
713.95	293.95
714.28	292.98
714.61	291.96
714.95	290.98
715.28	289.98
715.61	288.99
715.95	288.04
716.28	287.07
716.61	286.15
716.95	285.16
717.28	284.25
717.61	283.36
717.94	282.57
718.28	281.59
718.61	280.75
718.94	279.94
719.27	279.15
719.61	278.37
719.94	277.50
720.27	276.55
720.60	275.74
720.94	275.00
721.27	274.27
721.60	273.61
721.93	272.90
722.27	272.30
722.60	271.67
722.93	270.99
723.26	270.36
723.59	269.65
723.93	269.06
724.26	268.47
724.59	267.87
724.92	267.26
725.25	266.75
725.59	266.18
725.92	265.66
726.25	265.10
726.58	264.54
726.91	263.98
727.24	263.49
727.57	262.95
727.91	262.32
728.24	261.83
728.57	261.25
728.90	260.72
729.23	260.08
729.56	259.64
729.89	259.10
730.22	258.53
730.55	258.00
730.89	257.47
731.22	256.96
731.55	256.41
731.88	255.89
732.21	255.39
732.54	254.88
732.87	254.39
733.20	253.97
733.53	253.51
733.86	253.08
734.19	252.62
734.52	252.30
734.85	252.05
735.18	251.56
735.51	251.21
735.84	250.79
736.17	250.45
736.50	249.90
736.83	249.75
737.16	249.37
737.49	249.00
737.82	248.63
738.15	248.27
738.48	247.92
738.81	247.54
739.14	247.15
739.47	246.80
739.80	246.41
740.13	246.03
740.46	245.64
740.79	245.27
741.12	244.97
741.45	244.58
741.78	244.13
742.11	243.88
742.44	243.51
742.77	243.26
743.10	242.90
743.43	242.60
743.75	242.04
744.08	242.02
744.41	241.66
744.74	241.32
745.07	240.94
745.40	240.63
745.73	240.37
746.06	240.03
746.39	239.70
746.71	239.39
747.04	239.03
747.37	238.78
747.70	238.52
748.03	238.19
748.36	237.90
748.68	237.59
749.01	237.25
749.34	236.94
749.67	236.63
750.00	236.41
750.33	236.29
750.65	236.07
750.98	235.53
751.31	235.31
751.64	235.09
751.97	235.00
752.29	234.74
752.62	234.42
752.95	234.20
753.28	233.95
753.60	233.74
753.93	233.56
754.26	233.31
754.59	232.99
754.91	232.75
755.24	232.51
755.57	232.29
755.90	232.05
756.22	231.85
756.55	231.60
756.88	231.37
757.20	231.03
757.53	230.75
757.86	230.53
758.19	230.33
758.51	230.13
758.84	229.81
759.17	229.64
759.49	229.51
759.82	229.44
760.15	229.29
760.47	229.09
760.80	228.87
761.13	228.73
761.45	228.59
761.78	228.39
762.11	228.26
762.43	228.10
762.76	227.94
763.08	227.80
763.41	227.64
763.74	227.49
764.06	227.33
764.39	227.18
764.71	227.08
765.04	226.90
765.37	226.73
765.69	226.64
766.02	226.47
766.34	226.30
766.67	226.11
767.00	226.02
767.32	226.02
767.65	226.04
767.97	225.89
768.30	225.76
768.62	225.67
768.95	225.49
769.27	225.37
769.60	225.29
769.92	225.12
770.25	224.97
770.57	224.84
770.90	224.72
771.22	224.63
771.55	224.49
771.87	224.42
772.20	224.29
772.52	224.33
772.85	224.47
773.17	224.38
773.50	224.26
773.82	224.17
774.15	223.94
774.47	223.72
774.80	223.64
775.12	223.55
775.45	223.46
775.77	223.41
776.09	223.32
776.42	223.23
776.74	223.24
777.07	223.17
777.39	223.07
777.72	222.99
778.04	222.91
778.36	222.83
778.69	222.73
779.01	222.71
779.33	222.45
779.66	222.12
779.98	222.02
780.31	221.93
780.63	221.90
780.95	221.87
781.28	221.79
781.60	221.67
781.92	221.62
782.25	221.57
782.57	221.53
782.89	221.45
783.22	221.36
783.54	221.25
783.86	221.24
784.19	221.18
784.51	221.17
784.83	221.06
785.16	220.98
785.48	220.97
785.80	220.89
786.12	220.83
