SpectraSuite Data File
++++++++++++++++++++++++++++++++++++
Date: Tue Jan 29 16:05:35 EST 2013
User: group
Dark Spectrum Present: No
Reference Spectrum Present: No
Number of Sampled Component Spectra: 1
Spectrometers: USB2E7196
Integration Time (usec): 65000 (USB2E7196)
Spectra Averaged: 100 (USB2E7196)
Boxcar Smoothing: 10 (USB2E7196)
Correct for Electrical Dark: No (USB2E7196)
Strobe/Lamp Enabled: No (USB2E7196)
Correct for Detector Non-linearity: No (USB2E7196)
Correct for Stray Light: No (USB2E7196)
Number of Pixels in Processed Spectrum: 2048
>>>>>Begin Processed Spectral Data<<<<<
339.09	0.00
339.48	203.11
339.86	204.11
340.24	205.73
340.63	206.90
341.01	211.35
341.39	209.74
341.78	210.99
342.16	212.50
342.54	212.95
342.93	201.89
343.31	212.11
343.69	212.65
344.07	213.12
344.46	213.58
344.84	213.99
345.22	214.18
345.60	214.44
345.99	214.65
346.37	214.77
346.75	214.88
347.13	214.93
347.52	215.00
347.90	215.10
348.28	215.12
348.66	215.19
349.05	215.15
349.43	215.18
349.81	215.28
350.19	215.35
350.57	215.43
350.96	215.51
351.34	215.60
351.72	215.63
352.10	215.73
352.48	215.74
352.87	215.80
353.25	215.84
353.63	215.88
354.01	215.95
354.39	216.06
354.77	216.09
355.15	216.28
355.54	216.32
355.92	216.35
356.30	216.42
356.68	216.63
357.06	216.71
357.44	216.76
357.82	216.77
358.20	216.87
358.58	216.94
358.97	217.02
359.35	217.11
359.73	217.24
360.11	217.32
360.49	217.41
360.87	217.42
361.25	217.53
361.63	217.68
362.01	217.72
362.39	217.74
362.77	217.85
363.15	217.84
363.53	217.90
363.91	217.92
364.29	217.95
364.67	217.75
365.05	217.80
365.43	217.83
365.81	217.89
366.19	217.97
366.57	218.05
366.95	218.04
367.33	217.97
367.71	217.98
368.09	218.00
368.47	218.00
368.85	218.02
369.23	218.03
369.61	217.93
369.99	217.96
370.37	217.95
370.75	218.01
371.13	217.94
371.51	217.90
371.89	217.89
372.27	217.90
372.65	217.92
373.03	217.90
373.41	217.90
373.78	217.87
374.16	217.72
374.54	217.62
374.92	217.59
375.30	217.56
375.68	217.50
376.06	217.48
376.44	217.40
376.82	217.35
377.19	217.29
377.57	217.22
377.95	217.12
378.33	217.06
378.71	216.90
379.09	216.87
379.47	216.88
379.84	216.80
380.22	216.72
380.60	216.62
380.98	216.56
381.36	216.45
381.73	216.34
382.11	216.35
382.49	216.33
382.87	216.23
383.25	216.22
383.62	216.41
384.00	216.32
384.38	216.30
384.76	216.33
385.13	216.38
385.51	216.37
385.89	216.34
386.27	216.35
386.64	216.34
387.02	216.32
387.40	216.26
387.78	216.24
388.15	216.24
388.53	216.22
388.91	216.18
389.29	216.19
389.66	216.25
390.04	216.23
390.42	216.24
390.79	216.26
391.17	216.25
391.55	216.00
391.92	215.98
392.30	216.01
392.68	215.95
393.05	215.90
393.43	215.90
393.81	215.88
394.18	215.83
394.56	215.86
394.94	215.92
395.31	215.89
395.69	215.95
396.06	215.99
396.44	216.01
396.82	216.01
397.19	216.11
397.57	216.10
397.95	216.14
398.32	216.05
398.70	216.12
399.07	216.20
399.45	216.23
399.82	216.27
400.20	216.31
400.58	216.38
400.95	216.35
401.33	216.45
401.70	216.68
402.08	216.79
402.45	216.89
402.83	217.02
403.20	217.14
403.58	217.25
403.95	217.36
404.33	217.53
404.71	217.71
405.08	217.95
405.46	218.12
405.83	218.32
406.21	218.54
406.58	218.73
406.96	218.95
407.33	219.24
407.70	219.53
408.08	219.96
408.45	220.27
408.83	220.68
409.20	221.01
409.58	221.28
409.95	221.71
410.33	222.17
410.70	222.57
411.08	223.10
411.45	223.67
411.82	224.20
412.20	224.83
412.57	225.64
412.95	226.21
413.32	226.98
413.69	227.77
414.07	228.67
414.44	229.64
414.82	230.60
415.19	231.75
415.56	232.91
415.94	234.04
416.31	235.40
416.68	236.73
417.06	238.25
417.43	239.72
417.81	241.44
418.18	243.16
418.55	244.99
418.93	246.95
419.30	248.93
419.67	251.10
420.04	253.31
420.42	255.57
420.79	258.30
421.16	261.00
421.54	263.83
421.91	266.67
422.28	269.64
422.66	272.83
423.03	275.92
423.40	279.17
423.77	282.63
424.15	286.21
424.52	289.92
424.89	293.96
425.26	297.88
425.64	301.59
426.01	305.72
426.38	310.07
426.75	314.43
427.13	319.00
427.50	323.83
427.87	328.88
428.24	333.93
428.61	338.77
428.99	344.11
429.36	349.90
429.73	355.65
430.10	361.33
430.47	367.17
430.85	373.25
431.22	379.66
431.59	386.53
431.96	393.11
432.33	400.34
432.70	407.31
433.08	415.58
433.45	423.39
433.82	431.12
434.19	439.69
434.56	448.15
434.93	456.26
435.30	464.24
435.68	473.01
436.05	481.65
436.42	490.20
436.79	498.04
437.16	506.50
437.53	515.38
437.90	524.20
438.27	532.83
438.64	541.80
439.01	550.18
439.38	557.52
439.75	564.55
440.13	572.70
440.50	580.42
440.87	586.58
441.24	592.94
441.61	600.05
441.98	605.23
442.35	611.23
442.72	617.29
443.09	623.12
443.46	626.72
443.83	629.15
444.20	631.31
444.57	634.35
444.94	635.79
445.31	637.23
445.68	638.50
446.05	639.10
446.42	638.33
446.79	637.32
447.16	636.27
447.53	635.53
447.90	632.32
448.27	629.14
448.64	624.67
449.01	621.49
449.37	615.77
449.74	610.24
450.11	603.56
450.48	596.41
450.85	589.22
451.22	582.94
451.59	577.01
451.96	571.30
452.33	563.68
452.70	556.78
453.07	548.52
453.43	540.28
453.80	532.32
454.17	524.57
454.54	517.32
454.91	509.46
455.28	501.80
455.65	494.61
456.02	487.41
456.38	481.27
456.75	473.72
457.12	467.40
457.49	461.22
457.86	455.34
458.23	450.11
458.59	444.46
458.96	438.74
459.33	433.64
459.70	428.54
460.07	424.52
460.43	419.87
460.80	415.53
461.17	411.72
461.54	407.63
461.91	403.81
462.27	399.86
462.64	396.53
463.01	392.87
463.38	389.30
463.74	385.74
464.11	382.65
464.48	379.89
464.85	376.92
465.21	374.57
465.58	372.03
465.95	369.02
466.32	366.43
466.68	363.90
467.05	361.40
467.42	358.93
467.78	356.31
468.15	353.83
468.52	351.99
468.88	349.60
469.25	347.49
469.62	345.73
469.98	343.85
470.35	342.08
470.72	340.49
471.08	338.83
471.45	337.38
471.82	335.89
472.18	334.29
472.55	333.16
472.92	331.81
473.28	330.68
473.65	329.66
474.02	328.66
474.38	327.89
474.75	327.19
475.11	326.43
475.48	325.92
475.85	325.47
476.21	325.05
476.58	324.72
476.94	324.52
477.31	324.24
477.67	324.02
478.04	323.92
478.41	323.94
478.77	324.12
479.14	324.09
479.50	324.31
479.87	324.62
480.23	324.95
480.60	325.20
480.96	325.48
481.33	326.04
481.69	326.60
482.06	327.12
482.42	327.62
482.79	328.27
483.15	329.08
483.52	330.04
483.88	330.92
484.25	331.86
484.61	332.85
484.98	333.96
485.34	335.25
485.71	336.63
486.07	338.02
486.44	339.32
486.80	340.95
487.17	342.55
487.53	344.35
487.90	346.21
488.26	348.26
488.62	350.49
488.99	352.58
489.35	354.74
489.72	357.07
490.08	359.57
490.44	362.09
490.81	364.77
491.17	367.45
491.54	370.39
491.90	373.44
492.26	376.69
492.63	380.05
492.99	383.53
493.36	387.23
493.72	391.11
494.08	395.09
494.45	399.30
494.81	403.70
495.17	408.17
495.54	412.80
495.90	417.55
496.26	422.41
496.63	427.59
496.99	433.00
497.35	438.55
497.72	444.40
498.08	450.33
498.44	456.37
498.80	462.78
499.17	469.28
499.53	475.95
499.89	482.83
500.26	489.77
500.62	496.84
500.98	504.14
501.34	511.60
501.71	519.35
502.07	527.13
502.43	535.07
502.79	543.18
503.16	551.56
503.52	560.16
503.88	568.77
504.24	577.65
504.60	586.61
504.97	595.75
505.33	605.02
505.69	614.81
506.05	624.69
506.41	634.48
506.78	644.54
507.14	654.76
507.50	665.16
507.86	675.84
508.22	686.61
508.59	697.23
508.95	708.29
509.31	719.59
509.67	730.98
510.03	742.36
510.39	754.03
510.75	765.82
511.12	777.70
511.48	789.84
511.84	802.03
512.20	814.38
512.56	827.02
512.92	839.68
513.28	852.25
513.64	864.86
514.00	877.61
514.37	890.42
514.73	903.39
515.09	916.21
515.45	928.98
515.81	941.81
516.17	955.04
516.53	968.05
516.89	980.92
517.25	993.90
517.61	1007.31
517.97	1020.51
518.33	1033.65
518.69	1046.98
519.05	1060.55
519.41	1073.88
519.77	1087.49
520.13	1100.60
520.49	1113.61
520.85	1126.76
521.21	1139.93
521.57	1153.42
521.93	1166.36
522.29	1179.92
522.65	1193.40
523.01	1206.79
523.37	1219.65
523.73	1232.76
524.09	1245.63
524.45	1258.83
524.81	1272.19
525.17	1285.24
525.53	1298.11
525.89	1311.03
526.25	1323.84
526.61	1336.30
526.97	1349.18
527.33	1361.86
527.68	1375.13
528.04	1388.35
528.40	1401.21
528.76	1414.20
529.12	1426.75
529.48	1439.73
529.84	1451.69
530.20	1464.12
530.56	1476.41
530.91	1489.59
531.27	1502.09
531.63	1514.71
531.99	1527.12
532.35	1539.10
532.71	1551.22
533.07	1563.83
533.42	1575.72
533.78	1587.70
534.14	1599.51
534.50	1610.49
534.86	1621.88
535.21	1632.41
535.57	1643.51
535.93	1654.57
536.29	1665.41
536.65	1676.63
537.00	1687.27
537.36	1698.35
537.72	1709.01
538.08	1720.03
538.44	1730.55
538.79	1741.26
539.15	1751.70
539.51	1762.08
539.87	1772.97
540.22	1783.40
540.58	1793.94
540.94	1804.53
541.29	1814.44
541.65	1823.91
542.01	1834.27
542.37	1843.99
542.72	1853.95
543.08	1863.45
543.44	1873.53
543.79	1882.69
544.15	1891.73
544.51	1901.49
544.87	1911.18
545.22	1920.10
545.58	1928.81
545.94	1937.56
546.29	1945.88
546.65	1954.03
547.01	1962.04
547.36	1969.43
547.72	1976.89
548.07	1984.49
548.43	1992.03
548.79	1999.65
549.14	2007.66
549.50	2015.68
549.86	2023.17
550.21	2030.22
550.57	2037.73
550.92	2044.25
551.28	2051.39
551.64	2058.56
551.99	2065.92
552.35	2072.85
552.70	2079.59
553.06	2086.00
553.41	2092.03
553.77	2098.43
554.13	2104.68
554.48	2111.63
554.84	2118.53
555.19	2124.87
555.55	2131.20
555.90	2137.41
556.26	2143.97
556.61	2149.68
556.97	2154.51
557.32	2160.41
557.68	2166.73
558.03	2172.33
558.39	2177.56
558.74	2183.40
559.10	2189.01
559.45	2194.41
559.81	2199.83
560.16	2205.39
560.52	2211.38
560.87	2217.74
561.23	2223.64
561.58	2230.28
561.94	2235.36
562.29	2240.16
562.64	2246.41
563.00	2251.92
563.35	2257.37
563.71	2263.15
564.06	2268.80
564.42	2274.66
564.77	2279.72
565.12	2284.85
565.48	2290.15
565.83	2295.79
566.19	2301.30
566.54	2306.62
566.89	2311.23
567.25	2315.93
567.60	2321.59
567.96	2326.71
568.31	2331.33
568.66	2335.65
569.02	2339.54
569.37	2343.33
569.72	2347.80
570.08	2351.47
570.43	2354.60
570.78	2357.87
571.14	2360.71
571.49	2363.99
571.84	2367.79
572.20	2370.69
572.55	2373.94
572.90	2376.21
573.26	2379.18
573.61	2381.75
573.96	2384.08
574.31	2386.28
574.67	2388.18
575.02	2389.26
575.37	2390.79
575.72	2391.76
576.08	2393.33
576.43	2393.79
576.78	2394.66
577.13	2396.56
577.49	2397.80
577.84	2399.31
578.19	2400.91
578.54	2401.64
578.90	2402.89
579.25	2402.82
579.60	2403.19
579.95	2402.74
580.30	2403.16
580.66	2402.60
581.01	2401.01
581.36	2398.94
581.71	2397.85
582.06	2397.06
582.42	2396.44
582.77	2394.57
583.12	2393.14
583.47	2392.05
583.82	2391.78
584.17	2390.65
584.53	2388.69
584.88	2386.90
585.23	2385.03
585.58	2382.93
585.93	2380.94
586.28	2378.80
586.63	2376.87
586.98	2374.86
587.34	2373.10
587.69	2371.02
588.04	2369.31
588.39	2368.16
588.74	2365.79
589.09	2363.37
589.44	2360.46
589.79	2358.11
590.14	2356.52
590.49	2353.87
590.84	2350.35
591.19	2347.46
591.54	2344.36
591.89	2340.42
592.25	2337.11
592.60	2333.18
592.95	2329.18
593.30	2325.25
593.65	2320.97
594.00	2316.65
594.35	2313.60
594.70	2309.05
595.05	2304.38
595.40	2299.02
595.75	2293.61
596.10	2290.11
596.45	2285.18
596.80	2280.81
597.15	2275.71
597.50	2269.79
597.85	2264.94
598.19	2259.83
598.54	2253.96
598.89	2249.04
599.24	2244.70
599.59	2238.78
599.94	2233.20
600.29	2227.44
600.64	2221.75
600.99	2215.28
601.34	2209.97
601.69	2203.07
602.04	2196.69
602.39	2190.37
602.74	2184.52
603.08	2179.16
603.43	2172.75
603.78	2166.13
604.13	2159.01
604.48	2151.82
604.83	2145.86
605.18	2139.47
605.53	2132.63
605.87	2125.67
606.22	2118.96
606.57	2111.15
606.92	2103.48
607.27	2096.43
607.62	2089.82
607.96	2082.78
608.31	2076.24
608.66	2068.39
609.01	2060.97
609.36	2053.97
609.70	2046.28
610.05	2038.57
610.40	2030.21
610.75	2022.03
611.10	2014.49
611.44	2005.86
611.79	1997.21
612.14	1987.18
612.49	1976.83
612.83	1967.59
613.18	1958.61
613.53	1949.18
613.88	1939.58
614.22	1930.86
614.57	1920.97
614.92	1910.49
615.27	1900.35
615.61	1890.43
615.96	1880.81
616.31	1871.16
616.65	1861.90
617.00	1852.11
617.35	1842.35
617.70	1832.67
618.04	1822.54
618.39	1812.05
618.74	1802.25
619.08	1792.62
619.43	1783.88
619.78	1775.71
620.12	1766.88
620.47	1757.06
620.82	1746.78
621.16	1737.12
621.51	1727.27
621.85	1717.51
622.20	1707.00
622.55	1696.49
622.89	1686.60
623.24	1676.87
623.59	1667.15
623.93	1656.95
624.28	1647.23
624.62	1637.10
624.97	1626.77
625.32	1617.09
625.66	1608.36
626.01	1599.62
626.35	1590.25
626.70	1580.10
627.04	1569.89
627.39	1559.86
627.73	1550.63
628.08	1541.54
628.43	1531.81
628.77	1522.49
629.12	1513.60
629.46	1505.76
629.81	1497.27
630.15	1487.52
630.50	1477.62
630.84	1467.15
631.19	1457.26
631.53	1447.80
631.88	1437.61
632.22	1427.58
632.57	1418.24
632.91	1408.07
633.26	1398.18
633.60	1388.53
633.95	1379.18
634.29	1369.71
634.64	1360.39
634.98	1350.46
635.32	1341.11
635.67	1332.56
636.01	1323.30
636.36	1313.48
636.70	1303.99
637.05	1294.76
637.39	1285.86
637.73	1277.31
638.08	1269.74
638.42	1261.39
638.77	1252.61
639.11	1244.41
639.45	1236.59
639.80	1227.92
640.14	1219.25
640.49	1210.33
640.83	1201.57
641.17	1193.55
641.52	1185.35
641.86	1176.67
642.20	1168.83
642.55	1160.47
642.89	1151.64
643.23	1143.00
643.58	1134.91
643.92	1125.85
644.26	1117.03
644.61	1108.68
644.95	1099.82
645.29	1090.49
645.64	1081.45
645.98	1073.08
646.32	1065.10
646.66	1056.54
647.01	1048.10
647.35	1039.94
647.69	1031.58
648.04	1023.24
648.38	1014.37
648.72	1005.60
649.06	997.27
649.41	989.00
649.75	980.93
650.09	973.01
650.43	964.90
650.78	956.67
651.12	949.04
651.46	941.78
651.80	934.42
652.14	927.19
652.49	919.73
652.83	912.38
653.17	904.61
653.51	896.99
653.85	889.82
654.20	882.65
654.54	875.19
654.88	868.05
655.22	860.86
655.56	853.86
655.90	847.17
656.25	840.50
656.59	833.53
656.93	826.52
657.27	819.48
657.61	812.71
657.95	806.70
658.29	800.83
658.64	794.74
658.98	788.36
659.32	781.76
659.66	775.55
660.00	769.27
660.34	763.31
660.68	757.33
661.02	751.04
661.36	745.23
661.70	739.46
662.05	733.78
662.39	728.42
662.73	723.18
663.07	717.82
663.41	712.23
663.75	706.63
664.09	701.14
664.43	695.79
664.77	690.48
665.11	684.63
665.45	678.78
665.79	673.01
666.13	667.42
666.47	662.13
666.81	656.84
667.15	651.53
667.49	646.43
667.83	641.16
668.17	636.04
668.51	630.94
668.85	626.09
669.19	621.32
669.53	616.33
669.87	611.23
670.21	606.60
670.55	601.92
670.89	597.60
671.23	593.34
671.57	589.06
671.91	584.81
672.25	580.72
672.58	576.59
672.92	572.51
673.26	568.56
673.60	564.69
673.94	560.87
674.28	557.27
674.62	553.53
674.96	549.87
675.30	546.31
675.64	542.75
675.97	539.24
676.31	535.63
676.65	532.08
676.99	528.65
677.33	524.76
677.67	521.21
678.01	517.42
678.34	513.79
678.68	510.28
679.02	506.67
679.36	503.10
679.70	499.56
680.04	496.11
680.37	492.70
680.71	489.43
681.05	486.28
681.39	483.13
681.73	480.01
682.06	477.03
682.40	474.06
682.74	470.84
683.08	467.62
683.42	464.51
683.75	461.61
684.09	458.67
684.43	455.93
684.77	453.00
685.10	450.21
685.44	447.34
685.78	444.46
686.12	441.78
686.45	439.08
686.79	436.46
687.13	433.98
687.46	431.49
687.80	428.84
688.14	426.05
688.48	423.51
688.81	420.87
689.15	418.35
689.49	415.77
689.82	413.32
690.16	410.83
690.50	408.39
690.83	405.97
691.17	403.44
691.51	401.06
691.84	398.91
692.18	396.80
692.52	394.67
692.85	392.58
693.19	390.46
693.52	388.35
693.86	386.18
694.20	384.03
694.53	381.94
694.87	379.76
695.21	377.73
695.54	375.61
695.88	373.52
696.21	371.40
696.55	369.29
696.88	367.23
697.22	365.33
697.56	363.55
697.89	361.66
698.23	359.98
698.56	358.24
698.90	356.48
699.23	354.52
699.57	352.69
699.90	350.90
700.24	349.16
700.58	347.42
700.91	345.76
701.25	344.25
701.58	342.64
701.92	341.17
702.25	339.59
702.59	337.97
702.92	336.48
703.26	334.94
703.59	333.54
703.93	332.35
704.26	330.96
704.60	329.46
704.93	328.03
705.26	326.52
705.60	325.10
705.93	323.66
706.27	322.40
706.60	321.16
706.94	319.95
707.27	318.53
707.61	317.23
707.94	315.96
708.27	314.46
708.61	313.04
708.94	311.67
709.28	310.45
709.61	309.23
709.94	308.06
710.28	306.88
710.61	305.69
710.95	304.29
711.28	303.22
711.61	302.05
711.95	300.93
712.28	299.82
712.61	298.66
712.95	297.60
713.28	296.60
713.61	295.44
713.95	294.28
714.28	293.34
714.61	292.33
714.95	291.33
715.28	290.33
715.61	289.36
715.95	288.46
716.28	287.52
716.61	286.62
716.95	285.64
717.28	284.78
717.61	283.89
717.94	283.03
718.28	282.01
718.61	281.18
718.94	280.29
719.27	279.41
719.61	278.62
719.94	277.75
720.27	276.78
720.60	275.98
720.94	275.26
721.27	274.57
721.60	273.90
721.93	273.17
722.27	272.56
722.60	271.92
722.93	271.19
723.26	270.58
723.59	269.89
723.93	269.28
724.26	268.56
724.59	267.94
724.92	267.35
725.25	266.82
725.59	266.26
725.92	265.73
726.25	265.20
726.58	264.66
726.91	264.12
727.24	263.61
727.57	263.06
727.91	262.42
728.24	261.80
728.57	261.24
728.90	260.69
729.23	260.09
729.56	259.66
729.89	259.15
730.22	258.55
730.55	258.01
730.89	257.48
731.22	257.01
731.55	256.46
731.88	255.99
732.21	255.48
732.54	254.96
732.87	254.48
733.20	254.03
733.53	253.55
733.86	253.11
734.19	252.64
734.52	252.26
734.85	251.98
735.18	251.52
735.51	251.14
735.84	250.72
736.17	250.33
736.50	249.78
736.83	249.62
737.16	249.22
737.49	248.84
737.82	248.46
738.15	248.10
738.48	247.76
738.81	247.39
739.14	246.98
739.47	246.60
739.80	246.22
740.13	245.87
740.46	245.48
740.79	245.07
741.12	244.75
741.45	244.36
741.78	243.93
742.11	243.70
742.44	243.36
742.77	243.05
743.10	242.69
743.43	242.38
743.75	241.85
744.08	241.81
744.41	241.48
744.74	241.12
745.07	240.78
745.40	240.51
745.73	240.28
746.06	239.97
746.39	239.71
746.71	239.40
747.04	239.08
747.37	238.78
747.70	238.51
748.03	238.22
748.36	238.00
748.68	237.75
749.01	237.36
749.34	237.02
749.67	236.74
750.00	236.56
750.33	236.45
750.65	236.19
750.98	235.72
751.31	235.49
751.64	235.30
751.97	235.20
752.29	234.92
752.62	234.55
752.95	234.29
753.28	234.00
753.60	233.76
753.93	233.58
754.26	233.38
754.59	233.12
754.91	232.86
755.24	232.60
755.57	232.37
755.90	232.18
756.22	231.99
756.55	231.77
756.88	231.50
757.20	231.12
757.53	230.86
757.86	230.62
758.19	230.45
758.51	230.23
758.84	229.88
759.17	229.69
759.49	229.56
759.82	229.51
760.15	229.38
760.47	229.20
760.80	228.95
761.13	228.77
761.45	228.61
761.78	228.44
762.11	228.25
762.43	228.07
762.76	227.90
763.08	227.74
763.41	227.61
763.74	227.48
764.06	227.34
764.39	227.20
764.71	227.03
765.04	226.84
765.37	226.69
765.69	226.56
766.02	226.44
766.34	226.27
766.67	226.06
767.00	225.93
767.32	225.92
767.65	225.94
767.97	225.81
768.30	225.69
768.62	225.59
768.95	225.49
769.27	225.35
769.60	225.25
769.92	225.12
770.25	224.93
770.57	224.79
770.90	224.66
771.22	224.53
771.55	224.44
771.87	224.37
772.20	224.25
772.52	224.33
772.85	224.48
773.17	224.36
773.50	224.24
773.82	224.14
774.15	223.93
774.47	223.71
774.80	223.59
775.12	223.49
775.45	223.43
775.77	223.35
776.09	223.28
776.42	223.19
776.74	223.15
777.07	223.10
777.39	223.02
777.72	222.91
778.04	222.84
778.36	222.74
778.69	222.65
779.01	222.58
779.33	222.30
779.66	221.96
779.98	221.86
780.31	221.82
780.63	221.81
780.95	221.78
781.28	221.69
781.60	221.61
781.92	221.53
782.25	221.46
782.57	221.36
782.89	221.26
783.22	221.20
783.54	221.07
783.86	221.00
784.19	220.91
784.51	220.90
784.83	220.84
785.16	220.77
785.48	220.71
785.80	220.65
786.12	220.64
