SpectraSuite Data File
++++++++++++++++++++++++++++++++++++
Date: Tue Jan 29 16:04:34 EST 2013
User: group
Dark Spectrum Present: No
Reference Spectrum Present: No
Number of Sampled Component Spectra: 1
Spectrometers: USB2E7196
Integration Time (usec): 65000 (USB2E7196)
Spectra Averaged: 100 (USB2E7196)
Boxcar Smoothing: 10 (USB2E7196)
Correct for Electrical Dark: No (USB2E7196)
Strobe/Lamp Enabled: No (USB2E7196)
Correct for Detector Non-linearity: No (USB2E7196)
Correct for Stray Light: No (USB2E7196)
Number of Pixels in Processed Spectrum: 2048
>>>>>Begin Processed Spectral Data<<<<<
339.09	0.00
339.48	202.99
339.86	204.39
340.24	205.54
340.63	206.77
341.01	211.57
341.39	209.84
341.78	211.14
342.16	212.97
342.54	212.83
342.93	201.81
343.31	212.00
343.69	212.51
344.07	212.98
344.46	213.45
344.84	213.86
345.22	214.01
345.60	214.27
345.99	214.48
346.37	214.62
346.75	214.71
347.13	214.81
347.52	214.85
347.90	215.01
348.28	215.06
348.66	215.10
349.05	215.06
349.43	215.12
349.81	215.21
350.19	215.30
350.57	215.37
350.96	215.46
351.34	215.57
351.72	215.69
352.10	215.82
352.48	215.87
352.87	215.93
353.25	216.00
353.63	216.09
354.01	216.16
354.39	216.19
354.77	216.28
355.15	216.39
355.54	216.45
355.92	216.46
356.30	216.55
356.68	216.76
357.06	216.88
357.44	216.93
357.82	217.00
358.20	217.12
358.58	217.21
358.97	217.28
359.35	217.36
359.73	217.44
360.11	217.45
360.49	217.51
360.87	217.57
361.25	217.66
361.63	217.76
362.01	217.80
362.39	217.84
362.77	217.94
363.15	217.96
363.53	218.02
363.91	218.04
364.29	218.06
364.67	217.90
365.05	217.92
365.43	217.93
365.81	217.96
366.19	218.02
366.57	218.09
366.95	218.10
367.33	218.08
367.71	218.08
368.09	218.11
368.47	218.12
368.85	218.10
369.23	218.14
369.61	218.03
369.99	218.10
370.37	218.13
370.75	218.17
371.13	218.10
371.51	218.06
371.89	218.06
372.27	218.04
372.65	218.01
373.03	217.99
373.41	217.96
373.78	217.93
374.16	217.78
374.54	217.69
374.92	217.61
375.30	217.61
375.68	217.54
376.06	217.49
376.44	217.42
376.82	217.38
377.19	217.28
377.57	217.27
377.95	217.13
378.33	217.05
378.71	216.88
379.09	216.88
379.47	216.84
379.84	216.74
380.22	216.70
380.60	216.68
380.98	216.64
381.36	216.62
381.73	216.56
382.11	216.59
382.49	216.57
382.87	216.54
383.25	216.49
383.62	216.70
384.00	216.62
384.38	216.59
384.76	216.61
385.13	216.67
385.51	216.61
385.89	216.60
386.27	216.58
386.64	216.61
387.02	216.54
387.40	216.50
387.78	216.53
388.15	216.48
388.53	216.39
388.91	216.34
389.29	216.31
389.66	216.31
390.04	216.23
390.42	216.23
390.79	216.20
391.17	216.16
391.55	215.93
391.92	215.97
392.30	215.98
392.68	215.91
393.05	215.86
393.43	215.89
393.81	215.87
394.18	215.86
394.56	215.80
394.94	215.88
395.31	215.85
395.69	215.89
396.06	215.93
396.44	215.99
396.82	215.98
397.19	216.07
397.57	216.07
397.95	216.11
398.32	216.08
398.70	216.12
399.07	216.21
399.45	216.25
399.82	216.26
400.20	216.33
400.58	216.38
400.95	216.37
401.33	216.46
401.70	216.69
402.08	216.80
402.45	216.93
402.83	217.01
403.20	217.14
403.58	217.26
403.95	217.45
404.33	217.60
404.71	217.76
405.08	218.04
405.46	218.21
405.83	218.41
406.21	218.64
406.58	218.87
406.96	219.08
407.33	219.33
407.70	219.62
408.08	220.04
408.45	220.38
408.83	220.75
409.20	221.07
409.58	221.29
409.95	221.72
410.33	222.16
410.70	222.62
411.08	223.15
411.45	223.68
411.82	224.20
412.20	224.85
412.57	225.66
412.95	226.22
413.32	227.02
413.69	227.83
414.07	228.68
414.44	229.65
414.82	230.63
415.19	231.74
415.56	232.90
415.94	234.03
416.31	235.40
416.68	236.78
417.06	238.34
417.43	239.81
417.81	241.46
418.18	243.16
418.55	245.03
418.93	246.99
419.30	249.03
419.67	251.17
420.04	253.35
420.42	255.67
420.79	258.37
421.16	261.06
421.54	263.84
421.91	266.70
422.28	269.68
422.66	272.85
423.03	276.00
423.40	279.22
423.77	282.70
424.15	286.23
424.52	289.91
424.89	293.93
425.26	297.90
425.64	301.67
426.01	305.83
426.38	310.14
426.75	314.52
427.13	319.05
427.50	323.85
427.87	328.90
428.24	333.91
428.61	338.73
428.99	344.05
429.36	349.83
429.73	355.59
430.10	361.27
430.47	367.13
430.85	373.17
431.22	379.64
431.59	386.49
431.96	393.06
432.33	400.30
432.70	407.30
433.08	415.56
433.45	423.33
433.82	431.06
434.19	439.58
434.56	448.02
434.93	456.09
435.30	464.11
435.68	472.89
436.05	481.58
436.42	490.14
436.79	497.97
437.16	506.44
437.53	515.39
437.90	524.22
438.27	532.78
438.64	541.72
439.01	550.06
439.38	557.39
439.75	564.48
440.13	572.62
440.50	580.26
440.87	586.39
441.24	592.82
441.61	599.88
441.98	605.12
442.35	611.11
442.72	617.20
443.09	622.99
443.46	626.64
443.83	628.93
444.20	631.06
444.57	634.13
444.94	635.48
445.31	636.80
445.68	638.13
446.05	638.77
446.42	637.90
446.79	636.89
447.16	635.81
447.53	635.04
447.90	631.81
448.27	628.60
448.64	624.14
449.01	620.88
449.37	615.17
449.74	609.69
450.11	603.08
450.48	595.89
450.85	588.65
451.22	582.32
451.59	576.45
451.96	570.80
452.33	563.14
452.70	556.30
453.07	548.14
453.43	539.78
453.80	531.80
454.17	524.22
454.54	516.93
454.91	509.02
455.28	501.39
455.65	494.27
456.02	487.09
456.38	480.98
456.75	473.44
457.12	467.19
457.49	460.98
457.86	455.09
458.23	449.99
458.59	444.36
458.96	438.67
459.33	433.60
459.70	428.47
460.07	424.47
460.43	419.82
460.80	415.45
461.17	411.67
461.54	407.63
461.91	403.72
462.27	399.76
462.64	396.46
463.01	392.78
463.38	389.21
463.74	385.67
464.11	382.55
464.48	379.82
464.85	376.83
465.21	374.45
465.58	371.85
465.95	368.78
466.32	366.26
466.68	363.73
467.05	361.24
467.42	358.79
467.78	356.21
468.15	353.79
468.52	351.94
468.88	349.53
469.25	347.43
469.62	345.74
469.98	343.91
470.35	342.22
470.72	340.58
471.08	338.91
471.45	337.46
471.82	336.02
472.18	334.37
472.55	333.22
472.92	331.90
473.28	330.74
473.65	329.65
474.02	328.63
474.38	327.81
474.75	327.15
475.11	326.36
475.48	325.82
475.85	325.33
476.21	324.89
476.58	324.56
476.94	324.38
477.31	324.09
477.67	323.90
478.04	323.78
478.41	323.79
478.77	323.90
479.14	323.86
479.50	324.00
479.87	324.34
480.23	324.63
480.60	324.89
480.96	325.25
481.33	325.89
481.69	326.41
482.06	326.90
482.42	327.38
482.79	328.02
483.15	328.79
483.52	329.80
483.88	330.69
484.25	331.65
484.61	332.68
484.98	333.78
485.34	335.07
485.71	336.42
486.07	337.83
486.44	339.23
486.80	340.88
487.17	342.58
487.53	344.42
487.90	346.31
488.26	348.35
488.62	350.50
488.99	352.50
489.35	354.71
489.72	357.08
490.08	359.59
490.44	362.15
490.81	364.82
491.17	367.51
491.54	370.40
491.90	373.43
492.26	376.64
492.63	379.99
492.99	383.49
493.36	387.14
493.72	391.02
494.08	395.02
494.45	399.18
494.81	403.50
495.17	407.98
495.54	412.69
495.90	417.52
496.26	422.40
496.63	427.59
496.99	432.98
497.35	438.62
497.72	444.40
498.08	450.31
498.44	456.44
498.80	462.87
499.17	469.47
499.53	476.12
499.89	483.00
500.26	490.01
500.62	497.05
500.98	504.45
501.34	511.83
501.71	519.53
502.07	527.37
502.43	535.36
502.79	543.52
503.16	551.89
503.52	560.43
503.88	569.13
504.24	578.14
504.60	587.15
504.97	596.32
505.33	605.56
505.69	615.35
506.05	625.13
506.41	634.92
506.78	644.93
507.14	655.19
507.50	665.56
507.86	676.20
508.22	687.00
508.59	697.61
508.95	708.69
509.31	719.89
509.67	731.31
510.03	742.69
510.39	754.33
510.75	766.13
511.12	778.01
511.48	790.01
511.84	802.10
512.20	814.43
512.56	827.01
512.92	839.78
513.28	852.40
513.64	865.13
514.00	877.85
514.37	890.68
514.73	903.65
515.09	916.48
515.45	929.20
515.81	942.04
516.17	955.23
516.53	968.29
516.89	981.22
517.25	994.28
517.61	1007.63
517.97	1020.77
518.33	1033.72
518.69	1047.20
519.05	1060.86
519.41	1074.33
519.77	1087.98
520.13	1101.03
520.49	1114.01
520.85	1127.08
521.21	1140.25
521.57	1153.77
521.93	1166.76
522.29	1180.32
522.65	1193.80
523.01	1207.26
523.37	1220.25
523.73	1233.30
524.09	1246.26
524.45	1259.51
524.81	1272.65
525.17	1285.73
525.53	1298.71
525.89	1311.75
526.25	1324.52
526.61	1336.96
526.97	1349.78
527.33	1362.53
527.68	1375.86
528.04	1388.97
528.40	1401.87
528.76	1414.87
529.12	1427.39
529.48	1440.26
529.84	1452.16
530.20	1464.60
530.56	1476.90
530.91	1489.98
531.27	1502.70
531.63	1515.35
531.99	1527.82
532.35	1539.78
532.71	1551.93
533.07	1564.51
533.42	1576.44
533.78	1588.28
534.14	1600.16
534.50	1611.14
534.86	1622.42
535.21	1632.88
535.57	1644.12
535.93	1655.23
536.29	1666.02
536.65	1677.23
537.00	1687.96
537.36	1699.13
537.72	1709.93
538.08	1720.80
538.44	1731.40
538.79	1742.08
539.15	1752.57
539.51	1763.02
539.87	1774.12
540.22	1784.63
540.58	1795.29
540.94	1805.89
541.29	1815.84
541.65	1825.30
542.01	1835.61
542.37	1845.32
542.72	1855.25
543.08	1864.85
543.44	1874.89
543.79	1883.99
544.15	1893.12
544.51	1902.81
544.87	1912.35
545.22	1921.15
545.58	1929.85
545.94	1938.31
546.29	1946.72
546.65	1954.76
547.01	1962.69
547.36	1970.04
547.72	1977.56
548.07	1984.89
548.43	1992.39
548.79	2000.10
549.14	2007.97
549.50	2016.07
549.86	2023.58
550.21	2030.76
550.57	2038.14
550.92	2044.68
551.28	2051.93
551.64	2059.07
551.99	2066.46
552.35	2073.43
552.70	2080.13
553.06	2086.77
553.41	2092.86
553.77	2099.01
554.13	2105.20
554.48	2112.13
554.84	2118.99
555.19	2125.33
555.55	2131.69
555.90	2137.87
556.26	2144.32
556.61	2150.13
556.97	2154.83
557.32	2160.54
557.68	2166.87
558.03	2172.42
558.39	2177.60
558.74	2183.39
559.10	2188.88
559.45	2194.28
559.81	2199.77
560.16	2205.45
560.52	2211.34
560.87	2217.71
561.23	2223.71
561.58	2230.33
561.94	2235.53
562.29	2240.49
562.64	2246.65
563.00	2252.19
563.35	2257.74
563.71	2263.58
564.06	2269.34
564.42	2275.42
564.77	2280.68
565.12	2285.86
565.48	2291.25
565.83	2297.00
566.19	2302.74
566.54	2308.24
566.89	2312.98
567.25	2317.50
567.60	2323.17
567.96	2328.28
568.31	2333.11
568.66	2337.45
569.02	2341.43
569.37	2345.15
569.72	2349.59
570.08	2353.05
570.43	2356.19
570.78	2359.31
571.14	2362.07
571.49	2365.23
571.84	2368.83
572.20	2371.86
572.55	2375.08
572.90	2377.42
573.26	2380.52
573.61	2382.86
573.96	2384.91
574.31	2386.93
574.67	2388.95
575.02	2389.97
575.37	2391.53
575.72	2392.38
576.08	2393.95
576.43	2394.34
576.78	2395.27
577.13	2397.16
577.49	2398.48
577.84	2399.96
578.19	2401.61
578.54	2402.54
578.90	2403.79
579.25	2403.83
579.60	2403.99
579.95	2403.56
580.30	2403.99
580.66	2403.31
581.01	2401.84
581.36	2400.03
581.71	2398.88
582.06	2398.25
582.42	2397.49
582.77	2395.62
583.12	2394.22
583.47	2393.07
583.82	2392.79
584.17	2391.71
584.53	2389.65
584.88	2387.95
585.23	2386.10
585.58	2383.99
585.93	2381.84
586.28	2379.62
586.63	2377.58
586.98	2375.55
587.34	2373.74
587.69	2371.57
588.04	2369.79
588.39	2368.58
588.74	2366.31
589.09	2363.98
589.44	2361.14
589.79	2359.09
590.14	2357.40
590.49	2354.67
590.84	2351.12
591.19	2348.21
591.54	2344.96
591.89	2341.05
592.25	2337.86
592.60	2333.88
592.95	2329.96
593.30	2325.93
593.65	2321.76
594.00	2317.45
594.35	2314.53
594.70	2309.88
595.05	2305.18
595.40	2299.81
595.75	2294.45
596.10	2290.91
596.45	2286.05
596.80	2281.49
597.15	2276.12
597.50	2270.26
597.85	2265.44
598.19	2260.20
598.54	2254.46
598.89	2249.44
599.24	2244.94
599.59	2238.92
599.94	2233.47
600.29	2227.75
600.64	2222.07
600.99	2215.47
601.34	2210.13
601.69	2203.13
602.04	2196.85
602.39	2190.67
602.74	2184.74
603.08	2179.18
603.43	2172.59
603.78	2165.95
604.13	2158.79
604.48	2151.69
604.83	2145.79
605.18	2139.52
605.53	2132.77
605.87	2125.84
606.22	2119.28
606.57	2111.54
606.92	2103.86
607.27	2096.86
607.62	2090.21
607.96	2083.18
608.31	2076.76
608.66	2068.98
609.01	2061.57
609.36	2054.48
609.70	2046.74
610.05	2039.00
610.40	2030.71
610.75	2022.56
611.10	2014.94
611.44	2006.45
611.79	1997.59
612.14	1987.47
612.49	1977.07
612.83	1967.98
613.18	1958.87
613.53	1949.43
613.88	1939.81
614.22	1931.24
614.57	1921.37
614.92	1910.91
615.27	1900.87
615.61	1890.91
615.96	1881.33
616.31	1871.82
616.65	1862.58
617.00	1852.56
617.35	1842.97
617.70	1833.28
618.04	1823.22
618.39	1812.83
618.74	1803.04
619.08	1793.58
619.43	1784.99
619.78	1776.82
620.12	1768.00
620.47	1758.11
620.82	1747.80
621.16	1738.04
621.51	1728.01
621.85	1718.19
622.20	1707.70
622.55	1697.25
622.89	1687.41
623.24	1677.70
623.59	1667.81
623.93	1657.66
624.28	1648.03
624.62	1637.74
624.97	1627.55
625.32	1617.91
625.66	1609.16
626.01	1600.31
626.35	1590.91
626.70	1580.74
627.04	1570.50
627.39	1560.40
627.73	1551.11
628.08	1542.00
628.43	1532.43
628.77	1523.22
629.12	1514.31
629.46	1506.44
629.81	1497.84
630.15	1488.05
630.50	1478.16
630.84	1467.73
631.19	1457.82
631.53	1448.42
631.88	1438.25
632.22	1428.10
632.57	1418.65
632.91	1408.37
633.26	1398.45
633.60	1388.85
633.95	1379.51
634.29	1370.19
634.64	1360.75
634.98	1350.89
635.32	1341.64
635.67	1333.09
636.01	1323.79
636.36	1313.96
636.70	1304.34
637.05	1294.99
637.39	1286.10
637.73	1277.58
638.08	1270.05
638.42	1261.75
638.77	1252.93
639.11	1244.80
639.45	1236.92
639.80	1228.24
640.14	1219.60
640.49	1210.78
640.83	1202.06
641.17	1194.02
641.52	1185.71
641.86	1177.16
642.20	1169.38
642.55	1160.80
642.89	1151.90
643.23	1143.26
643.58	1135.17
643.92	1126.12
644.26	1117.57
644.61	1109.19
644.95	1100.27
645.29	1090.88
645.64	1081.84
645.98	1073.57
646.32	1065.65
646.66	1057.19
647.01	1048.83
647.35	1040.74
647.69	1032.23
648.04	1023.89
648.38	1014.90
648.72	1006.07
649.06	997.65
649.41	989.45
649.75	981.40
650.09	973.60
650.43	965.51
650.78	957.30
651.12	949.71
651.46	942.15
651.80	934.91
652.14	927.61
652.49	920.15
652.83	912.68
653.17	904.80
653.51	897.13
653.85	889.96
654.20	882.71
654.54	875.16
654.88	868.16
655.22	861.05
655.56	854.11
655.90	847.42
656.25	840.81
656.59	833.86
656.93	826.93
657.27	819.82
657.61	812.94
657.95	806.87
658.29	801.08
658.64	795.02
658.98	788.56
659.32	782.03
659.66	775.88
660.00	769.60
660.34	763.74
660.68	757.69
661.02	751.37
661.36	745.55
661.70	739.78
662.05	734.09
662.39	728.49
662.73	723.16
663.07	717.84
663.41	712.32
663.75	706.66
664.09	701.11
664.43	695.81
664.77	690.50
665.11	684.75
665.45	678.82
665.79	673.09
666.13	667.45
666.47	662.05
666.81	656.70
667.15	651.43
667.49	646.28
667.83	641.03
668.17	635.89
668.51	630.83
668.85	626.00
669.19	621.17
669.53	616.34
669.87	611.26
670.21	606.46
670.55	601.75
670.89	597.44
671.23	593.22
671.57	588.85
671.91	584.58
672.25	580.42
672.58	576.35
672.92	572.32
673.26	568.51
673.60	564.68
673.94	560.83
674.28	557.18
674.62	553.41
674.96	549.75
675.30	546.27
675.64	542.67
675.97	539.14
676.31	535.60
676.65	531.98
676.99	528.56
677.33	524.84
677.67	521.26
678.01	517.37
678.34	513.70
678.68	510.21
679.02	506.63
679.36	503.01
679.70	499.41
680.04	496.00
680.37	492.54
680.71	489.27
681.05	486.17
681.39	483.08
681.73	480.00
682.06	477.04
682.40	473.98
682.74	470.79
683.08	467.58
683.42	464.48
683.75	461.62
684.09	458.68
684.43	455.90
684.77	452.99
685.10	450.28
685.44	447.42
685.78	444.53
686.12	441.90
686.45	439.20
686.79	436.56
687.13	434.03
687.46	431.46
687.80	428.82
688.14	426.02
688.48	423.43
688.81	420.81
689.15	418.26
689.49	415.75
689.82	413.29
690.16	410.80
690.50	408.36
690.83	405.83
691.17	403.34
691.51	400.90
691.84	398.73
692.18	396.56
692.52	394.40
692.85	392.34
693.19	390.21
693.52	388.08
693.86	385.94
694.20	383.79
694.53	381.72
694.87	379.56
695.21	377.50
695.54	375.34
695.88	373.25
696.21	371.09
696.55	368.98
696.88	367.01
697.22	365.09
697.56	363.24
697.89	361.44
698.23	359.74
698.56	358.01
698.90	356.26
699.23	354.34
699.57	352.50
699.90	350.66
700.24	348.88
700.58	347.21
700.91	345.56
701.25	344.03
701.58	342.45
701.92	340.93
702.25	339.35
702.59	337.81
702.92	336.29
703.26	334.78
703.59	333.39
703.93	332.14
704.26	330.72
704.60	329.23
704.93	327.81
705.26	326.32
705.60	324.88
705.93	323.39
706.27	322.11
706.60	320.90
706.94	319.70
707.27	318.31
707.61	317.01
707.94	315.70
708.27	314.20
708.61	312.77
708.94	311.43
709.28	310.16
709.61	308.94
709.94	307.73
710.28	306.57
710.61	305.35
710.95	303.95
711.28	302.93
711.61	301.74
711.95	300.63
712.28	299.50
712.61	298.35
712.95	297.35
713.28	296.33
713.61	295.22
713.95	294.07
714.28	293.07
714.61	292.06
714.95	291.03
715.28	290.06
715.61	289.12
715.95	288.21
716.28	287.27
716.61	286.32
716.95	285.36
717.28	284.47
717.61	283.55
717.94	282.69
718.28	281.65
718.61	280.88
718.94	279.97
719.27	279.15
719.61	278.38
719.94	277.51
720.27	276.57
720.60	275.74
720.94	274.96
721.27	274.30
721.60	273.63
721.93	272.98
722.27	272.35
722.60	271.68
722.93	270.99
723.26	270.37
723.59	269.72
723.93	269.13
724.26	268.48
724.59	267.87
724.92	267.30
725.25	266.83
725.59	266.28
725.92	265.78
726.25	265.23
726.58	264.69
726.91	264.15
727.24	263.67
727.57	263.17
727.91	262.62
728.24	262.08
728.57	261.49
728.90	260.93
729.23	260.37
729.56	259.93
729.89	259.37
730.22	258.81
730.55	258.30
730.89	257.76
731.22	257.24
731.55	256.69
731.88	256.19
732.21	255.65
732.54	255.12
732.87	254.61
733.20	254.14
733.53	253.66
733.86	253.19
734.19	252.71
734.52	252.30
734.85	252.03
735.18	251.52
735.51	251.15
735.84	250.74
736.17	250.33
736.50	249.83
736.83	249.73
737.16	249.36
737.49	249.01
737.82	248.62
738.15	248.27
738.48	247.94
738.81	247.55
739.14	247.15
739.47	246.78
739.80	246.42
740.13	246.09
740.46	245.69
740.79	245.30
741.12	244.96
741.45	244.57
741.78	244.12
742.11	243.85
742.44	243.46
742.77	243.18
743.10	242.87
743.43	242.54
743.75	241.96
744.08	241.88
744.41	241.49
744.74	241.16
745.07	240.84
745.40	240.55
745.73	240.31
746.06	240.00
746.39	239.72
746.71	239.36
747.04	238.99
747.37	238.66
747.70	238.44
748.03	238.12
748.36	237.86
748.68	237.55
749.01	237.21
749.34	236.95
749.67	236.65
750.00	236.36
750.33	236.25
750.65	235.98
750.98	235.48
751.31	235.25
751.64	235.02
751.97	234.87
752.29	234.62
752.62	234.27
752.95	234.02
753.28	233.73
753.60	233.55
753.93	233.41
754.26	233.23
754.59	232.94
754.91	232.71
755.24	232.52
755.57	232.29
755.90	232.05
756.22	231.82
756.55	231.58
756.88	231.31
757.20	230.96
757.53	230.72
757.86	230.50
758.19	230.34
758.51	230.13
758.84	229.84
759.17	229.63
759.49	229.46
759.82	229.38
760.15	229.26
760.47	229.05
760.80	228.82
761.13	228.68
761.45	228.54
761.78	228.38
762.11	228.18
762.43	227.99
762.76	227.85
763.08	227.74
763.41	227.61
763.74	227.51
764.06	227.37
764.39	227.22
764.71	227.07
765.04	226.91
765.37	226.77
765.69	226.60
766.02	226.45
766.34	226.31
766.67	226.12
767.00	226.04
767.32	226.03
767.65	226.01
767.97	225.87
768.30	225.74
768.62	225.63
768.95	225.47
769.27	225.36
769.60	225.28
769.92	225.12
770.25	224.95
770.57	224.82
770.90	224.69
771.22	224.57
771.55	224.47
771.87	224.37
772.20	224.25
772.52	224.29
772.85	224.43
773.17	224.33
773.50	224.19
773.82	224.04
774.15	223.89
774.47	223.67
774.80	223.53
775.12	223.41
775.45	223.28
775.77	223.23
776.09	223.19
776.42	223.06
776.74	223.04
777.07	222.99
777.39	222.89
777.72	222.81
778.04	222.77
778.36	222.70
778.69	222.61
779.01	222.57
779.33	222.34
779.66	222.05
779.98	221.96
780.31	221.91
780.63	221.94
780.95	221.83
781.28	221.78
781.60	221.76
781.92	221.68
782.25	221.64
782.57	221.56
782.89	221.48
783.22	221.43
783.54	221.27
783.86	221.20
784.19	221.12
784.51	221.11
784.83	220.98
785.16	220.90
785.48	220.83
785.80	220.80
786.12	220.79
