SpectraSuite Data File
++++++++++++++++++++++++++++++++++++
Date: Tue Jan 29 16:28:47 EST 2013
User: group
Dark Spectrum Present: No
Reference Spectrum Present: No
Number of Sampled Component Spectra: 1
Spectrometers: USB2E7196
Integration Time (usec): 65000 (USB2E7196)
Spectra Averaged: 100 (USB2E7196)
Boxcar Smoothing: 10 (USB2E7196)
Correct for Electrical Dark: No (USB2E7196)
Strobe/Lamp Enabled: No (USB2E7196)
Correct for Detector Non-linearity: No (USB2E7196)
Correct for Stray Light: No (USB2E7196)
Number of Pixels in Processed Spectrum: 2048
>>>>>Begin Processed Spectral Data<<<<<
339.09	0.00
339.48	201.81
339.86	203.42
340.24	204.11
340.63	206.32
341.01	210.38
341.39	208.85
341.78	210.88
342.16	211.89
342.54	211.98
342.93	201.02
343.31	211.16
343.69	211.70
344.07	212.15
344.46	212.63
344.84	213.02
345.22	213.21
345.60	213.48
345.99	213.67
346.37	213.81
346.75	213.90
347.13	213.98
347.52	214.07
347.90	214.22
348.28	214.30
348.66	214.38
349.05	214.40
349.43	214.50
349.81	214.56
350.19	214.58
350.57	214.64
350.96	214.77
351.34	214.89
351.72	214.99
352.10	215.10
352.48	215.17
352.87	215.23
353.25	215.29
353.63	215.37
354.01	215.43
354.39	215.51
354.77	215.62
355.15	215.75
355.54	215.77
355.92	215.76
356.30	215.83
356.68	216.08
357.06	216.14
357.44	216.16
357.82	216.22
358.20	216.33
358.58	216.40
358.97	216.49
359.35	216.60
359.73	216.74
360.11	216.80
360.49	216.90
360.87	216.96
361.25	217.04
361.63	217.15
362.01	217.20
362.39	217.26
362.77	217.31
363.15	217.32
363.53	217.39
363.91	217.43
364.29	217.43
364.67	217.23
365.05	217.26
365.43	217.32
365.81	217.37
366.19	217.46
366.57	217.52
366.95	217.53
367.33	217.50
367.71	217.47
368.09	217.52
368.47	217.50
368.85	217.51
369.23	217.56
369.61	217.42
369.99	217.49
370.37	217.49
370.75	217.55
371.13	217.47
371.51	217.44
371.89	217.45
372.27	217.45
372.65	217.46
373.03	217.41
373.41	217.36
373.78	217.31
374.16	217.13
374.54	217.08
374.92	217.00
375.30	216.95
375.68	216.86
376.06	216.83
376.44	216.77
376.82	216.72
377.19	216.67
377.57	216.70
377.95	216.56
378.33	216.46
378.71	216.32
379.09	216.32
379.47	216.30
379.84	216.23
380.22	216.17
380.60	216.10
380.98	216.06
381.36	216.02
381.73	215.96
382.11	216.00
382.49	215.95
382.87	215.88
383.25	215.82
383.62	216.06
384.00	215.95
384.38	215.91
384.76	215.90
385.13	215.93
385.51	215.86
385.89	215.79
386.27	215.79
386.64	215.81
387.02	215.77
387.40	215.70
387.78	215.72
388.15	215.73
388.53	215.68
388.91	215.69
389.29	215.63
389.66	215.64
390.04	215.59
390.42	215.62
390.79	215.60
391.17	215.59
391.55	215.31
391.92	215.32
392.30	215.35
392.68	215.29
393.05	215.24
393.43	215.24
393.81	215.25
394.18	215.21
394.56	215.20
394.94	215.23
395.31	215.22
395.69	215.26
396.06	215.28
396.44	215.29
396.82	215.25
397.19	215.39
397.57	215.41
397.95	215.48
398.32	215.44
398.70	215.53
399.07	215.62
399.45	215.65
399.82	215.69
400.20	215.72
400.58	215.82
400.95	215.78
401.33	215.91
401.70	216.16
402.08	216.26
402.45	216.33
402.83	216.47
403.20	216.62
403.58	216.69
403.95	216.83
404.33	217.02
404.71	217.20
405.08	217.49
405.46	217.64
405.83	217.84
406.21	218.04
406.58	218.27
406.96	218.47
407.33	218.74
407.70	219.02
408.08	219.47
408.45	219.81
408.83	220.27
409.20	220.62
409.58	220.87
409.95	221.36
410.33	221.88
410.70	222.29
411.08	222.84
411.45	223.40
411.82	223.99
412.20	224.67
412.57	225.50
412.95	226.02
413.32	226.87
413.69	227.70
414.07	228.63
414.44	229.61
414.82	230.69
415.19	231.90
415.56	233.11
415.94	234.31
416.31	235.72
416.68	237.10
417.06	238.67
417.43	240.24
417.81	241.96
418.18	243.72
418.55	245.68
418.93	247.68
419.30	249.80
419.67	252.03
420.04	254.30
420.42	256.65
420.79	259.50
421.16	262.26
421.54	265.11
421.91	268.05
422.28	271.13
422.66	274.40
423.03	277.64
423.40	280.97
423.77	284.57
424.15	288.24
424.52	292.06
424.89	296.24
425.26	300.33
425.64	304.23
426.01	308.53
426.38	313.01
426.75	317.56
427.13	322.29
427.50	327.24
427.87	332.45
428.24	337.64
428.61	342.59
428.99	348.09
429.36	354.16
429.73	360.05
430.10	365.92
430.47	371.89
430.85	378.19
431.22	384.91
431.59	391.95
431.96	398.75
432.33	406.21
432.70	413.38
433.08	421.83
433.45	429.83
433.82	437.83
434.19	446.69
434.56	455.42
434.93	463.70
435.30	471.96
435.68	481.07
436.05	490.05
436.42	498.94
436.79	507.15
437.16	515.86
437.53	525.14
437.90	534.30
438.27	543.39
438.64	552.58
439.01	561.08
439.38	568.64
439.75	575.89
440.13	584.35
440.50	592.36
440.87	598.83
441.24	605.48
441.61	612.84
441.98	618.19
442.35	624.49
442.72	630.85
443.09	636.93
443.46	640.62
443.83	643.23
444.20	645.44
444.57	648.48
444.94	649.92
445.31	651.35
445.68	652.65
446.05	653.19
446.42	652.40
446.79	651.52
447.16	650.39
447.53	649.71
447.90	646.38
448.27	643.07
448.64	638.44
449.01	635.08
449.37	629.10
449.74	623.41
450.11	616.52
450.48	609.11
450.85	601.62
451.22	595.14
451.59	588.93
451.96	583.12
452.33	575.33
452.70	568.25
453.07	559.79
453.43	551.22
453.80	542.98
454.17	534.96
454.54	527.38
454.91	519.30
455.28	511.31
455.65	503.88
456.02	496.44
456.38	490.09
456.75	482.27
457.12	475.74
457.49	469.29
457.86	463.08
458.23	457.74
458.59	451.88
458.96	445.89
459.33	440.58
459.70	435.20
460.07	430.97
460.43	426.08
460.80	421.49
461.17	417.50
461.54	413.27
461.91	409.28
462.27	405.16
462.64	401.76
463.01	397.95
463.38	394.26
463.74	390.58
464.11	387.35
464.48	384.51
464.85	381.43
465.21	379.01
465.58	376.40
465.95	373.27
466.32	370.66
466.68	368.10
467.05	365.49
467.42	362.94
467.78	360.24
468.15	357.74
468.52	355.89
468.88	353.41
469.25	351.25
469.62	349.46
469.98	347.53
470.35	345.73
470.72	344.02
471.08	342.27
471.45	340.77
471.82	339.27
472.18	337.62
472.55	336.44
472.92	335.03
473.28	333.83
473.65	332.69
474.02	331.57
474.38	330.65
474.75	329.94
475.11	329.16
475.48	328.60
475.85	328.08
476.21	327.55
476.58	327.24
476.94	326.97
477.31	326.66
477.67	326.40
478.04	326.19
478.41	326.20
478.77	326.32
479.14	326.21
479.50	326.33
479.87	326.57
480.23	326.84
480.60	327.11
480.96	327.38
481.33	327.93
481.69	328.52
482.06	329.06
482.42	329.52
482.79	330.10
483.15	330.86
483.52	331.84
483.88	332.72
484.25	333.67
484.61	334.68
484.98	335.76
485.34	337.08
485.71	338.51
486.07	339.94
486.44	341.23
486.80	342.90
487.17	344.56
487.53	346.44
487.90	348.38
488.26	350.40
488.62	352.57
488.99	354.64
489.35	356.76
489.72	359.18
490.08	361.72
490.44	364.27
490.81	367.00
491.17	369.64
491.54	372.62
491.90	375.66
492.26	378.93
492.63	382.31
492.99	385.79
493.36	389.44
493.72	393.34
494.08	397.39
494.45	401.61
494.81	406.01
495.17	410.47
495.54	415.17
495.90	420.08
496.26	424.99
496.63	430.25
496.99	435.70
497.35	441.27
497.72	447.11
498.08	453.11
498.44	459.21
498.80	465.71
499.17	472.23
499.53	478.92
499.89	485.79
500.26	492.80
500.62	499.94
500.98	507.34
501.34	514.82
501.71	522.68
502.07	530.54
502.43	538.60
502.79	546.78
503.16	555.20
503.52	563.76
503.88	572.61
504.24	581.55
504.60	590.73
504.97	600.00
505.33	609.34
505.69	619.19
506.05	629.14
506.41	639.06
506.78	649.24
507.14	659.54
507.50	670.08
507.86	680.88
508.22	691.66
508.59	702.44
508.95	713.57
509.31	724.86
509.67	736.42
510.03	747.83
510.39	759.70
510.75	771.63
511.12	783.64
511.48	795.76
511.84	808.15
512.20	820.43
512.56	833.12
512.92	846.04
513.28	858.88
513.64	871.79
514.00	884.72
514.37	897.77
514.73	911.00
515.09	924.15
515.45	937.16
515.81	950.40
516.17	963.91
516.53	977.25
516.89	990.44
517.25	1003.69
517.61	1017.37
517.97	1030.84
518.33	1044.17
518.69	1057.77
519.05	1071.61
519.41	1085.34
519.77	1099.40
520.13	1112.91
520.49	1126.16
520.85	1139.67
521.21	1153.00
521.57	1166.86
521.93	1180.07
522.29	1193.95
522.65	1207.74
523.01	1221.54
523.37	1234.90
523.73	1248.31
524.09	1261.58
524.45	1275.17
524.81	1288.77
525.17	1302.26
525.53	1315.50
525.89	1328.86
526.25	1342.23
526.61	1355.25
526.97	1368.48
527.33	1381.54
527.68	1395.18
528.04	1408.84
528.40	1422.07
528.76	1435.66
529.12	1448.58
529.48	1462.04
529.84	1474.44
530.20	1487.28
530.56	1499.89
530.91	1513.19
531.27	1526.20
531.63	1539.23
531.99	1552.13
532.35	1564.48
532.71	1576.96
533.07	1589.93
533.42	1602.37
533.78	1614.59
534.14	1626.69
534.50	1637.99
534.86	1649.68
535.21	1660.58
535.57	1672.14
535.93	1683.46
536.29	1694.63
536.65	1706.20
537.00	1717.24
537.36	1728.88
537.72	1740.01
538.08	1751.57
538.44	1762.59
538.79	1773.64
539.15	1784.60
539.51	1795.49
539.87	1806.89
540.22	1817.87
540.58	1828.99
540.94	1839.89
541.29	1850.25
541.65	1860.15
542.01	1870.77
542.37	1881.04
542.72	1891.22
543.08	1901.13
543.44	1911.79
543.79	1921.16
544.15	1930.69
544.51	1940.68
544.87	1950.46
545.22	1959.81
545.58	1968.80
545.94	1977.86
546.29	1986.58
546.65	1995.06
547.01	2003.39
547.36	2011.10
547.72	2018.91
548.07	2026.51
548.43	2034.36
548.79	2042.27
549.14	2050.49
549.50	2059.05
549.86	2066.92
550.21	2074.56
550.57	2082.37
550.92	2089.08
551.28	2096.67
551.64	2104.01
551.99	2111.61
552.35	2118.85
552.70	2125.68
553.06	2132.40
553.41	2138.58
553.77	2145.02
554.13	2151.41
554.48	2158.41
554.84	2165.63
555.19	2172.22
555.55	2178.70
555.90	2184.95
556.26	2191.87
556.61	2198.11
556.97	2203.01
557.32	2208.96
557.68	2215.39
558.03	2221.17
558.39	2226.65
558.74	2232.60
559.10	2238.17
559.45	2243.79
559.81	2249.47
560.16	2255.10
560.52	2261.11
560.87	2267.65
561.23	2273.64
561.58	2280.29
561.94	2285.62
562.29	2290.28
562.64	2296.27
563.00	2302.16
563.35	2307.81
563.71	2313.41
564.06	2319.03
564.42	2325.01
564.77	2330.02
565.12	2335.41
565.48	2340.42
565.83	2346.01
566.19	2351.43
566.54	2356.85
566.89	2361.54
567.25	2366.02
567.60	2371.82
567.96	2376.89
568.31	2381.38
568.66	2385.82
569.02	2389.74
569.37	2393.45
569.72	2397.91
570.08	2401.60
570.43	2404.65
570.78	2407.72
571.14	2410.38
571.49	2413.58
571.84	2417.08
572.20	2420.09
572.55	2422.88
572.90	2425.37
573.26	2428.08
573.61	2430.80
573.96	2433.07
574.31	2435.10
574.67	2437.11
575.02	2437.85
575.37	2439.26
575.72	2440.04
576.08	2441.45
576.43	2441.61
576.78	2442.17
577.13	2443.78
577.49	2445.00
577.84	2446.02
578.19	2447.49
578.54	2448.10
578.90	2448.73
579.25	2448.73
579.60	2448.56
579.95	2447.92
580.30	2447.92
580.66	2447.26
581.01	2445.50
581.36	2443.14
581.71	2441.67
582.06	2440.47
582.42	2439.47
582.77	2437.27
583.12	2435.66
583.47	2434.33
583.82	2433.78
584.17	2432.53
584.53	2430.39
584.88	2428.26
585.23	2426.39
585.58	2424.08
585.93	2422.07
586.28	2419.89
586.63	2417.39
586.98	2415.16
587.34	2413.06
587.69	2410.59
588.04	2408.58
588.39	2407.13
588.74	2404.72
589.09	2401.99
589.44	2398.78
589.79	2396.26
590.14	2394.26
590.49	2391.44
590.84	2387.50
591.19	2384.29
591.54	2380.94
591.89	2377.02
592.25	2373.55
592.60	2369.22
592.95	2365.00
593.30	2360.76
593.65	2356.39
594.00	2351.87
594.35	2348.86
594.70	2344.28
595.05	2339.79
595.40	2334.17
595.75	2328.35
596.10	2324.45
596.45	2319.55
596.80	2314.94
597.15	2309.81
597.50	2303.88
597.85	2298.84
598.19	2293.57
598.54	2287.67
598.89	2282.34
599.24	2277.67
599.59	2271.64
599.94	2265.74
600.29	2259.83
600.64	2253.88
600.99	2246.95
601.34	2241.46
601.69	2234.46
602.04	2227.84
602.39	2220.90
602.74	2214.71
603.08	2209.14
603.43	2202.73
603.78	2195.85
604.13	2188.80
604.48	2181.48
604.83	2175.26
605.18	2169.16
605.53	2162.16
605.87	2155.20
606.22	2148.45
606.57	2140.44
606.92	2132.30
607.27	2125.46
607.62	2118.54
607.96	2111.45
608.31	2105.01
608.66	2097.09
609.01	2089.31
609.36	2082.26
609.70	2074.71
610.05	2066.89
610.40	2058.43
610.75	2049.99
611.10	2042.28
611.44	2033.31
611.79	2024.47
612.14	2014.59
612.49	2003.70
612.83	1994.32
613.18	1985.04
613.53	1975.59
613.88	1965.92
614.22	1957.28
614.57	1947.34
614.92	1936.78
615.27	1926.51
615.61	1916.28
615.96	1906.59
616.31	1896.95
616.65	1887.51
617.00	1877.65
617.35	1868.07
617.70	1858.25
618.04	1848.11
618.39	1837.88
618.74	1828.00
619.08	1818.33
619.43	1809.40
619.78	1801.17
620.12	1792.54
620.47	1782.81
620.82	1772.41
621.16	1762.67
621.51	1752.66
621.85	1742.76
622.20	1732.42
622.55	1721.77
622.89	1711.74
623.24	1702.08
623.59	1692.33
623.93	1682.15
624.28	1672.34
624.62	1662.12
624.97	1651.89
625.32	1642.08
625.66	1633.14
626.01	1624.45
626.35	1615.01
626.70	1604.94
627.04	1594.74
627.39	1584.52
627.73	1575.22
628.08	1566.22
628.43	1556.53
628.77	1547.28
629.12	1538.25
629.46	1530.36
629.81	1522.07
630.15	1512.56
630.50	1502.67
630.84	1492.01
631.19	1481.98
631.53	1472.59
631.88	1462.35
632.22	1452.29
632.57	1442.96
632.91	1432.79
633.26	1422.87
633.60	1413.23
633.95	1403.81
634.29	1394.26
634.64	1384.90
634.98	1374.79
635.32	1365.47
635.67	1356.93
636.01	1347.60
636.36	1337.72
636.70	1328.12
637.05	1318.54
637.39	1309.54
637.73	1300.83
638.08	1293.24
638.42	1284.98
638.77	1276.14
639.11	1267.85
639.45	1259.96
639.80	1251.24
640.14	1242.42
640.49	1233.47
640.83	1224.63
641.17	1216.44
641.52	1208.18
641.86	1199.48
642.20	1191.58
642.55	1182.91
642.89	1173.89
643.23	1165.16
643.58	1156.98
643.92	1147.85
644.26	1139.04
644.61	1130.52
644.95	1121.58
645.29	1112.28
645.64	1103.01
645.98	1094.44
646.32	1086.43
646.66	1077.85
647.01	1069.43
647.35	1061.11
647.69	1052.75
648.04	1044.40
648.38	1035.38
648.72	1026.55
649.06	1018.06
649.41	1009.79
649.75	1001.76
650.09	993.86
650.43	985.79
650.78	977.42
651.12	969.68
651.46	962.22
651.80	954.94
652.14	947.54
652.49	940.00
652.83	932.69
653.17	924.91
653.51	917.25
653.85	909.95
654.20	902.63
654.54	895.11
654.88	887.73
655.22	880.37
655.56	873.30
655.90	866.44
656.25	859.68
656.59	852.73
656.93	845.63
657.27	838.41
657.61	831.38
657.95	825.27
658.29	819.25
658.64	813.03
658.98	806.37
659.32	799.80
659.66	793.41
660.00	786.98
660.34	780.90
660.68	774.64
661.02	768.13
661.36	762.10
661.70	756.27
662.05	750.62
662.39	745.12
662.73	739.76
663.07	734.30
663.41	728.67
663.75	722.88
664.09	717.18
664.43	711.73
664.77	706.30
665.11	700.40
665.45	694.40
665.79	688.59
666.13	682.93
666.47	677.43
666.81	671.90
667.15	666.35
667.49	661.04
667.83	655.78
668.17	650.50
668.51	645.31
668.85	640.33
669.19	635.27
669.53	630.11
669.87	624.88
670.21	620.05
670.55	615.24
670.89	610.75
671.23	606.31
671.57	601.84
671.91	597.50
672.25	593.31
672.58	589.12
672.92	585.06
673.26	581.03
673.60	577.05
673.94	573.24
674.28	569.69
674.62	565.88
674.96	562.04
675.30	558.43
675.64	554.79
675.97	551.14
676.31	547.57
676.65	543.97
676.99	540.45
677.33	536.58
677.67	532.92
678.01	529.01
678.34	525.31
678.68	521.70
679.02	518.05
679.36	514.28
679.70	510.59
680.04	506.95
680.37	503.47
680.71	500.14
681.05	496.87
681.39	493.52
681.73	490.30
682.06	487.25
682.40	484.15
682.74	480.87
683.08	477.60
683.42	474.30
683.75	471.28
684.09	468.23
684.43	465.38
684.77	462.34
685.10	459.42
685.44	456.51
685.78	453.56
686.12	450.76
686.45	448.06
686.79	445.36
687.13	442.80
687.46	440.16
687.80	437.37
688.14	434.47
688.48	431.82
688.81	429.12
689.15	426.45
689.49	423.80
689.82	421.21
690.16	418.57
690.50	416.13
690.83	413.57
691.17	411.03
691.51	408.49
691.84	406.20
692.18	403.98
692.52	401.73
692.85	399.52
693.19	397.33
693.52	395.08
693.86	392.82
694.20	390.57
694.53	388.35
694.87	386.14
695.21	383.97
695.54	381.81
695.88	379.64
696.21	377.45
696.55	375.30
696.88	373.20
697.22	371.17
697.56	369.21
697.89	367.31
698.23	365.54
698.56	363.69
698.90	361.93
699.23	359.96
699.57	358.03
699.90	356.18
700.24	354.32
700.58	352.54
700.91	350.93
701.25	349.31
701.58	347.69
701.92	346.11
702.25	344.57
702.59	342.90
702.92	341.34
703.26	339.71
703.59	338.23
703.93	337.00
704.26	335.56
704.60	334.04
704.93	332.48
705.26	330.93
705.60	329.49
705.93	327.92
706.27	326.59
706.60	325.30
706.94	324.09
707.27	322.75
707.61	321.34
707.94	319.97
708.27	318.41
708.61	316.92
708.94	315.48
709.28	314.18
709.61	312.88
709.94	311.62
710.28	310.42
710.61	309.20
710.95	307.77
711.28	306.68
711.61	305.48
711.95	304.35
712.28	303.15
712.61	301.94
712.95	300.90
713.28	299.83
713.61	298.67
713.95	297.48
714.28	296.39
714.61	295.38
714.95	294.31
715.28	293.34
715.61	292.35
715.95	291.40
716.28	290.35
716.61	289.41
716.95	288.42
717.28	287.46
717.61	286.52
717.94	285.56
718.28	284.54
718.61	283.68
718.94	282.76
719.27	281.94
719.61	281.13
719.94	280.23
720.27	279.26
720.60	278.40
720.94	277.57
721.27	276.85
721.60	276.12
721.93	275.37
722.27	274.69
722.60	274.04
722.93	273.33
723.26	272.68
723.59	271.93
723.93	271.31
724.26	270.69
724.59	270.02
724.92	269.44
725.25	268.88
725.59	268.24
725.92	267.72
726.25	267.10
726.58	266.50
726.91	265.86
727.24	265.32
727.57	264.75
727.91	264.09
728.24	263.49
728.57	262.88
728.90	262.31
729.23	261.69
729.56	261.21
729.89	260.65
730.22	260.10
730.55	259.58
730.89	259.04
731.22	258.48
731.55	257.95
731.88	257.42
732.21	256.85
732.54	256.35
732.87	255.84
733.20	255.32
733.53	254.79
733.86	254.36
734.19	253.87
734.52	253.45
734.85	253.18
735.18	252.73
735.51	252.36
735.84	251.89
736.17	251.50
736.50	250.96
736.83	250.80
737.16	250.41
737.49	250.00
737.82	249.60
738.15	249.19
738.48	248.81
738.81	248.41
739.14	247.97
739.47	247.58
739.80	247.18
740.13	246.85
740.46	246.46
740.79	246.10
741.12	245.75
741.45	245.38
741.78	244.93
742.11	244.62
742.44	244.22
742.77	243.96
743.10	243.60
743.43	243.27
743.75	242.67
744.08	242.55
744.41	242.19
744.74	241.79
745.07	241.46
745.40	241.14
745.73	240.90
746.06	240.62
746.39	240.32
746.71	239.97
747.04	239.61
747.37	239.31
747.70	239.02
748.03	238.70
748.36	238.42
748.68	238.10
749.01	237.76
749.34	237.44
749.67	237.13
750.00	236.87
750.33	236.71
750.65	236.45
750.98	235.95
751.31	235.70
751.64	235.50
751.97	235.40
752.29	235.11
752.62	234.72
752.95	234.45
753.28	234.16
753.60	233.91
753.93	233.78
754.26	233.57
754.59	233.29
754.91	233.05
755.24	232.77
755.57	232.55
755.90	232.32
756.22	232.11
756.55	231.87
756.88	231.60
757.20	231.24
757.53	231.00
757.86	230.81
758.19	230.65
758.51	230.46
758.84	230.11
759.17	229.93
759.49	229.80
759.82	229.71
760.15	229.55
760.47	229.36
760.80	229.08
761.13	228.91
761.45	228.71
761.78	228.51
762.11	228.35
762.43	228.18
762.76	228.01
763.08	227.86
763.41	227.72
763.74	227.54
764.06	227.38
764.39	227.26
764.71	227.09
765.04	226.91
765.37	226.71
765.69	226.56
766.02	226.44
766.34	226.27
766.67	226.06
767.00	225.95
767.32	225.97
767.65	225.96
767.97	225.79
768.30	225.70
768.62	225.59
768.95	225.47
769.27	225.34
769.60	225.21
769.92	225.03
770.25	224.87
770.57	224.75
770.90	224.65
771.22	224.48
771.55	224.35
771.87	224.20
772.20	224.08
772.52	224.15
772.85	224.27
773.17	224.16
773.50	224.02
773.82	223.90
774.15	223.67
774.47	223.45
774.80	223.31
775.12	223.20
775.45	223.09
775.77	222.98
776.09	222.88
776.42	222.83
776.74	222.82
777.07	222.75
777.39	222.69
777.72	222.59
778.04	222.51
778.36	222.41
778.69	222.40
779.01	222.32
779.33	222.04
779.66	221.72
779.98	221.61
780.31	221.54
780.63	221.55
780.95	221.50
781.28	221.44
781.60	221.39
781.92	221.29
782.25	221.25
782.57	221.19
782.89	221.13
783.22	221.02
783.54	220.89
783.86	220.83
784.19	220.73
784.51	220.74
784.83	220.67
785.16	220.60
785.48	220.52
785.80	220.47
786.12	220.45
