SpectraSuite Data File
++++++++++++++++++++++++++++++++++++
Date: Tue Jan 29 15:54:23 EST 2013
User: group
Dark Spectrum Present: No
Reference Spectrum Present: No
Number of Sampled Component Spectra: 1
Spectrometers: USB2E7196
Integration Time (usec): 65000 (USB2E7196)
Spectra Averaged: 100 (USB2E7196)
Boxcar Smoothing: 10 (USB2E7196)
Correct for Electrical Dark: No (USB2E7196)
Strobe/Lamp Enabled: No (USB2E7196)
Correct for Detector Non-linearity: No (USB2E7196)
Correct for Stray Light: No (USB2E7196)
Number of Pixels in Processed Spectrum: 2048
>>>>>Begin Processed Spectral Data<<<<<
339.09	0.00
339.48	203.04
339.86	204.74
340.24	205.15
340.63	207.58
341.01	211.51
341.39	210.57
341.78	211.51
342.16	213.21
342.54	213.50
342.93	202.27
343.31	212.47
343.69	212.99
344.07	213.45
344.46	213.93
344.84	214.31
345.22	214.50
345.60	214.76
345.99	214.96
346.37	215.10
346.75	215.18
347.13	215.26
347.52	215.29
347.90	215.39
348.28	215.44
348.66	215.50
349.05	215.50
349.43	215.57
349.81	215.62
350.19	215.66
350.57	215.73
350.96	215.80
351.34	215.90
351.72	216.00
352.10	216.10
352.48	216.16
352.87	216.21
353.25	216.26
353.63	216.29
354.01	216.32
354.39	216.36
354.77	216.41
355.15	216.53
355.54	216.60
355.92	216.61
356.30	216.69
356.68	216.91
357.06	216.97
357.44	216.98
357.82	217.03
358.20	217.13
358.58	217.21
358.97	217.26
359.35	217.38
359.73	217.47
360.11	217.52
360.49	217.59
360.87	217.64
361.25	217.74
361.63	217.87
362.01	217.96
362.39	218.01
362.77	218.09
363.15	218.10
363.53	218.13
363.91	218.16
364.29	218.18
364.67	218.00
365.05	218.05
365.43	218.10
365.81	218.12
366.19	218.22
366.57	218.30
366.95	218.31
367.33	218.26
367.71	218.26
368.09	218.30
368.47	218.30
368.85	218.31
369.23	218.30
369.61	218.22
369.99	218.27
370.37	218.27
370.75	218.37
371.13	218.31
371.51	218.27
371.89	218.28
372.27	218.27
372.65	218.25
373.03	218.21
373.41	218.19
373.78	218.17
374.16	218.03
374.54	217.93
374.92	217.90
375.30	217.87
375.68	217.78
376.06	217.75
376.44	217.72
376.82	217.68
377.19	217.66
377.57	217.60
377.95	217.48
378.33	217.41
378.71	217.24
379.09	217.25
379.47	217.21
379.84	217.15
380.22	217.09
380.60	217.01
380.98	216.95
381.36	216.89
381.73	216.83
382.11	216.84
382.49	216.81
382.87	216.71
383.25	216.66
383.62	216.86
384.00	216.79
384.38	216.75
384.76	216.72
385.13	216.74
385.51	216.72
385.89	216.64
386.27	216.64
386.64	216.64
387.02	216.60
387.40	216.54
387.78	216.49
388.15	216.47
388.53	216.44
388.91	216.46
389.29	216.43
389.66	216.44
390.04	216.38
390.42	216.36
390.79	216.37
391.17	216.35
391.55	216.10
391.92	216.09
392.30	216.10
392.68	216.05
393.05	216.03
393.43	216.03
393.81	216.06
394.18	216.02
394.56	216.02
394.94	216.04
395.31	216.05
395.69	216.14
396.06	216.20
396.44	216.24
396.82	216.23
397.19	216.36
397.57	216.36
397.95	216.42
398.32	216.40
398.70	216.46
399.07	216.54
399.45	216.59
399.82	216.63
400.20	216.63
400.58	216.70
400.95	216.66
401.33	216.77
401.70	216.98
402.08	217.08
402.45	217.15
402.83	217.26
403.20	217.38
403.58	217.45
403.95	217.59
404.33	217.73
404.71	217.88
405.08	218.12
405.46	218.28
405.83	218.48
406.21	218.70
406.58	218.94
406.96	219.16
407.33	219.40
407.70	219.67
408.08	220.14
408.45	220.47
408.83	220.89
409.20	221.20
409.58	221.44
409.95	221.88
410.33	222.38
410.70	222.79
411.08	223.32
411.45	223.88
411.82	224.40
412.20	225.09
412.57	225.87
412.95	226.37
413.32	227.17
413.69	227.95
414.07	228.84
414.44	229.76
414.82	230.72
415.19	231.85
415.56	233.04
415.94	234.12
416.31	235.52
416.68	236.85
417.06	238.39
417.43	239.91
417.81	241.57
418.18	243.25
418.55	245.11
418.93	247.07
419.30	249.07
419.67	251.18
420.04	253.34
420.42	255.62
420.79	258.32
421.16	260.97
421.54	263.75
421.91	266.60
422.28	269.57
422.66	272.72
423.03	275.82
423.40	279.05
423.77	282.52
424.15	285.98
424.52	289.63
424.89	293.64
425.26	297.53
425.64	301.24
426.01	305.35
426.38	309.60
426.75	313.92
427.13	318.49
427.50	323.26
427.87	328.22
428.24	333.18
428.61	337.96
428.99	343.23
429.36	348.93
429.73	354.56
430.10	360.14
430.47	365.95
430.85	372.00
431.22	378.42
431.59	385.22
431.96	391.75
432.33	398.99
432.70	405.88
433.08	414.04
433.45	421.78
433.82	429.45
434.19	438.05
434.56	446.40
434.93	454.37
435.30	462.28
435.68	471.06
436.05	479.67
436.42	488.24
436.79	496.06
437.16	504.51
437.53	513.37
437.90	522.21
438.27	530.80
438.64	539.64
439.01	547.79
439.38	555.11
439.75	562.12
440.13	570.14
440.50	577.73
440.87	583.86
441.24	590.16
441.61	597.15
441.98	602.09
442.35	608.13
442.72	614.14
443.09	619.89
443.46	623.42
443.83	625.81
444.20	627.86
444.57	630.89
444.94	632.30
445.31	633.65
445.68	634.94
446.05	635.45
446.42	634.67
446.79	633.70
447.16	632.57
447.53	631.85
447.90	628.61
448.27	625.43
448.64	620.97
449.01	617.75
449.37	612.07
449.74	606.73
450.11	600.06
450.48	592.88
450.85	585.76
451.22	579.55
451.59	573.75
451.96	568.10
452.33	560.52
452.70	553.65
453.07	545.57
453.43	537.30
453.80	529.40
454.17	521.75
454.54	514.57
454.91	506.81
455.28	499.15
455.65	492.11
456.02	485.02
456.38	479.04
456.75	471.62
457.12	465.44
457.49	459.26
457.86	453.45
458.23	448.45
458.59	442.87
458.96	437.13
459.33	432.05
459.70	427.00
460.07	422.98
460.43	418.37
460.80	413.98
461.17	410.21
461.54	406.22
461.91	402.44
462.27	398.50
462.64	395.24
463.01	391.64
463.38	388.11
463.74	384.59
464.11	381.50
464.48	378.77
464.85	375.80
465.21	373.50
465.58	370.98
465.95	367.97
466.32	365.47
466.68	363.02
467.05	360.54
467.42	358.05
467.78	355.50
468.15	353.11
468.52	351.31
468.88	348.90
469.25	346.82
469.62	345.11
469.98	343.30
470.35	341.55
470.72	339.99
471.08	338.29
471.45	336.88
471.82	335.42
472.18	333.86
472.55	332.68
472.92	331.38
473.28	330.26
473.65	329.17
474.02	328.13
474.38	327.32
474.75	326.61
475.11	325.95
475.48	325.43
475.85	324.98
476.21	324.54
476.58	324.26
476.94	324.04
477.31	323.79
477.67	323.58
478.04	323.48
478.41	323.44
478.77	323.61
479.14	323.62
479.50	323.74
479.87	324.08
480.23	324.45
480.60	324.74
480.96	325.02
481.33	325.66
481.69	326.25
482.06	326.80
482.42	327.32
482.79	327.98
483.15	328.80
483.52	329.75
483.88	330.66
484.25	331.61
484.61	332.65
484.98	333.67
485.34	335.00
485.71	336.37
486.07	337.82
486.44	339.16
486.80	340.76
487.17	342.43
487.53	344.24
487.90	346.13
488.26	348.16
488.62	350.34
488.99	352.38
489.35	354.55
489.72	356.89
490.08	359.39
490.44	361.86
490.81	364.56
491.17	367.32
491.54	370.30
491.90	373.36
492.26	376.57
492.63	380.02
492.99	383.52
493.36	387.23
493.72	391.09
494.08	395.10
494.45	399.32
494.81	403.72
495.17	408.15
495.54	412.84
495.90	417.61
496.26	422.47
496.63	427.70
496.99	433.04
497.35	438.55
497.72	444.31
498.08	450.29
498.44	456.29
498.80	462.61
499.17	469.11
499.53	475.79
499.89	482.70
500.26	489.63
500.62	496.62
500.98	503.91
501.34	511.36
501.71	519.09
502.07	526.88
502.43	534.82
502.79	542.94
503.16	551.29
503.52	559.82
503.88	568.51
504.24	577.37
504.60	586.38
504.97	595.60
505.33	604.91
505.69	614.63
506.05	624.49
506.41	634.33
506.78	644.29
507.14	654.50
507.50	664.85
507.86	675.44
508.22	686.16
508.59	696.81
508.95	707.79
509.31	718.93
509.67	730.29
510.03	741.61
510.39	753.27
510.75	765.08
511.12	776.91
511.48	788.90
511.84	801.01
512.20	813.29
512.56	825.87
512.92	838.39
513.28	850.95
513.64	863.59
514.00	876.18
514.37	888.94
514.73	901.86
515.09	914.73
515.45	927.38
515.81	940.16
516.17	953.35
516.53	966.30
516.89	979.23
517.25	992.10
517.61	1005.48
517.97	1018.62
518.33	1031.48
518.69	1044.76
519.05	1058.22
519.41	1071.68
519.77	1085.29
520.13	1098.32
520.49	1111.39
520.85	1124.52
521.21	1137.61
521.57	1151.02
521.93	1163.93
522.29	1177.48
522.65	1190.75
523.01	1204.16
523.37	1217.12
523.73	1230.10
524.09	1242.97
524.45	1256.03
524.81	1269.18
525.17	1282.14
525.53	1294.93
525.89	1307.89
526.25	1320.72
526.61	1333.25
526.97	1345.96
527.33	1358.51
527.68	1371.59
528.04	1384.54
528.40	1397.17
528.76	1410.03
529.12	1422.52
529.48	1435.42
529.84	1447.12
530.20	1459.49
530.56	1471.75
530.91	1484.60
531.27	1497.10
531.63	1509.43
531.99	1521.85
532.35	1533.71
532.71	1545.62
533.07	1558.01
533.42	1569.89
533.78	1581.49
534.14	1593.11
534.50	1604.01
534.86	1615.22
535.21	1625.65
535.57	1636.87
535.93	1647.79
536.29	1658.44
536.65	1669.57
537.00	1680.09
537.36	1691.12
537.72	1701.70
538.08	1712.59
538.44	1723.17
538.79	1733.85
539.15	1744.44
539.51	1754.58
539.87	1765.54
540.22	1776.05
540.58	1786.69
540.94	1797.11
541.29	1807.01
541.65	1816.47
542.01	1826.62
542.37	1836.17
542.72	1845.99
543.08	1855.30
543.44	1865.47
543.79	1874.52
544.15	1883.61
544.51	1893.12
544.87	1902.46
545.22	1911.19
545.58	1919.72
545.94	1928.14
546.29	1936.16
546.65	1944.10
547.01	1952.04
547.36	1959.18
547.72	1966.44
548.07	1973.56
548.43	1980.81
548.79	1988.43
549.14	1996.13
549.50	2004.05
549.86	2011.60
550.21	2018.70
550.57	2026.18
550.92	2032.57
551.28	2039.56
551.64	2046.42
551.99	2053.54
552.35	2060.50
552.70	2067.07
553.06	2073.33
553.41	2079.30
553.77	2085.62
554.13	2091.77
554.48	2098.68
554.84	2105.61
555.19	2111.92
555.55	2118.17
555.90	2124.31
556.26	2130.80
556.61	2136.60
556.97	2141.25
557.32	2146.92
557.68	2153.12
558.03	2158.54
558.39	2163.61
558.74	2169.51
559.10	2174.94
559.45	2180.59
559.81	2186.01
560.16	2191.58
560.52	2197.35
560.87	2203.80
561.23	2209.79
561.58	2216.34
561.94	2221.53
562.29	2226.38
562.64	2232.67
563.00	2238.40
563.35	2243.97
563.71	2249.84
564.06	2255.39
564.42	2261.41
564.77	2266.53
565.12	2271.92
565.48	2277.19
565.83	2282.88
566.19	2288.37
566.54	2293.77
566.89	2298.39
567.25	2303.14
567.60	2308.76
567.96	2313.98
568.31	2318.56
568.66	2322.73
569.02	2326.70
569.37	2330.45
569.72	2334.82
570.08	2338.15
570.43	2341.37
570.78	2344.48
571.14	2346.96
571.49	2350.29
571.84	2353.98
572.20	2356.93
572.55	2359.93
572.90	2362.25
573.26	2365.22
573.61	2367.97
573.96	2370.39
574.31	2372.44
574.67	2374.43
575.02	2375.55
575.37	2377.25
575.72	2378.10
576.08	2379.61
576.43	2379.89
576.78	2380.77
577.13	2382.71
577.49	2384.27
577.84	2385.54
578.19	2387.33
578.54	2388.37
578.90	2389.64
579.25	2389.74
579.60	2390.17
579.95	2389.70
580.30	2390.18
580.66	2389.84
581.01	2388.45
581.36	2386.53
581.71	2385.65
582.06	2384.87
582.42	2384.25
582.77	2382.37
583.12	2381.22
583.47	2380.53
583.82	2380.44
584.17	2379.35
584.53	2377.38
584.88	2375.49
585.23	2373.97
585.58	2371.95
585.93	2369.98
586.28	2368.09
586.63	2366.13
586.98	2364.12
587.34	2362.59
587.69	2360.51
588.04	2358.81
588.39	2357.53
588.74	2355.40
589.09	2353.05
589.44	2350.15
589.79	2348.06
590.14	2346.43
590.49	2343.77
590.84	2340.15
591.19	2337.54
591.54	2334.65
591.89	2330.90
592.25	2327.89
592.60	2324.00
592.95	2320.15
593.30	2316.60
593.65	2312.35
594.00	2308.07
594.35	2305.30
594.70	2300.78
595.05	2296.41
595.40	2291.13
595.75	2285.81
596.10	2282.14
596.45	2277.43
596.80	2273.13
597.15	2268.21
597.50	2262.50
597.85	2257.83
598.19	2252.67
598.54	2246.80
598.89	2241.77
599.24	2237.40
599.59	2231.57
599.94	2225.89
600.29	2220.13
600.64	2214.01
600.99	2207.42
601.34	2202.07
601.69	2195.14
602.04	2188.86
602.39	2182.30
602.74	2176.30
603.08	2170.81
603.43	2164.49
603.78	2157.72
604.13	2150.72
604.48	2143.42
604.83	2137.39
605.18	2131.20
605.53	2124.39
605.87	2117.52
606.22	2110.82
606.57	2103.10
606.92	2095.27
607.27	2088.42
607.62	2081.85
607.96	2075.16
608.31	2068.88
608.66	2061.27
609.01	2053.80
609.36	2046.87
609.70	2039.40
610.05	2031.78
610.40	2023.73
610.75	2015.58
611.10	2007.93
611.44	1999.23
611.79	1990.73
612.14	1980.82
612.49	1970.42
612.83	1961.21
613.18	1952.00
613.53	1942.71
613.88	1933.26
614.22	1924.68
614.57	1914.90
614.92	1904.45
615.27	1894.23
615.61	1884.06
615.96	1874.40
616.31	1864.95
616.65	1855.62
617.00	1845.93
617.35	1836.39
617.70	1826.56
618.04	1816.54
618.39	1806.45
618.74	1796.82
619.08	1787.18
619.43	1778.60
619.78	1770.22
620.12	1761.67
620.47	1752.14
620.82	1741.88
621.16	1732.10
621.51	1722.15
621.85	1712.14
622.20	1701.65
622.55	1691.16
622.89	1681.50
623.24	1671.95
623.59	1662.12
623.93	1651.90
624.28	1641.88
624.62	1631.67
624.97	1621.32
625.32	1611.51
625.66	1602.69
626.01	1593.97
626.35	1584.42
626.70	1574.34
627.04	1564.31
627.39	1554.18
627.73	1544.80
628.08	1535.75
628.43	1526.09
628.77	1516.95
629.12	1508.20
629.46	1500.56
629.81	1492.05
630.15	1482.31
630.50	1472.28
630.84	1461.70
631.19	1451.88
631.53	1442.70
631.88	1432.57
632.22	1422.67
632.57	1413.30
632.91	1403.07
633.26	1393.05
633.60	1383.53
633.95	1374.18
634.29	1364.79
634.64	1355.40
634.98	1345.42
635.32	1336.19
635.67	1327.72
636.01	1318.35
636.36	1308.60
636.70	1298.98
637.05	1289.69
637.39	1280.86
637.73	1272.43
638.08	1264.94
638.42	1256.62
638.77	1247.70
639.11	1239.45
639.45	1231.57
639.80	1223.05
640.14	1214.37
640.49	1205.61
640.83	1196.90
641.17	1188.81
641.52	1180.54
641.86	1171.94
642.20	1164.10
642.55	1155.33
642.89	1146.35
643.23	1137.71
643.58	1129.54
643.92	1120.52
644.26	1111.92
644.61	1103.43
644.95	1094.42
645.29	1085.15
645.64	1076.09
645.98	1067.73
646.32	1059.78
646.66	1051.30
647.01	1042.93
647.35	1034.71
647.69	1026.32
648.04	1017.94
648.38	1009.00
648.72	1000.18
649.06	991.76
649.41	983.66
649.75	975.80
650.09	967.98
650.43	960.01
650.78	951.86
651.12	944.20
651.46	936.78
651.80	929.49
652.14	922.26
652.49	914.88
652.83	907.49
653.17	899.83
653.51	892.29
653.85	885.07
654.20	877.87
654.54	870.49
654.88	863.44
655.22	856.37
655.56	849.56
655.90	842.89
656.25	836.29
656.59	829.33
656.93	822.41
657.27	815.40
657.61	808.56
657.95	802.49
658.29	796.64
658.64	790.54
658.98	784.16
659.32	777.74
659.66	771.52
660.00	765.32
660.34	759.44
660.68	753.37
661.02	747.14
661.36	741.24
661.70	735.58
662.05	729.94
662.39	724.53
662.73	719.15
663.07	713.84
663.41	708.27
663.75	702.75
664.09	697.11
664.43	691.79
664.77	686.45
665.11	680.66
665.45	674.82
665.79	669.07
666.13	663.45
666.47	658.03
666.81	652.74
667.15	647.42
667.49	642.21
667.83	637.08
668.17	631.86
668.51	626.74
668.85	621.86
669.19	617.03
669.53	612.09
669.87	607.09
670.21	602.39
670.55	597.81
670.89	593.45
671.23	589.27
671.57	585.03
671.91	580.85
672.25	576.82
672.58	572.74
672.92	568.74
673.26	564.89
673.60	561.06
673.94	557.32
674.28	553.78
674.62	550.13
674.96	546.46
675.30	543.07
675.64	539.62
675.97	536.08
676.31	532.53
676.65	529.00
676.99	525.64
677.33	521.90
677.67	518.34
678.01	514.52
678.34	510.96
678.68	507.44
679.02	503.88
679.36	500.26
679.70	496.77
680.04	493.36
680.37	489.99
680.71	486.78
681.05	483.65
681.39	480.44
681.73	477.29
682.06	474.30
682.40	471.21
682.74	468.03
683.08	464.95
683.42	461.84
683.75	458.89
684.09	455.94
684.43	453.22
684.77	450.32
685.10	447.59
685.44	444.76
685.78	441.93
686.12	439.28
686.45	436.69
686.79	434.09
687.13	431.65
687.46	429.08
687.80	426.48
688.14	423.71
688.48	421.20
688.81	418.66
689.15	416.14
689.49	413.62
689.82	411.21
690.16	408.68
690.50	406.28
690.83	403.88
691.17	401.47
691.51	399.08
691.84	396.96
692.18	394.84
692.52	392.74
692.85	390.65
693.19	388.52
693.52	386.38
693.86	384.19
694.20	382.00
694.53	379.92
694.87	377.79
695.21	375.76
695.54	373.65
695.88	371.56
696.21	369.49
696.55	367.50
696.88	365.53
697.22	363.61
697.56	361.84
697.89	360.03
698.23	358.24
698.56	356.51
698.90	354.78
699.23	352.91
699.57	351.07
699.90	349.30
700.24	347.59
700.58	345.88
700.91	344.29
701.25	342.82
701.58	341.28
701.92	339.76
702.25	338.18
702.59	336.61
702.92	335.10
703.26	333.56
703.59	332.10
703.93	330.86
704.26	329.45
704.60	327.99
704.93	326.57
705.26	325.18
705.60	323.75
705.93	322.23
706.27	320.98
706.60	319.78
706.94	318.57
707.27	317.20
707.61	315.90
707.94	314.64
708.27	313.17
708.61	311.82
708.94	310.47
709.28	309.24
709.61	308.05
709.94	306.92
710.28	305.80
710.61	304.68
710.95	303.34
711.28	302.34
711.61	301.21
711.95	300.07
712.28	298.89
712.61	297.73
712.95	296.73
713.28	295.70
713.61	294.62
713.95	293.52
714.28	292.59
714.61	291.61
714.95	290.64
715.28	289.66
715.61	288.69
715.95	287.79
716.28	286.88
716.61	285.97
716.95	285.02
717.28	284.07
717.61	283.14
717.94	282.21
718.28	281.23
718.61	280.36
718.94	279.51
719.27	278.74
719.61	277.99
719.94	277.19
720.27	276.27
720.60	275.43
720.94	274.66
721.27	273.94
721.60	273.30
721.93	272.57
722.27	271.95
722.60	271.28
722.93	270.60
723.26	269.98
723.59	269.31
723.93	268.71
724.26	268.11
724.59	267.52
724.92	266.99
725.25	266.49
725.59	266.00
725.92	265.49
726.25	264.90
726.58	264.36
726.91	263.78
727.24	263.24
727.57	262.72
727.91	262.15
728.24	261.55
728.57	260.98
728.90	260.44
729.23	259.85
729.56	259.45
729.89	258.91
730.22	258.35
730.55	257.83
730.89	257.30
731.22	256.79
731.55	256.26
731.88	255.75
732.21	255.21
732.54	254.66
732.87	254.19
733.20	253.70
733.53	253.20
733.86	252.80
734.19	252.32
734.52	251.90
734.85	251.65
735.18	251.22
735.51	250.84
735.84	250.43
736.17	250.09
736.50	249.57
736.83	249.44
737.16	249.09
737.49	248.73
737.82	248.34
738.15	248.00
738.48	247.65
738.81	247.29
739.14	246.83
739.47	246.48
739.80	246.11
740.13	245.81
740.46	245.45
740.79	245.06
741.12	244.78
741.45	244.42
741.78	243.97
742.11	243.72
742.44	243.33
742.77	243.06
743.10	242.70
743.43	242.39
743.75	241.82
744.08	241.72
744.41	241.38
744.74	241.07
745.07	240.73
745.40	240.44
745.73	240.20
746.06	239.94
746.39	239.61
746.71	239.34
747.04	238.97
747.37	238.71
747.70	238.43
748.03	238.13
748.36	237.88
748.68	237.60
749.01	237.25
749.34	237.01
749.67	236.71
750.00	236.51
750.33	236.39
750.65	236.19
750.98	235.70
751.31	235.46
751.64	235.23
751.97	235.07
752.29	234.79
752.62	234.46
752.95	234.20
753.28	234.00
753.60	233.73
753.93	233.58
754.26	233.34
754.59	233.08
754.91	232.85
755.24	232.62
755.57	232.41
755.90	232.22
756.22	231.96
756.55	231.71
756.88	231.42
757.20	231.08
757.53	230.85
757.86	230.65
758.19	230.49
758.51	230.31
758.84	230.03
759.17	229.87
759.49	229.74
759.82	229.70
760.15	229.51
760.47	229.37
760.80	229.13
761.13	229.03
761.45	228.86
761.78	228.69
762.11	228.54
762.43	228.38
762.76	228.20
763.08	228.06
763.41	227.96
763.74	227.82
764.06	227.69
764.39	227.51
764.71	227.36
765.04	227.19
765.37	227.06
765.69	226.95
766.02	226.82
766.34	226.67
766.67	226.46
767.00	226.39
767.32	226.38
767.65	226.38
767.97	226.20
768.30	226.11
768.62	225.99
768.95	225.84
769.27	225.70
769.60	225.64
769.92	225.50
770.25	225.34
770.57	225.20
770.90	225.07
771.22	224.94
771.55	224.82
771.87	224.71
772.20	224.56
772.52	224.60
772.85	224.72
773.17	224.60
773.50	224.49
773.82	224.33
774.15	224.10
774.47	223.89
774.80	223.79
775.12	223.68
775.45	223.60
775.77	223.54
776.09	223.46
776.42	223.34
776.74	223.32
777.07	223.23
777.39	223.15
777.72	223.06
778.04	223.01
778.36	222.92
778.69	222.82
779.01	222.76
779.33	222.53
779.66	222.22
779.98	222.12
780.31	222.06
780.63	222.06
780.95	222.05
781.28	221.99
781.60	221.93
781.92	221.87
782.25	221.81
782.57	221.73
782.89	221.68
783.22	221.62
783.54	221.52
783.86	221.48
784.19	221.42
784.51	221.42
784.83	221.35
785.16	221.31
785.48	221.29
785.80	221.24
786.12	221.22
