SpectraSuite Data File
++++++++++++++++++++++++++++++++++++
Date: Tue Jan 29 16:30:08 EST 2013
User: group
Dark Spectrum Present: No
Reference Spectrum Present: No
Number of Sampled Component Spectra: 1
Spectrometers: USB2E7196
Integration Time (usec): 65000 (USB2E7196)
Spectra Averaged: 100 (USB2E7196)
Boxcar Smoothing: 10 (USB2E7196)
Correct for Electrical Dark: No (USB2E7196)
Strobe/Lamp Enabled: No (USB2E7196)
Correct for Detector Non-linearity: No (USB2E7196)
Correct for Stray Light: No (USB2E7196)
Number of Pixels in Processed Spectrum: 2048
>>>>>Begin Processed Spectral Data<<<<<
339.09	0.00
339.48	202.53
339.86	203.91
340.24	205.20
340.63	206.07
341.01	210.97
341.39	209.10
341.78	210.70
342.16	212.07
342.54	212.22
342.93	201.49
343.31	211.65
343.69	212.17
344.07	212.63
344.46	213.07
344.84	213.50
345.22	213.68
345.60	213.95
345.99	214.16
346.37	214.27
346.75	214.39
347.13	214.50
347.52	214.56
347.90	214.65
348.28	214.71
348.66	214.80
349.05	214.74
349.43	214.82
349.81	214.85
350.19	214.90
350.57	214.97
350.96	215.05
351.34	215.17
351.72	215.29
352.10	215.42
352.48	215.48
352.87	215.53
353.25	215.59
353.63	215.63
354.01	215.68
354.39	215.74
354.77	215.80
355.15	215.92
355.54	215.97
355.92	215.96
356.30	215.97
356.68	216.14
357.06	216.23
357.44	216.23
357.82	216.28
358.20	216.35
358.58	216.36
358.97	216.43
359.35	216.51
359.73	216.61
360.11	216.64
360.49	216.70
360.87	216.76
361.25	216.81
361.63	216.92
362.01	216.98
362.39	217.01
362.77	217.07
363.15	217.06
363.53	217.10
363.91	217.11
364.29	217.18
364.67	217.02
365.05	217.05
365.43	217.11
365.81	217.17
366.19	217.27
366.57	217.37
366.95	217.39
367.33	217.36
367.71	217.32
368.09	217.36
368.47	217.31
368.85	217.29
369.23	217.35
369.61	217.30
369.99	217.32
370.37	217.37
370.75	217.43
371.13	217.37
371.51	217.33
371.89	217.35
372.27	217.35
372.65	217.35
373.03	217.33
373.41	217.26
373.78	217.20
374.16	217.08
374.54	216.95
374.92	216.86
375.30	216.80
375.68	216.72
376.06	216.68
376.44	216.67
376.82	216.65
377.19	216.58
377.57	216.51
377.95	216.45
378.33	216.41
378.71	216.28
379.09	216.27
379.47	216.26
379.84	216.20
380.22	216.11
380.60	216.04
380.98	216.00
381.36	215.96
381.73	215.91
382.11	215.94
382.49	215.96
382.87	215.88
383.25	215.85
383.62	216.06
384.00	215.96
384.38	215.93
384.76	215.91
385.13	215.95
385.51	215.92
385.89	215.86
386.27	215.79
386.64	215.78
387.02	215.75
387.40	215.71
387.78	215.68
388.15	215.70
388.53	215.66
388.91	215.65
389.29	215.62
389.66	215.66
390.04	215.59
390.42	215.62
390.79	215.62
391.17	215.61
391.55	215.37
391.92	215.37
392.30	215.39
392.68	215.33
393.05	215.30
393.43	215.29
393.81	215.26
394.18	215.23
394.56	215.23
394.94	215.24
395.31	215.21
395.69	215.28
396.06	215.30
396.44	215.33
396.82	215.33
397.19	215.47
397.57	215.42
397.95	215.47
398.32	215.41
398.70	215.48
399.07	215.57
399.45	215.64
399.82	215.68
400.20	215.72
400.58	215.80
400.95	215.80
401.33	215.90
401.70	216.15
402.08	216.26
402.45	216.35
402.83	216.54
403.20	216.67
403.58	216.75
403.95	216.90
404.33	217.06
404.71	217.20
405.08	217.43
405.46	217.63
405.83	217.77
406.21	218.02
406.58	218.24
406.96	218.44
407.33	218.68
407.70	218.99
408.08	219.47
408.45	219.81
408.83	220.22
409.20	220.60
409.58	220.87
409.95	221.32
410.33	221.82
410.70	222.23
411.08	222.78
411.45	223.36
411.82	223.95
412.20	224.67
412.57	225.51
412.95	226.10
413.32	226.93
413.69	227.82
414.07	228.70
414.44	229.70
414.82	230.77
415.19	231.96
415.56	233.16
415.94	234.33
416.31	235.78
416.68	237.18
417.06	238.76
417.43	240.29
417.81	242.06
418.18	243.83
418.55	245.78
418.93	247.81
419.30	249.94
419.67	252.15
420.04	254.42
420.42	256.81
420.79	259.66
421.16	262.47
421.54	265.39
421.91	268.36
422.28	271.44
422.66	274.70
423.03	277.97
423.40	281.30
423.77	284.85
424.15	288.48
424.52	292.34
424.89	296.51
425.26	300.61
425.64	304.51
426.01	308.80
426.38	313.27
426.75	317.81
427.13	322.52
427.50	327.48
427.87	332.65
428.24	337.85
428.61	342.82
428.99	348.34
429.36	354.27
429.73	360.17
430.10	366.02
430.47	372.09
430.85	378.35
431.22	385.06
431.59	392.25
431.96	399.08
432.33	406.51
432.70	413.79
433.08	422.28
433.45	430.31
433.82	438.29
434.19	447.19
434.56	455.89
434.93	464.24
435.30	472.55
435.68	481.68
436.05	490.71
436.42	499.62
436.79	507.73
437.16	516.52
437.53	525.80
437.90	534.94
438.27	543.90
438.64	553.09
439.01	561.61
439.38	569.17
439.75	576.50
440.13	584.93
440.50	592.90
440.87	599.27
441.24	605.96
441.61	613.34
441.98	618.61
442.35	624.93
442.72	631.26
443.09	637.28
443.46	641.02
443.83	643.55
444.20	645.63
444.57	648.85
444.94	650.35
445.31	651.85
445.68	653.28
446.05	653.88
446.42	653.16
446.79	652.24
447.16	651.11
447.53	650.39
447.90	647.06
448.27	643.72
448.64	639.08
449.01	635.76
449.37	629.83
449.74	624.24
450.11	617.34
450.48	609.96
450.85	602.50
451.22	596.07
451.59	589.86
451.96	584.15
452.33	576.25
452.70	569.10
453.07	560.57
453.43	551.94
453.80	543.65
454.17	535.64
454.54	528.08
454.91	519.93
455.28	511.92
455.65	504.59
456.02	497.11
456.38	490.80
456.75	482.92
457.12	476.34
457.49	469.85
457.86	463.70
458.23	458.27
458.59	452.36
458.96	446.34
459.33	441.05
459.70	435.61
460.07	431.35
460.43	426.43
460.80	421.80
461.17	417.81
461.54	413.62
461.91	409.67
462.27	405.50
462.64	402.08
463.01	398.21
463.38	394.45
463.74	390.74
464.11	387.52
464.48	384.67
464.85	381.61
465.21	379.19
465.58	376.55
465.95	373.43
466.32	370.83
466.68	368.22
467.05	365.66
467.42	363.16
467.78	360.48
468.15	357.96
468.52	356.11
468.88	353.64
469.25	351.42
469.62	349.54
469.98	347.63
470.35	345.82
470.72	344.12
471.08	342.31
471.45	340.84
471.82	339.29
472.18	337.62
472.55	336.44
472.92	335.01
473.28	333.81
473.65	332.65
474.02	331.51
474.38	330.61
474.75	329.79
475.11	328.98
475.48	328.40
475.85	327.96
476.21	327.47
476.58	327.12
476.94	326.90
477.31	326.61
477.67	326.36
478.04	326.23
478.41	326.21
478.77	326.35
479.14	326.26
479.50	326.41
479.87	326.65
480.23	326.93
480.60	327.16
480.96	327.42
481.33	328.01
481.69	328.57
482.06	329.10
482.42	329.57
482.79	330.13
483.15	330.91
483.52	331.87
483.88	332.78
484.25	333.73
484.61	334.73
484.98	335.81
485.34	337.14
485.71	338.47
486.07	339.92
486.44	341.28
486.80	342.91
487.17	344.55
487.53	346.42
487.90	348.26
488.26	350.34
488.62	352.46
488.99	354.53
489.35	356.74
489.72	359.09
490.08	361.63
490.44	364.22
490.81	366.91
491.17	369.61
491.54	372.56
491.90	375.59
492.26	378.79
492.63	382.20
492.99	385.68
493.36	389.36
493.72	393.24
494.08	397.25
494.45	401.47
494.81	405.89
495.17	410.38
495.54	415.14
495.90	419.95
496.26	424.94
496.63	430.13
496.99	435.50
497.35	441.09
497.72	446.96
498.08	452.93
498.44	459.10
498.80	465.56
499.17	472.10
499.53	478.85
499.89	485.81
500.26	492.84
500.62	499.97
500.98	507.42
501.34	514.95
501.71	522.77
502.07	530.61
502.43	538.67
502.79	546.89
503.16	555.37
503.52	564.06
503.88	572.81
504.24	581.82
504.60	590.94
504.97	600.30
505.33	609.60
505.69	619.55
506.05	629.45
506.41	639.37
506.78	649.48
507.14	659.76
507.50	670.19
507.86	680.94
508.22	691.73
508.59	702.46
508.95	713.63
509.31	724.92
509.67	736.53
510.03	748.03
510.39	759.79
510.75	771.60
511.12	783.58
511.48	795.82
511.84	808.14
512.20	820.54
512.56	833.27
512.92	846.14
513.28	858.82
513.64	871.67
514.00	884.59
514.37	897.70
514.73	910.92
515.09	924.07
515.45	937.07
515.81	950.20
516.17	963.68
516.53	976.98
516.89	990.18
517.25	1003.36
517.61	1016.90
517.97	1030.40
518.33	1043.69
518.69	1057.31
519.05	1071.13
519.41	1084.88
519.77	1098.90
520.13	1112.31
520.49	1125.59
520.85	1139.13
521.21	1152.58
521.57	1166.37
521.93	1179.55
522.29	1193.38
522.65	1207.26
523.01	1220.94
523.37	1234.31
523.73	1247.74
524.09	1261.06
524.45	1274.71
524.81	1288.28
525.17	1301.86
525.53	1315.26
525.89	1328.73
526.25	1341.97
526.61	1354.88
526.97	1368.10
527.33	1381.18
527.68	1394.73
528.04	1408.42
528.40	1421.67
528.76	1435.28
529.12	1448.22
529.48	1461.63
529.84	1474.09
530.20	1486.91
530.56	1499.76
530.91	1513.18
531.27	1526.22
531.63	1539.10
531.99	1551.89
532.35	1564.38
532.71	1576.88
533.07	1589.80
533.42	1602.17
533.78	1614.29
534.14	1626.48
534.50	1637.96
534.86	1649.72
535.21	1660.70
535.57	1672.25
535.93	1683.63
536.29	1694.73
536.65	1706.34
537.00	1717.42
537.36	1728.87
537.72	1739.88
538.08	1751.32
538.44	1762.41
538.79	1773.61
539.15	1784.62
539.51	1795.63
539.87	1806.92
540.22	1817.80
540.58	1828.87
540.94	1839.84
541.29	1850.39
541.65	1860.39
542.01	1870.90
542.37	1880.95
542.72	1891.27
543.08	1901.27
543.44	1911.82
543.79	1921.25
544.15	1930.80
544.51	1940.86
544.87	1950.87
545.22	1960.16
545.58	1969.26
545.94	1978.02
546.29	1986.50
546.65	1994.88
547.01	2003.15
547.36	2011.00
547.72	2018.78
548.07	2026.37
548.43	2034.17
548.79	2042.11
549.14	2050.36
549.50	2058.93
549.86	2066.88
550.21	2074.32
550.57	2082.09
550.92	2089.03
551.28	2096.51
551.64	2103.78
551.99	2111.26
552.35	2118.48
552.70	2125.43
553.06	2131.99
553.41	2138.30
553.77	2144.91
554.13	2151.43
554.48	2158.45
554.84	2165.69
555.19	2172.32
555.55	2178.91
555.90	2185.22
556.26	2192.06
556.61	2198.01
556.97	2202.87
557.32	2208.73
557.68	2215.30
558.03	2220.95
558.39	2226.23
558.74	2232.36
559.10	2238.10
559.45	2243.79
559.81	2249.37
560.16	2254.97
560.52	2260.94
560.87	2267.46
561.23	2273.36
561.58	2280.10
561.94	2285.30
562.29	2289.90
562.64	2296.04
563.00	2301.63
563.35	2307.27
563.71	2313.06
564.06	2318.80
564.42	2324.83
564.77	2330.00
565.12	2335.11
565.48	2340.43
565.83	2346.07
566.19	2351.40
566.54	2356.67
566.89	2361.25
567.25	2365.89
567.60	2371.69
567.96	2376.65
568.31	2381.34
568.66	2385.75
569.02	2389.64
569.37	2393.45
569.72	2397.95
570.08	2401.39
570.43	2404.57
570.78	2407.73
571.14	2410.26
571.49	2413.42
571.84	2416.95
572.20	2419.87
572.55	2422.92
572.90	2425.09
573.26	2427.69
573.61	2430.23
573.96	2432.47
574.31	2434.44
574.67	2436.25
575.02	2437.01
575.37	2438.59
575.72	2439.28
576.08	2440.64
576.43	2440.79
576.78	2441.11
577.13	2442.63
577.49	2443.87
577.84	2444.87
578.19	2446.16
578.54	2446.65
578.90	2447.34
579.25	2447.21
579.60	2447.08
579.95	2446.30
580.30	2446.34
580.66	2445.81
581.01	2444.14
581.36	2441.70
581.71	2440.38
582.06	2439.24
582.42	2438.33
582.77	2436.11
583.12	2434.44
583.47	2433.17
583.82	2432.58
584.17	2431.29
584.53	2429.09
584.88	2426.92
585.23	2425.13
585.58	2422.82
585.93	2420.89
586.28	2418.70
586.63	2416.11
586.98	2413.82
587.34	2411.90
587.69	2409.40
588.04	2407.32
588.39	2405.69
588.74	2403.28
589.09	2400.44
589.44	2397.36
589.79	2394.91
590.14	2392.82
590.49	2389.96
590.84	2386.01
591.19	2382.71
591.54	2379.57
591.89	2375.55
592.25	2372.34
592.60	2368.03
592.95	2363.86
593.30	2359.55
593.65	2355.08
594.00	2350.71
594.35	2347.73
594.70	2343.04
595.05	2338.46
595.40	2332.81
595.75	2327.16
596.10	2323.37
596.45	2318.53
596.80	2313.82
597.15	2308.43
597.50	2302.62
597.85	2297.56
598.19	2292.32
598.54	2286.42
598.89	2281.17
599.24	2276.57
599.59	2270.17
599.94	2264.14
600.29	2258.20
600.64	2252.18
600.99	2245.34
601.34	2239.79
601.69	2232.75
602.04	2226.29
602.39	2219.63
602.74	2213.56
603.08	2207.91
603.43	2201.39
603.78	2194.53
604.13	2187.28
604.48	2180.05
604.83	2173.82
605.18	2167.72
605.53	2160.91
605.87	2153.89
606.22	2147.01
606.57	2138.98
606.92	2131.05
607.27	2124.13
607.62	2117.34
607.96	2110.34
608.31	2103.79
608.66	2095.92
609.01	2088.23
609.36	2080.90
609.70	2073.13
610.05	2065.25
610.40	2056.85
610.75	2048.44
611.10	2040.55
611.44	2031.69
611.79	2022.85
612.14	2012.77
612.49	2001.85
612.83	1992.18
613.18	1982.87
613.53	1973.61
613.88	1963.97
614.22	1955.19
614.57	1945.29
614.92	1934.56
615.27	1924.30
615.61	1914.25
615.96	1904.56
616.31	1894.84
616.65	1885.41
617.00	1875.62
617.35	1866.03
617.70	1856.26
618.04	1846.08
618.39	1835.93
618.74	1826.21
619.08	1816.53
619.43	1807.75
619.78	1799.57
620.12	1790.99
620.47	1781.33
620.82	1770.83
621.16	1761.06
621.51	1751.24
621.85	1741.32
622.20	1730.97
622.55	1720.33
622.89	1710.25
623.24	1700.57
623.59	1690.77
623.93	1680.64
624.28	1670.92
624.62	1660.64
624.97	1650.41
625.32	1640.59
625.66	1631.74
626.01	1623.05
626.35	1613.70
626.70	1603.65
627.04	1593.42
627.39	1583.22
627.73	1573.86
628.08	1564.97
628.43	1555.34
628.77	1546.11
629.12	1537.33
629.46	1529.46
629.81	1521.02
630.15	1511.55
630.50	1501.64
630.84	1491.08
631.19	1481.14
631.53	1471.73
631.88	1461.60
632.22	1451.52
632.57	1442.19
632.91	1431.91
633.26	1421.86
633.60	1412.15
633.95	1402.90
634.29	1393.45
634.64	1384.10
634.98	1374.09
635.32	1364.55
635.67	1356.09
636.01	1346.73
636.36	1336.81
636.70	1327.22
637.05	1317.84
637.39	1308.77
637.73	1300.10
638.08	1292.45
638.42	1284.24
638.77	1275.41
639.11	1267.09
639.45	1259.17
639.80	1250.58
640.14	1241.77
640.49	1232.92
640.83	1224.11
641.17	1215.73
641.52	1207.49
641.86	1198.82
642.20	1190.94
642.55	1182.32
642.89	1173.32
643.23	1164.69
643.58	1156.57
643.92	1147.48
644.26	1138.71
644.61	1130.25
644.95	1121.31
645.29	1112.00
645.64	1102.70
645.98	1094.12
646.32	1086.11
646.66	1077.58
647.01	1069.13
647.35	1060.98
647.69	1052.49
648.04	1044.11
648.38	1035.23
648.72	1026.36
649.06	1017.84
649.41	1009.54
649.75	1001.54
650.09	993.62
650.43	985.47
650.78	977.09
651.12	969.29
651.46	961.83
651.80	954.52
652.14	947.18
652.49	939.64
652.83	932.26
653.17	924.40
653.51	916.71
653.85	909.35
654.20	902.08
654.54	894.47
654.88	887.26
655.22	879.93
655.56	872.88
655.90	866.08
656.25	859.35
656.59	852.43
656.93	845.33
657.27	838.11
657.61	831.07
657.95	824.90
658.29	818.93
658.64	812.74
658.98	806.18
659.32	799.58
659.66	793.32
660.00	786.89
660.34	780.91
660.68	774.79
661.02	768.39
661.36	762.35
661.70	756.54
662.05	750.81
662.39	745.30
662.73	739.90
663.07	734.42
663.41	728.75
663.75	723.06
664.09	717.30
664.43	711.80
664.77	706.37
665.11	700.40
665.45	694.43
665.79	688.50
666.13	682.69
666.47	677.14
666.81	671.62
667.15	666.17
667.49	660.85
667.83	655.46
668.17	650.14
668.51	644.95
668.85	639.96
669.19	635.00
669.53	629.93
669.87	624.69
670.21	619.88
670.55	615.08
670.89	610.56
671.23	606.24
671.57	601.77
671.91	597.44
672.25	593.26
672.58	589.13
672.92	585.06
673.26	581.14
673.60	577.23
673.94	573.35
674.28	569.64
674.62	565.83
674.96	562.04
675.30	558.48
675.64	554.79
675.97	551.11
676.31	547.41
676.65	543.79
676.99	540.33
677.33	536.45
677.67	532.77
678.01	528.80
678.34	525.11
678.68	521.54
679.02	517.84
679.36	514.13
679.70	510.45
680.04	506.80
680.37	503.31
680.71	499.99
681.05	496.74
681.39	493.44
681.73	490.25
682.06	487.25
682.40	484.11
682.74	480.89
683.08	477.74
683.42	474.53
683.75	471.44
684.09	468.38
684.43	465.51
684.77	462.57
685.10	459.72
685.44	456.71
685.78	453.81
686.12	451.06
686.45	448.25
686.79	445.51
687.13	442.96
687.46	440.29
687.80	437.49
688.14	434.63
688.48	432.00
688.81	429.23
689.15	426.58
689.49	423.91
689.82	421.33
690.16	418.67
690.50	416.14
690.83	413.60
691.17	410.97
691.51	408.48
691.84	406.19
692.18	403.90
692.52	401.68
692.85	399.48
693.19	397.26
693.52	395.14
693.86	392.88
694.20	390.70
694.53	388.55
694.87	386.30
695.21	384.16
695.54	381.95
695.88	379.82
696.21	377.53
696.55	375.39
696.88	373.32
697.22	371.27
697.56	369.36
697.89	367.44
698.23	365.67
698.56	363.79
698.90	362.00
699.23	360.09
699.57	358.15
699.90	356.25
700.24	354.41
700.58	352.61
700.91	350.92
701.25	349.31
701.58	347.66
701.92	346.10
702.25	344.45
702.59	342.76
702.92	341.20
703.26	339.66
703.59	338.22
703.93	336.90
704.26	335.47
704.60	333.97
704.93	332.50
705.26	330.99
705.60	329.54
705.93	328.00
706.27	326.68
706.60	325.42
706.94	324.18
707.27	322.78
707.61	321.45
707.94	320.08
708.27	318.56
708.61	317.11
708.94	315.71
709.28	314.45
709.61	313.23
709.94	311.99
710.28	310.75
710.61	309.53
710.95	308.12
711.28	306.99
711.61	305.76
711.95	304.62
712.28	303.42
712.61	302.19
712.95	301.13
713.28	300.03
713.61	298.89
713.95	297.73
714.28	296.70
714.61	295.58
714.95	294.56
715.28	293.48
715.61	292.40
715.95	291.39
716.28	290.36
716.61	289.38
716.95	288.38
717.28	287.43
717.61	286.42
717.94	285.52
718.28	284.50
718.61	283.64
718.94	282.70
719.27	281.83
719.61	281.00
719.94	280.10
720.27	279.10
720.60	278.23
720.94	277.39
721.27	276.58
721.60	275.88
721.93	275.13
722.27	274.49
722.60	273.85
722.93	273.18
723.26	272.52
723.59	271.87
723.93	271.23
724.26	270.57
724.59	269.94
724.92	269.33
725.25	268.81
725.59	268.22
725.92	267.70
726.25	267.14
726.58	266.57
726.91	265.96
727.24	265.48
727.57	264.92
727.91	264.32
728.24	263.76
728.57	263.17
728.90	262.61
729.23	262.03
729.56	261.52
729.89	260.95
730.22	260.41
730.55	259.80
730.89	259.23
731.22	258.70
731.55	258.18
731.88	257.65
732.21	257.08
732.54	256.53
732.87	255.98
733.20	255.50
733.53	255.01
733.86	254.57
734.19	254.04
734.52	253.60
734.85	253.30
735.18	252.85
735.51	252.50
735.84	252.08
736.17	251.66
736.50	251.14
736.83	250.98
737.16	250.56
737.49	250.19
737.82	249.79
738.15	249.42
738.48	249.02
738.81	248.65
739.14	248.23
739.47	247.83
739.80	247.45
740.13	247.06
740.46	246.63
740.79	246.20
741.12	245.86
741.45	245.48
741.78	245.04
742.11	244.77
742.44	244.33
742.77	244.02
743.10	243.68
743.43	243.35
743.75	242.78
744.08	242.71
744.41	242.32
744.74	241.98
745.07	241.59
745.40	241.28
745.73	240.98
746.06	240.65
746.39	240.31
746.71	240.01
747.04	239.62
747.37	239.35
747.70	239.08
748.03	238.75
748.36	238.50
748.68	238.16
749.01	237.78
749.34	237.49
749.67	237.21
750.00	236.92
750.33	236.78
750.65	236.54
750.98	236.00
751.31	235.77
751.64	235.53
751.97	235.44
752.29	235.16
752.62	234.84
752.95	234.59
753.28	234.34
753.60	234.10
753.93	233.94
754.26	233.68
754.59	233.38
754.91	233.18
755.24	232.90
755.57	232.65
755.90	232.46
756.22	232.19
756.55	231.93
756.88	231.68
757.20	231.34
757.53	231.03
757.86	230.83
758.19	230.62
758.51	230.39
758.84	230.06
759.17	229.88
759.49	229.70
759.82	229.62
760.15	229.47
760.47	229.27
760.80	229.02
761.13	228.88
761.45	228.69
761.78	228.48
762.11	228.31
762.43	228.13
762.76	227.94
763.08	227.81
763.41	227.63
763.74	227.51
764.06	227.32
764.39	227.21
764.71	227.05
765.04	226.87
765.37	226.71
765.69	226.55
766.02	226.39
766.34	226.24
766.67	226.01
767.00	225.91
767.32	225.92
767.65	225.91
767.97	225.77
768.30	225.67
768.62	225.57
768.95	225.44
769.27	225.32
769.60	225.22
769.92	225.07
770.25	224.91
770.57	224.74
770.90	224.62
771.22	224.48
771.55	224.38
771.87	224.29
772.20	224.18
772.52	224.25
772.85	224.39
773.17	224.29
773.50	224.16
773.82	224.01
774.15	223.79
774.47	223.58
774.80	223.46
775.12	223.32
775.45	223.20
775.77	223.14
776.09	223.05
776.42	222.96
776.74	222.95
777.07	222.85
777.39	222.77
777.72	222.70
778.04	222.64
778.36	222.53
778.69	222.48
779.01	222.41
779.33	222.13
779.66	221.81
779.98	221.72
780.31	221.67
780.63	221.66
780.95	221.58
781.28	221.48
781.60	221.38
781.92	221.34
782.25	221.27
782.57	221.18
782.89	221.12
783.22	221.07
783.54	220.96
783.86	220.95
784.19	220.89
784.51	220.86
784.83	220.75
785.16	220.67
785.48	220.61
785.80	220.57
786.12	220.51
