SpectraSuite Data File
++++++++++++++++++++++++++++++++++++
Date: Tue Jan 29 16:53:14 EST 2013
User: group
Dark Spectrum Present: No
Reference Spectrum Present: No
Number of Sampled Component Spectra: 1
Spectrometers: USB2E7196
Integration Time (usec): 65000 (USB2E7196)
Spectra Averaged: 100 (USB2E7196)
Boxcar Smoothing: 10 (USB2E7196)
Correct for Electrical Dark: No (USB2E7196)
Strobe/Lamp Enabled: No (USB2E7196)
Correct for Detector Non-linearity: No (USB2E7196)
Correct for Stray Light: No (USB2E7196)
Number of Pixels in Processed Spectrum: 2048
>>>>>Begin Processed Spectral Data<<<<<
339.09	0.00
339.48	201.05
339.86	202.83
340.24	204.24
340.63	205.93
341.01	210.02
341.39	208.36
341.78	210.11
342.16	211.16
342.54	211.25
342.93	200.72
343.31	210.86
343.69	211.39
344.07	211.87
344.46	212.33
344.84	212.71
345.22	212.87
345.60	213.17
345.99	213.38
346.37	213.53
346.75	213.64
347.13	213.73
347.52	213.80
347.90	213.92
348.28	213.96
348.66	214.04
349.05	213.97
349.43	214.04
349.81	214.08
350.19	214.15
350.57	214.22
350.96	214.27
351.34	214.38
351.72	214.49
352.10	214.58
352.48	214.63
352.87	214.68
353.25	214.77
353.63	214.78
354.01	214.82
354.39	214.88
354.77	214.97
355.15	215.07
355.54	215.13
355.92	215.14
356.30	215.21
356.68	215.39
357.06	215.48
357.44	215.47
357.82	215.54
358.20	215.63
358.58	215.68
358.97	215.77
359.35	215.85
359.73	215.93
360.11	216.00
360.49	216.06
360.87	216.12
361.25	216.18
361.63	216.31
362.01	216.36
362.39	216.39
362.77	216.45
363.15	216.48
363.53	216.52
363.91	216.57
364.29	216.58
364.67	216.43
365.05	216.45
365.43	216.55
365.81	216.60
366.19	216.68
366.57	216.78
366.95	216.80
367.33	216.75
367.71	216.80
368.09	216.83
368.47	216.86
368.85	216.86
369.23	216.93
369.61	216.87
369.99	216.94
370.37	216.97
370.75	217.05
371.13	217.02
371.51	216.95
371.89	216.96
372.27	216.94
372.65	216.92
373.03	216.93
373.41	216.88
373.78	216.81
374.16	216.66
374.54	216.57
374.92	216.50
375.30	216.49
375.68	216.39
376.06	216.35
376.44	216.29
376.82	216.26
377.19	216.18
377.57	216.08
377.95	216.01
378.33	215.97
378.71	215.80
379.09	215.77
379.47	215.77
379.84	215.67
380.22	215.61
380.60	215.55
380.98	215.48
381.36	215.39
381.73	215.36
382.11	215.39
382.49	215.36
382.87	215.29
383.25	215.26
383.62	215.49
384.00	215.43
384.38	215.40
384.76	215.44
385.13	215.50
385.51	215.49
385.89	215.39
386.27	215.36
386.64	215.36
387.02	215.32
387.40	215.26
387.78	215.25
388.15	215.20
388.53	215.15
388.91	215.13
389.29	215.13
389.66	215.12
390.04	215.03
390.42	215.04
390.79	215.04
391.17	215.04
391.55	214.78
391.92	214.76
392.30	214.76
392.68	214.68
393.05	214.63
393.43	214.64
393.81	214.64
394.18	214.61
394.56	214.61
394.94	214.66
395.31	214.66
395.69	214.76
396.06	214.84
396.44	214.91
396.82	214.88
397.19	214.98
397.57	214.97
397.95	215.06
398.32	215.02
398.70	215.10
399.07	215.15
399.45	215.18
399.82	215.20
400.20	215.23
400.58	215.31
400.95	215.29
401.33	215.39
401.70	215.63
402.08	215.72
402.45	215.79
402.83	215.90
403.20	216.03
403.58	216.10
403.95	216.23
404.33	216.38
404.71	216.57
405.08	216.84
405.46	217.02
405.83	217.20
406.21	217.41
406.58	217.60
406.96	217.84
407.33	218.12
407.70	218.43
408.08	218.92
408.45	219.29
408.83	219.68
409.20	220.02
409.58	220.28
409.95	220.74
410.33	221.25
410.70	221.71
411.08	222.25
411.45	222.82
411.82	223.42
412.20	224.12
412.57	224.93
412.95	225.53
413.32	226.36
413.69	227.22
414.07	228.13
414.44	229.18
414.82	230.20
415.19	231.39
415.56	232.59
415.94	233.77
416.31	235.17
416.68	236.58
417.06	238.22
417.43	239.78
417.81	241.54
418.18	243.34
418.55	245.28
418.93	247.38
419.30	249.47
419.67	251.69
420.04	253.98
420.42	256.36
420.79	259.18
421.16	261.98
421.54	264.92
421.91	267.92
422.28	271.01
422.66	274.32
423.03	277.58
423.40	280.97
423.77	284.59
424.15	288.25
424.52	292.12
424.89	296.30
425.26	300.43
425.64	304.31
426.01	308.60
426.38	313.08
426.75	317.63
427.13	322.43
427.50	327.42
427.87	332.65
428.24	337.85
428.61	342.83
428.99	348.42
429.36	354.38
429.73	360.31
430.10	366.21
430.47	372.31
430.85	378.66
431.22	385.41
431.59	392.56
431.96	399.43
432.33	406.99
432.70	414.23
433.08	422.80
433.45	430.91
433.82	438.95
434.19	447.86
434.56	456.62
434.93	464.94
435.30	473.23
435.68	482.43
436.05	491.50
436.42	500.50
436.79	508.67
437.16	517.55
437.53	526.88
437.90	536.06
438.27	545.09
438.64	554.28
439.01	562.84
439.38	570.42
439.75	577.78
440.13	586.23
440.50	594.20
440.87	600.61
441.24	607.30
441.61	614.68
441.98	620.10
442.35	626.43
442.72	632.87
443.09	639.01
443.46	642.72
443.83	645.35
444.20	647.61
444.57	650.83
444.94	652.31
445.31	653.79
445.68	655.23
446.05	655.86
446.42	655.16
446.79	654.21
447.16	653.23
447.53	652.51
447.90	649.18
448.27	645.99
448.64	641.36
449.01	638.10
449.37	632.23
449.74	626.55
450.11	619.70
450.48	612.29
450.85	604.84
451.22	598.33
451.59	592.10
451.96	586.14
452.33	578.23
452.70	571.12
453.07	562.57
453.43	553.90
453.80	545.56
454.17	537.47
454.54	529.85
454.91	521.54
455.28	513.45
455.65	506.00
456.02	498.39
456.38	491.99
456.75	484.02
457.12	477.33
457.49	470.82
457.86	464.54
458.23	459.05
458.59	453.02
458.96	446.98
459.33	441.65
459.70	436.27
460.07	431.94
460.43	426.95
460.80	422.33
461.17	418.31
461.54	414.06
461.91	410.03
462.27	405.92
462.64	402.47
463.01	398.68
463.38	394.96
463.74	391.29
464.11	388.04
464.48	385.20
464.85	382.12
465.21	379.65
465.58	376.96
465.95	373.81
466.32	371.18
466.68	368.59
467.05	365.94
467.42	363.40
467.78	360.70
468.15	358.16
468.52	356.21
468.88	353.66
469.25	351.42
469.62	349.61
469.98	347.67
470.35	345.79
470.72	344.05
471.08	342.20
471.45	340.67
471.82	339.11
472.18	337.39
472.55	336.13
472.92	334.70
473.28	333.46
473.65	332.28
474.02	331.12
474.38	330.21
474.75	329.49
475.11	328.63
475.48	328.00
475.85	327.53
476.21	327.08
476.58	326.71
476.94	326.47
477.31	326.14
477.67	325.88
478.04	325.78
478.41	325.78
478.77	325.93
479.14	325.83
479.50	325.97
479.87	326.27
480.23	326.61
480.60	326.88
480.96	327.17
481.33	327.79
481.69	328.39
482.06	328.88
482.42	329.32
482.79	329.85
483.15	330.65
483.52	331.58
483.88	332.44
484.25	333.42
484.61	334.46
484.98	335.54
485.34	336.85
485.71	338.20
486.07	339.62
486.44	340.94
486.80	342.56
487.17	344.24
487.53	346.06
487.90	347.92
488.26	349.95
488.62	352.13
488.99	354.14
489.35	356.30
489.72	358.71
490.08	361.22
490.44	363.88
490.81	366.57
491.17	369.25
491.54	372.23
491.90	375.21
492.26	378.41
492.63	381.76
492.99	385.20
493.36	388.84
493.72	392.71
494.08	396.69
494.45	400.91
494.81	405.26
495.17	409.66
495.54	414.39
495.90	419.17
496.26	424.05
496.63	429.25
496.99	434.66
497.35	440.24
497.72	446.05
498.08	452.00
498.44	458.14
498.80	464.59
499.17	471.07
499.53	477.79
499.89	484.68
500.26	491.68
500.62	498.75
500.98	506.13
501.34	513.56
501.71	521.27
502.07	529.06
502.43	536.99
502.79	545.15
503.16	553.52
503.52	562.15
503.88	570.85
504.24	579.79
504.60	588.84
504.97	598.08
505.33	607.35
505.69	617.10
506.05	626.92
506.41	636.78
506.78	646.77
507.14	656.90
507.50	667.35
507.86	678.04
508.22	688.80
508.59	699.43
508.95	710.45
509.31	721.72
509.67	733.16
510.03	744.51
510.39	756.15
510.75	767.87
511.12	779.65
511.48	791.65
511.84	803.85
512.20	816.12
512.56	828.64
512.92	841.35
513.28	853.96
513.64	866.65
514.00	879.42
514.37	892.44
514.73	905.67
515.09	918.60
515.45	931.47
515.81	944.51
516.17	957.90
516.53	971.21
516.89	984.31
517.25	997.48
517.61	1011.07
517.97	1024.45
518.33	1037.65
518.69	1051.20
519.05	1065.09
519.41	1078.82
519.77	1092.69
520.13	1105.98
520.49	1119.19
520.85	1132.59
521.21	1145.98
521.57	1159.56
521.93	1172.56
522.29	1186.20
522.65	1199.88
523.01	1213.46
523.37	1226.68
523.73	1240.04
524.09	1253.12
524.45	1266.50
524.81	1279.97
525.17	1293.44
525.53	1306.66
525.89	1319.92
526.25	1333.05
526.61	1345.92
526.97	1359.01
527.33	1371.98
527.68	1385.39
528.04	1398.95
528.40	1412.12
528.76	1425.49
529.12	1438.40
529.48	1451.76
529.84	1464.15
530.20	1476.92
530.56	1489.62
530.91	1502.83
531.27	1515.73
531.63	1528.55
531.99	1541.28
532.35	1553.63
532.71	1565.93
533.07	1578.96
533.42	1591.36
533.78	1603.52
534.14	1615.47
534.50	1626.77
534.86	1638.36
535.21	1649.51
535.57	1661.10
535.93	1672.47
536.29	1683.52
536.65	1695.18
537.00	1706.24
537.36	1717.65
537.72	1728.75
538.08	1740.17
538.44	1751.30
538.79	1762.49
539.15	1773.49
539.51	1784.46
539.87	1795.82
540.22	1806.77
540.58	1817.76
540.94	1828.73
541.29	1839.19
541.65	1849.08
542.01	1859.61
542.37	1869.76
542.72	1879.91
543.08	1889.71
543.44	1900.19
543.79	1909.53
544.15	1919.08
544.51	1929.10
544.87	1939.06
545.22	1948.29
545.58	1957.29
545.94	1966.17
546.29	1974.69
546.65	1983.16
547.01	1991.46
547.36	1999.25
547.72	2007.00
548.07	2014.58
548.43	2022.27
548.79	2030.28
549.14	2038.48
549.50	2047.05
549.86	2055.03
550.21	2062.45
550.57	2070.08
550.92	2076.95
551.28	2084.50
551.64	2091.66
551.99	2099.33
552.35	2106.61
552.70	2113.52
553.06	2120.14
553.41	2126.42
553.77	2132.85
554.13	2139.21
554.48	2146.13
554.84	2153.21
555.19	2159.75
555.55	2166.23
555.90	2172.57
556.26	2179.43
556.61	2185.57
556.97	2190.40
557.32	2196.08
557.68	2202.55
558.03	2208.37
558.39	2213.72
558.74	2219.74
559.10	2225.34
559.45	2230.82
559.81	2236.38
560.16	2241.72
560.52	2247.57
560.87	2253.90
561.23	2259.73
561.58	2266.36
561.94	2271.64
562.29	2276.27
562.64	2282.15
563.00	2287.62
563.35	2293.09
563.71	2298.48
564.06	2304.10
564.42	2310.00
564.77	2315.02
565.12	2320.18
565.48	2325.14
565.83	2330.42
566.19	2335.54
566.54	2340.82
566.89	2345.21
567.25	2349.58
567.60	2355.42
567.96	2360.37
568.31	2364.78
568.66	2369.20
569.02	2372.89
569.37	2376.64
569.72	2381.01
570.08	2384.42
570.43	2387.63
570.78	2390.65
571.14	2393.07
571.49	2396.10
571.84	2399.31
572.20	2402.30
572.55	2405.08
572.90	2407.38
573.26	2409.96
573.61	2412.50
573.96	2414.42
574.31	2416.26
574.67	2418.09
575.02	2418.66
575.37	2419.95
575.72	2420.51
576.08	2421.58
576.43	2421.65
576.78	2421.65
577.13	2422.80
577.49	2424.03
577.84	2424.73
578.19	2425.72
578.54	2426.16
578.90	2426.52
579.25	2426.31
579.60	2425.91
579.95	2425.02
580.30	2424.78
580.66	2424.04
581.01	2422.26
581.36	2419.77
581.71	2418.15
582.06	2416.64
582.42	2415.53
582.77	2413.09
583.12	2411.40
583.47	2409.91
583.82	2409.12
584.17	2407.82
584.53	2405.75
584.88	2403.29
585.23	2401.21
585.58	2398.84
585.93	2396.71
586.28	2394.51
586.63	2391.91
586.98	2389.39
587.34	2387.24
587.69	2384.46
588.04	2382.17
588.39	2380.53
588.74	2377.81
589.09	2374.95
589.44	2371.59
589.79	2368.89
590.14	2366.81
590.49	2363.85
590.84	2359.81
591.19	2356.52
591.54	2353.05
591.89	2348.78
592.25	2345.47
592.60	2341.19
592.95	2337.06
593.30	2332.79
593.65	2328.11
594.00	2323.53
594.35	2320.56
594.70	2315.88
595.05	2311.42
595.40	2305.98
595.75	2299.94
596.10	2296.33
596.45	2291.46
596.80	2286.78
597.15	2281.49
597.50	2275.53
597.85	2270.37
598.19	2265.07
598.54	2259.20
598.89	2254.02
599.24	2249.43
599.59	2243.21
599.94	2237.28
600.29	2231.18
600.64	2225.07
600.99	2218.19
601.34	2212.64
601.69	2205.66
602.04	2199.07
602.39	2192.35
602.74	2186.15
603.08	2180.79
603.43	2174.17
603.78	2167.20
604.13	2160.22
604.48	2152.97
604.83	2146.76
605.18	2140.56
605.53	2133.67
605.87	2126.60
606.22	2119.66
606.57	2111.64
606.92	2103.58
607.27	2096.61
607.62	2089.92
607.96	2083.00
608.31	2076.77
608.66	2068.97
609.01	2061.18
609.36	2054.10
609.70	2046.54
610.05	2038.74
610.40	2030.33
610.75	2021.88
611.10	2014.32
611.44	2005.25
611.79	1996.64
612.14	1986.78
612.49	1976.18
612.83	1966.82
613.18	1957.56
613.53	1948.38
613.88	1938.84
614.22	1930.34
614.57	1920.58
614.92	1909.94
615.27	1899.71
615.61	1889.26
615.96	1879.68
616.31	1870.10
616.65	1860.79
617.00	1851.18
617.35	1841.60
617.70	1831.90
618.04	1822.08
618.39	1811.98
618.74	1802.60
619.08	1793.00
619.43	1784.38
619.78	1776.09
620.12	1767.64
620.47	1758.24
620.82	1747.95
621.16	1738.29
621.51	1728.56
621.85	1718.82
622.20	1708.79
622.55	1698.45
622.89	1688.79
623.24	1679.24
623.59	1669.62
623.93	1659.66
624.28	1649.85
624.62	1639.94
624.97	1629.93
625.32	1620.19
625.66	1611.39
626.01	1602.72
626.35	1593.46
626.70	1583.51
627.04	1573.73
627.39	1563.63
627.73	1554.39
628.08	1545.64
628.43	1536.16
628.77	1526.91
629.12	1518.16
629.46	1510.50
629.81	1502.33
630.15	1493.06
630.50	1483.36
630.84	1473.13
631.19	1463.26
631.53	1454.17
631.88	1444.22
632.22	1434.25
632.57	1425.07
632.91	1415.08
633.26	1405.34
633.60	1395.87
633.95	1386.72
634.29	1377.27
634.64	1368.16
634.98	1358.37
635.32	1349.20
635.67	1341.01
636.01	1331.86
636.36	1322.25
636.70	1312.72
637.05	1303.26
637.39	1294.42
637.73	1285.96
638.08	1278.38
638.42	1270.35
638.77	1261.63
639.11	1253.32
639.45	1245.76
639.80	1237.34
640.14	1228.71
640.49	1219.97
640.83	1211.23
641.17	1203.11
641.52	1195.13
641.86	1186.62
642.20	1178.88
642.55	1170.31
642.89	1161.48
643.23	1152.99
643.58	1145.05
643.92	1136.06
644.26	1127.56
644.61	1119.20
644.95	1110.48
645.29	1101.35
645.64	1092.31
645.98	1083.86
646.32	1076.17
646.66	1067.74
647.01	1059.56
647.35	1051.52
647.69	1043.36
648.04	1035.19
648.38	1026.48
648.72	1017.76
649.06	1009.52
649.41	1001.37
649.75	993.51
650.09	985.72
650.43	977.81
650.78	969.42
651.12	961.83
651.46	954.50
651.80	947.30
652.14	940.04
652.49	932.65
652.83	925.44
653.17	917.90
653.51	910.27
653.85	902.98
654.20	895.80
654.54	888.40
654.88	881.10
655.22	873.96
655.56	867.04
655.90	860.34
656.25	853.58
656.59	846.79
656.93	839.85
657.27	832.69
657.61	825.63
657.95	819.59
658.29	813.70
658.64	807.60
658.98	801.23
659.32	794.80
659.66	788.60
660.00	782.23
660.34	776.10
660.68	770.05
661.02	763.77
661.36	757.78
661.70	752.08
662.05	746.52
662.39	740.99
662.73	735.55
663.07	730.10
663.41	724.47
663.75	718.74
664.09	713.12
664.43	707.71
664.77	702.49
665.11	696.77
665.45	690.84
665.79	685.05
666.13	679.36
666.47	673.84
666.81	668.45
667.15	662.98
667.49	657.84
667.83	652.56
668.17	647.34
668.51	642.27
668.85	637.30
669.19	632.43
669.53	627.44
669.87	622.35
670.21	617.63
670.55	613.02
670.89	608.56
671.23	604.23
671.57	599.84
671.91	595.55
672.25	591.34
672.58	587.30
672.92	583.28
673.26	579.37
673.60	575.46
673.94	571.60
674.28	568.06
674.62	564.30
674.96	560.56
675.30	557.03
675.64	553.36
675.97	549.75
676.31	546.11
676.65	542.54
676.99	539.04
677.33	535.26
677.67	531.62
678.01	527.77
678.34	524.08
678.68	520.59
679.02	516.94
679.36	513.26
679.70	509.54
680.04	505.94
680.37	502.42
680.71	499.14
681.05	495.90
681.39	492.64
681.73	489.44
682.06	486.42
682.40	483.30
682.74	480.07
683.08	476.87
683.42	473.65
683.75	470.60
684.09	467.57
684.43	464.68
684.77	461.67
685.10	458.80
685.44	455.89
685.78	452.97
686.12	450.21
686.45	447.45
686.79	444.77
687.13	442.22
687.46	439.57
687.80	436.85
688.14	433.99
688.48	431.30
688.81	428.57
689.15	425.92
689.49	423.31
689.82	420.72
690.16	418.07
690.50	415.64
690.83	413.13
691.17	410.60
691.51	408.09
691.84	405.83
692.18	403.57
692.52	401.34
692.85	399.12
693.19	396.92
693.52	394.73
693.86	392.55
694.20	390.29
694.53	388.10
694.87	385.84
695.21	383.68
695.54	381.50
695.88	379.31
696.21	377.10
696.55	374.93
696.88	372.85
697.22	370.87
697.56	368.90
697.89	366.97
698.23	365.15
698.56	363.32
698.90	361.48
699.23	359.57
699.57	357.70
699.90	355.86
700.24	354.02
700.58	352.27
700.91	350.54
701.25	348.97
701.58	347.38
701.92	345.81
702.25	344.23
702.59	342.62
702.92	341.06
703.26	339.46
703.59	337.94
703.93	336.69
704.26	335.25
704.60	333.72
704.93	332.20
705.26	330.75
705.60	329.30
705.93	327.78
706.27	326.41
706.60	325.14
706.94	323.85
707.27	322.45
707.61	321.08
707.94	319.76
708.27	318.27
708.61	316.78
708.94	315.35
709.28	314.01
709.61	312.76
709.94	311.51
710.28	310.31
710.61	309.13
710.95	307.68
711.28	306.52
711.61	305.33
711.95	304.19
712.28	302.94
712.61	301.74
712.95	300.69
713.28	299.66
713.61	298.46
713.95	297.27
714.28	296.29
714.61	295.22
714.95	294.13
715.28	293.07
715.61	292.06
715.95	291.09
716.28	290.08
716.61	289.11
716.95	288.13
717.28	287.18
717.61	286.21
717.94	285.28
718.28	284.25
718.61	283.35
718.94	282.45
719.27	281.56
719.61	280.77
719.94	279.87
720.27	278.86
720.60	277.97
720.94	277.16
721.27	276.30
721.60	275.61
721.93	274.85
722.27	274.18
722.60	273.48
722.93	272.79
723.26	272.12
723.59	271.37
723.93	270.76
724.26	270.10
724.59	269.41
724.92	268.84
725.25	268.33
725.59	267.78
725.92	267.24
726.25	266.66
726.58	266.01
726.91	265.41
727.24	264.90
727.57	264.33
727.91	263.73
728.24	263.20
728.57	262.56
728.90	262.04
729.23	261.41
729.56	260.96
729.89	260.36
730.22	259.78
730.55	259.24
730.89	258.66
731.22	258.10
731.55	257.60
731.88	257.03
732.21	256.46
732.54	255.90
732.87	255.32
733.20	254.86
733.53	254.39
733.86	253.93
734.19	253.40
734.52	252.96
734.85	252.68
735.18	252.24
735.51	251.88
735.84	251.41
736.17	251.05
736.50	250.52
736.83	250.40
737.16	250.04
737.49	249.64
737.82	249.22
738.15	248.85
738.48	248.44
738.81	248.06
739.14	247.63
739.47	247.22
739.80	246.87
740.13	246.50
740.46	246.13
740.79	245.69
741.12	245.35
741.45	244.96
741.78	244.50
742.11	244.17
742.44	243.79
742.77	243.49
743.10	243.07
743.43	242.72
743.75	242.14
744.08	242.07
744.41	241.76
744.74	241.41
745.07	241.00
745.40	240.71
745.73	240.43
746.06	240.10
746.39	239.82
746.71	239.48
747.04	239.11
747.37	238.77
747.70	238.54
748.03	238.24
748.36	237.97
748.68	237.69
749.01	237.33
749.34	237.04
749.67	236.72
750.00	236.50
750.33	236.34
750.65	236.08
750.98	235.52
751.31	235.23
751.64	235.02
751.97	234.90
752.29	234.66
752.62	234.35
752.95	234.11
753.28	233.81
753.60	233.56
753.93	233.39
754.26	233.18
754.59	232.87
754.91	232.62
755.24	232.36
755.57	232.09
755.90	231.86
756.22	231.60
756.55	231.37
756.88	231.09
757.20	230.77
757.53	230.51
757.86	230.32
758.19	230.12
758.51	229.90
758.84	229.57
759.17	229.35
759.49	229.16
759.82	229.08
760.15	228.90
760.47	228.69
760.80	228.45
761.13	228.26
761.45	228.05
761.78	227.87
762.11	227.72
762.43	227.52
762.76	227.32
763.08	227.18
763.41	227.00
763.74	226.83
764.06	226.65
764.39	226.49
764.71	226.30
765.04	226.12
765.37	225.91
765.69	225.81
766.02	225.67
766.34	225.53
766.67	225.31
767.00	225.21
767.32	225.23
767.65	225.20
767.97	225.05
768.30	224.94
768.62	224.78
768.95	224.67
769.27	224.58
769.60	224.52
769.92	224.33
770.25	224.19
770.57	224.06
770.90	223.94
771.22	223.82
771.55	223.72
771.87	223.60
772.20	223.50
772.52	223.55
772.85	223.67
773.17	223.54
773.50	223.43
773.82	223.32
774.15	223.09
774.47	222.89
774.80	222.78
775.12	222.67
775.45	222.60
775.77	222.49
776.09	222.38
776.42	222.26
776.74	222.24
777.07	222.12
777.39	222.05
777.72	221.97
778.04	221.91
778.36	221.81
778.69	221.72
779.01	221.67
779.33	221.39
779.66	221.09
779.98	221.00
780.31	220.91
780.63	220.87
780.95	220.85
781.28	220.77
781.60	220.70
781.92	220.66
782.25	220.59
782.57	220.55
782.89	220.44
783.22	220.39
783.54	220.31
783.86	220.28
784.19	220.19
784.51	220.19
784.83	220.11
785.16	220.04
785.48	219.98
785.80	219.91
786.12	219.86
