SpectraSuite Data File
++++++++++++++++++++++++++++++++++++
Date: Tue Jan 29 16:39:10 EST 2013
User: group
Dark Spectrum Present: No
Reference Spectrum Present: No
Number of Sampled Component Spectra: 1
Spectrometers: USB2E7196
Integration Time (usec): 65000 (USB2E7196)
Spectra Averaged: 100 (USB2E7196)
Boxcar Smoothing: 10 (USB2E7196)
Correct for Electrical Dark: No (USB2E7196)
Strobe/Lamp Enabled: No (USB2E7196)
Correct for Detector Non-linearity: No (USB2E7196)
Correct for Stray Light: No (USB2E7196)
Number of Pixels in Processed Spectrum: 2048
>>>>>Begin Processed Spectral Data<<<<<
339.09	0.00
339.48	202.03
339.86	203.28
340.24	204.54
340.63	206.10
341.01	210.70
341.39	208.80
341.78	210.31
342.16	212.23
342.54	211.86
342.93	201.24
343.31	211.40
343.69	211.95
344.07	212.42
344.46	212.91
344.84	213.32
345.22	213.47
345.60	213.73
345.99	213.93
346.37	214.07
346.75	214.20
347.13	214.26
347.52	214.32
347.90	214.44
348.28	214.49
348.66	214.58
349.05	214.56
349.43	214.63
349.81	214.66
350.19	214.68
350.57	214.77
350.96	214.87
351.34	214.96
351.72	215.06
352.10	215.18
352.48	215.21
352.87	215.27
353.25	215.35
353.63	215.43
354.01	215.50
354.39	215.54
354.77	215.61
355.15	215.78
355.54	215.82
355.92	215.82
356.30	215.89
356.68	216.11
357.06	216.18
357.44	216.23
357.82	216.29
358.20	216.41
358.58	216.47
358.97	216.55
359.35	216.66
359.73	216.77
360.11	216.80
360.49	216.87
360.87	216.90
361.25	217.00
361.63	217.09
362.01	217.14
362.39	217.17
362.77	217.24
363.15	217.24
363.53	217.29
363.91	217.32
364.29	217.34
364.67	217.15
365.05	217.17
365.43	217.20
365.81	217.22
366.19	217.32
366.57	217.41
366.95	217.39
367.33	217.33
367.71	217.31
368.09	217.36
368.47	217.37
368.85	217.36
369.23	217.39
369.61	217.35
369.99	217.40
370.37	217.41
370.75	217.47
371.13	217.41
371.51	217.38
371.89	217.38
372.27	217.37
372.65	217.35
373.03	217.33
373.41	217.28
373.78	217.26
374.16	217.11
374.54	216.98
374.92	216.94
375.30	216.91
375.68	216.83
376.06	216.76
376.44	216.71
376.82	216.66
377.19	216.60
377.57	216.52
377.95	216.42
378.33	216.38
378.71	216.20
379.09	216.19
379.47	216.15
379.84	216.10
380.22	216.01
380.60	215.97
380.98	215.91
381.36	215.86
381.73	215.78
382.11	215.79
382.49	215.77
382.87	215.69
383.25	215.68
383.62	215.88
384.00	215.82
384.38	215.81
384.76	215.85
385.13	215.89
385.51	215.87
385.89	215.83
386.27	215.81
386.64	215.80
387.02	215.74
387.40	215.67
387.78	215.64
388.15	215.65
388.53	215.59
388.91	215.56
389.29	215.51
389.66	215.51
390.04	215.47
390.42	215.49
390.79	215.49
391.17	215.45
391.55	215.21
391.92	215.18
392.30	215.19
392.68	215.13
393.05	215.08
393.43	215.07
393.81	215.07
394.18	215.01
394.56	215.04
394.94	215.09
395.31	215.09
395.69	215.15
396.06	215.17
396.44	215.21
396.82	215.24
397.19	215.36
397.57	215.35
397.95	215.40
398.32	215.34
398.70	215.39
399.07	215.46
399.45	215.50
399.82	215.55
400.20	215.54
400.58	215.57
400.95	215.57
401.33	215.67
401.70	215.88
402.08	216.00
402.45	216.08
402.83	216.21
403.20	216.30
403.58	216.35
403.95	216.51
404.33	216.65
404.71	216.80
405.08	217.10
405.46	217.30
405.83	217.48
406.21	217.70
406.58	217.92
406.96	218.15
407.33	218.39
407.70	218.69
408.08	219.16
408.45	219.54
408.83	219.94
409.20	220.29
409.58	220.56
409.95	221.01
410.33	221.49
410.70	221.94
411.08	222.53
411.45	223.15
411.82	223.70
412.20	224.42
412.57	225.24
412.95	225.77
413.32	226.60
413.69	227.43
414.07	228.35
414.44	229.32
414.82	230.34
415.19	231.53
415.56	232.73
415.94	233.93
416.31	235.34
416.68	236.73
417.06	238.36
417.43	239.92
417.81	241.67
418.18	243.47
418.55	245.41
418.93	247.46
419.30	249.56
419.67	251.82
420.04	254.08
420.42	256.46
420.79	259.33
421.16	262.14
421.54	265.05
421.91	268.07
422.28	271.21
422.66	274.53
423.03	277.78
423.40	281.14
423.77	284.77
424.15	288.44
424.52	292.32
424.89	296.47
425.26	300.58
425.64	304.46
426.01	308.77
426.38	313.25
426.75	317.79
427.13	322.50
427.50	327.51
427.87	332.76
428.24	337.97
428.61	342.95
428.99	348.46
429.36	354.51
429.73	360.39
430.10	366.29
430.47	372.42
430.85	378.76
431.22	385.49
431.59	392.56
431.96	399.44
432.33	406.92
432.70	414.16
433.08	422.69
433.45	430.82
433.82	438.90
434.19	447.79
434.56	456.55
434.93	464.95
435.30	473.25
435.68	482.37
436.05	491.38
436.42	500.29
436.79	508.42
437.16	517.23
437.53	526.58
437.90	535.77
438.27	544.70
438.64	553.95
439.01	562.45
439.38	570.10
439.75	577.44
440.13	585.92
440.50	594.00
440.87	600.43
441.24	607.10
441.61	614.42
441.98	619.85
442.35	626.20
442.72	632.56
443.09	638.62
443.46	642.38
443.83	644.94
444.20	647.18
444.57	650.35
444.94	651.81
445.31	653.26
445.68	654.64
446.05	655.29
446.42	654.51
446.79	653.62
447.16	652.53
447.53	651.72
447.90	648.34
448.27	645.04
448.64	640.39
449.01	637.04
449.37	631.10
449.74	625.44
450.11	618.50
450.48	611.03
450.85	603.56
451.22	597.12
451.59	590.93
451.96	585.10
452.33	577.24
452.70	570.17
453.07	561.66
453.43	553.01
453.80	544.69
454.17	536.67
454.54	529.10
454.91	520.91
455.28	512.94
455.65	505.53
456.02	498.00
456.38	491.64
456.75	483.74
457.12	477.16
457.49	470.59
457.86	464.37
458.23	458.96
458.59	453.02
458.96	446.95
459.33	441.59
459.70	436.18
460.07	431.89
460.43	426.87
460.80	422.23
461.17	418.19
461.54	413.94
461.91	409.91
462.27	405.82
462.64	402.41
463.01	398.60
463.38	394.90
463.74	391.16
464.11	387.92
464.48	385.12
464.85	382.00
465.21	379.56
465.58	376.97
465.95	373.83
466.32	371.21
466.68	368.63
467.05	366.07
467.42	363.49
467.78	360.79
468.15	358.27
468.52	356.37
468.88	353.88
469.25	351.69
469.62	349.87
469.98	347.88
470.35	346.01
470.72	344.31
471.08	342.43
471.45	340.91
471.82	339.37
472.18	337.65
472.55	336.48
472.92	335.06
473.28	333.83
473.65	332.70
474.02	331.55
474.38	330.62
474.75	329.84
475.11	329.02
475.48	328.44
475.85	327.95
476.21	327.45
476.58	327.13
476.94	326.87
477.31	326.56
477.67	326.30
478.04	326.10
478.41	326.07
478.77	326.24
479.14	326.21
479.50	326.36
479.87	326.67
480.23	326.95
480.60	327.24
480.96	327.45
481.33	328.02
481.69	328.61
482.06	329.13
482.42	329.63
482.79	330.20
483.15	330.97
483.52	331.94
483.88	332.83
484.25	333.77
484.61	334.79
484.98	335.84
485.34	337.17
485.71	338.56
486.07	339.94
486.44	341.30
486.80	342.91
487.17	344.60
487.53	346.39
487.90	348.26
488.26	350.29
488.62	352.45
488.99	354.54
489.35	356.70
489.72	359.09
490.08	361.59
490.44	364.13
490.81	366.82
491.17	369.52
491.54	372.49
491.90	375.53
492.26	378.79
492.63	382.22
492.99	385.71
493.36	389.42
493.72	393.30
494.08	397.29
494.45	401.52
494.81	405.83
495.17	410.36
495.54	415.07
495.90	419.86
496.26	424.86
496.63	430.04
496.99	435.41
497.35	441.02
497.72	446.88
498.08	452.88
498.44	458.98
498.80	465.39
499.17	471.96
499.53	478.70
499.89	485.60
500.26	492.58
500.62	499.67
500.98	507.06
501.34	514.57
501.71	522.42
502.07	530.23
502.43	538.19
502.79	546.32
503.16	554.68
503.52	563.29
503.88	571.94
504.24	580.92
504.60	589.98
504.97	599.21
505.33	608.52
505.69	618.38
506.05	628.35
506.41	638.33
506.78	648.33
507.14	658.51
507.50	668.94
507.86	679.67
508.22	690.48
508.59	701.17
508.95	712.33
509.31	723.56
509.67	735.08
510.03	746.55
510.39	758.31
510.75	770.16
511.12	782.04
511.48	794.21
511.84	806.54
512.20	819.01
512.56	831.71
512.92	844.56
513.28	857.30
513.64	870.09
514.00	882.94
514.37	896.07
514.73	909.18
515.09	922.24
515.45	935.20
515.81	948.33
516.17	961.82
516.53	975.09
516.89	988.23
517.25	1001.50
517.61	1015.11
517.97	1028.58
518.33	1041.83
518.69	1055.42
519.05	1069.22
519.41	1082.96
519.77	1096.91
520.13	1110.28
520.49	1123.60
520.85	1136.94
521.21	1150.37
521.57	1164.10
521.93	1177.19
522.29	1191.15
522.65	1204.95
523.01	1218.62
523.37	1231.93
523.73	1245.29
524.09	1258.60
524.45	1272.18
524.81	1285.77
525.17	1299.26
525.53	1312.57
525.89	1326.02
526.25	1339.33
526.61	1352.26
526.97	1365.40
527.33	1378.33
527.68	1391.89
528.04	1405.38
528.40	1418.60
528.76	1432.00
529.12	1445.05
529.48	1458.53
529.84	1470.89
530.20	1483.65
530.56	1496.35
530.91	1509.61
531.27	1522.72
531.63	1535.48
531.99	1548.25
532.35	1560.54
532.71	1573.00
533.07	1586.02
533.42	1598.41
533.78	1610.65
534.14	1622.74
534.50	1634.10
534.86	1645.84
535.21	1656.79
535.57	1668.55
535.93	1679.97
536.29	1691.20
536.65	1702.72
537.00	1713.75
537.36	1725.29
537.72	1736.36
538.08	1747.91
538.44	1758.98
538.79	1770.01
539.15	1781.11
539.51	1792.07
539.87	1803.44
540.22	1814.36
540.58	1825.25
540.94	1836.30
541.29	1846.67
541.65	1856.75
542.01	1867.38
542.37	1877.63
542.72	1887.84
543.08	1897.66
543.44	1908.26
543.79	1917.62
544.15	1927.19
544.51	1937.30
544.87	1947.18
545.22	1956.50
545.58	1965.41
545.94	1974.43
546.29	1983.17
546.65	1991.67
547.01	2000.02
547.36	2007.80
547.72	2015.64
548.07	2023.41
548.43	2031.15
548.79	2039.10
549.14	2047.29
549.50	2055.83
549.86	2063.72
550.21	2071.22
550.57	2078.93
550.92	2085.80
551.28	2093.39
551.64	2100.64
551.99	2108.16
552.35	2115.52
552.70	2122.46
553.06	2129.20
553.41	2135.54
553.77	2141.97
554.13	2148.38
554.48	2155.39
554.84	2162.60
555.19	2169.26
555.55	2175.74
555.90	2181.94
556.26	2188.86
556.61	2194.97
556.97	2199.78
557.32	2205.61
557.68	2212.16
558.03	2217.97
558.39	2223.33
558.74	2229.27
559.10	2234.75
559.45	2240.39
559.81	2245.85
560.16	2251.45
560.52	2257.32
560.87	2263.78
561.23	2269.64
561.58	2276.20
561.94	2281.32
562.29	2285.92
562.64	2291.98
563.00	2297.57
563.35	2303.23
563.71	2308.93
564.06	2314.55
564.42	2320.51
564.77	2325.59
565.12	2330.77
565.48	2335.80
565.83	2341.36
566.19	2346.77
566.54	2352.22
566.89	2356.68
567.25	2361.15
567.60	2366.89
567.96	2371.93
568.31	2376.24
568.66	2380.61
569.02	2384.49
569.37	2388.35
569.72	2392.76
570.08	2396.17
570.43	2399.27
570.78	2402.43
571.14	2404.89
571.49	2407.88
571.84	2411.39
572.20	2414.13
572.55	2417.01
572.90	2419.25
573.26	2421.84
573.61	2424.32
573.96	2426.34
574.31	2428.28
574.67	2430.14
575.02	2430.73
575.37	2432.24
575.72	2433.03
576.08	2434.28
576.43	2434.34
576.78	2434.68
577.13	2436.10
577.49	2437.11
577.84	2438.04
578.19	2439.14
578.54	2439.67
578.90	2440.31
579.25	2439.96
579.60	2439.83
579.95	2439.13
580.30	2439.08
580.66	2438.35
581.01	2436.55
581.36	2433.97
581.71	2432.55
582.06	2431.35
582.42	2430.46
582.77	2427.89
583.12	2426.17
583.47	2424.69
583.82	2423.98
584.17	2422.58
584.53	2420.47
584.88	2418.25
585.23	2416.34
585.58	2414.09
585.93	2411.85
586.28	2409.51
586.63	2406.96
586.98	2404.66
587.34	2402.57
587.69	2400.02
588.04	2397.76
588.39	2396.20
588.74	2393.69
589.09	2390.81
589.44	2387.42
589.79	2384.78
590.14	2382.75
590.49	2379.78
590.84	2376.02
591.19	2372.71
591.54	2369.37
591.89	2365.32
592.25	2361.93
592.60	2357.50
592.95	2353.18
593.30	2348.98
593.65	2344.58
594.00	2340.12
594.35	2337.05
594.70	2332.26
595.05	2327.75
595.40	2322.27
595.75	2316.45
596.10	2312.88
596.45	2307.85
596.80	2303.36
597.15	2298.10
597.50	2292.20
597.85	2287.19
598.19	2281.74
598.54	2275.90
598.89	2270.73
599.24	2265.92
599.59	2259.64
599.94	2253.78
600.29	2247.67
600.64	2241.71
600.99	2234.84
601.34	2229.37
601.69	2222.39
602.04	2215.85
602.39	2209.02
602.74	2202.92
603.08	2197.29
603.43	2190.51
603.78	2183.79
604.13	2176.60
604.48	2169.22
604.83	2163.06
605.18	2156.78
605.53	2149.81
605.87	2142.77
606.22	2135.88
606.57	2127.95
606.92	2120.01
607.27	2113.09
607.62	2106.49
607.96	2099.36
608.31	2092.91
608.66	2085.13
609.01	2077.36
609.36	2070.13
609.70	2062.45
610.05	2054.55
610.40	2046.25
610.75	2037.99
611.10	2030.17
611.44	2021.33
611.79	2012.65
612.14	2002.67
612.49	1991.98
612.83	1982.66
613.18	1973.31
613.53	1963.92
613.88	1954.33
614.22	1945.90
614.57	1936.00
614.92	1925.34
615.27	1915.18
615.61	1905.06
615.96	1895.25
616.31	1885.62
616.65	1876.33
617.00	1866.61
617.35	1856.96
617.70	1847.19
618.04	1837.28
618.39	1827.10
618.74	1817.37
619.08	1807.76
619.43	1799.04
619.78	1790.89
620.12	1782.30
620.47	1772.71
620.82	1762.40
621.16	1752.67
621.51	1742.70
621.85	1732.87
622.20	1722.62
622.55	1711.97
622.89	1701.92
623.24	1692.29
623.59	1682.55
623.93	1672.41
624.28	1662.69
624.62	1652.62
624.97	1642.33
625.32	1632.52
625.66	1623.71
626.01	1614.91
626.35	1605.46
626.70	1595.45
627.04	1585.36
627.39	1575.22
627.73	1566.12
628.08	1557.17
628.43	1547.54
628.77	1538.33
629.12	1529.51
629.46	1521.73
629.81	1513.47
630.15	1504.03
630.50	1494.20
630.84	1483.68
631.19	1473.74
631.53	1464.42
631.88	1454.33
632.22	1444.30
632.57	1434.92
632.91	1424.73
633.26	1414.95
633.60	1405.44
633.95	1396.25
634.29	1386.77
634.64	1377.55
634.98	1367.50
635.32	1358.19
635.67	1349.77
636.01	1340.44
636.36	1330.55
636.70	1320.94
637.05	1311.58
637.39	1302.72
637.73	1294.08
638.08	1286.55
638.42	1278.45
638.77	1269.62
639.11	1261.46
639.45	1253.81
639.80	1245.33
640.14	1236.62
640.49	1227.69
640.83	1218.85
641.17	1210.58
641.52	1202.40
641.86	1193.76
642.20	1185.93
642.55	1177.40
642.89	1168.57
643.23	1159.98
643.58	1152.04
643.92	1142.98
644.26	1134.28
644.61	1125.89
644.95	1117.17
645.29	1108.00
645.64	1098.81
645.98	1090.41
646.32	1082.44
646.66	1073.92
647.01	1065.62
647.35	1057.43
647.69	1049.16
648.04	1040.89
648.38	1031.97
648.72	1023.23
649.06	1014.76
649.41	1006.60
649.75	998.71
650.09	990.86
650.43	982.76
650.78	974.36
651.12	966.70
651.46	959.41
651.80	952.14
652.14	944.86
652.49	937.32
652.83	929.93
653.17	922.18
653.51	914.55
653.85	907.28
654.20	899.98
654.54	892.58
654.88	885.32
655.22	878.07
655.56	871.13
655.90	864.39
656.25	857.68
656.59	850.67
656.93	843.55
657.27	836.35
657.61	829.35
657.95	823.19
658.29	817.21
658.64	810.97
658.98	804.48
659.32	797.88
659.66	791.61
660.00	785.29
660.34	779.22
660.68	773.06
661.02	766.76
661.36	760.72
661.70	754.90
662.05	749.26
662.39	743.79
662.73	738.37
663.07	732.89
663.41	727.25
663.75	721.57
664.09	715.88
664.43	710.43
664.77	705.10
665.11	699.29
665.45	693.38
665.79	687.55
666.13	681.76
666.47	676.24
666.81	670.71
667.15	665.26
667.49	659.98
667.83	654.65
668.17	649.31
668.51	644.17
668.85	639.18
669.19	634.23
669.53	629.16
669.87	624.00
670.21	619.20
670.55	614.47
670.89	609.95
671.23	605.65
671.57	601.22
671.91	596.90
672.25	592.70
672.58	588.51
672.92	584.39
673.26	580.51
673.60	576.66
673.94	572.92
674.28	569.33
674.62	565.58
674.96	561.84
675.30	558.32
675.64	554.62
675.97	550.99
676.31	547.38
676.65	543.77
676.99	540.34
677.33	536.49
677.67	532.81
678.01	528.95
678.34	525.21
678.68	521.64
679.02	518.06
679.36	514.36
679.70	510.67
680.04	507.06
680.37	503.52
680.71	500.14
681.05	496.87
681.39	493.60
681.73	490.42
682.06	487.31
682.40	484.21
682.74	481.01
683.08	477.79
683.42	474.51
683.75	471.44
684.09	468.32
684.43	465.47
684.77	462.48
685.10	459.63
685.44	456.68
685.78	453.75
686.12	450.92
686.45	448.13
686.79	445.46
687.13	442.90
687.46	440.26
687.80	437.50
688.14	434.61
688.48	431.96
688.81	429.19
689.15	426.57
689.49	423.86
689.82	421.30
690.16	418.67
690.50	416.22
690.83	413.71
691.17	411.15
691.51	408.63
691.84	406.35
692.18	404.11
692.52	401.84
692.85	399.67
693.19	397.48
693.52	395.29
693.86	393.05
694.20	390.82
694.53	388.65
694.87	386.48
695.21	384.36
695.54	382.11
695.88	379.92
696.21	377.74
696.55	375.62
696.88	373.53
697.22	371.53
697.56	369.65
697.89	367.73
698.23	365.95
698.56	364.14
698.90	362.39
699.23	360.46
699.57	358.56
699.90	356.64
700.24	354.80
700.58	353.01
700.91	351.33
701.25	349.77
701.58	348.13
701.92	346.47
702.25	344.81
702.59	343.18
702.92	341.63
703.26	340.03
703.59	338.50
703.93	337.24
704.26	335.83
704.60	334.26
704.93	332.75
705.26	331.20
705.60	329.66
705.93	328.08
706.27	326.70
706.60	325.45
706.94	324.22
707.27	322.79
707.61	321.44
707.94	320.05
708.27	318.46
708.61	317.02
708.94	315.63
709.28	314.31
709.61	313.04
709.94	311.82
710.28	310.60
710.61	309.41
710.95	307.91
711.28	306.77
711.61	305.53
711.95	304.38
712.28	303.22
712.61	302.04
712.95	300.96
713.28	299.95
713.61	298.74
713.95	297.56
714.28	296.55
714.61	295.48
714.95	294.44
715.28	293.45
715.61	292.39
715.95	291.38
716.28	290.40
716.61	289.39
716.95	288.37
717.28	287.39
717.61	286.42
717.94	285.54
718.28	284.50
718.61	283.62
718.94	282.72
719.27	281.83
719.61	281.00
719.94	280.10
720.27	279.10
720.60	278.20
720.94	277.38
721.27	276.57
721.60	275.87
721.93	275.15
722.27	274.50
722.60	273.82
722.93	273.09
723.26	272.46
723.59	271.75
723.93	271.09
724.26	270.45
724.59	269.77
724.92	269.14
725.25	268.57
725.59	267.99
725.92	267.38
726.25	266.82
726.58	266.23
726.91	265.62
727.24	265.05
727.57	264.52
727.91	263.91
728.24	263.35
728.57	262.76
728.90	262.22
729.23	261.59
729.56	261.15
729.89	260.64
730.22	260.03
730.55	259.49
730.89	258.96
731.22	258.42
731.55	257.91
731.88	257.40
732.21	256.83
732.54	256.29
732.87	255.78
733.20	255.27
733.53	254.79
733.86	254.34
734.19	253.86
734.52	253.45
734.85	253.12
735.18	252.65
735.51	252.28
735.84	251.79
736.17	251.39
736.50	250.84
736.83	250.67
737.16	250.32
737.49	249.91
737.82	249.49
738.15	249.12
738.48	248.73
738.81	248.33
739.14	247.91
739.47	247.53
739.80	247.19
740.13	246.84
740.46	246.44
740.79	246.07
741.12	245.73
741.45	245.36
741.78	244.94
742.11	244.67
742.44	244.23
742.77	243.95
743.10	243.56
743.43	243.21
743.75	242.64
744.08	242.50
744.41	242.14
744.74	241.80
745.07	241.44
745.40	241.13
745.73	240.88
746.06	240.59
746.39	240.30
746.71	239.92
747.04	239.52
747.37	239.18
747.70	238.88
748.03	238.56
748.36	238.27
748.68	237.92
749.01	237.55
749.34	237.27
749.67	236.97
750.00	236.71
750.33	236.58
750.65	236.31
750.98	235.82
751.31	235.59
751.64	235.34
751.97	235.20
752.29	234.94
752.62	234.59
752.95	234.33
753.28	234.04
753.60	233.77
753.93	233.63
754.26	233.41
754.59	233.10
754.91	232.87
755.24	232.59
755.57	232.38
755.90	232.15
756.22	231.90
756.55	231.67
756.88	231.40
757.20	231.05
757.53	230.81
757.86	230.61
758.19	230.41
758.51	230.22
758.84	229.93
759.17	229.73
759.49	229.52
759.82	229.44
760.15	229.29
760.47	229.10
760.80	228.85
761.13	228.72
761.45	228.51
761.78	228.31
762.11	228.12
762.43	227.90
762.76	227.77
763.08	227.66
763.41	227.50
763.74	227.37
764.06	227.19
764.39	227.04
764.71	226.88
765.04	226.74
765.37	226.56
765.69	226.39
766.02	226.25
766.34	226.12
766.67	225.89
767.00	225.76
767.32	225.75
767.65	225.74
767.97	225.59
768.30	225.48
768.62	225.33
768.95	225.19
769.27	225.09
769.60	224.95
769.92	224.80
770.25	224.64
770.57	224.50
770.90	224.37
771.22	224.20
771.55	224.10
771.87	223.96
772.20	223.85
772.52	223.93
772.85	224.05
773.17	223.95
773.50	223.86
773.82	223.76
774.15	223.56
774.47	223.31
774.80	223.19
775.12	223.09
775.45	223.00
775.77	222.93
776.09	222.84
776.42	222.74
776.74	222.68
777.07	222.59
777.39	222.48
777.72	222.41
778.04	222.35
778.36	222.23
778.69	222.12
779.01	222.04
779.33	221.75
779.66	221.39
779.98	221.31
780.31	221.22
780.63	221.23
780.95	221.16
781.28	221.09
781.60	221.01
781.92	220.98
782.25	220.95
782.57	220.88
782.89	220.82
783.22	220.72
783.54	220.63
783.86	220.58
784.19	220.47
784.51	220.46
784.83	220.36
785.16	220.30
785.48	220.25
785.80	220.19
786.12	220.17
