SpectraSuite Data File
++++++++++++++++++++++++++++++++++++
Date: Tue Jan 29 16:15:31 EST 2013
User: group
Dark Spectrum Present: No
Reference Spectrum Present: No
Number of Sampled Component Spectra: 1
Spectrometers: USB2E7196
Integration Time (usec): 65000 (USB2E7196)
Spectra Averaged: 100 (USB2E7196)
Boxcar Smoothing: 10 (USB2E7196)
Correct for Electrical Dark: No (USB2E7196)
Strobe/Lamp Enabled: No (USB2E7196)
Correct for Detector Non-linearity: No (USB2E7196)
Correct for Stray Light: No (USB2E7196)
Number of Pixels in Processed Spectrum: 2048
>>>>>Begin Processed Spectral Data<<<<<
339.09	0.00
339.48	203.02
339.86	204.20
340.24	205.72
340.63	207.08
341.01	211.70
341.39	209.50
341.78	211.50
342.16	212.42
342.54	212.72
342.93	201.81
343.31	212.00
343.69	212.51
344.07	212.96
344.46	213.38
344.84	213.76
345.22	213.92
345.60	214.15
345.99	214.31
346.37	214.44
346.75	214.53
347.13	214.62
347.52	214.67
347.90	214.75
348.28	214.75
348.66	214.80
349.05	214.77
349.43	214.83
349.81	214.84
350.19	214.88
350.57	214.99
350.96	215.06
351.34	215.13
351.72	215.21
352.10	215.32
352.48	215.36
352.87	215.41
353.25	215.41
353.63	215.46
354.01	215.53
354.39	215.58
354.77	215.65
355.15	215.76
355.54	215.79
355.92	215.80
356.30	215.85
356.68	216.04
357.06	216.14
357.44	216.16
357.82	216.20
358.20	216.28
358.58	216.35
358.97	216.41
359.35	216.52
359.73	216.63
360.11	216.67
360.49	216.73
360.87	216.75
361.25	216.88
361.63	216.98
362.01	217.03
362.39	217.07
362.77	217.08
363.15	217.10
363.53	217.14
363.91	217.21
364.29	217.23
364.67	217.06
365.05	217.09
365.43	217.17
365.81	217.24
366.19	217.34
366.57	217.43
366.95	217.45
367.33	217.41
367.71	217.40
368.09	217.46
368.47	217.46
368.85	217.50
369.23	217.53
369.61	217.50
369.99	217.52
370.37	217.56
370.75	217.68
371.13	217.64
371.51	217.60
371.89	217.57
372.27	217.60
372.65	217.61
373.03	217.59
373.41	217.53
373.78	217.47
374.16	217.34
374.54	217.25
374.92	217.18
375.30	217.18
375.68	217.09
376.06	217.07
376.44	217.04
376.82	217.02
377.19	216.94
377.57	216.92
377.95	216.83
378.33	216.78
378.71	216.64
379.09	216.64
379.47	216.64
379.84	216.59
380.22	216.51
380.60	216.43
380.98	216.35
381.36	216.29
381.73	216.25
382.11	216.25
382.49	216.19
382.87	216.15
383.25	216.09
383.62	216.33
384.00	216.26
384.38	216.19
384.76	216.20
385.13	216.28
385.51	216.23
385.89	216.17
386.27	216.12
386.64	216.11
387.02	216.07
387.40	216.02
387.78	215.99
388.15	215.99
388.53	215.99
388.91	215.99
389.29	215.97
389.66	215.98
390.04	215.94
390.42	216.00
390.79	215.97
391.17	216.00
391.55	215.76
391.92	215.75
392.30	215.78
392.68	215.67
393.05	215.61
393.43	215.60
393.81	215.61
394.18	215.59
394.56	215.56
394.94	215.60
395.31	215.58
395.69	215.67
396.06	215.70
396.44	215.72
396.82	215.72
397.19	215.83
397.57	215.80
397.95	215.87
398.32	215.82
398.70	215.89
399.07	215.93
399.45	215.94
399.82	215.95
400.20	216.00
400.58	216.08
400.95	216.06
401.33	216.15
401.70	216.36
402.08	216.45
402.45	216.56
402.83	216.68
403.20	216.81
403.58	216.87
403.95	217.02
404.33	217.17
404.71	217.31
405.08	217.58
405.46	217.76
405.83	217.97
406.21	218.14
406.58	218.39
406.96	218.61
407.33	218.86
407.70	219.19
408.08	219.65
408.45	220.02
408.83	220.42
409.20	220.78
409.58	221.03
409.95	221.48
410.33	221.94
410.70	222.35
411.08	222.90
411.45	223.46
411.82	224.01
412.20	224.71
412.57	225.49
412.95	226.03
413.32	226.84
413.69	227.60
414.07	228.50
414.44	229.44
414.82	230.44
415.19	231.57
415.56	232.72
415.94	233.85
416.31	235.18
416.68	236.53
417.06	238.04
417.43	239.57
417.81	241.28
418.18	243.01
418.55	244.87
418.93	246.81
419.30	248.83
419.67	251.02
420.04	253.21
420.42	255.54
420.79	258.28
421.16	260.96
421.54	263.77
421.91	266.64
422.28	269.62
422.66	272.77
423.03	275.91
423.40	279.13
423.77	282.62
424.15	286.18
424.52	289.88
424.89	293.94
425.26	297.86
425.64	301.62
426.01	305.74
426.38	310.02
426.75	314.38
427.13	318.96
427.50	323.76
427.87	328.77
428.24	333.78
428.61	338.55
428.99	343.91
429.36	349.73
429.73	355.44
430.10	361.14
430.47	367.05
430.85	373.17
431.22	379.65
431.59	386.48
431.96	393.04
432.33	400.30
432.70	407.25
433.08	415.53
433.45	423.35
433.82	431.14
434.19	439.78
434.56	448.20
434.93	456.24
435.30	464.24
435.68	473.00
436.05	481.65
436.42	490.22
436.79	498.12
437.16	506.58
437.53	515.49
437.90	524.30
438.27	532.90
438.64	541.77
439.01	549.99
439.38	557.31
439.75	564.42
440.13	572.54
440.50	580.32
440.87	586.45
441.24	592.83
441.61	599.85
441.98	605.00
442.35	611.08
442.72	617.14
443.09	623.03
443.46	626.68
443.83	629.15
444.20	631.30
444.57	634.33
444.94	635.68
445.31	637.16
445.68	638.49
446.05	639.05
446.42	638.28
446.79	637.35
447.16	636.33
447.53	635.57
447.90	632.34
448.27	629.08
448.64	624.56
449.01	621.33
449.37	615.63
449.74	610.19
450.11	603.61
450.48	596.47
450.85	589.22
451.22	582.97
451.59	576.99
451.96	571.37
452.33	563.77
452.70	556.93
453.07	548.68
453.43	540.37
453.80	532.39
454.17	524.71
454.54	517.42
454.91	509.58
455.28	501.92
455.65	494.81
456.02	487.65
456.38	481.62
456.75	474.08
457.12	467.75
457.49	461.50
457.86	455.53
458.23	450.42
458.59	444.72
458.96	438.93
459.33	433.89
459.70	428.74
460.07	424.61
460.43	419.95
460.80	415.58
461.17	411.76
461.54	407.72
461.91	403.86
462.27	399.93
462.64	396.60
463.01	392.93
463.38	389.37
463.74	385.79
464.11	382.64
464.48	379.84
464.85	376.85
465.21	374.53
465.58	371.96
465.95	368.97
466.32	366.45
466.68	363.98
467.05	361.46
467.42	359.03
467.78	356.45
468.15	353.99
468.52	352.14
468.88	349.74
469.25	347.63
469.62	345.88
469.98	344.02
470.35	342.26
470.72	340.60
471.08	338.83
471.45	337.38
471.82	335.92
472.18	334.33
472.55	333.22
472.92	331.87
473.28	330.74
473.65	329.59
474.02	328.51
474.38	327.65
474.75	326.98
475.11	326.23
475.48	325.74
475.85	325.30
476.21	324.84
476.58	324.52
476.94	324.30
477.31	324.04
477.67	323.76
478.04	323.63
478.41	323.62
478.77	323.81
479.14	323.78
479.50	323.94
479.87	324.23
480.23	324.55
480.60	324.81
480.96	325.08
481.33	325.70
481.69	326.32
482.06	326.88
482.42	327.32
482.79	327.89
483.15	328.68
483.52	329.62
483.88	330.50
484.25	331.50
484.61	332.54
484.98	333.61
485.34	334.97
485.71	336.39
486.07	337.85
486.44	339.18
486.80	340.81
487.17	342.47
487.53	344.36
487.90	346.23
488.26	348.25
488.62	350.39
488.99	352.40
489.35	354.54
489.72	356.86
490.08	359.39
490.44	361.93
490.81	364.59
491.17	367.29
491.54	370.31
491.90	373.28
492.26	376.55
492.63	379.95
492.99	383.46
493.36	387.08
493.72	390.95
494.08	394.94
494.45	399.13
494.81	403.48
495.17	407.88
495.54	412.56
495.90	417.45
496.26	422.35
496.63	427.52
496.99	432.87
497.35	438.43
497.72	444.19
498.08	450.11
498.44	456.20
498.80	462.60
499.17	469.02
499.53	475.68
499.89	482.48
500.26	489.45
500.62	496.50
500.98	503.86
501.34	511.25
501.71	519.02
502.07	526.81
502.43	534.80
502.79	542.87
503.16	551.22
503.52	559.65
503.88	568.33
504.24	577.29
504.60	586.34
504.97	595.53
505.33	604.72
505.69	614.57
506.05	624.34
506.41	634.09
506.78	644.06
507.14	654.22
507.50	664.60
507.86	675.14
508.22	685.79
508.59	696.32
508.95	707.40
509.31	718.50
509.67	729.85
510.03	741.22
510.39	752.93
510.75	764.57
511.12	776.44
511.48	788.46
511.84	800.52
512.20	812.62
512.56	825.07
512.92	837.82
513.28	850.30
513.64	862.94
514.00	875.68
514.37	888.48
514.73	901.43
515.09	914.31
515.45	927.06
515.81	939.93
516.17	953.16
516.53	966.13
516.89	979.07
517.25	991.95
517.61	1005.18
517.97	1018.33
518.33	1031.35
518.69	1044.61
519.05	1058.11
519.41	1071.57
519.77	1085.21
520.13	1098.31
520.49	1111.17
520.85	1124.36
521.21	1137.41
521.57	1150.91
521.93	1163.83
522.29	1177.42
522.65	1190.75
523.01	1204.19
523.37	1217.11
523.73	1230.08
524.09	1242.95
524.45	1256.06
524.81	1269.31
525.17	1282.39
525.53	1295.22
525.89	1308.23
526.25	1321.02
526.61	1333.55
526.97	1346.38
527.33	1359.03
527.68	1372.19
528.04	1385.38
528.40	1398.06
528.76	1411.02
529.12	1423.47
529.48	1436.47
529.84	1448.34
530.20	1460.72
530.56	1473.03
530.91	1486.01
531.27	1498.57
531.63	1510.96
531.99	1523.33
532.35	1535.26
532.71	1547.34
533.07	1559.84
533.42	1571.63
533.78	1583.50
534.14	1595.19
534.50	1606.07
534.86	1617.39
535.21	1627.95
535.57	1639.10
535.93	1650.07
536.29	1660.97
536.65	1672.09
537.00	1682.75
537.36	1693.73
537.72	1704.45
538.08	1715.30
538.44	1725.81
538.79	1736.60
539.15	1747.20
539.51	1757.62
539.87	1768.63
540.22	1779.09
540.58	1789.81
540.94	1800.49
541.29	1810.40
541.65	1819.95
542.01	1830.25
542.37	1839.97
542.72	1849.91
543.08	1859.42
543.44	1869.59
543.79	1878.55
544.15	1887.65
544.51	1897.30
544.87	1907.00
545.22	1915.85
545.58	1924.61
545.94	1933.30
546.29	1941.56
546.65	1949.68
547.01	1957.70
547.36	1965.12
547.72	1972.66
548.07	1980.09
548.43	1987.69
548.79	1995.30
549.14	2003.23
549.50	2011.26
549.86	2018.93
550.21	2025.97
550.57	2033.27
550.92	2039.86
551.28	2047.05
551.64	2054.07
551.99	2061.38
552.35	2068.30
552.70	2075.08
553.06	2081.42
553.41	2087.37
553.77	2093.67
554.13	2099.83
554.48	2106.81
554.84	2113.68
555.19	2120.14
555.55	2126.34
555.90	2132.38
556.26	2138.99
556.61	2144.62
556.97	2149.50
557.32	2155.13
557.68	2161.49
558.03	2167.22
558.39	2172.36
558.74	2178.26
559.10	2183.83
559.45	2189.08
559.81	2194.52
560.16	2199.90
560.52	2205.84
560.87	2212.35
561.23	2218.18
561.58	2224.79
561.94	2229.79
562.29	2234.50
562.64	2240.41
563.00	2245.94
563.35	2251.58
563.71	2257.33
564.06	2263.05
564.42	2268.99
564.77	2274.07
565.12	2279.08
565.48	2284.37
565.83	2290.12
566.19	2295.60
566.54	2301.14
566.89	2305.81
567.25	2310.34
567.60	2316.04
567.96	2321.19
568.31	2325.63
568.66	2329.82
569.02	2333.81
569.37	2337.71
569.72	2342.24
570.08	2345.77
570.43	2348.92
570.78	2351.96
571.14	2354.76
571.49	2357.95
571.84	2361.51
572.20	2364.48
572.55	2367.79
572.90	2370.08
573.26	2372.91
573.61	2375.50
573.96	2377.53
574.31	2379.76
574.67	2381.84
575.02	2382.82
575.37	2384.33
575.72	2385.26
576.08	2387.11
576.43	2387.43
576.78	2388.11
577.13	2389.98
577.49	2391.29
577.84	2392.70
578.19	2394.26
578.54	2394.87
578.90	2395.94
579.25	2395.95
579.60	2396.16
579.95	2395.58
580.30	2395.92
580.66	2395.23
581.01	2393.71
581.36	2391.72
581.71	2390.47
582.06	2389.49
582.42	2388.77
582.77	2386.61
583.12	2385.24
583.47	2383.98
583.82	2383.38
584.17	2382.31
584.53	2380.15
584.88	2378.23
585.23	2376.29
585.58	2374.22
585.93	2372.25
586.28	2370.22
586.63	2367.99
586.98	2365.81
587.34	2364.06
587.69	2361.84
588.04	2359.97
588.39	2358.65
588.74	2356.22
589.09	2353.73
589.44	2350.76
589.79	2348.46
590.14	2346.85
590.49	2344.11
590.84	2340.45
591.19	2337.63
591.54	2334.37
591.89	2330.48
592.25	2327.44
592.60	2323.44
592.95	2319.44
593.30	2315.55
593.65	2311.16
594.00	2306.87
594.35	2304.00
594.70	2299.50
595.05	2294.83
595.40	2289.58
595.75	2284.11
596.10	2280.66
596.45	2275.86
596.80	2271.49
597.15	2266.41
597.50	2260.63
597.85	2255.87
598.19	2250.72
598.54	2245.10
598.89	2240.23
599.24	2235.86
599.59	2229.80
599.94	2224.26
600.29	2218.40
600.64	2212.46
600.99	2205.92
601.34	2200.58
601.69	2193.66
602.04	2187.35
602.39	2181.12
602.74	2175.31
603.08	2169.86
603.43	2163.43
603.78	2156.63
604.13	2149.64
604.48	2142.59
604.83	2136.53
605.18	2130.26
605.53	2123.41
605.87	2116.38
606.22	2109.54
606.57	2101.75
606.92	2094.06
607.27	2087.35
607.62	2080.86
607.96	2073.94
608.31	2067.58
608.66	2059.76
609.01	2052.28
609.36	2045.22
609.70	2037.45
610.05	2029.68
610.40	2021.36
610.75	2013.23
611.10	2005.85
611.44	1997.16
611.79	1988.38
612.14	1978.45
612.49	1968.14
612.83	1959.05
613.18	1950.00
613.53	1940.77
613.88	1931.25
614.22	1922.70
614.57	1912.72
614.92	1902.25
615.27	1892.40
615.61	1882.33
615.96	1872.71
616.31	1863.17
616.65	1853.84
617.00	1844.04
617.35	1834.39
617.70	1824.85
618.04	1814.82
618.39	1804.52
618.74	1794.76
619.08	1785.30
619.43	1776.79
619.78	1768.45
620.12	1759.63
620.47	1749.96
620.82	1739.75
621.16	1729.96
621.51	1720.00
621.85	1710.06
622.20	1699.60
622.55	1688.82
622.89	1679.03
623.24	1669.53
623.59	1659.89
623.93	1649.78
624.28	1640.22
624.62	1630.24
624.97	1620.00
625.32	1610.32
625.66	1601.50
626.01	1592.74
626.35	1583.33
626.70	1573.07
627.04	1563.02
627.39	1553.18
627.73	1544.05
628.08	1535.06
628.43	1525.54
628.77	1516.39
629.12	1507.62
629.46	1499.89
629.81	1491.63
630.15	1482.12
630.50	1472.32
630.84	1461.89
631.19	1452.05
631.53	1442.64
631.88	1432.49
632.22	1422.45
632.57	1412.92
632.91	1402.79
633.26	1393.04
633.60	1383.54
633.95	1374.42
634.29	1365.12
634.64	1355.77
634.98	1345.77
635.32	1336.47
635.67	1327.95
636.01	1318.66
636.36	1308.94
636.70	1299.37
637.05	1290.10
637.39	1281.17
637.73	1272.48
638.08	1264.94
638.42	1256.69
638.77	1247.95
639.11	1239.71
639.45	1231.96
639.80	1223.49
640.14	1214.85
640.49	1206.09
640.83	1197.25
641.17	1189.09
641.52	1180.86
641.86	1172.29
642.20	1164.51
642.55	1156.02
642.89	1147.16
643.23	1138.57
643.58	1130.49
643.92	1121.56
644.26	1112.90
644.61	1104.47
644.95	1095.86
645.29	1086.56
645.64	1077.54
645.98	1069.19
646.32	1061.31
646.66	1052.77
647.01	1044.51
647.35	1036.51
647.69	1028.12
648.04	1019.88
648.38	1011.04
648.72	1002.29
649.06	993.95
649.41	985.79
649.75	977.78
650.09	970.03
650.43	961.99
650.78	953.81
651.12	946.15
651.46	938.83
651.80	931.63
652.14	924.28
652.49	916.92
652.83	909.67
653.17	901.97
653.51	894.40
653.85	887.24
654.20	880.07
654.54	872.55
654.88	865.48
655.22	858.49
655.56	851.65
655.90	844.99
656.25	838.34
656.59	831.39
656.93	824.56
657.27	817.49
657.61	810.71
657.95	804.74
658.29	798.99
658.64	792.95
658.98	786.73
659.32	780.27
659.66	774.15
660.00	767.83
660.34	761.92
660.68	755.85
661.02	749.62
661.36	743.77
661.70	738.13
662.05	732.55
662.39	727.09
662.73	721.85
663.07	716.60
663.41	711.09
663.75	705.56
664.09	699.90
664.43	694.59
664.77	689.29
665.11	683.48
665.45	677.62
665.79	671.86
666.13	666.11
666.47	660.74
666.81	655.48
667.15	650.22
667.49	645.09
667.83	639.96
668.17	634.81
668.51	629.84
668.85	625.02
669.19	620.15
669.53	615.19
669.87	610.08
670.21	605.35
670.55	600.66
670.89	596.36
671.23	592.20
671.57	587.86
671.91	583.72
672.25	579.72
672.58	575.58
672.92	571.62
673.26	567.83
673.60	564.10
673.94	560.30
674.28	556.75
674.62	553.05
674.96	549.38
675.30	545.98
675.64	542.32
675.97	538.79
676.31	535.28
676.65	531.70
676.99	528.36
677.33	524.57
677.67	521.00
678.01	517.13
678.34	513.52
678.68	510.06
679.02	506.44
679.36	502.75
679.70	499.25
680.04	495.70
680.37	492.25
680.71	488.96
681.05	485.79
681.39	482.64
681.73	479.54
682.06	476.61
682.40	473.61
682.74	470.41
683.08	467.23
683.42	464.08
683.75	461.14
684.09	458.09
684.43	455.32
684.77	452.45
685.10	449.69
685.44	446.86
685.78	444.00
686.12	441.30
686.45	438.61
686.79	435.95
687.13	433.52
687.46	430.97
687.80	428.34
688.14	425.53
688.48	422.92
688.81	420.31
689.15	417.73
689.49	415.11
689.82	412.70
690.16	410.18
690.50	407.79
690.83	405.37
691.17	402.93
691.51	400.52
691.84	398.33
692.18	396.18
692.52	393.97
692.85	391.90
693.19	389.81
693.52	387.70
693.86	385.55
694.20	383.42
694.53	381.37
694.87	379.21
695.21	377.16
695.54	374.99
695.88	372.90
696.21	370.76
696.55	368.66
696.88	366.66
697.22	364.76
697.56	362.88
697.89	361.05
698.23	359.33
698.56	357.60
698.90	355.93
699.23	354.07
699.57	352.29
699.90	350.51
700.24	348.72
700.58	347.04
700.91	345.46
701.25	343.93
701.58	342.34
701.92	340.76
702.25	339.24
702.59	337.73
702.92	336.22
703.26	334.69
703.59	333.30
703.93	332.07
704.26	330.62
704.60	329.15
704.93	327.70
705.26	326.23
705.60	324.79
705.93	323.29
706.27	322.00
706.60	320.73
706.94	319.51
707.27	318.17
707.61	316.84
707.94	315.52
708.27	314.04
708.61	312.64
708.94	311.31
709.28	310.03
709.61	308.82
709.94	307.65
710.28	306.49
710.61	305.34
710.95	303.95
711.28	302.96
711.61	301.83
711.95	300.73
712.28	299.61
712.61	298.46
712.95	297.42
713.28	296.39
713.61	295.29
713.95	294.17
714.28	293.21
714.61	292.19
714.95	291.21
715.28	290.21
715.61	289.19
715.95	288.27
716.28	287.31
716.61	286.39
716.95	285.44
717.28	284.53
717.61	283.57
717.94	282.73
718.28	281.70
718.61	280.84
718.94	280.00
719.27	279.15
719.61	278.36
719.94	277.51
720.27	276.57
720.60	275.72
720.94	274.95
721.27	274.19
721.60	273.52
721.93	272.82
722.27	272.22
722.60	271.58
722.93	270.89
723.26	270.25
723.59	269.54
723.93	268.90
724.26	268.28
724.59	267.69
724.92	267.11
725.25	266.57
725.59	266.02
725.92	265.49
726.25	264.96
726.58	264.39
726.91	263.81
727.24	263.31
727.57	262.77
727.91	262.20
728.24	261.66
728.57	261.07
728.90	260.50
729.23	259.86
729.56	259.44
729.89	258.92
730.22	258.36
730.55	257.85
730.89	257.32
731.22	256.81
731.55	256.28
731.88	255.76
732.21	255.25
732.54	254.70
732.87	254.19
733.20	253.70
733.53	253.25
733.86	252.84
734.19	252.36
734.52	251.99
734.85	251.71
735.18	251.23
735.51	250.88
735.84	250.49
736.17	250.16
736.50	249.63
736.83	249.52
737.16	249.15
737.49	248.78
737.82	248.39
738.15	248.04
738.48	247.72
738.81	247.33
739.14	246.90
739.47	246.55
739.80	246.18
740.13	245.84
740.46	245.45
740.79	245.06
741.12	244.71
741.45	244.33
741.78	243.88
742.11	243.66
742.44	243.28
742.77	242.98
743.10	242.63
743.43	242.29
743.75	241.69
744.08	241.65
744.41	241.32
744.74	241.00
745.07	240.63
745.40	240.30
745.73	240.05
746.06	239.77
746.39	239.46
746.71	239.16
747.04	238.80
747.37	238.51
747.70	238.18
748.03	237.90
748.36	237.61
748.68	237.31
749.01	236.94
749.34	236.66
749.67	236.40
750.00	236.10
750.33	235.99
750.65	235.82
750.98	235.29
751.31	235.07
751.64	234.83
751.97	234.69
752.29	234.40
752.62	234.08
752.95	233.82
753.28	233.57
753.60	233.31
753.93	233.19
754.26	232.95
754.59	232.73
754.91	232.49
755.24	232.24
755.57	232.02
755.90	231.82
756.22	231.58
756.55	231.33
756.88	231.11
757.20	230.78
757.53	230.49
757.86	230.30
758.19	230.11
758.51	229.92
758.84	229.60
759.17	229.46
759.49	229.32
759.82	229.24
760.15	229.10
760.47	228.93
760.80	228.65
761.13	228.53
761.45	228.31
761.78	228.16
762.11	228.03
762.43	227.87
762.76	227.70
763.08	227.58
763.41	227.44
763.74	227.34
764.06	227.21
764.39	227.06
764.71	226.91
765.04	226.74
765.37	226.62
765.69	226.50
766.02	226.34
766.34	226.19
766.67	226.00
767.00	225.90
767.32	225.86
767.65	225.87
767.97	225.73
768.30	225.65
768.62	225.49
768.95	225.32
769.27	225.19
769.60	225.11
769.92	224.96
770.25	224.80
770.57	224.62
770.90	224.47
771.22	224.35
771.55	224.24
771.87	224.14
772.20	224.03
772.52	224.08
772.85	224.22
773.17	224.09
773.50	223.97
773.82	223.87
774.15	223.70
774.47	223.49
774.80	223.38
775.12	223.29
775.45	223.25
775.77	223.19
776.09	223.12
776.42	223.01
776.74	222.98
777.07	222.92
777.39	222.86
777.72	222.76
778.04	222.72
778.36	222.59
778.69	222.52
779.01	222.47
779.33	222.23
779.66	221.94
779.98	221.85
780.31	221.79
780.63	221.74
780.95	221.71
781.28	221.62
781.60	221.54
781.92	221.47
782.25	221.39
782.57	221.30
782.89	221.23
783.22	221.14
783.54	221.02
783.86	220.96
784.19	220.88
784.51	220.87
784.83	220.77
785.16	220.70
785.48	220.65
785.80	220.57
786.12	220.54
