SpectraSuite Data File
++++++++++++++++++++++++++++++++++++
Date: Tue Jan 29 16:27:27 EST 2013
User: group
Dark Spectrum Present: No
Reference Spectrum Present: No
Number of Sampled Component Spectra: 1
Spectrometers: USB2E7196
Integration Time (usec): 65000 (USB2E7196)
Spectra Averaged: 100 (USB2E7196)
Boxcar Smoothing: 10 (USB2E7196)
Correct for Electrical Dark: No (USB2E7196)
Strobe/Lamp Enabled: No (USB2E7196)
Correct for Detector Non-linearity: No (USB2E7196)
Correct for Stray Light: No (USB2E7196)
Number of Pixels in Processed Spectrum: 2048
>>>>>Begin Processed Spectral Data<<<<<
339.09	0.00
339.48	202.14
339.86	203.34
340.24	205.22
340.63	206.88
341.01	211.10
341.39	208.58
341.78	210.96
342.16	212.07
342.54	212.12
342.93	201.26
343.31	211.44
343.69	211.99
344.07	212.45
344.46	212.87
344.84	213.22
345.22	213.35
345.60	213.62
345.99	213.79
346.37	213.90
346.75	214.02
347.13	214.09
347.52	214.16
347.90	214.28
348.28	214.29
348.66	214.37
349.05	214.35
349.43	214.38
349.81	214.45
350.19	214.48
350.57	214.58
350.96	214.69
351.34	214.78
351.72	214.87
352.10	215.00
352.48	215.07
352.87	215.15
353.25	215.22
353.63	215.33
354.01	215.40
354.39	215.51
354.77	215.59
355.15	215.76
355.54	215.80
355.92	215.81
356.30	215.91
356.68	216.12
357.06	216.21
357.44	216.26
357.82	216.30
358.20	216.42
358.58	216.45
358.97	216.51
359.35	216.57
359.73	216.66
360.11	216.70
360.49	216.76
360.87	216.80
361.25	216.89
361.63	216.99
362.01	217.02
362.39	217.03
362.77	217.09
363.15	217.12
363.53	217.17
363.91	217.20
364.29	217.22
364.67	217.07
365.05	217.09
365.43	217.12
365.81	217.19
366.19	217.28
366.57	217.41
366.95	217.42
367.33	217.43
367.71	217.44
368.09	217.50
368.47	217.50
368.85	217.51
369.23	217.54
369.61	217.44
369.99	217.51
370.37	217.55
370.75	217.65
371.13	217.56
371.51	217.52
371.89	217.54
372.27	217.56
372.65	217.54
373.03	217.57
373.41	217.54
373.78	217.48
374.16	217.32
374.54	217.22
374.92	217.17
375.30	217.14
375.68	217.06
376.06	217.02
376.44	216.96
376.82	216.94
377.19	216.89
377.57	216.85
377.95	216.75
378.33	216.66
378.71	216.44
379.09	216.42
379.47	216.39
379.84	216.33
380.22	216.23
380.60	216.20
380.98	216.11
381.36	216.08
381.73	216.01
382.11	216.01
382.49	215.98
382.87	215.94
383.25	215.90
383.62	216.07
384.00	215.99
384.38	215.98
384.76	215.98
385.13	216.00
385.51	215.96
385.89	215.88
386.27	215.86
386.64	215.87
387.02	215.85
387.40	215.81
387.78	215.81
388.15	215.82
388.53	215.73
388.91	215.70
389.29	215.69
389.66	215.71
390.04	215.68
390.42	215.71
390.79	215.67
391.17	215.63
391.55	215.41
391.92	215.39
392.30	215.43
392.68	215.38
393.05	215.37
393.43	215.35
393.81	215.43
394.18	215.41
394.56	215.39
394.94	215.42
395.31	215.42
395.69	215.46
396.06	215.51
396.44	215.54
396.82	215.56
397.19	215.67
397.57	215.64
397.95	215.70
398.32	215.61
398.70	215.67
399.07	215.76
399.45	215.79
399.82	215.83
400.20	215.83
400.58	215.85
400.95	215.82
401.33	215.97
401.70	216.14
402.08	216.22
402.45	216.29
402.83	216.42
403.20	216.53
403.58	216.62
403.95	216.77
404.33	216.92
404.71	217.04
405.08	217.26
405.46	217.46
405.83	217.61
406.21	217.84
406.58	218.09
406.96	218.32
407.33	218.57
407.70	218.88
408.08	219.35
408.45	219.72
408.83	220.13
409.20	220.45
409.58	220.71
409.95	221.20
410.33	221.71
410.70	222.14
411.08	222.70
411.45	223.30
411.82	223.85
412.20	224.54
412.57	225.39
412.95	225.98
413.32	226.80
413.69	227.68
414.07	228.59
414.44	229.56
414.82	230.57
415.19	231.79
415.56	232.98
415.94	234.16
416.31	235.57
416.68	236.95
417.06	238.54
417.43	240.11
417.81	241.81
418.18	243.59
418.55	245.52
418.93	247.53
419.30	249.59
419.67	251.80
420.04	254.07
420.42	256.44
420.79	259.25
421.16	262.01
421.54	264.89
421.91	267.84
422.28	270.95
422.66	274.24
423.03	277.48
423.40	280.86
423.77	284.43
424.15	288.06
424.52	291.89
424.89	296.08
425.26	300.11
425.64	303.99
426.01	308.28
426.38	312.75
426.75	317.28
427.13	321.95
427.50	326.96
427.87	332.15
428.24	337.37
428.61	342.31
428.99	347.83
429.36	353.81
429.73	359.69
430.10	365.57
430.47	371.63
430.85	377.97
431.22	384.62
431.59	391.76
431.96	398.56
432.33	406.10
432.70	413.31
433.08	421.89
433.45	429.91
433.82	437.94
434.19	446.77
434.56	455.45
434.93	463.85
435.30	472.17
435.68	481.26
436.05	490.22
436.42	499.18
436.79	507.32
437.16	516.11
437.53	525.40
437.90	534.46
438.27	543.39
438.64	552.53
439.01	561.05
439.38	568.62
439.75	575.93
440.13	584.28
440.50	592.25
440.87	598.58
441.24	605.25
441.61	612.50
441.98	617.91
442.35	624.26
442.72	630.53
443.09	636.51
443.46	640.22
443.83	642.69
444.20	644.81
444.57	647.96
444.94	649.34
445.31	650.79
445.68	652.17
446.05	652.81
446.42	652.02
446.79	651.06
447.16	649.90
447.53	649.13
447.90	645.84
448.27	642.51
448.64	637.89
449.01	634.55
449.37	628.70
449.74	623.06
450.11	616.14
450.48	608.67
450.85	601.18
451.22	594.71
451.59	588.58
451.96	582.78
452.33	574.91
452.70	567.84
453.07	559.39
453.43	550.83
453.80	542.52
454.17	534.57
454.54	527.09
454.91	518.96
455.28	511.00
455.65	503.60
456.02	496.13
456.38	489.76
456.75	481.94
457.12	475.37
457.49	468.82
457.86	462.65
458.23	457.32
458.59	451.40
458.96	445.46
459.33	440.13
459.70	434.77
460.07	430.51
460.43	425.61
460.80	421.04
461.17	417.04
461.54	412.81
461.91	408.79
462.27	404.65
462.64	401.24
463.01	397.50
463.38	393.74
463.74	390.07
464.11	386.88
464.48	384.05
464.85	380.97
465.21	378.56
465.58	375.96
465.95	372.87
466.32	370.29
466.68	367.71
467.05	365.15
467.42	362.59
467.78	359.94
468.15	357.42
468.52	355.51
468.88	353.02
469.25	350.85
469.62	349.04
469.98	347.09
470.35	345.22
470.72	343.54
471.08	341.81
471.45	340.30
471.82	338.78
472.18	337.12
472.55	335.91
472.92	334.48
473.28	333.27
473.65	332.14
474.02	331.03
474.38	330.16
474.75	329.45
475.11	328.66
475.48	328.07
475.85	327.59
476.21	327.13
476.58	326.79
476.94	326.57
477.31	326.27
477.67	326.01
478.04	325.92
478.41	325.89
478.77	326.01
479.14	325.96
479.50	326.09
479.87	326.38
480.23	326.70
480.60	326.98
480.96	327.23
481.33	327.79
481.69	328.40
482.06	328.88
482.42	329.34
482.79	329.95
483.15	330.77
483.52	331.71
483.88	332.56
484.25	333.48
484.61	334.50
484.98	335.56
485.34	336.89
485.71	338.24
486.07	339.69
486.44	341.01
486.80	342.67
487.17	344.38
487.53	346.20
487.90	348.13
488.26	350.18
488.62	352.35
488.99	354.41
489.35	356.53
489.72	358.93
490.08	361.50
490.44	364.07
490.81	366.80
491.17	369.57
491.54	372.57
491.90	375.65
492.26	378.91
492.63	382.33
492.99	385.84
493.36	389.54
493.72	393.43
494.08	397.46
494.45	401.72
494.81	406.03
495.17	410.51
495.54	415.23
495.90	420.07
496.26	424.98
496.63	430.21
496.99	435.59
497.35	441.19
497.72	446.97
498.08	452.93
498.44	459.02
498.80	465.52
499.17	472.05
499.53	478.76
499.89	485.67
500.26	492.67
500.62	499.81
500.98	507.29
501.34	514.87
501.71	522.67
502.07	530.50
502.43	538.62
502.79	546.84
503.16	555.22
503.52	563.89
503.88	572.64
504.24	581.66
504.60	590.82
504.97	600.08
505.33	609.44
505.69	619.43
506.05	629.40
506.41	639.26
506.78	649.39
507.14	659.75
507.50	670.19
507.86	681.06
508.22	691.91
508.59	702.56
508.95	713.63
509.31	724.96
509.67	736.48
510.03	747.92
510.39	759.79
510.75	771.69
511.12	783.69
511.48	796.00
511.84	808.36
512.20	820.82
512.56	833.63
512.92	846.57
513.28	859.22
513.64	872.05
514.00	884.94
514.37	898.06
514.73	911.31
515.09	924.48
515.45	937.39
515.81	950.56
516.17	964.14
516.53	977.50
516.89	990.73
517.25	1004.04
517.61	1017.69
517.97	1031.14
518.33	1044.43
518.69	1058.06
519.05	1071.93
519.41	1085.77
519.77	1099.76
520.13	1113.08
520.49	1126.24
520.85	1139.88
521.21	1153.32
521.57	1167.15
521.93	1180.39
522.29	1194.25
522.65	1208.00
523.01	1221.83
523.37	1235.17
523.73	1248.57
524.09	1261.84
524.45	1275.45
524.81	1289.02
525.17	1302.50
525.53	1315.77
525.89	1329.19
526.25	1342.50
526.61	1355.40
526.97	1368.53
527.33	1381.59
527.68	1395.18
528.04	1408.88
528.40	1422.10
528.76	1435.56
529.12	1448.55
529.48	1461.79
529.84	1474.07
530.20	1486.96
530.56	1499.65
530.91	1512.97
531.27	1525.89
531.63	1538.79
531.99	1551.69
532.35	1564.06
532.71	1576.53
533.07	1589.46
533.42	1601.77
533.78	1614.06
534.14	1626.31
534.50	1637.69
534.86	1649.46
535.21	1660.50
535.57	1672.11
535.93	1683.35
536.29	1694.56
536.65	1706.14
537.00	1717.34
537.36	1729.03
537.72	1740.16
538.08	1751.62
538.44	1762.67
538.79	1773.91
539.15	1784.87
539.51	1795.71
539.87	1807.18
540.22	1818.14
540.58	1829.28
540.94	1840.48
541.29	1850.79
541.65	1860.58
542.01	1871.20
542.37	1881.26
542.72	1891.62
543.08	1901.57
543.44	1912.27
543.79	1921.71
544.15	1931.21
544.51	1941.37
544.87	1951.12
545.22	1960.33
545.58	1969.33
545.94	1978.36
546.29	1986.88
546.65	1995.42
547.01	2003.58
547.36	2011.33
547.72	2018.99
548.07	2026.55
548.43	2034.15
548.79	2042.10
549.14	2050.42
549.50	2058.83
549.86	2066.81
550.21	2074.24
550.57	2081.88
550.92	2088.67
551.28	2096.20
551.64	2103.47
551.99	2110.92
552.35	2118.27
552.70	2125.27
553.06	2131.85
553.41	2138.14
553.77	2144.73
554.13	2151.19
554.48	2158.42
554.84	2165.53
555.19	2172.39
555.55	2178.87
555.90	2185.33
556.26	2192.15
556.61	2198.21
556.97	2203.24
557.32	2209.05
557.68	2215.52
558.03	2221.39
558.39	2226.90
558.74	2232.90
559.10	2238.62
559.45	2244.27
559.81	2249.81
560.16	2255.48
560.52	2261.56
560.87	2268.15
561.23	2274.14
561.58	2280.56
561.94	2285.72
562.29	2290.57
562.64	2296.59
563.00	2302.41
563.35	2307.92
563.71	2313.70
564.06	2319.45
564.42	2325.44
564.77	2330.59
565.12	2335.75
565.48	2340.88
565.83	2346.45
566.19	2351.87
566.54	2357.15
566.89	2361.75
567.25	2366.29
567.60	2372.08
567.96	2377.29
568.31	2381.73
568.66	2386.12
569.02	2390.40
569.37	2394.26
569.72	2398.65
570.08	2402.09
570.43	2405.15
570.78	2408.38
571.14	2411.05
571.49	2414.09
571.84	2417.59
572.20	2420.63
572.55	2423.79
572.90	2426.15
573.26	2428.87
573.61	2431.55
573.96	2433.94
574.31	2435.98
574.67	2437.95
575.02	2438.69
575.37	2440.10
575.72	2440.82
576.08	2442.27
576.43	2442.35
576.78	2442.85
577.13	2444.41
577.49	2445.59
577.84	2446.69
578.19	2448.09
578.54	2448.56
578.90	2449.33
579.25	2449.25
579.60	2449.17
579.95	2448.35
580.30	2448.46
580.66	2447.70
581.01	2445.97
581.36	2443.59
581.71	2442.17
582.06	2441.07
582.42	2440.22
582.77	2437.74
583.12	2436.23
583.47	2434.87
583.82	2434.25
584.17	2432.95
584.53	2430.83
584.88	2428.93
585.23	2427.16
585.58	2424.77
585.93	2422.77
586.28	2420.51
586.63	2417.99
586.98	2415.67
587.34	2413.65
587.69	2411.13
588.04	2409.16
588.39	2407.77
588.74	2405.15
589.09	2402.48
589.44	2399.31
589.79	2396.79
590.14	2395.13
590.49	2392.25
590.84	2388.32
591.19	2385.06
591.54	2381.94
591.89	2377.92
592.25	2374.56
592.60	2370.10
592.95	2366.03
593.30	2361.82
593.65	2357.50
594.00	2353.04
594.35	2349.98
594.70	2345.38
595.05	2340.82
595.40	2335.22
595.75	2329.33
596.10	2325.71
596.45	2320.85
596.80	2316.17
597.15	2310.88
597.50	2304.78
597.85	2299.69
598.19	2294.34
598.54	2288.47
598.89	2283.14
599.24	2278.47
599.59	2272.34
599.94	2266.71
600.29	2260.69
600.64	2254.64
600.99	2247.80
601.34	2242.35
601.69	2235.46
602.04	2228.99
602.39	2222.40
602.74	2216.32
603.08	2210.76
603.43	2204.19
603.78	2197.28
604.13	2190.18
604.48	2182.89
604.83	2176.96
605.18	2170.78
605.53	2163.90
605.87	2156.82
606.22	2149.98
606.57	2142.16
606.92	2134.11
607.27	2126.92
607.62	2120.11
607.96	2113.27
608.31	2106.77
608.66	2099.03
609.01	2091.36
609.36	2084.30
609.70	2076.59
610.05	2068.80
610.40	2060.38
610.75	2052.00
611.10	2044.28
611.44	2035.45
611.79	2026.60
612.14	2016.42
612.49	2005.64
612.83	1996.22
613.18	1987.16
613.53	1977.62
613.88	1967.81
614.22	1959.10
614.57	1949.23
614.92	1938.60
615.27	1928.18
615.61	1917.98
615.96	1908.20
616.31	1898.49
616.65	1888.96
617.00	1879.04
617.35	1869.32
617.70	1859.55
618.04	1849.44
618.39	1839.11
618.74	1829.33
619.08	1819.67
619.43	1810.82
619.78	1802.52
620.12	1793.91
620.47	1784.12
620.82	1773.72
621.16	1763.86
621.51	1753.84
621.85	1743.86
622.20	1733.42
622.55	1722.84
622.89	1712.76
623.24	1702.91
623.59	1693.00
623.93	1682.68
624.28	1672.70
624.62	1662.49
624.97	1652.22
625.32	1642.47
625.66	1633.56
626.01	1624.72
626.35	1615.21
626.70	1605.14
627.04	1594.94
627.39	1584.67
627.73	1575.34
628.08	1566.37
628.43	1556.80
628.77	1547.42
629.12	1538.45
629.46	1530.71
629.81	1522.28
630.15	1512.81
630.50	1502.85
630.84	1492.26
631.19	1482.32
631.53	1473.00
631.88	1462.71
632.22	1452.58
632.57	1443.00
632.91	1432.74
633.26	1422.74
633.60	1413.23
633.95	1403.83
634.29	1394.31
634.64	1384.94
634.98	1374.90
635.32	1365.53
635.67	1356.84
636.01	1347.73
636.36	1338.03
636.70	1328.33
637.05	1318.87
637.39	1309.83
637.73	1301.13
638.08	1293.52
638.42	1285.25
638.77	1276.36
639.11	1268.12
639.45	1260.13
639.80	1251.55
640.14	1242.73
640.49	1233.79
640.83	1224.82
641.17	1216.68
641.52	1208.44
641.86	1199.74
642.20	1191.72
642.55	1183.05
642.89	1174.18
643.23	1165.25
643.58	1157.00
643.92	1147.82
644.26	1139.00
644.61	1130.50
644.95	1121.66
645.29	1112.31
645.64	1103.05
645.98	1094.54
646.32	1086.56
646.66	1078.00
647.01	1069.55
647.35	1061.28
647.69	1052.92
648.04	1044.53
648.38	1035.48
648.72	1026.64
649.06	1018.18
649.41	1009.89
649.75	1001.83
650.09	993.81
650.43	985.81
650.78	977.41
651.12	969.59
651.46	962.17
651.80	954.77
652.14	947.42
652.49	939.77
652.83	932.43
653.17	924.71
653.51	916.93
653.85	909.66
654.20	902.35
654.54	894.94
654.88	887.58
655.22	880.25
655.56	873.09
655.90	866.16
656.25	859.37
656.59	852.45
656.93	845.37
657.27	838.21
657.61	831.15
657.95	825.01
658.29	819.03
658.64	812.74
658.98	806.29
659.32	799.62
659.66	793.37
660.00	786.95
660.34	780.75
660.68	774.53
661.02	768.15
661.36	762.09
661.70	756.17
662.05	750.57
662.39	745.06
662.73	739.71
663.07	734.26
663.41	728.58
663.75	722.79
664.09	717.05
664.43	711.50
664.77	706.07
665.11	700.11
665.45	694.19
665.79	688.35
666.13	682.54
666.47	676.99
666.81	671.47
667.15	666.02
667.49	660.75
667.83	655.47
668.17	650.14
668.51	644.96
668.85	639.94
669.19	634.85
669.53	629.73
669.87	624.52
670.21	619.76
670.55	615.00
670.89	610.49
671.23	606.16
671.57	601.75
671.91	597.41
672.25	593.27
672.58	589.10
672.92	584.96
673.26	581.02
673.60	577.12
673.94	573.26
674.28	569.56
674.62	565.81
674.96	561.95
675.30	558.44
675.64	554.74
675.97	551.11
676.31	547.46
676.65	543.80
676.99	540.33
677.33	536.40
677.67	532.72
678.01	528.80
678.34	525.11
678.68	521.60
679.02	517.91
679.36	514.13
679.70	510.40
680.04	506.85
680.37	503.28
680.71	499.87
681.05	496.62
681.39	493.31
681.73	490.10
682.06	487.11
682.40	483.94
682.74	480.69
683.08	477.46
683.42	474.26
683.75	471.21
684.09	468.07
684.43	465.23
684.77	462.23
685.10	459.35
685.44	456.38
685.78	453.38
686.12	450.61
686.45	447.88
686.79	445.17
687.13	442.62
687.46	439.99
687.80	437.25
688.14	434.41
688.48	431.70
688.81	428.94
689.15	426.28
689.49	423.63
689.82	421.13
690.16	418.48
690.50	415.99
690.83	413.50
691.17	410.95
691.51	408.46
691.84	406.20
692.18	403.93
692.52	401.68
692.85	399.51
693.19	397.30
693.52	395.11
693.86	392.89
694.20	390.64
694.53	388.50
694.87	386.32
695.21	384.16
695.54	381.97
695.88	379.81
696.21	377.52
696.55	375.39
696.88	373.29
697.22	371.34
697.56	369.43
697.89	367.51
698.23	365.77
698.56	363.96
698.90	362.17
699.23	360.27
699.57	358.39
699.90	356.47
700.24	354.67
700.58	352.85
700.91	351.15
701.25	349.52
701.58	347.85
701.92	346.21
702.25	344.57
702.59	343.00
702.92	341.47
703.26	339.97
703.59	338.44
703.93	337.11
704.26	335.64
704.60	334.10
704.93	332.58
705.26	331.00
705.60	329.48
705.93	327.91
706.27	326.54
706.60	325.21
706.94	323.97
707.27	322.52
707.61	321.18
707.94	319.85
708.27	318.34
708.61	316.92
708.94	315.57
709.28	314.27
709.61	312.98
709.94	311.71
710.28	310.43
710.61	309.25
710.95	307.79
711.28	306.67
711.61	305.44
711.95	304.31
712.28	303.12
712.61	301.91
712.95	300.85
713.28	299.78
713.61	298.65
713.95	297.51
714.28	296.47
714.61	295.40
714.95	294.35
715.28	293.32
715.61	292.27
715.95	291.26
716.28	290.31
716.61	289.36
716.95	288.36
717.28	287.43
717.61	286.42
717.94	285.51
718.28	284.48
718.61	283.64
718.94	282.71
719.27	281.87
719.61	281.06
719.94	280.15
720.27	279.15
720.60	278.26
720.94	277.44
721.27	276.68
721.60	275.98
721.93	275.24
722.27	274.58
722.60	273.91
722.93	273.17
723.26	272.44
723.59	271.71
723.93	271.10
724.26	270.46
724.59	269.83
724.92	269.26
725.25	268.68
725.59	268.06
725.92	267.51
726.25	266.95
726.58	266.35
726.91	265.80
727.24	265.31
727.57	264.72
727.91	264.12
728.24	263.57
728.57	262.95
728.90	262.38
729.23	261.75
729.56	261.29
729.89	260.78
730.22	260.24
730.55	259.69
730.89	259.09
731.22	258.52
731.55	257.98
731.88	257.45
732.21	256.95
732.54	256.40
732.87	255.86
733.20	255.34
733.53	254.85
733.86	254.36
734.19	253.87
734.52	253.46
734.85	253.16
735.18	252.69
735.51	252.32
735.84	251.89
736.17	251.52
736.50	250.98
736.83	250.81
737.16	250.40
737.49	250.02
737.82	249.64
738.15	249.26
738.48	248.90
738.81	248.49
739.14	248.01
739.47	247.66
739.80	247.29
740.13	246.96
740.46	246.57
740.79	246.17
741.12	245.77
741.45	245.41
741.78	244.93
742.11	244.62
742.44	244.25
742.77	243.95
743.10	243.60
743.43	243.24
743.75	242.66
744.08	242.56
744.41	242.21
744.74	241.87
745.07	241.49
745.40	241.20
745.73	240.93
746.06	240.59
746.39	240.27
746.71	239.91
747.04	239.53
747.37	239.21
747.70	238.93
748.03	238.61
748.36	238.34
748.68	238.07
749.01	237.72
749.34	237.44
749.67	237.13
750.00	236.84
750.33	236.70
750.65	236.43
750.98	235.96
751.31	235.68
751.64	235.45
751.97	235.31
752.29	235.02
752.62	234.69
752.95	234.47
753.28	234.18
753.60	233.93
753.93	233.78
754.26	233.55
754.59	233.24
754.91	233.04
755.24	232.77
755.57	232.52
755.90	232.26
756.22	231.99
756.55	231.76
756.88	231.56
757.20	231.24
757.53	230.98
757.86	230.76
758.19	230.59
758.51	230.38
758.84	230.10
759.17	229.89
759.49	229.67
759.82	229.57
760.15	229.43
760.47	229.27
760.80	228.98
761.13	228.85
761.45	228.69
761.78	228.50
762.11	228.35
762.43	228.15
762.76	228.02
763.08	227.90
763.41	227.73
763.74	227.55
764.06	227.38
764.39	227.26
764.71	227.07
765.04	226.92
765.37	226.73
765.69	226.58
766.02	226.45
766.34	226.36
766.67	226.15
767.00	226.05
767.32	226.03
767.65	226.04
767.97	225.87
768.30	225.78
768.62	225.65
768.95	225.50
769.27	225.40
769.60	225.28
769.92	225.11
770.25	224.95
770.57	224.77
770.90	224.63
771.22	224.48
771.55	224.37
771.87	224.25
772.20	224.14
772.52	224.23
772.85	224.34
773.17	224.20
773.50	224.12
773.82	223.99
774.15	223.80
774.47	223.56
774.80	223.42
775.12	223.28
775.45	223.17
775.77	223.07
776.09	222.95
776.42	222.87
776.74	222.86
777.07	222.77
777.39	222.71
777.72	222.61
778.04	222.56
778.36	222.46
778.69	222.35
779.01	222.28
779.33	222.00
779.66	221.67
779.98	221.56
780.31	221.45
780.63	221.45
780.95	221.38
781.28	221.33
781.60	221.26
781.92	221.22
782.25	221.14
782.57	221.11
782.89	221.03
783.22	220.96
783.54	220.81
783.86	220.76
784.19	220.70
784.51	220.70
784.83	220.60
785.16	220.51
785.48	220.46
785.80	220.40
786.12	220.33
