SpectraSuite Data File
++++++++++++++++++++++++++++++++++++
Date: Tue Jan 29 16:34:49 EST 2013
User: group
Dark Spectrum Present: No
Reference Spectrum Present: No
Number of Sampled Component Spectra: 1
Spectrometers: USB2E7196
Integration Time (usec): 65000 (USB2E7196)
Spectra Averaged: 100 (USB2E7196)
Boxcar Smoothing: 10 (USB2E7196)
Correct for Electrical Dark: No (USB2E7196)
Strobe/Lamp Enabled: No (USB2E7196)
Correct for Detector Non-linearity: No (USB2E7196)
Correct for Stray Light: No (USB2E7196)
Number of Pixels in Processed Spectrum: 2048
>>>>>Begin Processed Spectral Data<<<<<
339.09	0.00
339.48	201.45
339.86	203.47
340.24	204.55
340.63	205.91
341.01	210.65
341.39	209.41
341.78	210.13
342.16	211.85
342.54	211.74
342.93	201.02
343.31	211.16
343.69	211.73
344.07	212.19
344.46	212.67
344.84	213.09
345.22	213.26
345.60	213.52
345.99	213.75
346.37	213.87
346.75	213.97
347.13	214.06
347.52	214.19
347.90	214.33
348.28	214.33
348.66	214.41
349.05	214.41
349.43	214.53
349.81	214.58
350.19	214.64
350.57	214.70
350.96	214.77
351.34	214.87
351.72	214.95
352.10	215.05
352.48	215.08
352.87	215.13
353.25	215.20
353.63	215.20
354.01	215.25
354.39	215.33
354.77	215.44
355.15	215.55
355.54	215.56
355.92	215.54
356.30	215.68
356.68	215.85
357.06	215.91
357.44	215.94
357.82	216.01
358.20	216.11
358.58	216.15
358.97	216.22
359.35	216.34
359.73	216.42
360.11	216.46
360.49	216.53
360.87	216.57
361.25	216.66
361.63	216.81
362.01	216.88
362.39	216.89
362.77	216.93
363.15	216.93
363.53	216.99
363.91	217.02
364.29	217.02
364.67	216.86
365.05	216.87
365.43	216.89
365.81	216.90
366.19	217.01
366.57	217.13
366.95	217.11
367.33	217.06
367.71	217.05
368.09	217.11
368.47	217.14
368.85	217.14
369.23	217.18
369.61	217.10
369.99	217.14
370.37	217.18
370.75	217.27
371.13	217.24
371.51	217.16
371.89	217.17
372.27	217.16
372.65	217.15
373.03	217.14
373.41	217.10
373.78	217.02
374.16	216.89
374.54	216.76
374.92	216.73
375.30	216.72
375.68	216.66
376.06	216.63
376.44	216.56
376.82	216.51
377.19	216.44
377.57	216.40
377.95	216.26
378.33	216.19
378.71	216.02
379.09	216.03
379.47	216.03
379.84	215.95
380.22	215.87
380.60	215.79
380.98	215.75
381.36	215.73
381.73	215.71
382.11	215.69
382.49	215.66
382.87	215.60
383.25	215.56
383.62	215.78
384.00	215.69
384.38	215.62
384.76	215.65
385.13	215.69
385.51	215.65
385.89	215.62
386.27	215.58
386.64	215.58
387.02	215.53
387.40	215.48
387.78	215.52
388.15	215.52
388.53	215.50
388.91	215.44
389.29	215.39
389.66	215.38
390.04	215.36
390.42	215.40
390.79	215.42
391.17	215.34
391.55	215.05
391.92	215.05
392.30	215.07
392.68	215.01
393.05	214.95
393.43	214.96
393.81	215.00
394.18	214.97
394.56	214.96
394.94	214.99
395.31	215.03
395.69	215.05
396.06	215.10
396.44	215.14
396.82	215.15
397.19	215.28
397.57	215.27
397.95	215.30
398.32	215.25
398.70	215.28
399.07	215.38
399.45	215.45
399.82	215.50
400.20	215.54
400.58	215.58
400.95	215.56
401.33	215.68
401.70	215.87
402.08	215.98
402.45	216.08
402.83	216.20
403.20	216.26
403.58	216.34
403.95	216.47
404.33	216.63
404.71	216.82
405.08	217.05
405.46	217.24
405.83	217.42
406.21	217.65
406.58	217.87
406.96	218.11
407.33	218.38
407.70	218.71
408.08	219.20
408.45	219.59
408.83	219.98
409.20	220.30
409.58	220.54
409.95	221.00
410.33	221.46
410.70	221.89
411.08	222.49
411.45	223.07
411.82	223.66
412.20	224.32
412.57	225.16
412.95	225.74
413.32	226.57
413.69	227.40
414.07	228.27
414.44	229.27
414.82	230.29
415.19	231.46
415.56	232.62
415.94	233.80
416.31	235.17
416.68	236.61
417.06	238.22
417.43	239.79
417.81	241.56
418.18	243.37
418.55	245.28
418.93	247.28
419.30	249.42
419.67	251.63
420.04	253.95
420.42	256.32
420.79	259.18
421.16	261.98
421.54	264.91
421.91	267.95
422.28	271.06
422.66	274.35
423.03	277.60
423.40	281.02
423.77	284.62
424.15	288.31
424.52	292.17
424.89	296.36
425.26	300.48
425.64	304.38
426.01	308.66
426.38	313.21
426.75	317.78
427.13	322.50
427.50	327.47
427.87	332.65
428.24	337.86
428.61	342.83
428.99	348.34
429.36	354.38
429.73	360.23
430.10	366.06
430.47	372.18
430.85	378.51
431.22	385.19
431.59	392.33
431.96	399.18
432.33	406.63
432.70	413.87
433.08	422.32
433.45	430.35
433.82	438.38
434.19	447.25
434.56	455.88
434.93	464.21
435.30	472.57
435.68	481.71
436.05	490.67
436.42	499.61
436.79	507.80
437.16	516.54
437.53	525.85
437.90	535.01
438.27	543.91
438.64	553.16
439.01	561.68
439.38	569.22
439.75	576.50
440.13	584.96
440.50	592.93
440.87	599.40
441.24	606.04
441.61	613.39
441.98	618.78
442.35	625.17
442.72	631.53
443.09	637.57
443.46	641.33
443.83	643.90
444.20	646.09
444.57	649.24
444.94	650.71
445.31	652.15
445.68	653.54
446.05	654.21
446.42	653.38
446.79	652.45
447.16	651.41
447.53	650.69
447.90	647.35
448.27	644.08
448.64	639.43
449.01	636.20
449.37	630.27
449.74	624.61
450.11	617.69
450.48	610.31
450.85	602.80
451.22	596.32
451.59	590.18
451.96	584.30
452.33	576.43
452.70	569.31
453.07	560.90
453.43	552.33
453.80	543.96
454.17	536.00
454.54	528.46
454.91	520.24
455.28	512.23
455.65	504.80
456.02	497.25
456.38	490.94
456.75	482.98
457.12	476.45
457.49	469.89
457.86	463.71
458.23	458.27
458.59	452.30
458.96	446.30
459.33	440.91
459.70	435.56
460.07	431.28
460.43	426.44
460.80	421.77
461.17	417.78
461.54	413.59
461.91	409.55
462.27	405.38
462.64	401.94
463.01	398.16
463.38	394.48
463.74	390.82
464.11	387.56
464.48	384.76
464.85	381.62
465.21	379.21
465.58	376.56
465.95	373.39
466.32	370.79
466.68	368.18
467.05	365.60
467.42	363.05
467.78	360.35
468.15	357.72
468.52	355.80
468.88	353.29
469.25	351.11
469.62	349.28
469.98	347.33
470.35	345.49
470.72	343.79
471.08	341.96
471.45	340.45
471.82	338.89
472.18	337.25
472.55	336.03
472.92	334.63
473.28	333.41
473.65	332.31
474.02	331.17
474.38	330.31
474.75	329.58
475.11	328.78
475.48	328.20
475.85	327.75
476.21	327.29
476.58	326.93
476.94	326.71
477.31	326.44
477.67	326.18
478.04	326.04
478.41	325.97
478.77	326.11
479.14	326.04
479.50	326.14
479.87	326.36
480.23	326.66
480.60	326.89
480.96	327.18
481.33	327.75
481.69	328.31
482.06	328.77
482.42	329.26
482.79	329.87
483.15	330.72
483.52	331.67
483.88	332.58
484.25	333.52
484.61	334.52
484.98	335.56
485.34	336.89
485.71	338.28
486.07	339.72
486.44	341.07
486.80	342.69
487.17	344.41
487.53	346.24
487.90	348.15
488.26	350.22
488.62	352.38
488.99	354.45
489.35	356.62
489.72	359.01
490.08	361.53
490.44	364.09
490.81	366.76
491.17	369.42
491.54	372.37
491.90	375.43
492.26	378.66
492.63	382.10
492.99	385.59
493.36	389.28
493.72	393.21
494.08	397.22
494.45	401.44
494.81	405.80
495.17	410.27
495.54	414.90
495.90	419.69
496.26	424.67
496.63	429.85
496.99	435.26
497.35	440.81
497.72	446.61
498.08	452.53
498.44	458.67
498.80	465.14
499.17	471.70
499.53	478.40
499.89	485.31
500.26	492.32
500.62	499.44
500.98	506.86
501.34	514.32
501.71	522.10
502.07	529.95
502.43	537.99
502.79	546.20
503.16	554.67
503.52	563.28
503.88	571.97
504.24	580.96
504.60	590.07
504.97	599.36
505.33	608.72
505.69	618.66
506.05	628.56
506.41	638.45
506.78	648.53
507.14	658.84
507.50	669.34
507.86	680.07
508.22	690.85
508.59	701.46
508.95	712.57
509.31	723.93
509.67	735.46
510.03	746.87
510.39	758.64
510.75	770.46
511.12	782.46
511.48	794.69
511.84	807.03
512.20	819.43
512.56	832.16
512.92	845.09
513.28	857.77
513.64	870.58
514.00	883.49
514.37	896.53
514.73	909.70
515.09	922.78
515.45	935.70
515.81	948.87
516.17	962.48
516.53	975.79
516.89	988.96
517.25	1002.19
517.61	1015.91
517.97	1029.38
518.33	1042.67
518.69	1056.33
519.05	1070.08
519.41	1083.89
519.77	1097.92
520.13	1111.28
520.49	1124.42
520.85	1137.93
521.21	1151.39
521.57	1165.16
521.93	1178.35
522.29	1192.18
522.65	1205.96
523.01	1219.72
523.37	1233.07
523.73	1246.39
524.09	1259.65
524.45	1273.11
524.81	1286.63
525.17	1300.11
525.53	1313.42
525.89	1326.91
526.25	1340.09
526.61	1353.09
526.97	1366.32
527.33	1379.34
527.68	1392.95
528.04	1406.64
528.40	1419.83
528.76	1433.26
529.12	1446.27
529.48	1459.67
529.84	1472.10
530.20	1484.93
530.56	1497.68
530.91	1510.99
531.27	1523.94
531.63	1536.78
531.99	1549.73
532.35	1562.09
532.71	1574.54
533.07	1587.49
533.42	1599.82
533.78	1612.10
534.14	1624.31
534.50	1635.67
534.86	1647.46
535.21	1658.50
535.57	1670.17
535.93	1681.49
536.29	1692.70
536.65	1704.25
537.00	1715.35
537.36	1726.85
537.72	1737.87
538.08	1749.29
538.44	1760.44
538.79	1771.77
539.15	1782.98
539.51	1793.91
539.87	1805.45
540.22	1816.44
540.58	1827.59
540.94	1838.64
541.29	1849.01
541.65	1858.85
542.01	1869.34
542.37	1879.35
542.72	1889.48
543.08	1899.41
543.44	1910.09
543.79	1919.48
544.15	1929.06
544.51	1939.23
544.87	1949.20
545.22	1958.61
545.58	1967.62
545.94	1976.58
546.29	1985.08
546.65	1993.49
547.01	2001.74
547.36	2009.44
547.72	2017.24
548.07	2024.79
548.43	2032.61
548.79	2040.56
549.14	2048.75
549.50	2057.41
549.86	2065.41
550.21	2072.99
550.57	2080.66
550.92	2087.51
551.28	2095.05
551.64	2102.35
551.99	2109.93
552.35	2117.08
552.70	2124.09
553.06	2130.73
553.41	2137.03
553.77	2143.58
554.13	2149.99
554.48	2157.13
554.84	2164.31
555.19	2170.92
555.55	2177.47
555.90	2183.79
556.26	2190.66
556.61	2196.90
556.97	2201.66
557.32	2207.48
557.68	2213.91
558.03	2219.66
558.39	2225.23
558.74	2231.29
559.10	2236.92
559.45	2242.45
559.81	2248.11
560.16	2253.71
560.52	2259.70
560.87	2266.11
561.23	2272.11
561.58	2278.72
561.94	2283.90
562.29	2288.64
562.64	2294.75
563.00	2300.34
563.35	2305.88
563.71	2311.58
564.06	2317.18
564.42	2323.23
564.77	2328.45
565.12	2333.81
565.48	2338.94
565.83	2344.22
566.19	2349.40
566.54	2354.69
566.89	2359.20
567.25	2363.60
567.60	2369.12
567.96	2374.24
568.31	2378.65
568.66	2382.90
569.02	2386.77
569.37	2390.55
569.72	2394.99
570.08	2398.30
570.43	2401.55
570.78	2404.74
571.14	2407.17
571.49	2410.27
571.84	2413.79
572.20	2416.63
572.55	2419.48
572.90	2421.68
573.26	2424.52
573.61	2427.19
573.96	2429.29
574.31	2431.29
574.67	2433.28
575.02	2434.00
575.37	2435.48
575.72	2436.31
576.08	2437.70
576.43	2437.86
576.78	2438.25
577.13	2439.63
577.49	2440.75
577.84	2441.66
578.19	2442.74
578.54	2443.27
578.90	2443.94
579.25	2443.60
579.60	2443.41
579.95	2442.47
580.30	2442.54
580.66	2441.83
581.01	2440.21
581.36	2437.84
581.71	2436.53
582.06	2435.25
582.42	2434.44
582.77	2432.07
583.12	2430.30
583.47	2428.78
583.82	2428.18
584.17	2426.76
584.53	2424.63
584.88	2422.46
585.23	2420.52
585.58	2418.29
585.93	2416.35
586.28	2414.05
586.63	2411.62
586.98	2409.39
587.34	2407.55
587.69	2404.98
588.04	2402.75
588.39	2401.14
588.74	2398.49
589.09	2395.60
589.44	2392.38
589.79	2389.68
590.14	2387.67
590.49	2384.74
590.84	2380.78
591.19	2377.54
591.54	2374.27
591.89	2370.10
592.25	2366.77
592.60	2362.47
592.95	2358.20
593.30	2353.95
593.65	2349.46
594.00	2344.94
594.35	2341.84
594.70	2337.03
595.05	2332.50
595.40	2326.94
595.75	2321.11
596.10	2317.48
596.45	2312.49
596.80	2307.86
597.15	2302.69
597.50	2296.58
597.85	2291.68
598.19	2286.44
598.54	2280.45
598.89	2275.22
599.24	2270.67
599.59	2264.50
599.94	2258.57
600.29	2252.51
600.64	2246.55
600.99	2239.73
601.34	2234.23
601.69	2227.21
602.04	2220.89
602.39	2214.10
602.74	2207.91
603.08	2202.38
603.43	2195.80
603.78	2188.95
604.13	2181.78
604.48	2174.31
604.83	2168.06
605.18	2161.71
605.53	2154.81
605.87	2147.71
606.22	2140.74
606.57	2132.80
606.92	2124.83
607.27	2118.01
607.62	2111.31
607.96	2104.23
608.31	2097.65
608.66	2089.77
609.01	2082.05
609.36	2074.75
609.70	2067.02
610.05	2059.23
610.40	2050.78
610.75	2042.44
611.10	2034.59
611.44	2025.67
611.79	2017.05
612.14	2007.21
612.49	1996.44
612.83	1987.00
613.18	1977.71
613.53	1968.44
613.88	1958.83
614.22	1950.14
614.57	1940.07
614.92	1929.47
615.27	1919.13
615.61	1909.04
615.96	1899.39
616.31	1889.76
616.65	1880.30
617.00	1870.54
617.35	1860.89
617.70	1851.19
618.04	1841.20
618.39	1831.16
618.74	1821.45
619.08	1811.66
619.43	1802.95
619.78	1794.65
620.12	1786.10
620.47	1776.59
620.82	1766.15
621.16	1756.28
621.51	1746.40
621.85	1736.65
622.20	1726.23
622.55	1715.78
622.89	1705.82
623.24	1696.09
623.59	1686.20
623.93	1676.08
624.28	1666.20
624.62	1656.14
624.97	1645.74
625.32	1635.85
625.66	1626.95
626.01	1618.23
626.35	1608.95
626.70	1598.91
627.04	1588.90
627.39	1578.71
627.73	1569.44
628.08	1560.62
628.43	1551.09
628.77	1541.85
629.12	1532.87
629.46	1525.20
629.81	1516.76
630.15	1507.25
630.50	1497.47
630.84	1487.00
631.19	1476.99
631.53	1467.85
631.88	1457.67
632.22	1447.71
632.57	1438.30
632.91	1428.02
633.26	1418.05
633.60	1408.42
633.95	1399.12
634.29	1389.62
634.64	1380.31
634.98	1370.26
635.32	1360.89
635.67	1352.35
636.01	1343.03
636.36	1333.28
636.70	1323.65
637.05	1314.23
637.39	1305.31
637.73	1296.59
638.08	1289.06
638.42	1280.94
638.77	1272.06
639.11	1263.71
639.45	1255.90
639.80	1247.34
640.14	1238.59
640.49	1229.88
640.83	1221.11
641.17	1212.90
641.52	1204.69
641.86	1196.15
642.20	1188.28
642.55	1179.69
642.89	1170.72
643.23	1162.01
643.58	1153.86
643.92	1144.80
644.26	1136.05
644.61	1127.62
644.95	1118.79
645.29	1109.54
645.64	1100.39
645.98	1091.88
646.32	1083.95
646.66	1075.40
647.01	1067.09
647.35	1059.04
647.69	1050.65
648.04	1042.26
648.38	1033.40
648.72	1024.65
649.06	1016.14
649.41	1007.87
649.75	999.89
650.09	992.06
650.43	984.05
650.78	975.67
651.12	967.89
651.46	960.47
651.80	953.19
652.14	945.94
652.49	938.33
652.83	930.93
653.17	923.18
653.51	915.47
653.85	908.20
654.20	900.89
654.54	893.35
654.88	885.97
655.22	878.76
655.56	871.58
655.90	864.70
656.25	857.91
656.59	851.03
656.93	843.92
657.27	836.69
657.61	829.71
657.95	823.59
658.29	817.62
658.64	811.44
658.98	804.89
659.32	798.20
659.66	791.95
660.00	785.54
660.34	779.39
660.68	773.30
661.02	766.93
661.36	760.97
661.70	755.15
662.05	749.53
662.39	743.99
662.73	738.63
663.07	733.26
663.41	727.67
663.75	721.95
664.09	716.15
664.43	710.77
664.77	705.39
665.11	699.56
665.45	693.66
665.79	687.80
666.13	682.10
666.47	676.59
666.81	671.18
667.15	665.77
667.49	660.59
667.83	655.24
668.17	649.91
668.51	644.70
668.85	639.76
669.19	634.80
669.53	629.77
669.87	624.60
670.21	619.79
670.55	615.00
670.89	610.45
671.23	606.24
671.57	601.75
671.91	597.39
672.25	593.19
672.58	589.04
672.92	584.96
673.26	580.91
673.60	577.00
673.94	573.08
674.28	569.46
674.62	565.72
674.96	561.92
675.30	558.42
675.64	554.68
675.97	550.97
676.31	547.35
676.65	543.69
676.99	540.24
677.33	536.33
677.67	532.64
678.01	528.74
678.34	524.98
678.68	521.39
679.02	517.72
679.36	513.95
679.70	510.24
680.04	506.69
680.37	503.21
680.71	499.81
681.05	496.58
681.39	493.22
681.73	489.99
682.06	486.92
682.40	483.79
682.74	480.59
683.08	477.36
683.42	474.17
683.75	471.07
684.09	467.96
684.43	465.09
684.77	462.10
685.10	459.25
685.44	456.38
685.78	453.44
686.12	450.62
686.45	447.91
686.79	445.24
687.13	442.64
687.46	439.99
687.80	437.31
688.14	434.44
688.48	431.82
688.81	429.04
689.15	426.43
689.49	423.76
689.82	421.22
690.16	418.64
690.50	416.10
690.83	413.62
691.17	411.07
691.51	408.60
691.84	406.32
692.18	404.02
692.52	401.67
692.85	399.50
693.19	397.37
693.52	395.15
693.86	392.85
694.20	390.58
694.53	388.38
694.87	386.16
695.21	384.05
695.54	381.83
695.88	379.67
696.21	377.52
696.55	375.38
696.88	373.31
697.22	371.27
697.56	369.32
697.89	367.38
698.23	365.60
698.56	363.80
698.90	362.01
699.23	360.12
699.57	358.31
699.90	356.42
700.24	354.54
700.58	352.77
700.91	351.09
701.25	349.56
701.58	347.99
701.92	346.35
702.25	344.66
702.59	343.05
702.92	341.49
703.26	339.89
703.59	338.38
703.93	337.05
704.26	335.61
704.60	334.06
704.93	332.53
705.26	331.00
705.60	329.51
705.93	327.97
706.27	326.65
706.60	325.33
706.94	324.12
707.27	322.74
707.61	321.34
707.94	319.98
708.27	318.47
708.61	316.99
708.94	315.60
709.28	314.28
709.61	312.97
709.94	311.75
710.28	310.47
710.61	309.26
710.95	307.84
711.28	306.73
711.61	305.57
711.95	304.47
712.28	303.25
712.61	302.03
712.95	300.95
713.28	299.83
713.61	298.69
713.95	297.53
714.28	296.51
714.61	295.47
714.95	294.44
715.28	293.39
715.61	292.32
715.95	291.36
716.28	290.42
716.61	289.43
716.95	288.44
717.28	287.47
717.61	286.51
717.94	285.60
718.28	284.57
718.61	283.67
718.94	282.76
719.27	281.92
719.61	281.10
719.94	280.23
720.27	279.25
720.60	278.36
720.94	277.48
721.27	276.69
721.60	276.00
721.93	275.26
722.27	274.63
722.60	273.99
722.93	273.23
723.26	272.57
723.59	271.91
723.93	271.28
724.26	270.62
724.59	269.93
724.92	269.30
725.25	268.72
725.59	268.13
725.92	267.58
726.25	266.98
726.58	266.35
726.91	265.75
727.24	265.21
727.57	264.62
727.91	264.01
728.24	263.40
728.57	262.74
728.90	262.13
729.23	261.47
729.56	261.01
729.89	260.49
730.22	259.86
730.55	259.28
730.89	258.70
731.22	258.17
731.55	257.66
731.88	257.10
732.21	256.57
732.54	255.99
732.87	255.47
733.20	254.99
733.53	254.55
733.86	254.09
734.19	253.59
734.52	253.20
734.85	252.91
735.18	252.45
735.51	252.12
735.84	251.73
736.17	251.32
736.50	250.77
736.83	250.60
737.16	250.23
737.49	249.85
737.82	249.46
738.15	249.08
738.48	248.70
738.81	248.33
739.14	247.92
739.47	247.51
739.80	247.12
740.13	246.77
740.46	246.33
740.79	245.94
741.12	245.55
741.45	245.14
741.78	244.69
742.11	244.42
742.44	244.02
742.77	243.69
743.10	243.34
743.43	242.97
743.75	242.38
744.08	242.31
744.41	241.94
744.74	241.61
745.07	241.26
745.40	240.98
745.73	240.71
746.06	240.40
746.39	240.14
746.71	239.79
747.04	239.43
747.37	239.12
747.70	238.83
748.03	238.56
748.36	238.29
748.68	237.98
749.01	237.61
749.34	237.29
749.67	237.01
750.00	236.77
750.33	236.65
750.65	236.41
750.98	235.90
751.31	235.69
751.64	235.43
751.97	235.29
752.29	234.97
752.62	234.60
752.95	234.34
753.28	234.05
753.60	233.79
753.93	233.61
754.26	233.42
754.59	233.17
754.91	232.91
755.24	232.70
755.57	232.47
755.90	232.24
756.22	232.02
756.55	231.78
756.88	231.53
757.20	231.18
757.53	230.94
757.86	230.71
758.19	230.46
758.51	230.27
758.84	229.95
759.17	229.76
759.49	229.61
759.82	229.49
760.15	229.33
760.47	229.16
760.80	228.91
761.13	228.72
761.45	228.49
761.78	228.31
762.11	228.11
762.43	227.94
762.76	227.77
763.08	227.59
763.41	227.42
763.74	227.26
764.06	227.10
764.39	226.92
764.71	226.73
765.04	226.56
765.37	226.39
765.69	226.22
766.02	226.11
766.34	225.97
766.67	225.76
767.00	225.64
767.32	225.61
767.65	225.60
767.97	225.47
768.30	225.38
768.62	225.27
768.95	225.11
769.27	224.98
769.60	224.91
769.92	224.75
770.25	224.58
770.57	224.41
770.90	224.31
771.22	224.18
771.55	224.07
771.87	223.97
772.20	223.81
772.52	223.87
772.85	224.01
773.17	223.88
773.50	223.76
773.82	223.61
774.15	223.43
774.47	223.21
774.80	223.09
775.12	222.93
775.45	222.82
775.77	222.72
776.09	222.64
776.42	222.53
776.74	222.50
777.07	222.45
777.39	222.34
777.72	222.23
778.04	222.16
778.36	222.05
778.69	221.96
779.01	221.95
779.33	221.69
779.66	221.31
779.98	221.21
780.31	221.17
780.63	221.17
780.95	221.13
781.28	221.05
781.60	220.94
781.92	220.88
782.25	220.79
782.57	220.73
782.89	220.63
783.22	220.55
783.54	220.43
783.86	220.37
784.19	220.33
784.51	220.35
784.83	220.25
785.16	220.20
785.48	220.18
785.80	220.06
786.12	220.03
