SpectraSuite Data File
++++++++++++++++++++++++++++++++++++
Date: Tue Jan 29 16:34:28 EST 2013
User: group
Dark Spectrum Present: No
Reference Spectrum Present: No
Number of Sampled Component Spectra: 1
Spectrometers: USB2E7196
Integration Time (usec): 65000 (USB2E7196)
Spectra Averaged: 100 (USB2E7196)
Boxcar Smoothing: 10 (USB2E7196)
Correct for Electrical Dark: No (USB2E7196)
Strobe/Lamp Enabled: No (USB2E7196)
Correct for Detector Non-linearity: No (USB2E7196)
Correct for Stray Light: No (USB2E7196)
Number of Pixels in Processed Spectrum: 2048
>>>>>Begin Processed Spectral Data<<<<<
339.09	0.00
339.48	201.24
339.86	202.60
340.24	204.72
340.63	205.93
341.01	210.77
341.39	208.44
341.78	209.80
342.16	211.08
342.54	211.07
342.93	200.75
343.31	210.91
343.69	211.49
344.07	211.96
344.46	212.42
344.84	212.85
345.22	213.00
345.60	213.31
345.99	213.56
346.37	213.71
346.75	213.86
347.13	213.96
347.52	214.07
347.90	214.18
348.28	214.25
348.66	214.36
349.05	214.36
349.43	214.41
349.81	214.48
350.19	214.53
350.57	214.62
350.96	214.72
351.34	214.83
351.72	214.91
352.10	215.04
352.48	215.11
352.87	215.15
353.25	215.23
353.63	215.25
354.01	215.27
354.39	215.35
354.77	215.45
355.15	215.58
355.54	215.62
355.92	215.63
356.30	215.70
356.68	215.91
357.06	215.97
357.44	216.06
357.82	216.13
358.20	216.24
358.58	216.30
358.97	216.36
359.35	216.45
359.73	216.56
360.11	216.61
360.49	216.69
360.87	216.73
361.25	216.84
361.63	216.97
362.01	217.05
362.39	217.11
362.77	217.15
363.15	217.16
363.53	217.20
363.91	217.26
364.29	217.30
364.67	217.10
365.05	217.12
365.43	217.16
365.81	217.19
366.19	217.28
366.57	217.36
366.95	217.35
367.33	217.30
367.71	217.31
368.09	217.37
368.47	217.35
368.85	217.30
369.23	217.29
369.61	217.21
369.99	217.28
370.37	217.26
370.75	217.36
371.13	217.30
371.51	217.24
371.89	217.23
372.27	217.20
372.65	217.20
373.03	217.18
373.41	217.14
373.78	217.12
374.16	216.98
374.54	216.89
374.92	216.83
375.30	216.80
375.68	216.73
376.06	216.67
376.44	216.62
376.82	216.61
377.19	216.56
377.57	216.51
377.95	216.40
378.33	216.37
378.71	216.19
379.09	216.16
379.47	216.13
379.84	216.04
380.22	215.99
380.60	215.91
380.98	215.86
381.36	215.81
381.73	215.73
382.11	215.72
382.49	215.69
382.87	215.65
383.25	215.59
383.62	215.76
384.00	215.69
384.38	215.63
384.76	215.65
385.13	215.68
385.51	215.61
385.89	215.55
386.27	215.52
386.64	215.51
387.02	215.48
387.40	215.43
387.78	215.41
388.15	215.39
388.53	215.34
388.91	215.30
389.29	215.22
389.66	215.23
390.04	215.18
390.42	215.17
390.79	215.17
391.17	215.16
391.55	214.94
391.92	214.94
392.30	214.97
392.68	214.91
393.05	214.89
393.43	214.93
393.81	214.92
394.18	214.86
394.56	214.88
394.94	214.92
395.31	214.95
395.69	215.04
396.06	215.08
396.44	215.14
396.82	215.14
397.19	215.28
397.57	215.26
397.95	215.33
398.32	215.29
398.70	215.35
399.07	215.44
399.45	215.46
399.82	215.53
400.20	215.55
400.58	215.60
400.95	215.58
401.33	215.71
401.70	215.91
402.08	216.03
402.45	216.10
402.83	216.23
403.20	216.30
403.58	216.37
403.95	216.51
404.33	216.66
404.71	216.83
405.08	217.11
405.46	217.32
405.83	217.52
406.21	217.72
406.58	217.93
406.96	218.14
407.33	218.42
407.70	218.68
408.08	219.17
408.45	219.53
408.83	219.92
409.20	220.26
409.58	220.53
409.95	220.98
410.33	221.44
410.70	221.86
411.08	222.44
411.45	223.05
411.82	223.61
412.20	224.31
412.57	225.10
412.95	225.65
413.32	226.48
413.69	227.31
414.07	228.24
414.44	229.24
414.82	230.24
415.19	231.44
415.56	232.66
415.94	233.81
416.31	235.24
416.68	236.66
417.06	238.27
417.43	239.82
417.81	241.55
418.18	243.36
418.55	245.33
418.93	247.38
419.30	249.46
419.67	251.69
420.04	253.94
420.42	256.35
420.79	259.17
421.16	261.94
421.54	264.86
421.91	267.83
422.28	270.93
422.66	274.24
423.03	277.48
423.40	280.79
423.77	284.45
424.15	288.11
424.52	291.98
424.89	296.15
425.26	300.25
425.64	304.14
426.01	308.46
426.38	312.95
426.75	317.50
427.13	322.22
427.50	327.26
427.87	332.50
428.24	337.73
428.61	342.70
428.99	348.26
429.36	354.28
429.73	360.18
430.10	366.10
430.47	372.24
430.85	378.52
431.22	385.29
431.59	392.37
431.96	399.19
432.33	406.66
432.70	413.84
433.08	422.41
433.45	430.48
433.82	438.49
434.19	447.31
434.56	455.98
434.93	464.33
435.30	472.53
435.68	481.70
436.05	490.67
436.42	499.63
436.79	507.76
437.16	516.47
437.53	525.83
437.90	534.98
438.27	543.91
438.64	553.14
439.01	561.68
439.38	569.27
439.75	576.55
440.13	584.99
440.50	593.12
440.87	599.52
441.24	606.19
441.61	613.50
441.98	618.93
442.35	625.32
442.72	631.67
443.09	637.76
443.46	641.44
443.83	643.99
444.20	646.21
444.57	649.37
444.94	650.90
445.31	652.32
445.68	653.67
446.05	654.27
446.42	653.51
446.79	652.57
447.16	651.53
447.53	650.84
447.90	647.53
448.27	644.12
448.64	639.46
449.01	636.15
449.37	630.26
449.74	624.58
450.11	617.64
450.48	610.26
450.85	602.84
451.22	596.36
451.59	590.22
451.96	584.40
452.33	576.52
452.70	569.40
453.07	560.89
453.43	552.31
453.80	544.00
454.17	536.02
454.54	528.41
454.91	520.17
455.28	512.17
455.65	504.75
456.02	497.23
456.38	490.93
456.75	483.02
457.12	476.42
457.49	469.88
457.86	463.70
458.23	458.28
458.59	452.30
458.96	446.34
459.33	441.00
459.70	435.59
460.07	431.34
460.43	426.45
460.80	421.89
461.17	417.90
461.54	413.68
461.91	409.65
462.27	405.56
462.64	402.13
463.01	398.35
463.38	394.62
463.74	390.94
464.11	387.66
464.48	384.88
464.85	381.80
465.21	379.39
465.58	376.74
465.95	373.64
466.32	371.05
466.68	368.41
467.05	365.81
467.42	363.25
467.78	360.56
468.15	358.01
468.52	356.04
468.88	353.49
469.25	351.26
469.62	349.48
469.98	347.51
470.35	345.70
470.72	344.00
471.08	342.23
471.45	340.73
471.82	339.18
472.18	337.43
472.55	336.28
472.92	334.82
473.28	333.61
473.65	332.45
474.02	331.29
474.38	330.45
474.75	329.72
475.11	328.89
475.48	328.32
475.85	327.82
476.21	327.37
476.58	327.02
476.94	326.80
477.31	326.45
477.67	326.19
478.04	326.02
478.41	325.96
478.77	326.09
479.14	326.05
479.50	326.20
479.87	326.51
480.23	326.81
480.60	327.10
480.96	327.39
481.33	328.00
481.69	328.57
482.06	329.07
482.42	329.56
482.79	330.15
483.15	330.95
483.52	331.88
483.88	332.76
484.25	333.70
484.61	334.71
484.98	335.80
485.34	337.10
485.71	338.46
486.07	339.87
486.44	341.18
486.80	342.79
487.17	344.47
487.53	346.29
487.90	348.14
488.26	350.17
488.62	352.32
488.99	354.37
489.35	356.54
489.72	358.90
490.08	361.37
490.44	363.94
490.81	366.60
491.17	369.35
491.54	372.32
491.90	375.34
492.26	378.61
492.63	382.08
492.99	385.59
493.36	389.27
493.72	393.18
494.08	397.20
494.45	401.43
494.81	405.78
495.17	410.28
495.54	415.03
495.90	419.78
496.26	424.77
496.63	429.96
496.99	435.38
497.35	440.98
497.72	446.86
498.08	452.79
498.44	458.89
498.80	465.33
499.17	471.90
499.53	478.68
499.89	485.60
500.26	492.54
500.62	499.63
500.98	507.06
501.34	514.53
501.71	522.39
502.07	530.19
502.43	538.26
502.79	546.39
503.16	554.74
503.52	563.46
503.88	572.15
504.24	581.17
504.60	590.28
504.97	599.50
505.33	608.82
505.69	618.80
506.05	628.77
506.41	638.62
506.78	648.70
507.14	658.97
507.50	669.37
507.86	680.18
508.22	691.02
508.59	701.75
508.95	712.86
509.31	724.08
509.67	735.71
510.03	747.14
510.39	758.96
510.75	770.92
511.12	782.85
511.48	794.96
511.84	807.22
512.20	819.58
512.56	832.35
512.92	845.30
513.28	857.95
513.64	870.69
514.00	883.62
514.37	896.64
514.73	909.78
515.09	922.99
515.45	936.00
515.81	949.11
516.17	962.58
516.53	975.91
516.89	989.15
517.25	1002.36
517.61	1016.02
517.97	1029.44
518.33	1042.69
518.69	1056.38
519.05	1070.18
519.41	1084.14
519.77	1098.18
520.13	1111.55
520.49	1124.76
520.85	1138.27
521.21	1151.75
521.57	1165.53
521.93	1178.78
522.29	1192.72
522.65	1206.34
523.01	1220.04
523.37	1233.35
523.73	1246.76
524.09	1260.13
524.45	1273.64
524.81	1287.14
525.17	1300.64
525.53	1314.10
525.89	1327.49
526.25	1340.80
526.61	1353.81
526.97	1366.86
527.33	1379.91
527.68	1393.41
528.04	1406.95
528.40	1420.06
528.76	1433.55
529.12	1446.56
529.48	1459.92
529.84	1472.26
530.20	1485.20
530.56	1497.71
530.91	1511.05
531.27	1524.05
531.63	1536.88
531.99	1549.77
532.35	1562.24
532.71	1574.69
533.07	1587.58
533.42	1599.96
533.78	1612.20
534.14	1624.51
534.50	1635.90
534.86	1647.57
535.21	1658.65
535.57	1670.33
535.93	1681.73
536.29	1692.91
536.65	1704.67
537.00	1715.74
537.36	1727.31
537.72	1738.39
538.08	1750.17
538.44	1761.24
538.79	1772.55
539.15	1783.65
539.51	1794.54
539.87	1805.93
540.22	1816.81
540.58	1827.81
540.94	1838.74
541.29	1849.07
541.65	1858.91
542.01	1869.59
542.37	1879.77
542.72	1890.10
543.08	1899.99
543.44	1910.60
543.79	1919.96
544.15	1929.35
544.51	1939.43
544.87	1949.32
545.22	1958.67
545.58	1967.49
545.94	1976.45
546.29	1984.97
546.65	1993.37
547.01	2001.55
547.36	2009.23
547.72	2017.15
548.07	2024.81
548.43	2032.77
548.79	2040.72
549.14	2048.93
549.50	2057.37
549.86	2065.28
550.21	2072.87
550.57	2080.76
550.92	2087.65
551.28	2095.32
551.64	2102.63
551.99	2110.21
552.35	2117.39
552.70	2124.42
553.06	2131.09
553.41	2137.45
553.77	2144.00
554.13	2150.40
554.48	2157.61
554.84	2164.83
555.19	2171.35
555.55	2177.75
555.90	2184.06
556.26	2190.91
556.61	2197.18
556.97	2201.97
557.32	2207.82
557.68	2214.11
558.03	2219.82
558.39	2225.36
558.74	2231.42
559.10	2236.96
559.45	2242.50
559.81	2248.18
560.16	2253.61
560.52	2259.55
560.87	2265.88
561.23	2271.71
561.58	2278.44
561.94	2283.60
562.29	2288.26
562.64	2294.41
563.00	2300.21
563.35	2305.86
563.71	2311.59
564.06	2317.05
564.42	2323.13
564.77	2328.22
565.12	2333.50
565.48	2338.44
565.83	2343.78
566.19	2349.07
566.54	2354.48
566.89	2359.08
567.25	2363.58
567.60	2369.30
567.96	2374.63
568.31	2379.31
568.66	2383.68
569.02	2387.53
569.37	2391.41
569.72	2395.76
570.08	2399.26
570.43	2402.37
570.78	2405.27
571.14	2407.70
571.49	2410.86
571.84	2414.34
572.20	2417.25
572.55	2420.16
572.90	2422.60
573.26	2425.44
573.61	2428.05
573.96	2430.08
574.31	2432.17
574.67	2434.09
575.02	2434.81
575.37	2436.00
575.72	2436.58
576.08	2438.07
576.43	2438.18
576.78	2438.40
577.13	2439.98
577.49	2441.04
577.84	2441.95
578.19	2443.11
578.54	2443.67
578.90	2444.23
579.25	2444.00
579.60	2443.73
579.95	2442.88
580.30	2442.89
580.66	2442.13
581.01	2440.27
581.36	2437.86
581.71	2436.38
582.06	2435.16
582.42	2434.29
582.77	2432.01
583.12	2430.36
583.47	2428.72
583.82	2428.05
584.17	2426.88
584.53	2424.73
584.88	2422.63
585.23	2420.76
585.58	2418.51
585.93	2416.63
586.28	2414.53
586.63	2412.06
586.98	2409.83
587.34	2407.69
587.69	2405.20
588.04	2403.07
588.39	2401.65
588.74	2399.20
589.09	2396.37
589.44	2393.23
589.79	2390.56
590.14	2388.46
590.49	2385.61
590.84	2381.68
591.19	2378.41
591.54	2375.07
591.89	2370.91
592.25	2367.50
592.60	2363.18
592.95	2358.84
593.30	2354.55
593.65	2350.09
594.00	2345.59
594.35	2342.65
594.70	2338.08
595.05	2333.39
595.40	2327.94
595.75	2322.04
596.10	2318.35
596.45	2313.44
596.80	2308.64
597.15	2303.47
597.50	2297.59
597.85	2292.52
598.19	2287.28
598.54	2281.35
598.89	2276.17
599.24	2271.64
599.59	2265.47
599.94	2259.66
600.29	2253.78
600.64	2247.69
600.99	2240.80
601.34	2235.21
601.69	2228.11
602.04	2221.73
602.39	2215.05
602.74	2208.78
603.08	2203.16
603.43	2196.55
603.78	2189.65
604.13	2182.63
604.48	2175.12
604.83	2168.89
605.18	2162.64
605.53	2155.85
605.87	2149.00
606.22	2142.03
606.57	2133.99
606.92	2125.85
607.27	2118.83
607.62	2112.14
607.96	2105.11
608.31	2098.59
608.66	2090.80
609.01	2083.15
609.36	2075.92
609.70	2068.07
610.05	2060.21
610.40	2051.87
610.75	2043.47
611.10	2035.61
611.44	2026.59
611.79	2018.00
612.14	2008.07
612.49	1997.39
612.83	1987.82
613.18	1978.37
613.53	1969.13
613.88	1959.62
614.22	1951.14
614.57	1941.16
614.92	1930.57
615.27	1920.21
615.61	1909.96
615.96	1900.22
616.31	1890.59
616.65	1881.19
617.00	1871.55
617.35	1861.91
617.70	1852.08
618.04	1842.18
618.39	1832.06
618.74	1822.43
619.08	1812.70
619.43	1804.06
619.78	1795.82
620.12	1787.20
620.47	1777.67
620.82	1767.24
621.16	1757.41
621.51	1747.38
621.85	1737.50
622.20	1727.16
622.55	1716.61
622.89	1706.73
623.24	1697.05
623.59	1687.21
623.93	1677.01
624.28	1667.12
624.62	1657.00
624.97	1646.73
625.32	1636.77
625.66	1627.83
626.01	1619.22
626.35	1609.90
626.70	1599.60
627.04	1589.53
627.39	1579.37
627.73	1570.14
628.08	1561.11
628.43	1551.46
628.77	1542.21
629.12	1533.46
629.46	1525.56
629.81	1517.24
630.15	1507.64
630.50	1497.77
630.84	1487.18
631.19	1477.24
631.53	1467.87
631.88	1457.65
632.22	1447.68
632.57	1438.26
632.91	1428.18
633.26	1418.03
633.60	1408.41
633.95	1399.24
634.29	1389.67
634.64	1380.29
634.98	1370.26
635.32	1361.01
635.67	1352.62
636.01	1343.31
636.36	1333.43
636.70	1323.95
637.05	1314.56
637.39	1305.72
637.73	1297.11
638.08	1289.57
638.42	1281.37
638.77	1272.64
639.11	1264.48
639.45	1256.74
639.80	1248.33
640.14	1239.56
640.49	1230.76
640.83	1221.93
641.17	1213.69
641.52	1205.51
641.86	1196.99
642.20	1189.12
642.55	1180.42
642.89	1171.41
643.23	1162.87
643.58	1154.77
643.92	1145.62
644.26	1136.77
644.61	1128.25
644.95	1119.37
645.29	1110.17
645.64	1101.00
645.98	1092.45
646.32	1084.38
646.66	1075.70
647.01	1067.38
647.35	1059.18
647.69	1050.79
648.04	1042.47
648.38	1033.65
648.72	1024.80
649.06	1016.26
649.41	1008.04
649.75	1000.14
650.09	992.33
650.43	984.16
650.78	975.69
651.12	968.04
651.46	960.69
651.80	953.39
652.14	946.07
652.49	938.44
652.83	931.06
653.17	923.42
653.51	915.83
653.85	908.51
654.20	901.08
654.54	893.51
654.88	886.24
655.22	878.97
655.56	871.85
655.90	865.12
656.25	858.46
656.59	851.57
656.93	844.41
657.27	837.16
657.61	830.13
657.95	824.04
658.29	818.04
658.64	811.86
658.98	805.38
659.32	798.83
659.66	792.59
660.00	786.31
660.34	780.12
660.68	774.00
661.02	767.72
661.36	761.74
661.70	756.00
662.05	750.38
662.39	744.86
662.73	739.42
663.07	733.91
663.41	728.22
663.75	722.29
664.09	716.57
664.43	711.15
664.77	705.83
665.11	699.99
665.45	694.04
665.79	688.19
666.13	682.49
666.47	676.96
666.81	671.45
667.15	665.92
667.49	660.68
667.83	655.29
668.17	649.94
668.51	644.80
668.85	639.77
669.19	634.80
669.53	629.67
669.87	624.53
670.21	619.72
670.55	614.97
670.89	610.54
671.23	606.21
671.57	601.69
671.91	597.33
672.25	593.09
672.58	588.88
672.92	584.73
673.26	580.68
673.60	576.73
673.94	572.93
674.28	569.32
674.62	565.55
674.96	561.74
675.30	558.22
675.64	554.46
675.97	550.83
676.31	547.19
676.65	543.58
676.99	540.12
677.33	536.27
677.67	532.60
678.01	528.69
678.34	524.97
678.68	521.43
679.02	517.81
679.36	514.15
679.70	510.48
680.04	506.97
680.37	503.54
680.71	500.23
681.05	496.93
681.39	493.60
681.73	490.40
682.06	487.40
682.40	484.29
682.74	481.08
683.08	477.86
683.42	474.61
683.75	471.54
684.09	468.46
684.43	465.63
684.77	462.68
685.10	459.89
685.44	456.98
685.78	454.03
686.12	451.25
686.45	448.47
686.79	445.83
687.13	443.23
687.46	440.52
687.80	437.74
688.14	434.89
688.48	432.20
688.81	429.49
689.15	426.88
689.49	424.22
689.82	421.64
690.16	418.99
690.50	416.55
690.83	414.03
691.17	411.43
691.51	408.86
691.84	406.56
692.18	404.25
692.52	402.02
692.85	399.84
693.19	397.64
693.52	395.44
693.86	393.11
694.20	390.84
694.53	388.68
694.87	386.44
695.21	384.28
695.54	382.10
695.88	379.86
696.21	377.59
696.55	375.42
696.88	373.35
697.22	371.33
697.56	369.34
697.89	367.41
698.23	365.66
698.56	363.84
698.90	361.99
699.23	360.07
699.57	358.16
699.90	356.26
700.24	354.39
700.58	352.58
700.91	350.89
701.25	349.34
701.58	347.73
701.92	346.10
702.25	344.47
702.59	342.83
702.92	341.27
703.26	339.72
703.59	338.22
703.93	336.91
704.26	335.49
704.60	333.99
704.93	332.50
705.26	330.90
705.60	329.41
705.93	327.92
706.27	326.55
706.60	325.23
706.94	323.98
707.27	322.58
707.61	321.23
707.94	319.87
708.27	318.32
708.61	316.83
708.94	315.49
709.28	314.18
709.61	312.91
709.94	311.71
710.28	310.41
710.61	309.23
710.95	307.85
711.28	306.71
711.61	305.50
711.95	304.36
712.28	303.17
712.61	301.95
712.95	300.87
713.28	299.80
713.61	298.64
713.95	297.50
714.28	296.48
714.61	295.43
714.95	294.41
715.28	293.40
715.61	292.36
715.95	291.37
716.28	290.39
716.61	289.43
716.95	288.34
717.28	287.41
717.61	286.42
717.94	285.47
718.28	284.43
718.61	283.52
718.94	282.60
719.27	281.80
719.61	280.98
719.94	280.11
720.27	279.14
720.60	278.27
720.94	277.43
721.27	276.62
721.60	275.93
721.93	275.19
722.27	274.53
722.60	273.82
722.93	273.09
723.26	272.42
723.59	271.70
723.93	271.10
724.26	270.48
724.59	269.81
724.92	269.19
725.25	268.69
725.59	268.08
725.92	267.55
726.25	266.92
726.58	266.35
726.91	265.73
727.24	265.17
727.57	264.62
727.91	263.98
728.24	263.44
728.57	262.85
728.90	262.30
729.23	261.65
729.56	261.25
729.89	260.70
730.22	260.12
730.55	259.56
730.89	258.99
731.22	258.45
731.55	257.92
731.88	257.38
732.21	256.80
732.54	256.28
732.87	255.73
733.20	255.23
733.53	254.73
733.86	254.28
734.19	253.80
734.52	253.35
734.85	253.11
735.18	252.59
735.51	252.19
735.84	251.76
736.17	251.36
736.50	250.81
736.83	250.67
737.16	250.25
737.49	249.88
737.82	249.49
738.15	249.08
738.48	248.68
738.81	248.29
739.14	247.86
739.47	247.46
739.80	247.08
740.13	246.72
740.46	246.36
740.79	245.93
741.12	245.55
741.45	245.16
741.78	244.73
742.11	244.46
742.44	244.10
742.77	243.79
743.10	243.45
743.43	243.09
743.75	242.55
744.08	242.48
744.41	242.13
744.74	241.78
745.07	241.42
745.40	241.17
745.73	240.93
746.06	240.62
746.39	240.35
746.71	240.00
747.04	239.63
747.37	239.27
747.70	239.00
748.03	238.70
748.36	238.42
748.68	238.05
749.01	237.70
749.34	237.38
749.67	237.07
750.00	236.83
750.33	236.73
750.65	236.44
750.98	235.91
751.31	235.66
751.64	235.44
751.97	235.31
752.29	235.04
752.62	234.67
752.95	234.36
753.28	234.07
753.60	233.84
753.93	233.66
754.26	233.48
754.59	233.19
754.91	232.92
755.24	232.67
755.57	232.47
755.90	232.22
756.22	231.98
756.55	231.73
756.88	231.45
757.20	231.07
757.53	230.80
757.86	230.57
758.19	230.33
758.51	230.10
758.84	229.75
759.17	229.52
759.49	229.34
759.82	229.27
760.15	229.10
760.47	228.90
760.80	228.68
761.13	228.51
761.45	228.29
761.78	228.12
762.11	227.96
762.43	227.75
762.76	227.57
763.08	227.41
763.41	227.27
763.74	227.10
764.06	226.95
764.39	226.81
764.71	226.65
765.04	226.50
765.37	226.33
765.69	226.21
766.02	226.08
766.34	225.91
766.67	225.70
767.00	225.59
767.32	225.57
767.65	225.51
767.97	225.34
768.30	225.26
768.62	225.14
768.95	225.00
769.27	224.90
769.60	224.81
769.92	224.65
770.25	224.47
770.57	224.30
770.90	224.17
771.22	224.03
771.55	223.91
771.87	223.79
772.20	223.68
772.52	223.75
772.85	223.84
773.17	223.77
773.50	223.65
773.82	223.52
774.15	223.31
774.47	223.09
774.80	222.99
775.12	222.88
775.45	222.79
775.77	222.72
776.09	222.62
776.42	222.55
776.74	222.52
777.07	222.44
777.39	222.40
777.72	222.31
778.04	222.29
778.36	222.21
778.69	222.13
779.01	222.06
779.33	221.80
779.66	221.53
779.98	221.40
780.31	221.36
780.63	221.37
780.95	221.36
781.28	221.29
781.60	221.19
781.92	221.16
782.25	221.09
782.57	221.02
782.89	220.94
783.22	220.86
783.54	220.77
783.86	220.71
784.19	220.65
784.51	220.65
784.83	220.53
785.16	220.45
785.48	220.42
785.80	220.38
786.12	220.33
