SpectraSuite Data File
++++++++++++++++++++++++++++++++++++
Date: Tue Jan 29 16:47:25 EST 2013
User: group
Dark Spectrum Present: No
Reference Spectrum Present: No
Number of Sampled Component Spectra: 1
Spectrometers: USB2E7196
Integration Time (usec): 65000 (USB2E7196)
Spectra Averaged: 100 (USB2E7196)
Boxcar Smoothing: 10 (USB2E7196)
Correct for Electrical Dark: No (USB2E7196)
Strobe/Lamp Enabled: No (USB2E7196)
Correct for Detector Non-linearity: No (USB2E7196)
Correct for Stray Light: No (USB2E7196)
Number of Pixels in Processed Spectrum: 2048
>>>>>Begin Processed Spectral Data<<<<<
339.09	0.00
339.48	201.55
339.86	202.57
340.24	204.28
340.63	205.74
341.01	210.34
341.39	208.15
341.78	209.53
342.16	211.55
342.54	211.69
342.93	200.66
343.31	210.83
343.69	211.40
344.07	211.89
344.46	212.37
344.84	212.76
345.22	212.93
345.60	213.25
345.99	213.49
346.37	213.64
346.75	213.78
347.13	213.87
347.52	213.94
347.90	214.08
348.28	214.10
348.66	214.23
349.05	214.22
349.43	214.32
349.81	214.43
350.19	214.51
350.57	214.60
350.96	214.72
351.34	214.80
351.72	214.89
352.10	215.00
352.48	215.06
352.87	215.12
353.25	215.21
353.63	215.25
354.01	215.32
354.39	215.39
354.77	215.47
355.15	215.60
355.54	215.65
355.92	215.66
356.30	215.73
356.68	215.89
357.06	215.99
357.44	216.00
357.82	216.03
358.20	216.11
358.58	216.16
358.97	216.22
359.35	216.34
359.73	216.44
360.11	216.49
360.49	216.56
360.87	216.61
361.25	216.64
361.63	216.77
362.01	216.80
362.39	216.84
362.77	216.85
363.15	216.85
363.53	216.88
363.91	216.94
364.29	216.93
364.67	216.79
365.05	216.78
365.43	216.83
365.81	216.91
366.19	217.00
366.57	217.09
366.95	217.09
367.33	216.99
367.71	216.96
368.09	216.98
368.47	216.97
368.85	216.94
369.23	216.96
369.61	216.87
369.99	216.95
370.37	216.94
370.75	217.02
371.13	216.96
371.51	216.92
371.89	216.91
372.27	216.91
372.65	216.90
373.03	216.88
373.41	216.85
373.78	216.78
374.16	216.65
374.54	216.54
374.92	216.47
375.30	216.48
375.68	216.42
376.06	216.38
376.44	216.33
376.82	216.33
377.19	216.31
377.57	216.25
377.95	216.09
378.33	216.05
378.71	215.89
379.09	215.87
379.47	215.86
379.84	215.76
380.22	215.71
380.60	215.63
380.98	215.57
381.36	215.52
381.73	215.43
382.11	215.45
382.49	215.43
382.87	215.38
383.25	215.33
383.62	215.52
384.00	215.45
384.38	215.40
384.76	215.41
385.13	215.46
385.51	215.44
385.89	215.41
386.27	215.38
386.64	215.38
387.02	215.34
387.40	215.29
387.78	215.29
388.15	215.27
388.53	215.25
388.91	215.20
389.29	215.18
389.66	215.23
390.04	215.14
390.42	215.18
390.79	215.17
391.17	215.14
391.55	214.94
391.92	214.94
392.30	214.97
392.68	214.91
393.05	214.87
393.43	214.89
393.81	214.90
394.18	214.86
394.56	214.87
394.94	214.91
395.31	214.90
395.69	214.98
396.06	215.02
396.44	215.04
396.82	215.05
397.19	215.15
397.57	215.14
397.95	215.18
398.32	215.10
398.70	215.17
399.07	215.28
399.45	215.29
399.82	215.32
400.20	215.36
400.58	215.40
400.95	215.38
401.33	215.48
401.70	215.68
402.08	215.77
402.45	215.86
402.83	216.05
403.20	216.18
403.58	216.24
403.95	216.36
404.33	216.54
404.71	216.72
405.08	216.99
405.46	217.20
405.83	217.42
406.21	217.65
406.58	217.87
406.96	218.07
407.33	218.35
407.70	218.70
408.08	219.15
408.45	219.51
408.83	219.94
409.20	220.27
409.58	220.56
409.95	221.06
410.33	221.57
410.70	221.94
411.08	222.51
411.45	223.09
411.82	223.71
412.20	224.43
412.57	225.26
412.95	225.84
413.32	226.67
413.69	227.53
414.07	228.48
414.44	229.51
414.82	230.56
415.19	231.77
415.56	232.95
415.94	234.16
416.31	235.59
416.68	237.00
417.06	238.66
417.43	240.26
417.81	242.02
418.18	243.85
418.55	245.89
418.93	247.96
419.30	250.16
419.67	252.44
420.04	254.78
420.42	257.25
420.79	260.16
421.16	262.99
421.54	265.94
421.91	268.98
422.28	272.13
422.66	275.53
423.03	278.87
423.40	282.33
423.77	286.07
424.15	289.86
424.52	293.81
424.89	298.08
425.26	302.24
425.64	306.21
426.01	310.57
426.38	315.09
426.75	319.76
427.13	324.57
427.50	329.68
427.87	335.01
428.24	340.31
428.61	345.47
428.99	351.11
429.36	357.30
429.73	363.36
430.10	369.38
430.47	375.58
430.85	382.06
431.22	388.92
431.59	396.17
431.96	403.14
432.33	410.78
432.70	418.23
433.08	426.93
433.45	435.27
433.82	443.53
434.19	452.66
434.56	461.59
434.93	470.16
435.30	478.66
435.68	487.99
436.05	497.25
436.42	506.38
436.79	514.78
437.16	523.81
437.53	533.40
437.90	542.81
438.27	552.01
438.64	561.49
439.01	570.26
439.38	578.06
439.75	585.57
440.13	594.23
440.50	602.35
440.87	608.99
441.24	615.78
441.61	623.33
441.98	628.89
442.35	635.39
442.72	641.91
443.09	648.15
443.46	652.01
443.83	654.66
444.20	656.93
444.57	660.21
444.94	661.70
445.31	663.14
445.68	664.56
446.05	665.28
446.42	664.53
446.79	663.62
447.16	662.55
447.53	661.85
447.90	658.54
448.27	655.29
448.64	650.56
449.01	647.22
449.37	641.21
449.74	635.46
450.11	628.44
450.48	620.89
450.85	613.27
451.22	606.69
451.59	600.33
451.96	594.36
452.33	586.28
452.70	579.00
453.07	570.37
453.43	561.64
453.80	553.08
454.17	544.84
454.54	537.11
454.91	528.71
455.28	520.56
455.65	512.91
456.02	505.14
456.38	498.66
456.75	490.52
457.12	483.74
457.49	477.00
457.86	470.61
458.23	465.05
458.59	458.93
458.96	452.75
459.33	447.30
459.70	441.79
460.07	437.38
460.43	432.37
460.80	427.58
461.17	423.41
461.54	419.12
461.91	415.00
462.27	410.75
462.64	407.18
463.01	403.24
463.38	399.44
463.74	395.63
464.11	392.31
464.48	389.44
464.85	386.24
465.21	383.73
465.58	381.01
465.95	377.75
466.32	375.05
466.68	372.31
467.05	369.66
467.42	366.99
467.78	364.25
468.15	361.66
468.52	359.70
468.88	357.14
469.25	354.82
469.62	352.94
469.98	350.92
470.35	349.06
470.72	347.31
471.08	345.45
471.45	343.89
471.82	342.25
472.18	340.48
472.55	339.24
472.92	337.79
473.28	336.54
473.65	335.38
474.02	334.18
474.38	333.29
474.75	332.48
475.11	331.63
475.48	331.03
475.85	330.48
476.21	329.90
476.58	329.51
476.94	329.25
477.31	328.90
477.67	328.59
478.04	328.39
478.41	328.34
478.77	328.48
479.14	328.40
479.50	328.55
479.87	328.84
480.23	329.15
480.60	329.37
480.96	329.64
481.33	330.23
481.69	330.85
482.06	331.36
482.42	331.87
482.79	332.48
483.15	333.26
483.52	334.24
483.88	335.19
484.25	336.14
484.61	337.15
484.98	338.21
485.34	339.56
485.71	340.94
486.07	342.40
486.44	343.76
486.80	345.44
487.17	347.11
487.53	348.95
487.90	350.81
488.26	352.93
488.62	355.14
488.99	357.24
489.35	359.42
489.72	361.85
490.08	364.35
490.44	366.89
490.81	369.62
491.17	372.33
491.54	375.32
491.90	378.38
492.26	381.68
492.63	385.17
492.99	388.68
493.36	392.42
493.72	396.30
494.08	400.38
494.45	404.60
494.81	409.07
495.17	413.62
495.54	418.33
495.90	423.15
496.26	428.08
496.63	433.36
496.99	438.80
497.35	444.40
497.72	450.33
498.08	456.34
498.44	462.54
498.80	469.11
499.17	475.69
499.53	482.54
499.89	489.53
500.26	496.52
500.62	503.68
500.98	511.16
501.34	518.68
501.71	526.51
502.07	534.45
502.43	542.55
502.79	550.70
503.16	559.23
503.52	567.95
503.88	576.76
504.24	585.74
504.60	594.90
504.97	604.19
505.33	613.48
505.69	623.49
506.05	633.43
506.41	643.33
506.78	653.44
507.14	663.72
507.50	674.19
507.86	685.00
508.22	695.81
508.59	706.48
508.95	717.64
509.31	728.96
509.67	740.50
510.03	751.89
510.39	763.66
510.75	775.52
511.12	787.51
511.48	799.74
511.84	812.06
512.20	824.41
512.56	837.20
512.92	850.10
513.28	862.84
513.64	875.71
514.00	888.69
514.37	901.76
514.73	914.89
515.09	928.13
515.45	941.17
515.81	954.37
516.17	967.91
516.53	981.33
516.89	994.57
517.25	1007.80
517.61	1021.55
517.97	1035.07
518.33	1048.42
518.69	1062.03
519.05	1075.86
519.41	1089.66
519.77	1103.60
520.13	1117.00
520.49	1130.25
520.85	1143.69
521.21	1157.12
521.57	1170.86
521.93	1184.00
522.29	1197.80
522.65	1211.37
523.01	1225.06
523.37	1238.23
523.73	1251.60
524.09	1264.83
524.45	1278.29
524.81	1291.85
525.17	1305.16
525.53	1318.46
525.89	1331.80
526.25	1344.96
526.61	1357.86
526.97	1371.04
527.33	1384.20
527.68	1397.75
528.04	1411.34
528.40	1424.59
528.76	1437.98
529.12	1450.94
529.48	1464.41
529.84	1476.90
530.20	1489.78
530.56	1502.37
530.91	1515.79
531.27	1528.72
531.63	1541.55
531.99	1554.40
532.35	1566.69
532.71	1579.21
533.07	1592.26
533.42	1604.41
533.78	1616.69
534.14	1628.83
534.50	1640.07
534.86	1651.71
535.21	1662.66
535.57	1674.36
535.93	1685.69
536.29	1696.83
536.65	1708.47
537.00	1719.55
537.36	1730.91
537.72	1742.06
538.08	1753.65
538.44	1764.87
538.79	1776.07
539.15	1787.05
539.51	1797.95
539.87	1809.49
540.22	1820.44
540.58	1831.41
540.94	1842.63
541.29	1853.00
541.65	1862.90
542.01	1873.48
542.37	1883.58
542.72	1893.66
543.08	1903.41
543.44	1913.92
543.79	1923.33
544.15	1932.77
544.51	1942.72
544.87	1952.72
545.22	1962.04
545.58	1970.99
545.94	1979.74
546.29	1988.32
546.65	1996.81
547.01	2005.01
547.36	2012.66
547.72	2020.54
548.07	2028.21
548.43	2035.99
548.79	2043.79
549.14	2052.01
549.50	2060.64
549.86	2068.63
550.21	2076.17
550.57	2084.01
550.92	2090.83
551.28	2098.30
551.64	2105.44
551.99	2113.04
552.35	2120.40
552.70	2127.28
553.06	2133.82
553.41	2140.17
553.77	2146.83
554.13	2153.20
554.48	2160.36
554.84	2167.52
555.19	2174.05
555.55	2180.42
555.90	2186.70
556.26	2193.62
556.61	2199.69
556.97	2204.59
557.32	2210.31
557.68	2216.70
558.03	2222.48
558.39	2227.87
558.74	2233.87
559.10	2239.58
559.45	2245.10
559.81	2250.53
560.16	2255.93
560.52	2261.87
560.87	2268.32
561.23	2274.06
561.58	2280.63
561.94	2285.79
562.29	2290.33
562.64	2296.32
563.00	2301.98
563.35	2307.41
563.71	2313.03
564.06	2318.70
564.42	2324.57
564.77	2329.63
565.12	2334.86
565.48	2339.83
565.83	2345.13
566.19	2350.46
566.54	2355.63
566.89	2360.04
567.25	2364.34
567.60	2370.02
567.96	2375.10
568.31	2379.40
568.66	2383.73
569.02	2387.56
569.37	2391.17
569.72	2395.54
570.08	2398.82
570.43	2401.95
570.78	2405.03
571.14	2407.41
571.49	2410.41
571.84	2413.75
572.20	2416.62
572.55	2419.46
572.90	2421.59
573.26	2424.28
573.61	2426.74
573.96	2428.79
574.31	2430.83
574.67	2432.68
575.02	2433.24
575.37	2434.61
575.72	2435.21
576.08	2436.32
576.43	2436.31
576.78	2436.54
577.13	2437.87
577.49	2438.93
577.84	2439.52
578.19	2440.55
578.54	2441.12
578.90	2441.38
579.25	2440.98
579.60	2440.53
579.95	2439.63
580.30	2439.58
580.66	2438.82
581.01	2436.92
581.36	2434.39
581.71	2432.67
582.06	2431.38
582.42	2430.35
582.77	2427.76
583.12	2425.84
583.47	2424.28
583.82	2423.55
584.17	2422.27
584.53	2420.03
584.88	2417.74
585.23	2415.81
585.58	2413.45
585.93	2411.20
586.28	2409.03
586.63	2406.47
586.98	2404.12
587.34	2402.04
587.69	2399.28
588.04	2396.99
588.39	2395.27
588.74	2392.66
589.09	2389.96
589.44	2386.56
589.79	2383.85
590.14	2381.66
590.49	2378.86
590.84	2374.90
591.19	2371.44
591.54	2367.99
591.89	2363.83
592.25	2360.43
592.60	2356.05
592.95	2351.71
593.30	2347.42
593.65	2342.90
594.00	2338.23
594.35	2335.19
594.70	2330.30
595.05	2325.68
595.40	2320.07
595.75	2314.35
596.10	2310.53
596.45	2305.62
596.80	2300.93
597.15	2295.65
597.50	2289.78
597.85	2284.67
598.19	2279.35
598.54	2273.64
598.89	2268.35
599.24	2263.62
599.59	2257.36
599.94	2251.38
600.29	2245.30
600.64	2239.18
600.99	2232.10
601.34	2226.68
601.69	2219.75
602.04	2213.40
602.39	2206.65
602.74	2200.58
603.08	2194.87
603.43	2188.25
603.78	2181.24
604.13	2174.14
604.48	2166.76
604.83	2160.60
605.18	2154.33
605.53	2147.42
605.87	2140.23
606.22	2133.32
606.57	2125.39
606.92	2117.37
607.27	2110.48
607.62	2104.00
607.96	2096.96
608.31	2090.71
608.66	2082.82
609.01	2074.94
609.36	2067.77
609.70	2060.16
610.05	2052.34
610.40	2043.92
610.75	2035.54
611.10	2027.60
611.44	2018.65
611.79	2009.88
612.14	1999.89
612.49	1989.18
612.83	1979.69
613.18	1970.48
613.53	1961.10
613.88	1951.45
614.22	1942.79
614.57	1932.99
614.92	1922.31
615.27	1912.11
615.61	1901.89
615.96	1892.26
616.31	1882.61
616.65	1873.04
617.00	1863.44
617.35	1853.71
617.70	1844.12
618.04	1834.23
618.39	1824.11
618.74	1814.55
619.08	1804.99
619.43	1796.26
619.78	1788.11
620.12	1779.60
620.47	1770.08
620.82	1759.65
621.16	1749.96
621.51	1740.18
621.85	1730.34
622.20	1720.04
622.55	1709.53
622.89	1699.61
623.24	1690.06
623.59	1680.30
623.93	1670.32
624.28	1660.39
624.62	1650.49
624.97	1640.22
625.32	1630.43
625.66	1621.59
626.01	1612.92
626.35	1603.72
626.70	1593.70
627.04	1583.72
627.39	1573.56
627.73	1564.28
628.08	1555.70
628.43	1546.13
628.77	1536.91
629.12	1527.98
629.46	1520.17
629.81	1511.96
630.15	1502.65
630.50	1492.81
630.84	1482.43
631.19	1472.55
631.53	1463.34
631.88	1453.31
632.22	1443.43
632.57	1434.17
632.91	1424.29
633.26	1414.33
633.60	1404.68
633.95	1395.54
634.29	1385.94
634.64	1376.67
634.98	1366.75
635.32	1357.40
635.67	1349.08
636.01	1339.85
636.36	1330.23
636.70	1320.76
637.05	1311.33
637.39	1302.32
637.73	1293.81
638.08	1286.37
638.42	1278.33
638.77	1269.64
639.11	1261.32
639.45	1253.57
639.80	1245.04
640.14	1236.26
640.49	1227.57
640.83	1218.75
641.17	1210.52
641.52	1202.41
641.86	1193.99
642.20	1186.19
642.55	1177.56
642.89	1168.62
643.23	1160.10
643.58	1151.99
643.92	1142.89
644.26	1134.21
644.61	1125.88
644.95	1117.07
645.29	1107.88
645.64	1098.73
645.98	1090.13
646.32	1082.25
646.66	1073.69
647.01	1065.40
647.35	1057.30
647.69	1048.99
648.04	1040.90
648.38	1032.07
648.72	1023.43
649.06	1014.96
649.41	1006.69
649.75	998.80
650.09	991.04
650.43	982.97
650.78	974.67
651.12	966.99
651.46	959.64
651.80	952.35
652.14	945.08
652.49	937.58
652.83	930.22
653.17	922.56
653.51	914.90
653.85	907.64
654.20	900.35
654.54	892.95
654.88	885.70
655.22	878.41
655.56	871.40
655.90	864.57
656.25	857.86
656.59	851.02
656.93	843.99
657.27	836.77
657.61	829.80
657.95	823.70
658.29	817.79
658.64	811.63
658.98	805.17
659.32	798.63
659.66	792.35
660.00	786.05
660.34	780.05
660.68	773.94
661.02	767.60
661.36	761.62
661.70	755.82
662.05	750.16
662.39	744.58
662.73	739.19
663.07	733.81
663.41	728.23
663.75	722.44
664.09	716.66
664.43	711.24
664.77	705.90
665.11	700.10
665.45	694.23
665.79	688.41
666.13	682.69
666.47	677.10
666.81	671.52
667.15	666.07
667.49	660.79
667.83	655.52
668.17	650.22
668.51	645.07
668.85	640.08
669.19	635.13
669.53	630.14
669.87	624.96
670.21	620.13
670.55	615.45
670.89	611.00
671.23	606.73
671.57	602.26
671.91	597.84
672.25	593.63
672.58	589.48
672.92	585.40
673.26	581.43
673.60	577.56
673.94	573.76
674.28	570.17
674.62	566.41
674.96	562.63
675.30	559.16
675.64	555.46
675.97	551.81
676.31	548.20
676.65	544.59
676.99	541.18
677.33	537.35
677.67	533.59
678.01	529.68
678.34	525.99
678.68	522.52
679.02	518.98
679.36	515.25
679.70	511.60
680.04	508.02
680.37	504.48
680.71	501.11
681.05	497.86
681.39	494.53
681.73	491.30
682.06	488.23
682.40	485.02
682.74	481.81
683.08	478.57
683.42	475.31
683.75	472.22
684.09	469.16
684.43	466.30
684.77	463.36
685.10	460.47
685.44	457.54
685.78	454.53
686.12	451.69
686.45	448.88
686.79	446.14
687.13	443.55
687.46	440.98
687.80	438.28
688.14	435.44
688.48	432.74
688.81	430.01
689.15	427.40
689.49	424.77
689.82	422.21
690.16	419.63
690.50	417.11
690.83	414.58
691.17	411.98
691.51	409.49
691.84	407.18
692.18	404.94
692.52	402.72
692.85	400.59
693.19	398.40
693.52	396.26
693.86	394.00
694.20	391.74
694.53	389.51
694.87	387.27
695.21	385.13
695.54	382.98
695.88	380.78
696.21	378.49
696.55	376.37
696.88	374.25
697.22	372.22
697.56	370.32
697.89	368.40
698.23	366.56
698.56	364.68
698.90	362.87
699.23	360.97
699.57	359.01
699.90	357.08
700.24	355.25
700.58	353.45
700.91	351.77
701.25	350.20
701.58	348.58
701.92	346.96
702.25	345.33
702.59	343.67
702.92	342.12
703.26	340.56
703.59	339.06
703.93	337.75
704.26	336.26
704.60	334.73
704.93	333.26
705.26	331.79
705.60	330.33
705.93	328.78
706.27	327.43
706.60	326.16
706.94	324.92
707.27	323.49
707.61	322.13
707.94	320.76
708.27	319.26
708.61	317.77
708.94	316.37
709.28	315.02
709.61	313.75
709.94	312.52
710.28	311.30
710.61	310.04
710.95	308.63
711.28	307.54
711.61	306.34
711.95	305.17
712.28	303.94
712.61	302.70
712.95	301.60
713.28	300.53
713.61	299.33
713.95	298.15
714.28	297.15
714.61	296.10
714.95	294.99
715.28	293.92
715.61	292.86
715.95	291.88
716.28	290.92
716.61	289.89
716.95	288.87
717.28	287.93
717.61	286.94
717.94	286.01
718.28	284.98
718.61	284.08
718.94	283.13
719.27	282.24
719.61	281.43
719.94	280.55
720.27	279.58
720.60	278.72
720.94	277.86
721.27	277.06
721.60	276.33
721.93	275.61
722.27	274.92
722.60	274.27
722.93	273.53
723.26	272.83
723.59	272.12
723.93	271.45
724.26	270.77
724.59	270.12
724.92	269.53
725.25	268.97
725.59	268.37
725.92	267.82
726.25	267.24
726.58	266.60
726.91	265.99
727.24	265.42
727.57	264.83
727.91	264.22
728.24	263.65
728.57	263.03
728.90	262.48
729.23	261.87
729.56	261.41
729.89	260.87
730.22	260.29
730.55	259.78
730.89	259.22
731.22	258.70
731.55	258.18
731.88	257.64
732.21	257.05
732.54	256.47
732.87	255.96
733.20	255.47
733.53	255.01
733.86	254.56
734.19	254.08
734.52	253.68
734.85	253.43
735.18	252.94
735.51	252.55
735.84	252.10
736.17	251.71
736.50	251.16
736.83	250.98
737.16	250.57
737.49	250.13
737.82	249.74
738.15	249.33
738.48	248.91
738.81	248.51
739.14	248.10
739.47	247.70
739.80	247.30
740.13	246.96
740.46	246.57
740.79	246.20
741.12	245.81
741.45	245.39
741.78	244.88
742.11	244.58
742.44	244.17
742.77	243.89
743.10	243.53
743.43	243.15
743.75	242.57
744.08	242.51
744.41	242.16
744.74	241.80
745.07	241.41
745.40	241.14
745.73	240.84
746.06	240.51
746.39	240.23
746.71	239.91
747.04	239.51
747.37	239.15
747.70	238.83
748.03	238.52
748.36	238.26
748.68	237.95
749.01	237.59
749.34	237.30
749.67	236.96
750.00	236.71
750.33	236.59
750.65	236.33
750.98	235.78
751.31	235.55
751.64	235.30
751.97	235.20
752.29	234.91
752.62	234.59
752.95	234.36
753.28	234.06
753.60	233.78
753.93	233.60
754.26	233.41
754.59	233.14
754.91	232.89
755.24	232.64
755.57	232.39
755.90	232.20
756.22	231.94
756.55	231.69
756.88	231.45
757.20	231.10
757.53	230.82
757.86	230.60
758.19	230.38
758.51	230.17
758.84	229.85
759.17	229.61
759.49	229.47
759.82	229.35
760.15	229.22
760.47	229.04
760.80	228.81
761.13	228.65
761.45	228.46
761.78	228.28
762.11	228.13
762.43	227.95
762.76	227.76
763.08	227.61
763.41	227.49
763.74	227.31
764.06	227.14
764.39	226.99
764.71	226.87
765.04	226.69
765.37	226.54
765.69	226.35
766.02	226.22
766.34	226.03
766.67	225.84
767.00	225.72
767.32	225.70
767.65	225.68
767.97	225.54
768.30	225.42
768.62	225.28
768.95	225.12
769.27	225.01
769.60	224.90
769.92	224.75
770.25	224.58
770.57	224.40
770.90	224.27
771.22	224.13
771.55	224.00
771.87	223.89
772.20	223.72
772.52	223.80
772.85	223.93
773.17	223.82
773.50	223.70
773.82	223.54
774.15	223.35
774.47	223.10
774.80	222.98
775.12	222.85
775.45	222.73
775.77	222.65
776.09	222.57
776.42	222.49
776.74	222.43
777.07	222.34
777.39	222.27
777.72	222.18
778.04	222.13
778.36	222.01
778.69	221.99
779.01	221.96
779.33	221.69
779.66	221.39
779.98	221.30
780.31	221.23
780.63	221.25
780.95	221.18
781.28	221.10
781.60	221.01
781.92	220.97
782.25	220.91
782.57	220.87
782.89	220.77
783.22	220.65
783.54	220.56
783.86	220.51
784.19	220.46
784.51	220.46
784.83	220.40
785.16	220.31
785.48	220.23
785.80	220.17
786.12	220.14
