SpectraSuite Data File
++++++++++++++++++++++++++++++++++++
Date: Tue Jan 29 15:53:56 EST 2013
User: group
Dark Spectrum Present: No
Reference Spectrum Present: No
Number of Sampled Component Spectra: 1
Spectrometers: USB2E7196
Integration Time (usec): 65000 (USB2E7196)
Spectra Averaged: 100 (USB2E7196)
Boxcar Smoothing: 10 (USB2E7196)
Correct for Electrical Dark: No (USB2E7196)
Strobe/Lamp Enabled: No (USB2E7196)
Correct for Detector Non-linearity: No (USB2E7196)
Correct for Stray Light: No (USB2E7196)
Number of Pixels in Processed Spectrum: 2048
>>>>>Begin Processed Spectral Data<<<<<
339.09	0.00
339.48	203.10
339.86	204.56
340.24	205.61
340.63	207.40
341.01	211.72
341.39	210.10
341.78	211.52
342.16	213.65
342.54	213.27
342.93	202.39
343.31	212.59
343.69	213.15
344.07	213.61
344.46	214.08
344.84	214.47
345.22	214.64
345.60	214.92
345.99	215.11
346.37	215.22
346.75	215.33
347.13	215.40
347.52	215.47
347.90	215.58
348.28	215.61
348.66	215.68
349.05	215.64
349.43	215.69
349.81	215.75
350.19	215.77
350.57	215.83
350.96	215.94
351.34	216.06
351.72	216.14
352.10	216.24
352.48	216.26
352.87	216.31
353.25	216.35
353.63	216.39
354.01	216.44
354.39	216.51
354.77	216.57
355.15	216.72
355.54	216.74
355.92	216.70
356.30	216.81
356.68	216.96
357.06	217.05
357.44	217.07
357.82	217.15
358.20	217.27
358.58	217.31
358.97	217.34
359.35	217.42
359.73	217.51
360.11	217.52
360.49	217.62
360.87	217.66
361.25	217.76
361.63	217.86
362.01	217.92
362.39	217.93
362.77	217.99
363.15	217.98
363.53	218.01
363.91	218.05
364.29	218.05
364.67	217.90
365.05	217.90
365.43	217.91
365.81	217.93
366.19	217.98
366.57	218.04
366.95	218.04
367.33	217.99
367.71	218.01
368.09	218.07
368.47	218.05
368.85	218.03
369.23	218.05
369.61	217.97
369.99	218.04
370.37	218.05
370.75	218.11
371.13	218.07
371.51	218.01
371.89	218.05
372.27	218.01
372.65	217.99
373.03	217.96
373.41	217.97
373.78	217.94
374.16	217.82
374.54	217.74
374.92	217.69
375.30	217.67
375.68	217.61
376.06	217.61
376.44	217.56
376.82	217.56
377.19	217.54
377.57	217.51
377.95	217.38
378.33	217.36
378.71	217.19
379.09	217.17
379.47	217.15
379.84	217.05
380.22	217.02
380.60	216.94
380.98	216.88
381.36	216.83
381.73	216.77
382.11	216.77
382.49	216.73
382.87	216.67
383.25	216.64
383.62	216.78
384.00	216.69
384.38	216.69
384.76	216.68
385.13	216.72
385.51	216.65
385.89	216.60
386.27	216.57
386.64	216.56
387.02	216.50
387.40	216.48
387.78	216.48
388.15	216.49
388.53	216.47
388.91	216.46
389.29	216.42
389.66	216.42
390.04	216.39
390.42	216.43
390.79	216.41
391.17	216.37
391.55	216.14
391.92	216.10
392.30	216.10
392.68	216.05
393.05	216.00
393.43	216.01
393.81	216.04
394.18	215.98
394.56	216.00
394.94	216.09
395.31	216.07
395.69	216.14
396.06	216.13
396.44	216.16
396.82	216.16
397.19	216.29
397.57	216.29
397.95	216.33
398.32	216.29
398.70	216.39
399.07	216.46
399.45	216.51
399.82	216.59
400.20	216.61
400.58	216.68
400.95	216.63
401.33	216.75
401.70	216.97
402.08	217.07
402.45	217.18
402.83	217.28
403.20	217.38
403.58	217.47
403.95	217.62
404.33	217.78
404.71	217.95
405.08	218.18
405.46	218.34
405.83	218.53
406.21	218.74
406.58	218.96
406.96	219.17
407.33	219.44
407.70	219.74
408.08	220.20
408.45	220.51
408.83	220.96
409.20	221.27
409.58	221.54
409.95	221.94
410.33	222.40
410.70	222.81
411.08	223.36
411.45	223.89
411.82	224.45
412.20	225.09
412.57	225.88
412.95	226.40
413.32	227.21
413.69	228.00
414.07	228.84
414.44	229.78
414.82	230.77
415.19	231.88
415.56	232.96
415.94	234.06
416.31	235.41
416.68	236.70
417.06	238.29
417.43	239.74
417.81	241.43
418.18	243.13
418.55	244.94
418.93	246.89
419.30	248.91
419.67	251.05
420.04	253.22
420.42	255.48
420.79	258.21
421.16	260.86
421.54	263.62
421.91	266.49
422.28	269.40
422.66	272.55
423.03	275.71
423.40	278.98
423.77	282.39
424.15	285.90
424.52	289.57
424.89	293.53
425.26	297.41
425.64	301.15
426.01	305.26
426.38	309.54
426.75	313.88
427.13	318.39
427.50	323.14
427.87	328.11
428.24	333.10
428.61	337.86
428.99	343.15
429.36	348.91
429.73	354.54
430.10	360.16
430.47	365.95
430.85	371.93
431.22	378.29
431.59	385.13
431.96	391.59
432.33	398.82
432.70	405.76
433.08	413.94
433.45	421.66
433.82	429.32
434.19	437.86
434.56	446.20
434.93	454.21
435.30	462.11
435.68	470.80
436.05	479.38
436.42	487.90
436.79	495.72
437.16	504.04
437.53	512.95
437.90	521.78
438.27	530.34
438.64	539.20
439.01	547.38
439.38	554.65
439.75	561.70
440.13	569.67
440.50	577.30
440.87	583.43
441.24	589.73
441.61	596.68
441.98	601.76
442.35	607.77
442.72	613.68
443.09	619.47
443.46	623.04
443.83	625.44
444.20	627.52
444.57	630.48
444.94	631.86
445.31	633.14
445.68	634.32
446.05	634.82
446.42	633.97
446.79	633.05
447.16	631.95
447.53	631.15
447.90	627.93
448.27	624.70
448.64	620.21
449.01	617.00
449.37	611.39
449.74	605.95
450.11	599.32
450.48	592.31
450.85	585.10
451.22	578.94
451.59	573.10
451.96	567.48
452.33	559.98
452.70	553.19
453.07	545.16
453.43	536.95
453.80	529.09
454.17	521.53
454.54	514.32
454.91	506.54
455.28	498.98
455.65	491.97
456.02	484.85
456.38	478.88
456.75	471.46
457.12	465.21
457.49	459.06
457.86	453.23
458.23	448.14
458.59	442.64
458.96	436.96
459.33	431.92
459.70	426.86
460.07	422.81
460.43	418.22
460.80	413.83
461.17	410.09
461.54	406.11
461.91	402.31
462.27	398.38
462.64	395.14
463.01	391.56
463.38	388.06
463.74	384.58
464.11	381.49
464.48	378.75
464.85	375.79
465.21	373.46
465.58	370.96
465.95	367.98
466.32	365.47
466.68	362.96
467.05	360.49
467.42	358.06
467.78	355.53
468.15	353.14
468.52	351.42
468.88	349.06
469.25	347.00
469.62	345.26
469.98	343.45
470.35	341.75
470.72	340.13
471.08	338.44
471.45	336.98
471.82	335.55
472.18	334.04
472.55	332.93
472.92	331.65
473.28	330.51
473.65	329.43
474.02	328.37
474.38	327.55
474.75	326.85
475.11	326.11
475.48	325.58
475.85	325.12
476.21	324.65
476.58	324.34
476.94	324.12
477.31	323.90
477.67	323.69
478.04	323.59
478.41	323.56
478.77	323.70
479.14	323.72
479.50	323.88
479.87	324.17
480.23	324.51
480.60	324.78
480.96	325.09
481.33	325.72
481.69	326.32
482.06	326.88
482.42	327.39
482.79	328.00
483.15	328.79
483.52	329.72
483.88	330.59
484.25	331.50
484.61	332.51
484.98	333.57
485.34	334.90
485.71	336.24
486.07	337.71
486.44	339.05
486.80	340.65
487.17	342.26
487.53	344.05
487.90	345.93
488.26	347.96
488.62	350.06
488.99	352.02
489.35	354.20
489.72	356.59
490.08	359.08
490.44	361.62
490.81	364.37
491.17	367.06
491.54	370.01
491.90	373.07
492.26	376.30
492.63	379.67
492.99	383.10
493.36	386.80
493.72	390.66
494.08	394.63
494.45	398.83
494.81	403.26
495.17	407.68
495.54	412.35
495.90	417.15
496.26	422.11
496.63	427.38
496.99	432.71
497.35	438.26
497.72	444.09
498.08	450.03
498.44	456.03
498.80	462.40
499.17	468.94
499.53	475.61
499.89	482.47
500.26	489.42
500.62	496.52
500.98	503.87
501.34	511.27
501.71	518.96
502.07	526.71
502.43	534.57
502.79	542.69
503.16	551.03
503.52	559.54
503.88	568.13
504.24	576.98
504.60	585.98
504.97	595.13
505.33	604.30
505.69	614.12
506.05	623.93
506.41	633.79
506.78	643.75
507.14	653.99
507.50	664.40
507.86	675.07
508.22	685.72
508.59	696.28
508.95	707.33
509.31	718.58
509.67	730.02
510.03	741.44
510.39	753.14
510.75	764.89
511.12	776.70
511.48	788.74
511.84	800.85
512.20	813.13
512.56	825.64
512.92	838.28
513.28	850.68
513.64	863.28
514.00	875.94
514.37	888.75
514.73	901.62
515.09	914.31
515.45	926.99
515.81	939.86
516.17	953.01
516.53	966.05
516.89	978.93
517.25	991.88
517.61	1005.12
517.97	1018.13
518.33	1030.99
518.69	1044.26
519.05	1057.72
519.41	1071.23
519.77	1084.77
520.13	1097.82
520.49	1110.64
520.85	1123.82
521.21	1136.85
521.57	1150.24
521.93	1163.12
522.29	1176.60
522.65	1190.03
523.01	1203.28
523.37	1216.12
523.73	1229.11
524.09	1241.89
524.45	1254.95
524.81	1268.03
525.17	1280.94
525.53	1293.82
525.89	1306.86
526.25	1319.57
526.61	1332.07
526.97	1344.68
527.33	1357.17
527.68	1370.28
528.04	1383.46
528.40	1396.16
528.76	1409.13
529.12	1421.61
529.48	1434.36
529.84	1446.09
530.20	1458.43
530.56	1470.65
530.91	1483.52
531.27	1495.94
531.63	1508.35
531.99	1520.70
532.35	1532.54
532.71	1544.63
533.07	1557.11
533.42	1568.70
533.78	1580.43
534.14	1591.99
534.50	1602.63
534.86	1613.87
535.21	1624.26
535.57	1635.30
535.93	1646.20
536.29	1656.95
536.65	1667.94
537.00	1678.55
537.36	1689.40
537.72	1699.84
538.08	1710.78
538.44	1721.20
538.79	1731.83
539.15	1742.19
539.51	1752.46
539.87	1763.39
540.22	1773.75
540.58	1784.14
540.94	1794.69
541.29	1804.56
541.65	1813.98
542.01	1824.38
542.37	1834.06
542.72	1843.97
543.08	1853.26
543.44	1863.28
543.79	1872.19
544.15	1881.17
544.51	1890.70
544.87	1900.33
545.22	1909.17
545.58	1917.71
545.94	1926.15
546.29	1934.21
546.65	1942.19
547.01	1949.96
547.36	1956.99
547.72	1964.28
548.07	1971.56
548.43	1978.98
548.79	1986.46
549.14	1994.16
549.50	2002.04
549.86	2009.46
550.21	2016.38
550.57	2023.78
550.92	2030.15
551.28	2037.18
551.64	2044.16
551.99	2051.27
552.35	2058.05
552.70	2064.56
553.06	2070.82
553.41	2076.92
553.77	2083.22
554.13	2089.40
554.48	2096.26
554.84	2103.24
555.19	2109.65
555.55	2115.77
555.90	2121.74
556.26	2128.29
556.61	2134.12
556.97	2138.76
557.32	2144.60
557.68	2150.81
558.03	2156.43
558.39	2161.64
558.74	2167.51
559.10	2173.10
559.45	2178.64
559.81	2184.08
560.16	2189.76
560.52	2195.59
560.87	2201.94
561.23	2207.90
561.58	2214.54
561.94	2219.71
562.29	2224.55
562.64	2230.64
563.00	2236.39
563.35	2242.18
563.71	2247.98
564.06	2253.47
564.42	2259.50
564.77	2264.39
565.12	2269.60
565.48	2274.74
565.83	2280.09
566.19	2285.45
566.54	2290.78
566.89	2295.40
567.25	2300.08
567.60	2305.58
567.96	2310.90
568.31	2315.46
568.66	2319.67
569.02	2323.53
569.37	2327.23
569.72	2331.62
570.08	2335.09
570.43	2338.13
570.78	2341.12
571.14	2343.82
571.49	2347.18
571.84	2350.79
572.20	2353.76
572.55	2356.89
572.90	2359.38
573.26	2362.61
573.61	2365.42
573.96	2367.70
574.31	2369.80
574.67	2371.85
575.02	2372.93
575.37	2374.41
575.72	2375.35
576.08	2377.01
576.43	2377.37
576.78	2378.20
577.13	2380.08
577.49	2381.45
577.84	2382.87
578.19	2384.53
578.54	2385.46
578.90	2386.66
579.25	2386.91
579.60	2387.25
579.95	2386.88
580.30	2387.35
580.66	2386.83
581.01	2385.29
581.36	2383.31
581.71	2382.32
582.06	2381.56
582.42	2381.07
582.77	2379.27
583.12	2378.09
583.47	2377.17
583.82	2376.86
584.17	2375.91
584.53	2374.02
584.88	2372.18
585.23	2370.71
585.58	2368.69
585.93	2366.73
586.28	2364.70
586.63	2362.67
586.98	2360.80
587.34	2359.31
587.69	2357.02
588.04	2355.48
588.39	2354.41
588.74	2352.29
589.09	2350.13
589.44	2347.26
589.79	2345.03
590.14	2343.45
590.49	2340.90
590.84	2337.50
591.19	2334.94
591.54	2332.14
591.89	2328.27
592.25	2325.41
592.60	2321.53
592.95	2317.71
593.30	2313.93
593.65	2309.75
594.00	2305.52
594.35	2302.69
594.70	2298.05
595.05	2293.71
595.40	2288.43
595.75	2283.17
596.10	2279.67
596.45	2274.84
596.80	2270.46
597.15	2265.41
597.50	2259.54
597.85	2254.65
598.19	2249.28
598.54	2243.44
598.89	2238.34
599.24	2234.14
599.59	2228.24
599.94	2222.64
600.29	2216.94
600.64	2211.08
600.99	2204.61
601.34	2199.32
601.69	2192.36
602.04	2186.25
602.39	2179.83
602.74	2173.72
603.08	2168.15
603.43	2161.75
603.78	2155.18
604.13	2148.23
604.48	2141.20
604.83	2135.35
605.18	2129.22
605.53	2122.55
605.87	2115.75
606.22	2109.07
606.57	2101.32
606.92	2093.59
607.27	2086.63
607.62	2080.15
607.96	2073.46
608.31	2067.14
608.66	2059.39
609.01	2052.02
609.36	2045.02
609.70	2037.53
610.05	2030.02
610.40	2021.97
610.75	2013.87
611.10	2006.11
611.44	1997.44
611.79	1988.93
612.14	1979.03
612.49	1968.67
612.83	1959.59
613.18	1950.54
613.53	1941.38
613.88	1931.81
614.22	1923.24
614.57	1913.48
614.92	1903.06
615.27	1893.06
615.61	1882.99
615.96	1873.47
616.31	1864.02
616.65	1854.60
617.00	1844.81
617.35	1835.18
617.70	1825.33
618.04	1815.27
618.39	1805.12
618.74	1795.40
619.08	1785.82
619.43	1777.10
619.78	1768.81
620.12	1760.07
620.47	1750.29
620.82	1740.06
621.16	1730.37
621.51	1720.31
621.85	1710.33
622.20	1699.79
622.55	1689.06
622.89	1679.26
623.24	1669.56
623.59	1659.66
623.93	1649.63
624.28	1639.83
624.62	1629.74
624.97	1619.44
625.32	1609.74
625.66	1600.87
626.01	1592.15
626.35	1582.63
626.70	1572.61
627.04	1562.42
627.39	1552.37
627.73	1543.12
628.08	1533.87
628.43	1524.27
628.77	1515.15
629.12	1506.46
629.46	1498.70
629.81	1490.36
630.15	1480.82
630.50	1470.94
630.84	1460.52
631.19	1450.57
631.53	1441.26
631.88	1431.01
632.22	1421.09
632.57	1411.70
632.91	1401.59
633.26	1391.72
633.60	1382.20
633.95	1372.72
634.29	1363.38
634.64	1354.06
634.98	1344.13
635.32	1335.01
635.67	1326.51
636.01	1317.14
636.36	1307.29
636.70	1297.70
637.05	1288.24
637.39	1279.28
637.73	1270.73
638.08	1263.24
638.42	1254.99
638.77	1246.17
639.11	1238.03
639.45	1230.20
639.80	1221.59
640.14	1212.92
640.49	1204.02
640.83	1195.22
641.17	1187.30
641.52	1179.13
641.86	1170.53
642.20	1162.64
642.55	1153.89
642.89	1144.95
643.23	1136.32
643.58	1128.24
643.92	1119.23
644.26	1110.70
644.61	1102.32
644.95	1093.45
645.29	1084.18
645.64	1075.01
645.98	1066.66
646.32	1058.67
646.66	1050.17
647.01	1041.80
647.35	1033.61
647.69	1025.31
648.04	1016.96
648.38	1008.01
648.72	999.14
649.06	990.74
649.41	982.57
649.75	974.77
650.09	966.92
650.43	958.99
650.78	950.79
651.12	943.19
651.46	935.77
651.80	928.48
652.14	921.28
652.49	913.84
652.83	906.66
653.17	898.95
653.51	891.44
653.85	884.26
654.20	877.07
654.54	869.67
654.88	862.56
655.22	855.45
655.56	848.62
655.90	842.04
656.25	835.43
656.59	828.70
656.93	821.74
657.27	814.77
657.61	807.94
657.95	801.91
658.29	796.03
658.64	789.85
658.98	783.43
659.32	776.94
659.66	770.70
660.00	764.36
660.34	758.45
660.68	752.40
661.02	746.23
661.36	740.40
661.70	734.68
662.05	729.05
662.39	723.67
662.73	718.30
663.07	712.94
663.41	707.42
663.75	701.73
664.09	696.22
664.43	690.88
664.77	685.57
665.11	679.80
665.45	673.97
665.79	668.36
666.13	662.81
666.47	657.38
666.81	652.14
667.15	646.89
667.49	641.70
667.83	636.52
668.17	631.34
668.51	626.29
668.85	621.48
669.19	616.72
669.53	611.83
669.87	606.81
670.21	602.16
670.55	597.57
670.89	593.26
671.23	589.01
671.57	584.70
671.91	580.48
672.25	576.42
672.58	572.42
672.92	568.48
673.26	564.59
673.60	560.82
673.94	556.99
674.28	553.40
674.62	549.75
674.96	546.12
675.30	542.67
675.64	539.11
675.97	535.57
676.31	532.06
676.65	528.49
676.99	525.10
677.33	521.36
677.67	517.74
678.01	513.95
678.34	510.34
678.68	506.88
679.02	503.38
679.36	499.79
679.70	496.28
680.04	492.75
680.37	489.45
680.71	486.22
681.05	483.17
681.39	480.05
681.73	476.98
682.06	474.05
682.40	470.95
682.74	467.81
683.08	464.69
683.42	461.56
683.75	458.65
684.09	455.71
684.43	452.96
684.77	450.11
685.10	447.33
685.44	444.48
685.78	441.63
686.12	438.96
686.45	436.26
686.79	433.61
687.13	431.18
687.46	428.60
687.80	426.02
688.14	423.25
688.48	420.63
688.81	418.02
689.15	415.51
689.49	413.02
689.82	410.59
690.16	408.07
690.50	405.74
690.83	403.28
691.17	400.88
691.51	398.46
691.84	396.32
692.18	394.19
692.52	392.05
692.85	390.05
693.19	387.98
693.52	385.92
693.86	383.82
694.20	381.68
694.53	379.64
694.87	377.50
695.21	375.46
695.54	373.43
695.88	371.31
696.21	369.19
696.55	367.16
696.88	365.18
697.22	363.31
697.56	361.49
697.89	359.74
698.23	358.02
698.56	356.31
698.90	354.61
699.23	352.78
699.57	351.00
699.90	349.14
700.24	347.39
700.58	345.71
700.91	344.09
701.25	342.59
701.58	341.01
701.92	339.43
702.25	337.89
702.59	336.34
702.92	334.89
703.26	333.35
703.59	331.93
703.93	330.67
704.26	329.34
704.60	327.86
704.93	326.37
705.26	324.89
705.60	323.49
705.93	322.00
706.27	320.71
706.60	319.52
706.94	318.37
707.27	317.01
707.61	315.74
707.94	314.44
708.27	312.96
708.61	311.59
708.94	310.30
709.28	309.03
709.61	307.83
709.94	306.67
710.28	305.51
710.61	304.39
710.95	303.07
711.28	301.98
711.61	300.83
711.95	299.80
712.28	298.65
712.61	297.53
712.95	296.53
713.28	295.54
713.61	294.39
713.95	293.30
714.28	292.31
714.61	291.26
714.95	290.29
715.28	289.34
715.61	288.40
715.95	287.51
716.28	286.65
716.61	285.77
716.95	284.83
717.28	283.95
717.61	282.99
717.94	282.11
718.28	281.13
718.61	280.30
718.94	279.40
719.27	278.60
719.61	277.81
719.94	276.96
720.27	276.05
720.60	275.29
720.94	274.49
721.27	273.77
721.60	273.11
721.93	272.41
722.27	271.78
722.60	271.10
722.93	270.41
723.26	269.75
723.59	269.05
723.93	268.45
724.26	267.83
724.59	267.24
724.92	266.66
725.25	266.15
725.59	265.57
725.92	265.11
726.25	264.59
726.58	264.06
726.91	263.48
727.24	262.97
727.57	262.41
727.91	261.86
728.24	261.36
728.57	260.80
728.90	260.26
729.23	259.71
729.56	259.35
729.89	258.85
730.22	258.27
730.55	257.77
730.89	257.25
731.22	256.75
731.55	256.24
731.88	255.73
732.21	255.16
732.54	254.67
732.87	254.16
733.20	253.71
733.53	253.23
733.86	252.84
734.19	252.33
734.52	251.92
734.85	251.64
735.18	251.18
735.51	250.84
735.84	250.41
736.17	250.03
736.50	249.47
736.83	249.32
737.16	248.99
737.49	248.63
737.82	248.27
738.15	247.92
738.48	247.59
738.81	247.26
739.14	246.92
739.47	246.57
739.80	246.17
740.13	245.86
740.46	245.50
740.79	245.13
741.12	244.82
741.45	244.46
741.78	244.04
742.11	243.76
742.44	243.40
742.77	243.15
743.10	242.84
743.43	242.53
743.75	241.97
744.08	241.89
744.41	241.50
744.74	241.15
745.07	240.80
745.40	240.49
745.73	240.27
746.06	239.97
746.39	239.66
746.71	239.33
747.04	238.98
747.37	238.65
747.70	238.36
748.03	238.08
748.36	237.84
748.68	237.56
749.01	237.23
749.34	236.90
749.67	236.61
750.00	236.34
750.33	236.21
750.65	235.97
750.98	235.47
751.31	235.27
751.64	235.04
751.97	234.94
752.29	234.68
752.62	234.31
752.95	234.05
753.28	233.80
753.60	233.56
753.93	233.41
754.26	233.22
754.59	232.97
754.91	232.74
755.24	232.50
755.57	232.24
755.90	232.00
756.22	231.77
756.55	231.55
756.88	231.29
757.20	230.98
757.53	230.74
757.86	230.58
758.19	230.36
758.51	230.19
758.84	229.90
759.17	229.72
759.49	229.59
759.82	229.52
760.15	229.37
760.47	229.22
760.80	228.96
761.13	228.81
761.45	228.63
761.78	228.45
762.11	228.29
762.43	228.15
762.76	228.01
763.08	227.91
763.41	227.75
763.74	227.63
764.06	227.48
764.39	227.33
764.71	227.16
765.04	227.04
765.37	226.88
765.69	226.73
766.02	226.57
766.34	226.41
766.67	226.19
767.00	226.13
767.32	226.14
767.65	226.13
767.97	226.00
768.30	225.87
768.62	225.75
768.95	225.63
769.27	225.51
769.60	225.41
769.92	225.24
770.25	225.09
770.57	224.95
770.90	224.80
771.22	224.70
771.55	224.58
771.87	224.49
772.20	224.37
772.52	224.46
772.85	224.61
773.17	224.48
773.50	224.37
773.82	224.23
774.15	224.02
774.47	223.82
774.80	223.68
775.12	223.59
775.45	223.51
775.77	223.43
776.09	223.36
776.42	223.27
776.74	223.27
777.07	223.18
777.39	223.11
777.72	223.03
778.04	222.97
778.36	222.90
778.69	222.86
779.01	222.78
779.33	222.49
779.66	222.18
779.98	222.14
780.31	222.09
780.63	222.08
780.95	222.08
781.28	222.01
781.60	221.95
781.92	221.89
782.25	221.81
782.57	221.74
782.89	221.64
783.22	221.56
783.54	221.45
783.86	221.40
784.19	221.31
784.51	221.33
784.83	221.24
785.16	221.18
785.48	221.08
785.80	221.06
786.12	221.04
