SpectraSuite Data File
++++++++++++++++++++++++++++++++++++
Date: Tue Jan 29 16:43:17 EST 2013
User: group
Dark Spectrum Present: No
Reference Spectrum Present: No
Number of Sampled Component Spectra: 1
Spectrometers: USB2E7196
Integration Time (usec): 65000 (USB2E7196)
Spectra Averaged: 100 (USB2E7196)
Boxcar Smoothing: 10 (USB2E7196)
Correct for Electrical Dark: No (USB2E7196)
Strobe/Lamp Enabled: No (USB2E7196)
Correct for Detector Non-linearity: No (USB2E7196)
Correct for Stray Light: No (USB2E7196)
Number of Pixels in Processed Spectrum: 2048
>>>>>Begin Processed Spectral Data<<<<<
339.09	0.00
339.48	201.19
339.86	202.88
340.24	204.51
340.63	205.60
341.01	210.08
341.39	208.70
341.78	210.28
342.16	210.81
342.54	211.87
342.93	200.85
343.31	211.01
343.69	211.58
344.07	212.06
344.46	212.52
344.84	212.93
345.22	213.14
345.60	213.39
345.99	213.58
346.37	213.75
346.75	213.86
347.13	213.97
347.52	214.06
347.90	214.20
348.28	214.21
348.66	214.31
349.05	214.30
349.43	214.36
349.81	214.41
350.19	214.45
350.57	214.53
350.96	214.62
351.34	214.72
351.72	214.84
352.10	214.94
352.48	214.99
352.87	215.05
353.25	215.10
353.63	215.17
354.01	215.23
354.39	215.33
354.77	215.39
355.15	215.50
355.54	215.56
355.92	215.57
356.30	215.66
356.68	215.84
357.06	215.88
357.44	215.94
357.82	215.99
358.20	216.06
358.58	216.12
358.97	216.22
359.35	216.33
359.73	216.43
360.11	216.49
360.49	216.56
360.87	216.60
361.25	216.69
361.63	216.85
362.01	216.94
362.39	216.96
362.77	217.04
363.15	217.08
363.53	217.13
363.91	217.16
364.29	217.18
364.67	217.05
365.05	217.09
365.43	217.15
365.81	217.20
366.19	217.32
366.57	217.42
366.95	217.39
367.33	217.33
367.71	217.28
368.09	217.30
368.47	217.29
368.85	217.31
369.23	217.31
369.61	217.20
369.99	217.22
370.37	217.23
370.75	217.32
371.13	217.25
371.51	217.17
371.89	217.16
372.27	217.14
372.65	217.11
373.03	217.07
373.41	216.98
373.78	216.92
374.16	216.78
374.54	216.66
374.92	216.61
375.30	216.55
375.68	216.47
376.06	216.46
376.44	216.43
376.82	216.37
377.19	216.34
377.57	216.28
377.95	216.16
378.33	216.09
378.71	215.89
379.09	215.89
379.47	215.90
379.84	215.81
380.22	215.73
380.60	215.66
380.98	215.62
381.36	215.58
381.73	215.51
382.11	215.50
382.49	215.48
382.87	215.39
383.25	215.37
383.62	215.58
384.00	215.50
384.38	215.43
384.76	215.44
385.13	215.46
385.51	215.41
385.89	215.38
386.27	215.37
386.64	215.39
387.02	215.32
387.40	215.26
387.78	215.26
388.15	215.28
388.53	215.24
388.91	215.22
389.29	215.21
389.66	215.22
390.04	215.18
390.42	215.20
390.79	215.26
391.17	215.25
391.55	215.02
391.92	215.01
392.30	215.07
392.68	215.03
393.05	215.00
393.43	215.00
393.81	215.01
394.18	214.98
394.56	214.99
394.94	215.05
395.31	215.03
395.69	215.11
396.06	215.14
396.44	215.15
396.82	215.15
397.19	215.26
397.57	215.26
397.95	215.31
398.32	215.28
398.70	215.29
399.07	215.39
399.45	215.42
399.82	215.49
400.20	215.51
400.58	215.56
400.95	215.53
401.33	215.65
401.70	215.88
402.08	215.96
402.45	216.05
402.83	216.16
403.20	216.28
403.58	216.33
403.95	216.47
404.33	216.65
404.71	216.81
405.08	217.04
405.46	217.22
405.83	217.43
406.21	217.62
406.58	217.88
406.96	218.08
407.33	218.37
407.70	218.66
408.08	219.12
408.45	219.48
408.83	219.88
409.20	220.24
409.58	220.52
409.95	220.99
410.33	221.49
410.70	221.91
411.08	222.46
411.45	223.07
411.82	223.65
412.20	224.36
412.57	225.20
412.95	225.80
413.32	226.65
413.69	227.51
414.07	228.43
414.44	229.45
414.82	230.49
415.19	231.65
415.56	232.83
415.94	233.99
416.31	235.41
416.68	236.83
417.06	238.45
417.43	239.99
417.81	241.74
418.18	243.52
418.55	245.49
418.93	247.57
419.30	249.71
419.67	251.93
420.04	254.25
420.42	256.61
420.79	259.44
421.16	262.26
421.54	265.15
421.91	268.15
422.28	271.22
422.66	274.54
423.03	277.78
423.40	281.20
423.77	284.84
424.15	288.48
424.52	292.35
424.89	296.51
425.26	300.60
425.64	304.50
426.01	308.79
426.38	313.25
426.75	317.80
427.13	322.52
427.50	327.54
427.87	332.76
428.24	337.98
428.61	343.00
428.99	348.49
429.36	354.56
429.73	360.49
430.10	366.37
430.47	372.45
430.85	378.79
431.22	385.49
431.59	392.63
431.96	399.46
432.33	406.96
432.70	414.17
433.08	422.69
433.45	430.75
433.82	438.77
434.19	447.65
434.56	456.37
434.93	464.70
435.30	472.92
435.68	482.07
436.05	491.14
436.42	500.10
436.79	508.31
437.16	517.03
437.53	526.32
437.90	535.57
438.27	544.56
438.64	553.79
439.01	562.32
439.38	569.88
439.75	577.30
440.13	585.76
440.50	593.79
440.87	600.29
441.24	606.97
441.61	614.38
441.98	619.85
442.35	626.22
442.72	632.59
443.09	638.79
443.46	642.52
443.83	645.03
444.20	647.24
444.57	650.44
444.94	651.99
445.31	653.49
445.68	654.86
446.05	655.53
446.42	654.73
446.79	653.87
447.16	652.82
447.53	652.10
447.90	648.80
448.27	645.61
448.64	640.94
449.01	637.70
449.37	631.75
449.74	626.08
450.11	619.15
450.48	611.72
450.85	604.21
451.22	597.71
451.59	591.58
451.96	585.69
452.33	577.78
452.70	570.60
453.07	562.05
453.43	553.46
453.80	545.13
454.17	537.15
454.54	529.57
454.91	521.36
455.28	513.29
455.65	505.85
456.02	498.28
456.38	491.96
456.75	484.00
457.12	477.37
457.49	470.83
457.86	464.60
458.23	459.21
458.59	453.23
458.96	447.20
459.33	441.88
459.70	436.43
460.07	432.14
460.43	427.22
460.80	422.59
461.17	418.52
461.54	414.29
461.91	410.29
462.27	406.09
462.64	402.61
463.01	398.81
463.38	395.05
463.74	391.29
464.11	388.00
464.48	385.16
464.85	382.11
465.21	379.64
465.58	377.01
465.95	373.82
466.32	371.24
466.68	368.63
467.05	366.01
467.42	363.47
467.78	360.76
468.15	358.21
468.52	356.31
468.88	353.82
469.25	351.55
469.62	349.69
469.98	347.72
470.35	345.93
470.72	344.22
471.08	342.44
471.45	340.90
471.82	339.35
472.18	337.65
472.55	336.40
472.92	334.97
473.28	333.71
473.65	332.60
474.02	331.46
474.38	330.55
474.75	329.75
475.11	328.96
475.48	328.39
475.85	327.88
476.21	327.39
476.58	327.03
476.94	326.81
477.31	326.54
477.67	326.29
478.04	326.15
478.41	326.09
478.77	326.20
479.14	326.19
479.50	326.38
479.87	326.67
480.23	326.98
480.60	327.21
480.96	327.48
481.33	328.06
481.69	328.62
482.06	329.16
482.42	329.63
482.79	330.20
483.15	331.01
483.52	331.99
483.88	332.84
484.25	333.75
484.61	334.73
484.98	335.75
485.34	337.10
485.71	338.47
486.07	339.91
486.44	341.24
486.80	342.84
487.17	344.47
487.53	346.31
487.90	348.20
488.26	350.29
488.62	352.49
488.99	354.52
489.35	356.71
489.72	359.06
490.08	361.64
490.44	364.17
490.81	366.81
491.17	369.47
491.54	372.46
491.90	375.49
492.26	378.74
492.63	382.18
492.99	385.63
493.36	389.26
493.72	393.18
494.08	397.21
494.45	401.39
494.81	405.77
495.17	410.21
495.54	414.93
495.90	419.70
496.26	424.63
496.63	429.81
496.99	435.17
497.35	440.80
497.72	446.57
498.08	452.50
498.44	458.62
498.80	465.07
499.17	471.60
499.53	478.33
499.89	485.26
500.26	492.23
500.62	499.35
500.98	506.76
501.34	514.19
501.71	522.00
502.07	529.82
502.43	537.80
502.79	545.94
503.16	554.33
503.52	562.99
503.88	571.71
504.24	580.68
504.60	589.74
504.97	598.95
505.33	608.22
505.69	618.11
506.05	628.02
506.41	637.90
506.78	647.99
507.14	658.23
507.50	668.71
507.86	679.36
508.22	690.10
508.59	700.67
508.95	711.75
509.31	722.99
509.67	734.51
510.03	745.84
510.39	757.54
510.75	769.34
511.12	781.20
511.48	793.39
511.84	805.66
512.20	818.01
512.56	830.65
512.92	843.47
513.28	856.18
513.64	868.89
514.00	881.75
514.37	894.69
514.73	907.89
515.09	920.96
515.45	933.89
515.81	947.02
516.17	960.57
516.53	973.87
516.89	986.99
517.25	1000.20
517.61	1013.87
517.97	1027.31
518.33	1040.50
518.69	1054.09
519.05	1067.80
519.41	1081.52
519.77	1095.58
520.13	1108.92
520.49	1122.14
520.85	1135.55
521.21	1148.95
521.57	1162.76
521.93	1175.87
522.29	1189.66
522.65	1203.25
523.01	1216.97
523.37	1230.31
523.73	1243.62
524.09	1256.83
524.45	1270.32
524.81	1283.86
525.17	1297.37
525.53	1310.76
525.89	1324.15
526.25	1337.45
526.61	1350.41
526.97	1363.63
527.33	1376.58
527.68	1390.08
528.04	1403.60
528.40	1416.83
528.76	1430.35
529.12	1443.22
529.48	1456.64
529.84	1469.06
530.20	1481.95
530.56	1494.74
530.91	1507.95
531.27	1520.96
531.63	1533.79
531.99	1546.65
532.35	1558.95
532.71	1571.30
533.07	1584.23
533.42	1596.58
533.78	1608.72
534.14	1620.75
534.50	1632.04
534.86	1643.68
535.21	1654.71
535.57	1666.34
535.93	1677.69
536.29	1688.81
536.65	1700.33
537.00	1711.46
537.36	1722.85
537.72	1733.97
538.08	1745.35
538.44	1756.50
538.79	1767.63
539.15	1778.72
539.51	1789.64
539.87	1801.14
540.22	1812.06
540.58	1823.14
540.94	1834.19
541.29	1844.63
541.65	1854.60
542.01	1865.22
542.37	1875.42
542.72	1885.64
543.08	1895.53
543.44	1906.09
543.79	1915.49
544.15	1925.16
544.51	1935.12
544.87	1945.02
545.22	1954.20
545.58	1963.08
545.94	1971.95
546.29	1980.60
546.65	1988.96
547.01	1997.24
547.36	2004.92
547.72	2012.85
548.07	2020.33
548.43	2028.19
548.79	2036.15
549.14	2044.40
549.50	2052.90
549.86	2060.84
550.21	2068.38
550.57	2076.19
550.92	2082.98
551.28	2090.58
551.64	2097.92
551.99	2105.62
552.35	2112.99
552.70	2120.06
553.06	2126.92
553.41	2133.31
553.77	2139.88
554.13	2146.27
554.48	2153.29
554.84	2160.48
555.19	2166.95
555.55	2173.46
555.90	2179.64
556.26	2186.36
556.61	2192.52
556.97	2197.47
557.32	2203.35
557.68	2209.74
558.03	2215.61
558.39	2221.02
558.74	2226.90
559.10	2232.42
559.45	2237.83
559.81	2243.16
560.16	2248.61
560.52	2254.44
560.87	2260.76
561.23	2266.63
561.58	2273.34
561.94	2278.59
562.29	2283.15
562.64	2289.26
563.00	2294.97
563.35	2300.46
563.71	2306.07
564.06	2311.56
564.42	2317.46
564.77	2322.44
565.12	2327.61
565.48	2332.58
565.83	2338.05
566.19	2343.37
566.54	2348.62
566.89	2353.14
567.25	2357.85
567.60	2363.55
567.96	2368.57
568.31	2373.10
568.66	2377.33
569.02	2381.19
569.37	2384.83
569.72	2389.23
570.08	2392.66
570.43	2395.59
570.78	2398.79
571.14	2401.39
571.49	2404.46
571.84	2407.86
572.20	2410.67
572.55	2413.60
572.90	2415.84
573.26	2418.51
573.61	2421.08
573.96	2423.07
574.31	2425.10
574.67	2426.82
575.02	2427.44
575.37	2428.87
575.72	2429.39
576.08	2430.63
576.43	2430.60
576.78	2430.87
577.13	2432.32
577.49	2433.43
577.84	2434.38
578.19	2435.55
578.54	2435.93
578.90	2436.45
579.25	2436.22
579.60	2436.01
579.95	2435.06
580.30	2434.98
580.66	2434.23
581.01	2432.47
581.36	2429.99
581.71	2428.45
582.06	2427.00
582.42	2425.95
582.77	2423.50
583.12	2421.86
583.47	2420.37
583.82	2419.57
584.17	2418.31
584.53	2415.99
584.88	2413.59
585.23	2411.69
585.58	2409.33
585.93	2407.21
586.28	2404.95
586.63	2402.32
586.98	2400.01
587.34	2398.08
587.69	2395.35
588.04	2393.14
588.39	2391.50
588.74	2388.85
589.09	2385.84
589.44	2382.61
589.79	2380.09
590.14	2378.02
590.49	2374.96
590.84	2371.02
591.19	2367.67
591.54	2364.32
591.89	2360.14
592.25	2356.86
592.60	2352.46
592.95	2348.13
593.30	2343.93
593.65	2339.54
594.00	2335.03
594.35	2331.83
594.70	2327.00
595.05	2322.45
595.40	2316.81
595.75	2310.85
596.10	2307.18
596.45	2302.47
596.80	2297.85
597.15	2292.56
597.50	2286.64
597.85	2281.68
598.19	2276.45
598.54	2270.80
598.89	2265.46
599.24	2260.93
599.59	2254.76
599.94	2248.80
600.29	2242.79
600.64	2236.72
600.99	2229.75
601.34	2224.25
601.69	2217.23
602.04	2210.82
602.39	2204.07
602.74	2197.90
603.08	2192.41
603.43	2185.87
603.78	2178.82
604.13	2171.70
604.48	2164.22
604.83	2158.00
605.18	2151.84
605.53	2144.92
605.87	2137.88
606.22	2131.13
606.57	2123.12
606.92	2115.15
607.27	2108.29
607.62	2101.62
607.96	2094.64
608.31	2088.33
608.66	2080.48
609.01	2072.82
609.36	2065.66
609.70	2058.08
610.05	2050.38
610.40	2042.07
610.75	2033.57
611.10	2025.98
611.44	2017.11
611.79	2008.53
612.14	1998.55
612.49	1987.76
612.83	1978.21
613.18	1968.88
613.53	1959.49
613.88	1949.94
614.22	1941.33
614.57	1931.50
614.92	1920.90
615.27	1910.58
615.61	1900.29
615.96	1890.63
616.31	1881.00
616.65	1871.60
617.00	1861.93
617.35	1852.22
617.70	1842.48
618.04	1832.67
618.39	1822.41
618.74	1812.69
619.08	1803.02
619.43	1794.30
619.78	1786.12
620.12	1777.62
620.47	1768.12
620.82	1757.84
621.16	1748.04
621.51	1738.10
621.85	1728.14
622.20	1717.83
622.55	1707.40
622.89	1697.54
623.24	1687.83
623.59	1678.03
623.93	1667.86
624.28	1657.97
624.62	1648.00
624.97	1637.80
625.32	1627.98
625.66	1619.21
626.01	1610.53
626.35	1601.24
626.70	1591.30
627.04	1581.28
627.39	1571.28
627.73	1562.00
628.08	1553.08
628.43	1543.68
628.77	1534.58
629.12	1525.78
629.46	1518.08
629.81	1509.76
630.15	1500.30
630.50	1490.49
630.84	1480.19
631.19	1470.39
631.53	1461.23
631.88	1451.09
632.22	1441.17
632.57	1431.86
632.91	1421.75
633.26	1412.04
633.60	1402.56
633.95	1393.28
634.29	1383.84
634.64	1374.59
634.98	1364.64
635.32	1355.37
635.67	1346.85
636.01	1337.56
636.36	1327.87
636.70	1318.30
637.05	1309.00
637.39	1300.08
637.73	1291.66
638.08	1284.13
638.42	1276.07
638.77	1267.38
639.11	1259.21
639.45	1251.39
639.80	1242.99
640.14	1234.42
640.49	1225.52
640.83	1216.67
641.17	1208.58
641.52	1200.42
641.86	1191.82
642.20	1184.14
642.55	1175.60
642.89	1166.79
643.23	1158.20
643.58	1150.22
643.92	1141.12
644.26	1132.46
644.61	1124.09
644.95	1115.30
645.29	1106.14
645.64	1097.03
645.98	1088.38
646.32	1080.48
646.66	1072.03
647.01	1063.81
647.35	1055.70
647.69	1047.47
648.04	1039.21
648.38	1030.37
648.72	1021.69
649.06	1013.37
649.41	1004.99
649.75	997.14
650.09	989.33
650.43	981.26
650.78	972.81
651.12	965.27
651.46	957.92
651.80	950.71
652.14	943.47
652.49	935.97
652.83	928.56
653.17	921.00
653.51	913.31
653.85	906.04
654.20	898.72
654.54	891.27
654.88	883.97
655.22	876.74
655.56	869.77
655.90	862.94
656.25	856.18
656.59	849.37
656.93	842.38
657.27	835.18
657.61	828.20
657.95	822.16
658.29	816.22
658.64	810.00
658.98	803.50
659.32	796.97
659.66	790.69
660.00	784.34
660.34	778.33
660.68	772.29
661.02	765.93
661.36	759.92
661.70	754.11
662.05	748.55
662.39	743.05
662.73	737.62
663.07	732.22
663.41	726.63
663.75	720.89
664.09	715.11
664.43	709.66
664.77	704.41
665.11	698.62
665.45	692.62
665.79	686.82
666.13	681.16
666.47	675.56
666.81	670.11
667.15	664.73
667.49	659.39
667.83	654.08
668.17	648.77
668.51	643.66
668.85	638.72
669.19	633.80
669.53	628.81
669.87	623.64
670.21	618.86
670.55	614.12
670.89	609.65
671.23	605.26
671.57	600.88
671.91	596.50
672.25	592.25
672.58	588.14
672.92	584.09
673.26	580.11
673.60	576.18
673.94	572.32
674.28	568.68
674.62	564.94
674.96	561.15
675.30	557.63
675.64	553.91
675.97	550.24
676.31	546.59
676.65	543.01
676.99	539.65
677.33	535.83
677.67	532.16
678.01	528.30
678.34	524.67
678.68	521.11
679.02	517.48
679.36	513.85
679.70	510.16
680.04	506.56
680.37	503.01
680.71	499.69
681.05	496.47
681.39	493.19
681.73	490.03
682.06	487.00
682.40	483.92
682.74	480.71
683.08	477.50
683.42	474.23
683.75	471.17
684.09	468.07
684.43	465.22
684.77	462.29
685.10	459.42
685.44	456.46
685.78	453.57
686.12	450.79
686.45	448.06
686.79	445.39
687.13	442.87
687.46	440.36
687.80	437.68
688.14	434.83
688.48	432.16
688.81	429.44
689.15	426.81
689.49	424.19
689.82	421.66
690.16	419.03
690.50	416.57
690.83	414.05
691.17	411.44
691.51	408.92
691.84	406.59
692.18	404.33
692.52	402.12
692.85	399.94
693.19	397.75
693.52	395.51
693.86	393.25
694.20	391.04
694.53	388.77
694.87	386.52
695.21	384.35
695.54	382.20
695.88	380.03
696.21	377.83
696.55	375.69
696.88	373.55
697.22	371.54
697.56	369.63
697.89	367.69
698.23	365.93
698.56	364.13
698.90	362.32
699.23	360.39
699.57	358.48
699.90	356.59
700.24	354.77
700.58	353.02
700.91	351.32
701.25	349.70
701.58	348.10
701.92	346.48
702.25	344.90
702.59	343.20
702.92	341.59
703.26	339.99
703.59	338.43
703.93	337.21
704.26	335.73
704.60	334.19
704.93	332.70
705.26	331.18
705.60	329.70
705.93	328.14
706.27	326.82
706.60	325.51
706.94	324.29
707.27	322.92
707.61	321.53
707.94	320.17
708.27	318.61
708.61	317.14
708.94	315.73
709.28	314.34
709.61	313.09
709.94	311.85
710.28	310.68
710.61	309.50
710.95	308.01
711.28	306.91
711.61	305.73
711.95	304.54
712.28	303.29
712.61	302.04
712.95	301.01
713.28	299.94
713.61	298.80
713.95	297.58
714.28	296.49
714.61	295.41
714.95	294.36
715.28	293.34
715.61	292.29
715.95	291.35
716.28	290.40
716.61	289.43
716.95	288.42
717.28	287.43
717.61	286.43
717.94	285.52
718.28	284.47
718.61	283.59
718.94	282.71
719.27	281.87
719.61	281.05
719.94	280.16
720.27	279.17
720.60	278.27
720.94	277.47
721.27	276.68
721.60	275.98
721.93	275.24
722.27	274.57
722.60	273.89
722.93	273.16
723.26	272.52
723.59	271.77
723.93	271.16
724.26	270.49
724.59	269.81
724.92	269.23
725.25	268.68
725.59	268.08
725.92	267.51
726.25	266.97
726.58	266.38
726.91	265.73
727.24	265.21
727.57	264.66
727.91	264.02
728.24	263.50
728.57	262.91
728.90	262.30
729.23	261.68
729.56	261.23
729.89	260.68
730.22	260.09
730.55	259.58
730.89	258.99
731.22	258.46
731.55	257.96
731.88	257.40
732.21	256.84
732.54	256.30
732.87	255.77
733.20	255.22
733.53	254.72
733.86	254.28
734.19	253.76
734.52	253.32
734.85	253.03
735.18	252.52
735.51	252.14
735.84	251.78
736.17	251.39
736.50	250.88
736.83	250.70
737.16	250.27
737.49	249.87
737.82	249.49
738.15	249.11
738.48	248.74
738.81	248.32
739.14	247.89
739.47	247.50
739.80	247.09
740.13	246.74
740.46	246.34
740.79	245.97
741.12	245.61
741.45	245.23
741.78	244.77
742.11	244.50
742.44	244.14
742.77	243.81
743.10	243.45
743.43	243.10
743.75	242.54
744.08	242.45
744.41	242.13
744.74	241.79
745.07	241.43
745.40	241.14
745.73	240.91
746.06	240.60
746.39	240.29
746.71	239.95
747.04	239.61
747.37	239.28
747.70	238.97
748.03	238.65
748.36	238.38
748.68	238.06
749.01	237.69
749.34	237.35
749.67	237.04
750.00	236.77
750.33	236.66
750.65	236.41
750.98	235.91
751.31	235.61
751.64	235.36
751.97	235.20
752.29	234.94
752.62	234.58
752.95	234.28
753.28	233.98
753.60	233.75
753.93	233.59
754.26	233.40
754.59	233.14
754.91	232.91
755.24	232.65
755.57	232.46
755.90	232.25
756.22	232.03
756.55	231.75
756.88	231.51
757.20	231.13
757.53	230.86
757.86	230.65
758.19	230.47
758.51	230.26
758.84	229.97
759.17	229.74
759.49	229.54
759.82	229.46
760.15	229.32
760.47	229.14
760.80	228.88
761.13	228.70
761.45	228.50
761.78	228.32
762.11	228.14
762.43	227.92
762.76	227.69
763.08	227.53
763.41	227.38
763.74	227.24
764.06	227.06
764.39	226.86
764.71	226.67
765.04	226.51
765.37	226.33
765.69	226.19
766.02	226.05
766.34	225.91
766.67	225.73
767.00	225.63
767.32	225.60
767.65	225.60
767.97	225.48
768.30	225.35
768.62	225.22
768.95	225.06
769.27	224.95
769.60	224.91
769.92	224.76
770.25	224.60
770.57	224.40
770.90	224.32
771.22	224.20
771.55	224.10
771.87	224.00
772.20	223.87
772.52	223.92
772.85	224.06
773.17	223.96
773.50	223.83
773.82	223.68
774.15	223.48
774.47	223.23
774.80	223.10
775.12	223.02
775.45	222.92
775.77	222.83
776.09	222.74
776.42	222.60
776.74	222.58
777.07	222.50
777.39	222.45
777.72	222.33
778.04	222.29
778.36	222.18
778.69	222.04
779.01	221.99
779.33	221.71
779.66	221.39
779.98	221.30
780.31	221.19
780.63	221.20
780.95	221.17
781.28	221.06
781.60	220.96
781.92	220.87
782.25	220.82
782.57	220.77
782.89	220.66
783.22	220.59
783.54	220.47
783.86	220.43
784.19	220.37
784.51	220.38
784.83	220.31
785.16	220.28
785.48	220.24
785.80	220.16
786.12	220.13
