SpectraSuite Data File
++++++++++++++++++++++++++++++++++++
Date: Tue Jan 29 16:20:12 EST 2013
User: group
Dark Spectrum Present: No
Reference Spectrum Present: No
Number of Sampled Component Spectra: 1
Spectrometers: USB2E7196
Integration Time (usec): 65000 (USB2E7196)
Spectra Averaged: 100 (USB2E7196)
Boxcar Smoothing: 10 (USB2E7196)
Correct for Electrical Dark: No (USB2E7196)
Strobe/Lamp Enabled: No (USB2E7196)
Correct for Detector Non-linearity: No (USB2E7196)
Correct for Stray Light: No (USB2E7196)
Number of Pixels in Processed Spectrum: 2048
>>>>>Begin Processed Spectral Data<<<<<
339.09	0.00
339.48	202.47
339.86	203.90
340.24	205.63
340.63	206.66
341.01	211.60
341.39	209.68
341.78	211.03
342.16	212.33
342.54	212.83
342.93	201.78
343.31	211.98
343.69	212.53
344.07	213.00
344.46	213.44
344.84	213.83
345.22	213.99
345.60	214.24
345.99	214.44
346.37	214.57
346.75	214.67
347.13	214.73
347.52	214.82
347.90	214.92
348.28	214.93
348.66	215.02
349.05	214.95
349.43	215.02
349.81	215.07
350.19	215.09
350.57	215.18
350.96	215.27
351.34	215.39
351.72	215.48
352.10	215.57
352.48	215.65
352.87	215.69
353.25	215.76
353.63	215.81
354.01	215.87
354.39	215.96
354.77	216.03
355.15	216.15
355.54	216.18
355.92	216.18
356.30	216.26
356.68	216.45
357.06	216.53
357.44	216.57
357.82	216.61
358.20	216.74
358.58	216.80
358.97	216.87
359.35	216.94
359.73	217.04
360.11	217.11
360.49	217.16
360.87	217.22
361.25	217.28
361.63	217.42
362.01	217.47
362.39	217.46
362.77	217.52
363.15	217.55
363.53	217.63
363.91	217.67
364.29	217.71
364.67	217.52
365.05	217.55
365.43	217.60
365.81	217.66
366.19	217.73
366.57	217.81
366.95	217.81
367.33	217.76
367.71	217.74
368.09	217.76
368.47	217.77
368.85	217.75
369.23	217.77
369.61	217.66
369.99	217.72
370.37	217.76
370.75	217.86
371.13	217.81
371.51	217.74
371.89	217.75
372.27	217.75
372.65	217.78
373.03	217.76
373.41	217.68
373.78	217.63
374.16	217.51
374.54	217.41
374.92	217.34
375.30	217.30
375.68	217.24
376.06	217.22
376.44	217.14
376.82	217.13
377.19	217.08
377.57	217.06
377.95	216.93
378.33	216.84
378.71	216.67
379.09	216.65
379.47	216.61
379.84	216.57
380.22	216.49
380.60	216.38
380.98	216.34
381.36	216.31
381.73	216.27
382.11	216.25
382.49	216.25
382.87	216.22
383.25	216.19
383.62	216.39
384.00	216.29
384.38	216.24
384.76	216.25
385.13	216.32
385.51	216.28
385.89	216.24
386.27	216.25
386.64	216.23
387.02	216.19
387.40	216.18
387.78	216.15
388.15	216.16
388.53	216.14
388.91	216.07
389.29	216.01
389.66	216.00
390.04	215.98
390.42	215.96
390.79	215.95
391.17	215.95
391.55	215.69
391.92	215.71
392.30	215.74
392.68	215.70
393.05	215.64
393.43	215.63
393.81	215.64
394.18	215.59
394.56	215.61
394.94	215.62
395.31	215.58
395.69	215.66
396.06	215.68
396.44	215.71
396.82	215.73
397.19	215.90
397.57	215.91
397.95	215.95
398.32	215.91
398.70	215.96
399.07	216.03
399.45	216.07
399.82	216.12
400.20	216.16
400.58	216.21
400.95	216.17
401.33	216.28
401.70	216.51
402.08	216.58
402.45	216.67
402.83	216.81
403.20	216.96
403.58	217.01
403.95	217.14
404.33	217.32
404.71	217.43
405.08	217.69
405.46	217.87
405.83	218.06
406.21	218.27
406.58	218.48
406.96	218.70
407.33	218.98
407.70	219.27
408.08	219.71
408.45	220.01
408.83	220.42
409.20	220.79
409.58	221.03
409.95	221.56
410.33	222.04
410.70	222.48
411.08	223.01
411.45	223.56
411.82	224.15
412.20	224.84
412.57	225.70
412.95	226.23
413.32	227.04
413.69	227.87
414.07	228.78
414.44	229.74
414.82	230.77
415.19	231.92
415.56	233.07
415.94	234.24
416.31	235.65
416.68	237.05
417.06	238.60
417.43	240.15
417.81	241.84
418.18	243.62
418.55	245.51
418.93	247.53
419.30	249.63
419.67	251.79
420.04	254.04
420.42	256.35
420.79	259.17
421.16	261.92
421.54	264.76
421.91	267.72
422.28	270.82
422.66	274.04
423.03	277.27
423.40	280.60
423.77	284.18
424.15	287.83
424.52	291.64
424.89	295.76
425.26	299.74
425.64	303.54
426.01	307.77
426.38	312.17
426.75	316.62
427.13	321.26
427.50	326.13
427.87	331.22
428.24	336.39
428.61	341.25
428.99	346.68
429.36	352.59
429.73	358.35
430.10	364.11
430.47	370.09
430.85	376.25
431.22	382.89
431.59	389.85
431.96	396.57
432.33	403.91
432.70	411.05
433.08	419.44
433.45	427.40
433.82	435.31
434.19	443.99
434.56	452.57
434.93	460.79
435.30	468.96
435.68	477.87
436.05	486.67
436.42	495.44
436.79	503.42
437.16	512.06
437.53	521.24
437.90	530.25
438.27	539.03
438.64	548.11
439.01	556.42
439.38	563.89
439.75	571.10
440.13	579.35
440.50	587.12
440.87	593.44
441.24	600.02
441.61	607.17
441.98	612.54
442.35	618.79
442.72	625.01
443.09	631.02
443.46	634.71
443.83	637.19
444.20	639.38
444.57	642.48
444.94	643.88
445.31	645.25
445.68	646.60
446.05	647.31
446.42	646.53
446.79	645.68
447.16	644.57
447.53	643.81
447.90	640.56
448.27	637.33
448.64	632.79
449.01	629.48
449.37	623.65
449.74	618.03
450.11	611.20
450.48	603.91
450.85	596.58
451.22	590.24
451.59	584.23
451.96	578.45
452.33	570.71
452.70	563.72
453.07	555.36
453.43	546.84
453.80	538.59
454.17	530.75
454.54	523.25
454.91	515.24
455.28	507.37
455.65	500.06
456.02	492.71
456.38	486.51
456.75	478.75
457.12	472.30
457.49	465.92
457.86	459.86
458.23	454.57
458.59	448.74
458.96	442.86
459.33	437.68
459.70	432.44
460.07	428.31
460.43	423.51
460.80	419.05
461.17	415.18
461.54	411.07
461.91	407.14
462.27	403.13
462.64	399.76
463.01	396.02
463.38	392.42
463.74	388.78
464.11	385.55
464.48	382.78
464.85	379.77
465.21	377.39
465.58	374.81
465.95	371.73
466.32	369.11
466.68	366.53
467.05	363.95
467.42	361.41
467.78	358.73
468.15	356.20
468.52	354.34
468.88	351.92
469.25	349.75
469.62	348.00
469.98	346.07
470.35	344.29
470.72	342.64
471.08	340.89
471.45	339.44
471.82	337.96
472.18	336.34
472.55	335.13
472.92	333.76
473.28	332.56
473.65	331.45
474.02	330.38
474.38	329.52
474.75	328.79
475.11	328.04
475.48	327.49
475.85	327.09
476.21	326.62
476.58	326.26
476.94	325.99
477.31	325.69
477.67	325.49
478.04	325.39
478.41	325.37
478.77	325.53
479.14	325.50
479.50	325.65
479.87	325.95
480.23	326.28
480.60	326.53
480.96	326.81
481.33	327.43
481.69	327.99
482.06	328.52
482.42	329.02
482.79	329.57
483.15	330.38
483.52	331.33
483.88	332.17
484.25	333.14
484.61	334.23
484.98	335.26
485.34	336.57
485.71	337.95
486.07	339.37
486.44	340.65
486.80	342.26
487.17	343.96
487.53	345.82
487.90	347.73
488.26	349.79
488.62	352.00
488.99	354.06
489.35	356.26
489.72	358.66
490.08	361.15
490.44	363.74
490.81	366.47
491.17	369.20
491.54	372.16
491.90	375.20
492.26	378.45
492.63	381.88
492.99	385.34
493.36	389.00
493.72	392.93
494.08	397.04
494.45	401.30
494.81	405.68
495.17	410.11
495.54	414.83
495.90	419.67
496.26	424.54
496.63	429.73
496.99	435.17
497.35	440.75
497.72	446.60
498.08	452.60
498.44	458.70
498.80	465.10
499.17	471.67
499.53	478.39
499.89	485.27
500.26	492.28
500.62	499.39
500.98	506.84
501.34	514.29
501.71	522.01
502.07	529.82
502.43	537.81
502.79	545.98
503.16	554.42
503.52	563.02
503.88	571.81
504.24	580.80
504.60	589.78
504.97	599.08
505.33	608.40
505.69	618.29
506.05	628.20
506.41	638.17
506.78	648.32
507.14	658.61
507.50	669.11
507.86	679.89
508.22	690.78
508.59	701.49
508.95	712.67
509.31	723.98
509.67	735.49
510.03	747.00
510.39	758.76
510.75	770.67
511.12	782.62
511.48	794.75
511.84	807.00
512.20	819.48
512.56	832.04
512.92	844.96
513.28	857.61
513.64	870.43
514.00	883.36
514.37	896.30
514.73	909.50
515.09	922.54
515.45	935.51
515.81	948.54
516.17	961.94
516.53	975.19
516.89	988.31
517.25	1001.57
517.61	1015.06
517.97	1028.45
518.33	1041.62
518.69	1055.12
519.05	1068.89
519.41	1082.68
519.77	1096.61
520.13	1110.05
520.49	1123.13
520.85	1136.62
521.21	1149.91
521.57	1163.60
521.93	1176.70
522.29	1190.44
522.65	1204.21
523.01	1217.86
523.37	1231.12
523.73	1244.42
524.09	1257.53
524.45	1271.04
524.81	1284.50
525.17	1297.88
525.53	1311.13
525.89	1324.40
526.25	1337.57
526.61	1350.48
526.97	1363.49
527.33	1376.49
527.68	1389.96
528.04	1403.44
528.40	1416.50
528.76	1429.94
529.12	1442.78
529.48	1456.06
529.84	1468.29
530.20	1480.88
530.56	1493.25
530.91	1506.54
531.27	1519.43
531.63	1532.32
531.99	1545.00
532.35	1557.11
532.71	1569.53
533.07	1582.36
533.42	1594.54
533.78	1606.79
534.14	1618.79
534.50	1630.15
534.86	1641.65
535.21	1652.47
535.57	1664.00
535.93	1675.20
536.29	1686.13
536.65	1697.43
537.00	1708.34
537.36	1719.70
537.72	1730.59
538.08	1742.07
538.44	1752.83
538.79	1763.98
539.15	1774.80
539.51	1785.57
539.87	1796.98
540.22	1807.79
540.58	1818.68
540.94	1829.47
541.29	1839.53
541.65	1849.24
542.01	1859.66
542.37	1869.73
542.72	1879.93
543.08	1889.64
543.44	1900.25
543.79	1909.58
544.15	1919.09
544.51	1929.14
544.87	1938.94
545.22	1948.28
545.58	1957.20
545.94	1966.14
546.29	1974.44
546.65	1982.83
547.01	1990.97
547.36	1998.55
547.72	2006.21
548.07	2013.65
548.43	2021.43
548.79	2029.35
549.14	2037.47
549.50	2045.82
549.86	2053.54
550.21	2060.81
550.57	2068.51
550.92	2075.00
551.28	2082.40
551.64	2089.63
551.99	2097.12
552.35	2104.17
552.70	2111.02
553.06	2117.60
553.41	2123.80
553.77	2130.26
554.13	2136.54
554.48	2143.63
554.84	2150.76
555.19	2157.33
555.55	2163.79
555.90	2170.05
556.26	2176.76
556.61	2182.86
556.97	2187.64
557.32	2193.58
557.68	2200.03
558.03	2205.77
558.39	2211.34
558.74	2217.49
559.10	2223.01
559.45	2228.62
559.81	2234.30
560.16	2239.86
560.52	2245.73
560.87	2252.30
561.23	2258.29
561.58	2264.87
561.94	2270.19
562.29	2274.84
562.64	2280.89
563.00	2286.79
563.35	2292.49
563.71	2298.28
564.06	2303.96
564.42	2310.05
564.77	2315.07
565.12	2320.45
565.48	2325.67
565.83	2331.28
566.19	2336.63
566.54	2341.99
566.89	2346.53
567.25	2351.26
567.60	2357.04
567.96	2362.33
568.31	2366.89
568.66	2371.39
569.02	2375.50
569.37	2379.31
569.72	2383.84
570.08	2387.54
570.43	2390.79
570.78	2394.12
571.14	2396.79
571.49	2400.27
571.84	2403.79
572.20	2406.88
572.55	2409.99
572.90	2412.28
573.26	2415.17
573.61	2418.05
573.96	2420.42
574.31	2422.59
574.67	2424.53
575.02	2425.28
575.37	2426.84
575.72	2427.75
576.08	2429.32
576.43	2429.48
576.78	2430.01
577.13	2431.67
577.49	2432.79
577.84	2433.93
578.19	2435.23
578.54	2436.01
578.90	2436.65
579.25	2436.77
579.60	2436.89
579.95	2436.19
580.30	2436.47
580.66	2436.00
581.01	2434.49
581.36	2432.20
581.71	2431.01
582.06	2430.01
582.42	2429.46
582.77	2427.25
583.12	2425.78
583.47	2424.50
583.82	2424.14
584.17	2423.12
584.53	2421.19
584.88	2419.43
585.23	2417.71
585.58	2415.62
585.93	2413.72
586.28	2411.76
586.63	2409.60
586.98	2407.47
587.34	2405.80
587.69	2403.41
588.04	2401.39
588.39	2400.02
588.74	2397.80
589.09	2395.09
589.44	2391.98
589.79	2389.45
590.14	2387.77
590.49	2384.92
590.84	2381.13
591.19	2378.25
591.54	2375.16
591.89	2371.32
592.25	2368.06
592.60	2363.94
592.95	2359.97
593.30	2355.95
593.65	2351.75
594.00	2347.31
594.35	2344.41
594.70	2339.75
595.05	2335.50
595.40	2330.12
595.75	2324.39
596.10	2320.85
596.45	2316.21
596.80	2311.69
597.15	2306.75
597.50	2300.80
597.85	2295.94
598.19	2290.88
598.54	2284.96
598.89	2279.72
599.24	2275.18
599.59	2269.06
599.94	2263.11
600.29	2257.14
600.64	2251.13
600.99	2244.17
601.34	2238.57
601.69	2231.50
602.04	2225.25
602.39	2218.57
602.74	2212.42
603.08	2206.81
603.43	2200.24
603.78	2193.40
604.13	2186.48
604.48	2179.04
604.83	2172.98
605.18	2166.84
605.53	2159.91
605.87	2152.97
606.22	2146.03
606.57	2138.01
606.92	2130.07
607.27	2123.23
607.62	2116.67
607.96	2109.77
608.31	2103.47
608.66	2095.71
609.01	2088.18
609.36	2081.00
609.70	2073.41
610.05	2065.67
610.40	2057.27
610.75	2048.92
611.10	2041.04
611.44	2032.04
611.79	2023.41
612.14	2013.30
612.49	2002.51
612.83	1992.92
613.18	1983.53
613.53	1974.12
613.88	1964.50
614.22	1955.91
614.57	1945.94
614.92	1935.19
615.27	1924.77
615.61	1914.45
615.96	1904.69
616.31	1895.02
616.65	1885.36
617.00	1875.43
617.35	1865.59
617.70	1855.88
618.04	1845.80
618.39	1835.71
618.74	1826.05
619.08	1816.29
619.43	1807.58
619.78	1799.22
620.12	1790.66
620.47	1781.12
620.82	1770.84
621.16	1760.95
621.51	1750.92
621.85	1740.95
622.20	1730.48
622.55	1719.85
622.89	1709.84
623.24	1700.23
623.59	1690.28
623.93	1680.18
624.28	1670.25
624.62	1660.14
624.97	1649.69
625.32	1639.65
625.66	1630.61
626.01	1621.80
626.35	1612.28
626.70	1602.11
627.04	1592.08
627.39	1581.88
627.73	1572.48
628.08	1563.43
628.43	1553.89
628.77	1544.53
629.12	1535.60
629.46	1527.68
629.81	1519.31
630.15	1509.70
630.50	1499.65
630.84	1489.04
631.19	1478.97
631.53	1469.70
631.88	1459.41
632.22	1449.39
632.57	1440.04
632.91	1429.76
633.26	1419.59
633.60	1409.94
633.95	1400.58
634.29	1390.88
634.64	1381.50
634.98	1371.30
635.32	1361.94
635.67	1353.37
636.01	1343.94
636.36	1334.05
636.70	1324.33
637.05	1314.89
637.39	1305.96
637.73	1297.22
638.08	1289.61
638.42	1281.40
638.77	1272.45
639.11	1264.13
639.45	1256.19
639.80	1247.51
640.14	1238.59
640.49	1229.78
640.83	1220.89
641.17	1212.56
641.52	1204.34
641.86	1195.67
642.20	1187.71
642.55	1178.89
642.89	1169.82
643.23	1161.10
643.58	1152.99
643.92	1143.97
644.26	1135.02
644.61	1126.31
644.95	1117.38
645.29	1108.09
645.64	1098.71
645.98	1090.12
646.32	1081.98
646.66	1073.35
647.01	1064.96
647.35	1056.84
647.69	1048.36
648.04	1039.96
648.38	1031.04
648.72	1022.12
649.06	1013.49
649.41	1005.16
649.75	997.13
650.09	989.14
650.43	981.07
650.78	972.55
651.12	964.79
651.46	957.39
651.80	950.12
652.14	942.70
652.49	935.00
652.83	927.68
653.17	919.81
653.51	912.22
653.85	904.91
654.20	897.55
654.54	890.05
654.88	882.72
655.22	875.55
655.56	868.39
655.90	861.60
656.25	854.84
656.59	848.01
656.93	840.98
657.27	833.83
657.61	826.75
657.95	820.65
658.29	814.54
658.64	808.33
658.98	801.73
659.32	795.23
659.66	788.96
660.00	782.55
660.34	776.46
660.68	770.20
661.02	763.77
661.36	757.75
661.70	751.88
662.05	746.21
662.39	740.47
662.73	735.11
663.07	729.64
663.41	723.96
663.75	718.16
664.09	712.45
664.43	706.90
664.77	701.50
665.11	695.60
665.45	689.72
665.79	683.87
666.13	678.24
666.47	672.71
666.81	667.17
667.15	661.74
667.49	656.46
667.83	651.20
668.17	645.90
668.51	640.78
668.85	635.81
669.19	630.81
669.53	625.84
669.87	620.69
670.21	615.88
670.55	611.16
670.89	606.62
671.23	602.22
671.57	597.87
671.91	593.58
672.25	589.35
672.58	585.19
672.92	581.06
673.26	577.02
673.60	573.09
673.94	569.34
674.28	565.74
674.62	562.00
674.96	558.23
675.30	554.78
675.64	551.03
675.97	547.42
676.31	543.81
676.65	540.21
676.99	536.78
677.33	532.89
677.67	529.25
678.01	525.45
678.34	521.83
678.68	518.28
679.02	514.63
679.36	510.93
679.70	507.26
680.04	503.74
680.37	500.26
680.71	496.88
681.05	493.67
681.39	490.37
681.73	487.14
682.06	484.07
682.40	480.91
682.74	477.77
683.08	474.51
683.42	471.30
683.75	468.29
684.09	465.23
684.43	462.43
684.77	459.46
685.10	456.55
685.44	453.58
685.78	450.67
686.12	447.89
686.45	445.20
686.79	442.52
687.13	439.97
687.46	437.37
687.80	434.73
688.14	431.81
688.48	429.11
688.81	426.44
689.15	423.89
689.49	421.26
689.82	418.68
690.16	416.14
690.50	413.68
690.83	411.17
691.17	408.60
691.51	406.15
691.84	403.84
692.18	401.63
692.52	399.42
692.85	397.25
693.19	395.10
693.52	392.92
693.86	390.69
694.20	388.46
694.53	386.30
694.87	384.08
695.21	381.99
695.54	379.83
695.88	377.68
696.21	375.48
696.55	373.33
696.88	371.32
697.22	369.30
697.56	367.41
697.89	365.49
698.23	363.69
698.56	361.85
698.90	360.14
699.23	358.26
699.57	356.38
699.90	354.55
700.24	352.75
700.58	351.02
700.91	349.35
701.25	347.80
701.58	346.20
701.92	344.64
702.25	343.02
702.59	341.41
702.92	339.88
703.26	338.28
703.59	336.83
703.93	335.52
704.26	334.11
704.60	332.60
704.93	331.10
705.26	329.61
705.60	328.14
705.93	326.60
706.27	325.22
706.60	323.95
706.94	322.63
707.27	321.24
707.61	319.86
707.94	318.50
708.27	316.99
708.61	315.51
708.94	314.09
709.28	312.81
709.61	311.56
709.94	310.36
710.28	309.20
710.61	307.99
710.95	306.55
711.28	305.46
711.61	304.27
711.95	303.15
712.28	301.99
712.61	300.77
712.95	299.75
713.28	298.73
713.61	297.61
713.95	296.47
714.28	295.48
714.61	294.39
714.95	293.40
715.28	292.35
715.61	291.37
715.95	290.41
716.28	289.44
716.61	288.50
716.95	287.46
717.28	286.51
717.61	285.56
717.94	284.67
718.28	283.64
718.61	282.76
718.94	281.87
719.27	281.01
719.61	280.20
719.94	279.32
720.27	278.34
720.60	277.48
720.94	276.70
721.27	275.94
721.60	275.29
721.93	274.56
722.27	273.97
722.60	273.33
722.93	272.66
723.26	272.01
723.59	271.32
723.93	270.71
724.26	270.08
724.59	269.45
724.92	268.87
725.25	268.31
725.59	267.73
725.92	267.18
726.25	266.58
726.58	266.00
726.91	265.37
727.24	264.84
727.57	264.28
727.91	263.67
728.24	263.05
728.57	262.46
728.90	261.88
729.23	261.25
729.56	260.77
729.89	260.23
730.22	259.67
730.55	259.10
730.89	258.54
731.22	257.99
731.55	257.46
731.88	256.91
732.21	256.39
732.54	255.84
732.87	255.35
733.20	254.89
733.53	254.43
733.86	253.98
734.19	253.47
734.52	253.10
734.85	252.80
735.18	252.35
735.51	251.99
735.84	251.58
736.17	251.17
736.50	250.66
736.83	250.48
737.16	250.07
737.49	249.73
737.82	249.33
738.15	248.97
738.48	248.61
738.81	248.26
739.14	247.82
739.47	247.47
739.80	247.08
740.13	246.76
740.46	246.37
740.79	245.96
741.12	245.62
741.45	245.19
741.78	244.74
742.11	244.48
742.44	244.07
742.77	243.77
743.10	243.44
743.43	243.10
743.75	242.53
744.08	242.45
744.41	242.05
744.74	241.74
745.07	241.38
745.40	241.05
745.73	240.78
746.06	240.44
746.39	240.12
746.71	239.80
747.04	239.46
747.37	239.17
747.70	238.95
748.03	238.66
748.36	238.37
748.68	238.08
749.01	237.74
749.34	237.48
749.67	237.19
750.00	236.90
750.33	236.79
750.65	236.56
750.98	236.06
751.31	235.83
751.64	235.58
751.97	235.41
752.29	235.15
752.62	234.84
752.95	234.60
753.28	234.35
753.60	234.09
753.93	233.90
754.26	233.64
754.59	233.33
754.91	233.10
755.24	232.87
755.57	232.62
755.90	232.37
756.22	232.14
756.55	231.86
756.88	231.61
757.20	231.25
757.53	230.97
757.86	230.76
758.19	230.54
758.51	230.31
758.84	230.04
759.17	229.84
759.49	229.66
759.82	229.62
760.15	229.48
760.47	229.32
760.80	229.10
761.13	228.96
761.45	228.79
761.78	228.64
762.11	228.45
762.43	228.29
762.76	228.13
763.08	227.99
763.41	227.87
763.74	227.73
764.06	227.57
764.39	227.42
764.71	227.23
765.04	227.10
765.37	226.95
765.69	226.80
766.02	226.66
766.34	226.46
766.67	226.21
767.00	226.08
767.32	226.02
767.65	226.00
767.97	225.87
768.30	225.77
768.62	225.64
768.95	225.51
769.27	225.39
769.60	225.28
769.92	225.15
770.25	224.99
770.57	224.85
770.90	224.74
771.22	224.62
771.55	224.53
771.87	224.42
772.20	224.33
772.52	224.39
772.85	224.51
773.17	224.43
773.50	224.31
773.82	224.17
774.15	223.97
774.47	223.71
774.80	223.61
775.12	223.47
775.45	223.36
775.77	223.26
776.09	223.15
776.42	223.09
776.74	223.04
777.07	222.97
777.39	222.88
777.72	222.77
778.04	222.73
778.36	222.63
778.69	222.55
779.01	222.47
779.33	222.16
779.66	221.88
779.98	221.78
780.31	221.74
780.63	221.73
780.95	221.68
781.28	221.66
781.60	221.53
781.92	221.50
782.25	221.44
782.57	221.39
782.89	221.32
783.22	221.23
783.54	221.13
783.86	221.05
784.19	220.95
784.51	220.93
784.83	220.84
785.16	220.78
785.48	220.71
785.80	220.66
786.12	220.65
