SpectraSuite Data File
++++++++++++++++++++++++++++++++++++
Date: Tue Jan 29 16:00:18 EST 2013
User: group
Dark Spectrum Present: No
Reference Spectrum Present: No
Number of Sampled Component Spectra: 1
Spectrometers: USB2E7196
Integration Time (usec): 65000 (USB2E7196)
Spectra Averaged: 100 (USB2E7196)
Boxcar Smoothing: 10 (USB2E7196)
Correct for Electrical Dark: No (USB2E7196)
Strobe/Lamp Enabled: No (USB2E7196)
Correct for Detector Non-linearity: No (USB2E7196)
Correct for Stray Light: No (USB2E7196)
Number of Pixels in Processed Spectrum: 2048
>>>>>Begin Processed Spectral Data<<<<<
339.09	0.00
339.48	202.71
339.86	204.40
340.24	205.58
340.63	207.55
341.01	211.35
341.39	210.27
341.78	210.99
342.16	213.15
342.54	213.23
342.93	201.95
343.31	212.17
343.69	212.71
344.07	213.16
344.46	213.62
344.84	214.00
345.22	214.18
345.60	214.45
345.99	214.66
346.37	214.77
346.75	214.84
347.13	214.97
347.52	215.04
347.90	215.16
348.28	215.18
348.66	215.24
349.05	215.20
349.43	215.25
349.81	215.34
350.19	215.42
350.57	215.46
350.96	215.57
351.34	215.64
351.72	215.76
352.10	215.87
352.48	215.90
352.87	215.96
353.25	216.03
353.63	216.04
354.01	216.09
354.39	216.15
354.77	216.22
355.15	216.33
355.54	216.37
355.92	216.39
356.30	216.48
356.68	216.70
357.06	216.83
357.44	216.88
357.82	216.92
358.20	216.98
358.58	217.03
358.97	217.11
359.35	217.21
359.73	217.29
360.11	217.33
360.49	217.41
360.87	217.44
361.25	217.51
361.63	217.59
362.01	217.66
362.39	217.69
362.77	217.76
363.15	217.78
363.53	217.82
363.91	217.81
364.29	217.84
364.67	217.64
365.05	217.60
365.43	217.63
365.81	217.64
366.19	217.75
366.57	217.87
366.95	217.90
367.33	217.83
367.71	217.82
368.09	217.84
368.47	217.79
368.85	217.79
369.23	217.83
369.61	217.80
369.99	217.84
370.37	217.86
370.75	217.90
371.13	217.84
371.51	217.81
371.89	217.85
372.27	217.82
372.65	217.83
373.03	217.81
373.41	217.78
373.78	217.75
374.16	217.60
374.54	217.51
374.92	217.44
375.30	217.43
375.68	217.37
376.06	217.36
376.44	217.35
376.82	217.32
377.19	217.26
377.57	217.23
377.95	217.10
378.33	217.01
378.71	216.88
379.09	216.89
379.47	216.86
379.84	216.79
380.22	216.74
380.60	216.65
380.98	216.63
381.36	216.62
381.73	216.56
382.11	216.56
382.49	216.49
382.87	216.43
383.25	216.41
383.62	216.64
384.00	216.57
384.38	216.58
384.76	216.60
385.13	216.65
385.51	216.63
385.89	216.58
386.27	216.60
386.64	216.61
387.02	216.56
387.40	216.52
387.78	216.49
388.15	216.47
388.53	216.47
388.91	216.42
389.29	216.35
389.66	216.36
390.04	216.32
390.42	216.35
390.79	216.36
391.17	216.31
391.55	216.02
391.92	216.04
392.30	216.04
392.68	215.93
393.05	215.88
393.43	215.87
393.81	215.90
394.18	215.86
394.56	215.86
394.94	215.91
395.31	215.88
395.69	215.95
396.06	215.98
396.44	216.00
396.82	215.98
397.19	216.11
397.57	216.11
397.95	216.16
398.32	216.10
398.70	216.15
399.07	216.20
399.45	216.25
399.82	216.26
400.20	216.28
400.58	216.36
400.95	216.36
401.33	216.46
401.70	216.70
402.08	216.79
402.45	216.90
402.83	217.03
403.20	217.17
403.58	217.28
403.95	217.46
404.33	217.59
404.71	217.79
405.08	218.01
405.46	218.18
405.83	218.36
406.21	218.58
406.58	218.79
406.96	219.03
407.33	219.29
407.70	219.59
408.08	220.03
408.45	220.37
408.83	220.75
409.20	221.05
409.58	221.29
409.95	221.75
410.33	222.20
410.70	222.62
411.08	223.14
411.45	223.65
411.82	224.17
412.20	224.85
412.57	225.62
412.95	226.18
413.32	226.99
413.69	227.76
414.07	228.61
414.44	229.59
414.82	230.56
415.19	231.66
415.56	232.80
415.94	233.93
416.31	235.29
416.68	236.65
417.06	238.19
417.43	239.67
417.81	241.34
418.18	243.02
418.55	244.86
418.93	246.82
419.30	248.86
419.67	251.01
420.04	253.20
420.42	255.52
420.79	258.25
421.16	260.93
421.54	263.77
421.91	266.67
422.28	269.64
422.66	272.84
423.03	276.01
423.40	279.24
423.77	282.72
424.15	286.26
424.52	289.96
424.89	293.93
425.26	297.86
425.64	301.63
426.01	305.78
426.38	310.11
426.75	314.48
427.13	319.05
427.50	323.83
427.87	328.86
428.24	333.84
428.61	338.65
428.99	343.93
429.36	349.76
429.73	355.44
430.10	361.12
430.47	366.93
430.85	373.01
431.22	379.53
431.59	386.34
431.96	392.87
432.33	400.15
432.70	407.13
433.08	415.38
433.45	423.10
433.82	430.76
434.19	439.35
434.56	447.73
434.93	455.76
435.30	463.76
435.68	472.59
436.05	481.22
436.42	489.82
436.79	497.69
437.16	506.08
437.53	514.99
437.90	523.77
438.27	532.34
438.64	541.29
439.01	549.42
439.38	556.74
439.75	563.83
440.13	571.87
440.50	579.54
440.87	585.74
441.24	592.11
441.61	599.21
441.98	604.28
442.35	610.39
442.72	616.47
443.09	622.33
443.46	625.82
443.83	628.25
444.20	630.31
444.57	633.29
444.94	634.68
445.31	636.05
445.68	637.36
446.05	638.00
446.42	637.07
446.79	636.19
447.16	635.17
447.53	634.34
447.90	631.12
448.27	627.95
448.64	623.39
449.01	620.20
449.37	614.53
449.74	609.14
450.11	602.40
450.48	595.26
450.85	587.98
451.22	581.70
451.59	575.80
451.96	570.19
452.33	562.68
452.70	555.88
453.07	547.73
453.43	539.43
453.80	531.43
454.17	523.86
454.54	516.61
454.91	508.76
455.28	501.15
455.65	494.06
456.02	486.93
456.38	480.91
456.75	473.40
457.12	467.06
457.49	460.78
457.86	454.94
458.23	449.79
458.59	444.18
458.96	438.56
459.33	433.45
459.70	428.32
460.07	424.22
460.43	419.52
460.80	415.16
461.17	411.38
461.54	407.44
461.91	403.58
462.27	399.63
462.64	396.28
463.01	392.68
463.38	389.14
463.74	385.54
464.11	382.42
464.48	379.66
464.85	376.71
465.21	374.37
465.58	371.78
465.95	368.75
466.32	366.25
466.68	363.71
467.05	361.32
467.42	358.88
467.78	356.33
468.15	353.87
468.52	352.07
468.88	349.68
469.25	347.51
469.62	345.76
469.98	343.90
470.35	342.21
470.72	340.58
471.08	338.87
471.45	337.46
471.82	335.98
472.18	334.40
472.55	333.30
472.92	331.97
473.28	330.89
473.65	329.85
474.02	328.76
474.38	327.92
474.75	327.14
475.11	326.31
475.48	325.79
475.85	325.39
476.21	324.89
476.58	324.58
476.94	324.43
477.31	324.17
477.67	323.95
478.04	323.81
478.41	323.82
478.77	323.98
479.14	323.96
479.50	324.14
479.87	324.46
480.23	324.81
480.60	325.13
480.96	325.40
481.33	326.04
481.69	326.63
482.06	327.20
482.42	327.73
482.79	328.39
483.15	329.18
483.52	330.11
483.88	331.01
484.25	331.97
484.61	332.96
484.98	334.01
485.34	335.35
485.71	336.73
486.07	338.15
486.44	339.47
486.80	341.05
487.17	342.70
487.53	344.52
487.90	346.36
488.26	348.39
488.62	350.53
488.99	352.52
489.35	354.64
489.72	357.00
490.08	359.49
490.44	362.02
490.81	364.75
491.17	367.46
491.54	370.47
491.90	373.49
492.26	376.69
492.63	380.11
492.99	383.61
493.36	387.24
493.72	391.11
494.08	395.11
494.45	399.32
494.81	403.66
495.17	408.10
495.54	412.82
495.90	417.63
496.26	422.58
496.63	427.81
496.99	433.22
497.35	438.75
497.72	444.56
498.08	450.49
498.44	456.58
498.80	462.98
499.17	469.45
499.53	476.15
499.89	483.07
500.26	489.99
500.62	497.01
500.98	504.45
501.34	511.88
501.71	519.64
502.07	527.40
502.43	535.41
502.79	543.46
503.16	551.77
503.52	560.32
503.88	568.98
504.24	577.82
504.60	586.87
504.97	596.05
505.33	605.31
505.69	615.14
506.05	624.97
506.41	634.78
506.78	644.73
507.14	654.93
507.50	665.27
507.86	676.00
508.22	686.77
508.59	697.37
508.95	708.42
509.31	719.56
509.67	730.97
510.03	742.39
510.39	754.18
510.75	765.96
511.12	777.88
511.48	789.95
511.84	802.17
512.20	814.39
512.56	826.97
512.92	839.65
513.28	852.18
513.64	864.76
514.00	877.54
514.37	890.47
514.73	903.43
515.09	916.35
515.45	929.08
515.81	941.92
516.17	955.14
516.53	968.21
516.89	981.34
517.25	994.39
517.61	1007.74
517.97	1020.94
518.33	1033.93
518.69	1047.24
519.05	1060.76
519.41	1074.31
519.77	1088.01
520.13	1101.18
520.49	1114.18
520.85	1127.47
521.21	1140.69
521.57	1154.16
521.93	1167.04
522.29	1180.59
522.65	1194.03
523.01	1207.41
523.37	1220.37
523.73	1233.39
524.09	1246.33
524.45	1259.50
524.81	1272.83
525.17	1285.91
525.53	1298.83
525.89	1312.03
526.25	1324.85
526.61	1337.39
526.97	1350.11
527.33	1362.78
527.68	1375.94
528.04	1389.13
528.40	1401.90
528.76	1414.90
529.12	1427.50
529.48	1440.54
529.84	1452.49
530.20	1465.00
530.56	1477.40
530.91	1490.44
531.27	1503.10
531.63	1515.55
531.99	1528.02
532.35	1539.84
532.71	1551.87
533.07	1564.30
533.42	1576.11
533.78	1587.93
534.14	1599.68
534.50	1610.66
534.86	1621.92
535.21	1632.45
535.57	1643.61
535.93	1654.62
536.29	1665.43
536.65	1676.55
537.00	1687.23
537.36	1698.31
537.72	1708.95
538.08	1719.88
538.44	1730.43
538.79	1741.17
539.15	1751.75
539.51	1762.18
539.87	1773.31
540.22	1783.77
540.58	1794.50
540.94	1804.97
541.29	1814.95
541.65	1824.46
542.01	1834.66
542.37	1844.43
542.72	1854.52
543.08	1864.12
543.44	1874.31
543.79	1883.38
544.15	1892.46
544.51	1902.20
544.87	1911.82
545.22	1920.70
545.58	1929.31
545.94	1937.90
546.29	1945.99
546.65	1954.07
547.01	1962.01
547.36	1969.43
547.72	1977.08
548.07	1984.40
548.43	1991.97
548.79	1999.51
549.14	2007.39
549.50	2015.51
549.86	2023.09
550.21	2030.05
550.57	2037.27
550.92	2043.74
551.28	2050.98
551.64	2058.07
551.99	2065.15
552.35	2071.99
552.70	2078.60
553.06	2085.17
553.41	2091.37
553.77	2097.80
554.13	2104.00
554.48	2110.72
554.84	2117.52
555.19	2123.72
555.55	2130.18
555.90	2136.29
556.26	2142.92
556.61	2148.76
556.97	2153.65
557.32	2159.37
557.68	2165.68
558.03	2171.34
558.39	2176.55
558.74	2182.36
559.10	2188.06
559.45	2193.66
559.81	2199.17
560.16	2204.74
560.52	2210.43
560.87	2216.74
561.23	2222.81
561.58	2229.43
561.94	2234.58
562.29	2239.46
562.64	2245.70
563.00	2251.18
563.35	2256.76
563.71	2262.69
564.06	2268.26
564.42	2274.08
564.77	2279.31
565.12	2284.47
565.48	2289.92
565.83	2295.64
566.19	2301.28
566.54	2306.47
566.89	2311.10
567.25	2315.78
567.60	2321.66
567.96	2327.11
568.31	2331.73
568.66	2335.84
569.02	2339.69
569.37	2343.61
569.72	2348.04
570.08	2351.56
570.43	2354.59
570.78	2357.71
571.14	2360.44
571.49	2363.58
571.84	2367.29
572.20	2370.19
572.55	2373.49
572.90	2375.71
573.26	2378.80
573.61	2381.30
573.96	2383.68
574.31	2385.92
574.67	2387.91
575.02	2388.97
575.37	2390.28
575.72	2391.23
576.08	2392.97
576.43	2393.50
576.78	2394.44
577.13	2396.20
577.49	2397.52
577.84	2399.37
578.19	2401.28
578.54	2402.21
578.90	2403.72
579.25	2403.89
579.60	2404.21
579.95	2403.59
580.30	2404.05
580.66	2403.33
581.01	2401.89
581.36	2399.93
581.71	2398.65
582.06	2397.93
582.42	2397.19
582.77	2395.57
583.12	2394.32
583.47	2393.29
583.82	2392.92
584.17	2391.83
584.53	2389.80
584.88	2388.02
585.23	2386.04
585.58	2383.77
585.93	2381.63
586.28	2379.57
586.63	2377.39
586.98	2375.48
587.34	2373.96
587.69	2372.00
588.04	2370.40
588.39	2369.19
588.74	2366.89
589.09	2364.58
589.44	2361.63
589.79	2359.35
590.14	2357.58
590.49	2354.89
590.84	2351.40
591.19	2348.64
591.54	2345.53
591.89	2341.83
592.25	2338.72
592.60	2334.76
592.95	2330.74
593.30	2326.85
593.65	2322.54
594.00	2318.35
594.35	2315.23
594.70	2310.54
595.05	2305.82
595.40	2300.36
595.75	2295.01
596.10	2291.33
596.45	2286.57
596.80	2282.16
597.15	2276.97
597.50	2271.06
597.85	2266.12
598.19	2260.88
598.54	2255.36
598.89	2250.34
599.24	2245.97
599.59	2240.13
599.94	2234.56
600.29	2228.92
600.64	2223.15
600.99	2216.63
601.34	2211.24
601.69	2204.48
602.04	2198.30
602.39	2191.89
602.74	2186.01
603.08	2180.48
603.43	2174.17
603.78	2167.44
604.13	2160.39
604.48	2153.39
604.83	2147.55
605.18	2141.28
605.53	2134.31
605.87	2127.09
606.22	2120.44
606.57	2112.59
606.92	2104.70
607.27	2097.70
607.62	2091.23
607.96	2084.36
608.31	2077.88
608.66	2070.18
609.01	2062.60
609.36	2055.50
609.70	2047.92
610.05	2040.18
610.40	2031.96
610.75	2023.84
611.10	2016.41
611.44	2007.76
611.79	1999.01
612.14	1988.91
612.49	1978.59
612.83	1969.57
613.18	1960.46
613.53	1951.00
613.88	1941.56
614.22	1932.96
614.57	1923.07
614.92	1912.47
615.27	1902.34
615.61	1892.34
615.96	1882.63
616.31	1873.10
616.65	1863.69
617.00	1853.85
617.35	1844.21
617.70	1834.41
618.04	1824.21
618.39	1813.74
618.74	1804.08
619.08	1794.51
619.43	1785.86
619.78	1777.61
620.12	1768.79
620.47	1759.00
620.82	1748.85
621.16	1738.93
621.51	1728.97
621.85	1719.10
622.20	1708.53
622.55	1697.92
622.89	1687.95
623.24	1678.24
623.59	1668.50
623.93	1658.36
624.28	1648.57
624.62	1638.39
624.97	1628.08
625.32	1618.44
625.66	1609.63
626.01	1600.71
626.35	1591.18
626.70	1580.92
627.04	1570.68
627.39	1560.61
627.73	1551.29
628.08	1542.18
628.43	1532.47
628.77	1523.24
629.12	1514.47
629.46	1506.66
629.81	1498.14
630.15	1488.48
630.50	1478.73
630.84	1468.15
631.19	1458.34
631.53	1449.04
631.88	1438.71
632.22	1428.60
632.57	1419.24
632.91	1409.05
633.26	1399.16
633.60	1389.60
633.95	1380.34
634.29	1371.02
634.64	1361.57
634.98	1351.76
635.32	1342.36
635.67	1333.96
636.01	1324.60
636.36	1314.59
636.70	1304.96
637.05	1295.60
637.39	1286.63
637.73	1277.98
638.08	1270.45
638.42	1262.04
638.77	1253.18
639.11	1245.05
639.45	1237.38
639.80	1228.56
640.14	1219.85
640.49	1210.95
640.83	1202.19
641.17	1194.15
641.52	1185.86
641.86	1177.33
642.20	1169.42
642.55	1160.86
642.89	1151.94
643.23	1143.25
643.58	1135.26
643.92	1126.22
644.26	1117.57
644.61	1109.17
644.95	1100.33
645.29	1091.04
645.64	1081.90
645.98	1073.47
646.32	1065.57
646.66	1056.97
647.01	1048.66
647.35	1040.60
647.69	1032.16
648.04	1023.74
648.38	1014.72
648.72	1005.93
649.06	997.43
649.41	989.23
649.75	981.24
650.09	973.26
650.43	965.27
650.78	957.05
651.12	949.46
651.46	942.15
651.80	934.87
652.14	927.54
652.49	920.04
652.83	912.78
653.17	904.99
653.51	897.30
653.85	889.97
654.20	882.68
654.54	875.00
654.88	867.96
655.22	860.76
655.56	853.84
655.90	847.06
656.25	840.40
656.59	833.40
656.93	826.39
657.27	819.36
657.61	812.52
657.95	806.46
658.29	800.54
658.64	794.33
658.98	787.98
659.32	781.40
659.66	775.17
660.00	768.85
660.34	762.96
660.68	756.83
661.02	750.67
661.36	744.93
661.70	739.29
662.05	733.59
662.39	728.19
662.73	722.91
663.07	717.60
663.41	712.10
663.75	706.49
664.09	700.90
664.43	695.55
664.77	690.12
665.11	684.28
665.45	678.42
665.79	672.65
666.13	666.95
666.47	661.50
666.81	656.12
667.15	650.82
667.49	645.61
667.83	640.45
668.17	635.18
668.51	630.03
668.85	625.15
669.19	620.33
669.53	615.39
669.87	610.27
670.21	605.48
670.55	600.77
670.89	596.46
671.23	592.23
671.57	587.91
671.91	583.70
672.25	579.69
672.58	575.59
672.92	571.61
673.26	567.68
673.60	563.89
673.94	560.09
674.28	556.47
674.62	552.79
674.96	549.15
675.30	545.75
675.64	542.18
675.97	538.64
676.31	535.09
676.65	531.53
676.99	528.16
677.33	524.44
677.67	520.84
678.01	516.97
678.34	513.38
678.68	509.94
679.02	506.37
679.36	502.64
679.70	499.08
680.04	495.63
680.37	492.32
680.71	489.11
681.05	486.00
681.39	482.88
681.73	479.79
682.06	476.81
682.40	473.70
682.74	470.55
683.08	467.42
683.42	464.24
683.75	461.33
684.09	458.37
684.43	455.56
684.77	452.66
685.10	449.96
685.44	447.04
685.78	444.15
686.12	441.48
686.45	438.79
686.79	436.19
687.13	433.66
687.46	431.07
687.80	428.46
688.14	425.67
688.48	423.07
688.81	420.38
689.15	417.87
689.49	415.34
689.82	412.84
690.16	410.32
690.50	407.86
690.83	405.38
691.17	402.87
691.51	400.54
691.84	398.43
692.18	396.21
692.52	394.11
692.85	392.02
693.19	389.94
693.52	387.86
693.86	385.66
694.20	383.54
694.53	381.44
694.87	379.22
695.21	377.18
695.54	375.01
695.88	372.96
696.21	370.80
696.55	368.72
696.88	366.73
697.22	364.75
697.56	362.95
697.89	361.16
698.23	359.46
698.56	357.71
698.90	355.93
699.23	354.02
699.57	352.17
699.90	350.38
700.24	348.59
700.58	346.81
700.91	345.22
701.25	343.70
701.58	342.16
701.92	340.65
702.25	339.06
702.59	337.53
702.92	335.99
703.26	334.48
703.59	333.09
703.93	331.86
704.26	330.50
704.60	329.03
704.93	327.56
705.26	326.11
705.60	324.66
705.93	323.22
706.27	321.97
706.60	320.75
706.94	319.53
707.27	318.20
707.61	316.94
707.94	315.61
708.27	314.13
708.61	312.67
708.94	311.34
709.28	310.12
709.61	308.93
709.94	307.80
710.28	306.61
710.61	305.46
710.95	304.08
711.28	303.02
711.61	301.87
711.95	300.79
712.28	299.64
712.61	298.50
712.95	297.49
713.28	296.50
713.61	295.41
713.95	294.26
714.28	293.25
714.61	292.22
714.95	291.27
715.28	290.28
715.61	289.33
715.95	288.39
716.28	287.43
716.61	286.46
716.95	285.47
717.28	284.60
717.61	283.66
717.94	282.80
718.28	281.84
718.61	281.04
718.94	280.15
719.27	279.32
719.61	278.50
719.94	277.61
720.27	276.67
720.60	275.86
720.94	275.13
721.27	274.39
721.60	273.73
721.93	272.98
722.27	272.39
722.60	271.76
722.93	271.10
723.26	270.47
723.59	269.85
723.93	269.28
724.26	268.59
724.59	267.94
724.92	267.38
725.25	266.87
725.59	266.26
725.92	265.79
726.25	265.25
726.58	264.70
726.91	264.16
727.24	263.64
727.57	263.07
727.91	262.50
728.24	261.96
728.57	261.41
728.90	260.85
729.23	260.22
729.56	259.76
729.89	259.22
730.22	258.67
730.55	258.10
730.89	257.57
731.22	257.09
731.55	256.58
731.88	256.07
732.21	255.55
732.54	255.02
732.87	254.53
733.20	254.03
733.53	253.56
733.86	253.12
734.19	252.62
734.52	252.24
734.85	251.98
735.18	251.52
735.51	251.16
735.84	250.76
736.17	250.40
736.50	249.92
736.83	249.80
737.16	249.46
737.49	249.12
737.82	248.74
738.15	248.43
738.48	248.09
738.81	247.68
739.14	247.24
739.47	246.89
739.80	246.50
740.13	246.16
740.46	245.80
740.79	245.41
741.12	245.08
741.45	244.68
741.78	244.24
742.11	244.00
742.44	243.65
742.77	243.39
743.10	243.05
743.43	242.69
743.75	242.11
744.08	242.01
744.41	241.64
744.74	241.28
745.07	240.92
745.40	240.62
745.73	240.40
746.06	240.10
746.39	239.82
746.71	239.50
747.04	239.15
747.37	238.82
747.70	238.56
748.03	238.26
748.36	238.03
748.68	237.70
749.01	237.33
749.34	237.00
749.67	236.69
750.00	236.45
750.33	236.36
750.65	236.13
750.98	235.61
751.31	235.38
751.64	235.16
751.97	235.03
752.29	234.77
752.62	234.43
752.95	234.21
753.28	233.96
753.60	233.67
753.93	233.53
754.26	233.36
754.59	233.10
754.91	232.87
755.24	232.65
755.57	232.43
755.90	232.22
756.22	232.05
756.55	231.79
756.88	231.57
757.20	231.22
757.53	230.99
757.86	230.81
758.19	230.64
758.51	230.44
758.84	230.12
759.17	229.97
759.49	229.82
759.82	229.73
760.15	229.58
760.47	229.39
760.80	229.17
761.13	229.01
761.45	228.82
761.78	228.67
762.11	228.48
762.43	228.30
762.76	228.15
763.08	227.97
763.41	227.86
763.74	227.71
764.06	227.58
764.39	227.41
764.71	227.29
765.04	227.12
765.37	227.01
765.69	226.87
766.02	226.69
766.34	226.54
766.67	226.31
767.00	226.20
767.32	226.21
767.65	226.19
767.97	226.05
768.30	225.96
768.62	225.86
768.95	225.67
769.27	225.56
769.60	225.49
769.92	225.31
770.25	225.13
770.57	224.93
770.90	224.79
771.22	224.66
771.55	224.52
771.87	224.41
772.20	224.26
772.52	224.33
772.85	224.49
773.17	224.38
773.50	224.27
773.82	224.13
774.15	223.94
774.47	223.73
774.80	223.61
775.12	223.49
775.45	223.36
775.77	223.31
776.09	223.22
776.42	223.12
776.74	223.13
777.07	223.08
777.39	223.03
777.72	222.96
778.04	222.90
778.36	222.82
778.69	222.78
779.01	222.68
779.33	222.44
779.66	222.11
779.98	222.02
780.31	221.94
780.63	221.95
780.95	221.91
781.28	221.83
781.60	221.77
781.92	221.70
782.25	221.64
782.57	221.59
782.89	221.52
783.22	221.43
783.54	221.30
783.86	221.26
784.19	221.18
784.51	221.19
784.83	221.10
785.16	221.00
785.48	220.93
785.80	220.90
786.12	220.87
