SpectraSuite Data File
++++++++++++++++++++++++++++++++++++
Date: Tue Jan 29 16:36:03 EST 2013
User: group
Dark Spectrum Present: No
Reference Spectrum Present: No
Number of Sampled Component Spectra: 1
Spectrometers: USB2E7196
Integration Time (usec): 65000 (USB2E7196)
Spectra Averaged: 100 (USB2E7196)
Boxcar Smoothing: 10 (USB2E7196)
Correct for Electrical Dark: No (USB2E7196)
Strobe/Lamp Enabled: No (USB2E7196)
Correct for Detector Non-linearity: No (USB2E7196)
Correct for Stray Light: No (USB2E7196)
Number of Pixels in Processed Spectrum: 2048
>>>>>Begin Processed Spectral Data<<<<<
339.09	0.00
339.48	202.15
339.86	203.15
340.24	204.36
340.63	206.39
341.01	210.71
341.39	208.48
341.78	210.93
342.16	211.78
342.54	212.18
342.93	201.05
343.31	211.21
343.69	211.73
344.07	212.22
344.46	212.70
344.84	213.08
345.22	213.23
345.60	213.53
345.99	213.72
346.37	213.86
346.75	213.97
347.13	214.04
347.52	214.11
347.90	214.26
348.28	214.30
348.66	214.41
349.05	214.39
349.43	214.45
349.81	214.50
350.19	214.55
350.57	214.63
350.96	214.75
351.34	214.86
351.72	214.96
352.10	215.03
352.48	215.08
352.87	215.18
353.25	215.26
353.63	215.31
354.01	215.35
354.39	215.42
354.77	215.47
355.15	215.59
355.54	215.65
355.92	215.63
356.30	215.68
356.68	215.85
357.06	215.92
357.44	215.95
357.82	216.05
358.20	216.13
358.58	216.17
358.97	216.25
359.35	216.34
359.73	216.45
360.11	216.50
360.49	216.53
360.87	216.55
361.25	216.64
361.63	216.75
362.01	216.83
362.39	216.84
362.77	216.90
363.15	216.92
363.53	216.98
363.91	217.03
364.29	217.07
364.67	216.92
365.05	216.97
365.43	217.00
365.81	217.01
366.19	217.10
366.57	217.19
366.95	217.19
367.33	217.12
367.71	217.14
368.09	217.19
368.47	217.21
368.85	217.20
369.23	217.23
369.61	217.13
369.99	217.18
370.37	217.19
370.75	217.30
371.13	217.26
371.51	217.23
371.89	217.20
372.27	217.20
372.65	217.18
373.03	217.12
373.41	217.10
373.78	217.06
374.16	216.92
374.54	216.85
374.92	216.78
375.30	216.77
375.68	216.65
376.06	216.64
376.44	216.61
376.82	216.56
377.19	216.48
377.57	216.41
377.95	216.30
378.33	216.22
378.71	216.03
379.09	216.00
379.47	215.96
379.84	215.93
380.22	215.88
380.60	215.80
380.98	215.75
381.36	215.70
381.73	215.62
382.11	215.63
382.49	215.56
382.87	215.52
383.25	215.48
383.62	215.68
384.00	215.60
384.38	215.58
384.76	215.60
385.13	215.66
385.51	215.65
385.89	215.59
386.27	215.61
386.64	215.62
387.02	215.55
387.40	215.53
387.78	215.51
388.15	215.48
388.53	215.45
388.91	215.42
389.29	215.39
389.66	215.40
390.04	215.36
390.42	215.38
390.79	215.36
391.17	215.33
391.55	215.11
391.92	215.10
392.30	215.09
392.68	215.04
393.05	214.97
393.43	215.00
393.81	214.99
394.18	214.94
394.56	214.95
394.94	215.00
395.31	214.96
395.69	215.02
396.06	215.03
396.44	215.06
396.82	215.07
397.19	215.21
397.57	215.22
397.95	215.24
398.32	215.23
398.70	215.28
399.07	215.38
399.45	215.40
399.82	215.40
400.20	215.45
400.58	215.52
400.95	215.51
401.33	215.62
401.70	215.86
402.08	215.94
402.45	216.03
402.83	216.16
403.20	216.26
403.58	216.33
403.95	216.52
404.33	216.67
404.71	216.83
405.08	217.08
405.46	217.23
405.83	217.44
406.21	217.67
406.58	217.92
406.96	218.14
407.33	218.41
407.70	218.77
408.08	219.26
408.45	219.61
408.83	220.00
409.20	220.35
409.58	220.59
409.95	221.07
410.33	221.56
410.70	221.99
411.08	222.59
411.45	223.21
411.82	223.77
412.20	224.46
412.57	225.31
412.95	225.88
413.32	226.71
413.69	227.55
414.07	228.43
414.44	229.41
414.82	230.42
415.19	231.65
415.56	232.82
415.94	233.97
416.31	235.37
416.68	236.81
417.06	238.37
417.43	239.92
417.81	241.69
418.18	243.48
418.55	245.45
418.93	247.48
419.30	249.54
419.67	251.77
420.04	254.07
420.42	256.42
420.79	259.24
421.16	262.03
421.54	264.96
421.91	267.94
422.28	271.08
422.66	274.31
423.03	277.52
423.40	280.87
423.77	284.49
424.15	288.18
424.52	292.03
424.89	296.21
425.26	300.34
425.64	304.22
426.01	308.54
426.38	313.03
426.75	317.56
427.13	322.38
427.50	327.37
427.87	332.58
428.24	337.81
428.61	342.81
428.99	348.34
429.36	354.36
429.73	360.31
430.10	366.17
430.47	372.31
430.85	378.66
431.22	385.41
431.59	392.49
431.96	399.31
432.33	406.79
432.70	414.05
433.08	422.57
433.45	430.59
433.82	438.64
434.19	447.57
434.56	456.31
434.93	464.66
435.30	472.96
435.68	482.12
436.05	491.08
436.42	499.99
436.79	508.15
437.16	516.90
437.53	526.11
437.90	535.30
438.27	544.34
438.64	553.52
439.01	562.06
439.38	569.70
439.75	577.07
440.13	585.50
440.50	593.47
440.87	599.89
441.24	606.66
441.61	614.03
441.98	619.33
442.35	625.65
442.72	631.98
443.09	637.98
443.46	641.71
443.83	644.29
444.20	646.49
444.57	649.67
444.94	651.17
445.31	652.64
445.68	654.04
446.05	654.58
446.42	653.83
446.79	652.84
447.16	651.74
447.53	650.95
447.90	647.63
448.27	644.35
448.64	639.70
449.01	636.36
449.37	630.42
449.74	624.79
450.11	617.88
450.48	610.42
450.85	603.02
451.22	596.54
451.59	590.34
451.96	584.48
452.33	576.59
452.70	569.42
453.07	560.94
453.43	552.33
453.80	544.04
454.17	535.99
454.54	528.48
454.91	520.28
455.28	512.30
455.65	504.86
456.02	497.34
456.38	491.01
456.75	483.04
457.12	476.46
457.49	469.94
457.86	463.71
458.23	458.35
458.59	452.39
458.96	446.38
459.33	441.14
459.70	435.79
460.07	431.51
460.43	426.63
460.80	422.00
461.17	417.95
461.54	413.71
461.91	409.72
462.27	405.53
462.64	402.08
463.01	398.27
463.38	394.55
463.74	390.84
464.11	387.58
464.48	384.71
464.85	381.58
465.21	379.10
465.58	376.49
465.95	373.35
466.32	370.72
466.68	368.07
467.05	365.43
467.42	362.87
467.78	360.19
468.15	357.68
468.52	355.78
468.88	353.29
469.25	351.09
469.62	349.27
469.98	347.35
470.35	345.50
470.72	343.81
471.08	342.00
471.45	340.49
471.82	338.98
472.18	337.33
472.55	336.11
472.92	334.71
473.28	333.49
473.65	332.30
474.02	331.18
474.38	330.32
474.75	329.57
475.11	328.72
475.48	328.14
475.85	327.62
476.21	327.14
476.58	326.78
476.94	326.55
477.31	326.27
477.67	325.99
478.04	325.89
478.41	325.82
478.77	326.00
479.14	325.91
479.50	326.08
479.87	326.38
480.23	326.70
480.60	327.00
480.96	327.23
481.33	327.83
481.69	328.37
482.06	328.88
482.42	329.32
482.79	329.95
483.15	330.72
483.52	331.71
483.88	332.62
484.25	333.55
484.61	334.54
484.98	335.56
485.34	336.87
485.71	338.23
486.07	339.67
486.44	340.98
486.80	342.63
487.17	344.26
487.53	346.11
487.90	348.02
488.26	350.05
488.62	352.21
488.99	354.30
489.35	356.49
489.72	358.89
490.08	361.43
490.44	363.99
490.81	366.75
491.17	369.42
491.54	372.44
491.90	375.48
492.26	378.75
492.63	382.18
492.99	385.71
493.36	389.43
493.72	393.32
494.08	397.36
494.45	401.63
494.81	405.95
495.17	410.36
495.54	415.02
495.90	419.80
496.26	424.75
496.63	429.96
496.99	435.39
497.35	440.93
497.72	446.73
498.08	452.66
498.44	458.78
498.80	465.23
499.17	471.71
499.53	478.49
499.89	485.39
500.26	492.42
500.62	499.48
500.98	506.86
501.34	514.35
501.71	522.13
502.07	529.92
502.43	537.98
502.79	546.19
503.16	554.60
503.52	563.23
503.88	571.98
504.24	580.89
504.60	589.95
504.97	599.21
505.33	608.57
505.69	618.38
506.05	628.21
506.41	638.10
506.78	648.14
507.14	658.36
507.50	668.89
507.86	679.60
508.22	690.40
508.59	701.06
508.95	712.21
509.31	723.56
509.67	735.09
510.03	746.46
510.39	758.19
510.75	770.04
511.12	782.03
511.48	794.21
511.84	806.64
512.20	819.04
512.56	831.84
512.92	844.71
513.28	857.51
513.64	870.40
514.00	883.26
514.37	896.31
514.73	909.57
515.09	922.65
515.45	935.58
515.81	948.73
516.17	962.27
516.53	975.59
516.89	988.77
517.25	1001.98
517.61	1015.65
517.97	1029.22
518.33	1042.48
518.69	1056.14
519.05	1069.96
519.41	1083.65
519.77	1097.63
520.13	1111.03
520.49	1124.22
520.85	1137.72
521.21	1151.11
521.57	1164.91
521.93	1178.09
522.29	1191.82
522.65	1205.54
523.01	1219.28
523.37	1232.53
523.73	1245.87
524.09	1259.11
524.45	1272.60
524.81	1286.21
525.17	1299.69
525.53	1312.93
525.89	1326.30
526.25	1339.55
526.61	1352.40
526.97	1365.57
527.33	1378.64
527.68	1392.13
528.04	1405.81
528.40	1419.01
528.76	1432.54
529.12	1445.61
529.48	1459.09
529.84	1471.59
530.20	1484.46
530.56	1497.09
530.91	1510.56
531.27	1523.56
531.63	1536.28
531.99	1549.05
532.35	1561.37
532.71	1573.77
533.07	1586.70
533.42	1599.08
533.78	1611.26
534.14	1623.47
534.50	1634.81
534.86	1646.56
535.21	1657.58
535.57	1669.16
535.93	1680.47
536.29	1691.63
536.65	1703.13
537.00	1714.24
537.36	1725.77
537.72	1736.79
538.08	1748.31
538.44	1759.34
538.79	1770.57
539.15	1781.64
539.51	1792.60
539.87	1804.09
540.22	1815.07
540.58	1826.18
540.94	1837.20
541.29	1847.56
541.65	1857.46
542.01	1868.04
542.37	1878.22
542.72	1888.48
543.08	1898.32
543.44	1908.87
543.79	1918.25
544.15	1927.88
544.51	1937.90
544.87	1947.77
545.22	1957.16
545.58	1966.16
545.94	1975.14
546.29	1983.75
546.65	1992.38
547.01	2000.82
547.36	2008.62
547.72	2016.53
548.07	2024.21
548.43	2032.14
548.79	2040.13
549.14	2048.42
549.50	2057.08
549.86	2065.01
550.21	2072.53
550.57	2080.29
550.92	2087.33
551.28	2094.82
551.64	2102.05
551.99	2109.62
552.35	2116.77
552.70	2123.59
553.06	2130.25
553.41	2136.56
553.77	2143.06
554.13	2149.53
554.48	2156.43
554.84	2163.62
555.19	2170.21
555.55	2176.66
555.90	2183.01
556.26	2189.95
556.61	2196.12
556.97	2200.89
557.32	2206.61
557.68	2213.03
558.03	2218.88
558.39	2224.17
558.74	2230.27
559.10	2235.88
559.45	2241.43
559.81	2247.05
560.16	2252.70
560.52	2258.77
560.87	2265.20
561.23	2271.21
561.58	2277.77
561.94	2282.90
562.29	2287.47
562.64	2293.62
563.00	2299.28
563.35	2304.78
563.71	2310.38
564.06	2316.02
564.42	2321.93
564.77	2327.13
565.12	2332.41
565.48	2337.55
565.83	2343.11
566.19	2348.50
566.54	2353.90
566.89	2358.51
567.25	2363.08
567.60	2368.72
567.96	2373.73
568.31	2378.32
568.66	2382.58
569.02	2386.45
569.37	2390.29
569.72	2394.66
570.08	2398.12
570.43	2401.24
570.78	2404.29
571.14	2406.87
571.49	2409.80
571.84	2413.42
572.20	2416.24
572.55	2419.11
572.90	2421.26
573.26	2423.95
573.61	2426.46
573.96	2428.45
574.31	2430.48
574.67	2432.29
575.02	2433.11
575.37	2434.56
575.72	2435.15
576.08	2436.50
576.43	2436.74
576.78	2437.31
577.13	2438.87
577.49	2439.89
577.84	2440.89
578.19	2442.28
578.54	2442.71
578.90	2443.43
579.25	2443.06
579.60	2442.98
579.95	2442.12
580.30	2442.15
580.66	2441.45
581.01	2439.54
581.36	2437.03
581.71	2435.54
582.06	2434.42
582.42	2433.47
582.77	2431.01
583.12	2429.35
583.47	2427.87
583.82	2427.03
584.17	2425.51
584.53	2423.29
584.88	2421.17
585.23	2419.16
585.58	2416.66
585.93	2414.58
586.28	2412.30
586.63	2409.88
586.98	2407.66
587.34	2405.60
587.69	2403.03
588.04	2400.90
588.39	2399.49
588.74	2397.05
589.09	2394.18
589.44	2390.83
589.79	2388.03
590.14	2386.12
590.49	2383.16
590.84	2379.24
591.19	2375.91
591.54	2372.58
591.89	2368.43
592.25	2365.01
592.60	2360.69
592.95	2356.55
593.30	2352.21
593.65	2347.84
594.00	2343.41
594.35	2340.13
594.70	2335.50
595.05	2330.95
595.40	2325.35
595.75	2319.51
596.10	2315.80
596.45	2310.88
596.80	2306.24
597.15	2301.11
597.50	2295.05
597.85	2290.12
598.19	2284.91
598.54	2279.22
598.89	2273.90
599.24	2269.41
599.59	2263.23
599.94	2257.29
600.29	2251.22
600.64	2245.27
600.99	2238.43
601.34	2232.79
601.69	2225.79
602.04	2219.32
602.39	2212.54
602.74	2206.45
603.08	2200.93
603.43	2194.38
603.78	2187.48
604.13	2180.38
604.48	2173.02
604.83	2166.88
605.18	2160.52
605.53	2153.50
605.87	2146.24
606.22	2139.59
606.57	2131.67
606.92	2123.51
607.27	2116.59
607.62	2109.80
607.96	2102.82
608.31	2096.30
608.66	2088.60
609.01	2080.95
609.36	2073.74
609.70	2066.02
610.05	2058.27
610.40	2049.84
610.75	2041.41
611.10	2033.67
611.44	2024.67
611.79	2016.02
612.14	2006.03
612.49	1995.41
612.83	1986.15
613.18	1976.96
613.53	1967.44
613.88	1957.73
614.22	1949.13
614.57	1939.31
614.92	1928.72
615.27	1918.46
615.61	1908.27
615.96	1898.61
616.31	1888.99
616.65	1879.64
617.00	1869.91
617.35	1860.15
617.70	1850.42
618.04	1840.44
618.39	1830.31
618.74	1820.77
619.08	1811.11
619.43	1802.42
619.78	1794.03
620.12	1785.11
620.47	1775.51
620.82	1765.15
621.16	1755.31
621.51	1745.46
621.85	1735.49
622.20	1725.28
622.55	1714.64
622.89	1704.69
623.24	1694.82
623.59	1684.96
623.93	1674.68
624.28	1664.87
624.62	1654.70
624.97	1644.31
625.32	1634.32
625.66	1625.39
626.01	1616.63
626.35	1607.19
626.70	1597.08
627.04	1587.04
627.39	1577.14
627.73	1567.94
628.08	1559.14
628.43	1549.52
628.77	1540.33
629.12	1531.48
629.46	1523.60
629.81	1515.22
630.15	1505.76
630.50	1495.96
630.84	1485.46
631.19	1475.65
631.53	1466.38
631.88	1456.25
632.22	1446.36
632.57	1437.11
632.91	1426.90
633.26	1416.93
633.60	1407.35
633.95	1398.14
634.29	1388.64
634.64	1379.19
634.98	1369.02
635.32	1359.61
635.67	1351.19
636.01	1341.87
636.36	1332.17
636.70	1322.65
637.05	1313.34
637.39	1304.34
637.73	1295.72
638.08	1288.24
638.42	1280.18
638.77	1271.35
639.11	1263.08
639.45	1255.28
639.80	1246.71
640.14	1238.09
640.49	1229.32
640.83	1220.52
641.17	1212.27
641.52	1204.12
641.86	1195.59
642.20	1187.84
642.55	1179.25
642.89	1170.34
643.23	1161.81
643.58	1153.64
643.92	1144.50
644.26	1135.80
644.61	1127.31
644.95	1118.45
645.29	1109.10
645.64	1099.73
645.98	1091.18
646.32	1083.29
646.66	1074.71
647.01	1066.42
647.35	1058.22
647.69	1049.84
648.04	1041.56
648.38	1032.62
648.72	1023.90
649.06	1015.39
649.41	1007.20
649.75	999.24
650.09	991.48
650.43	983.38
650.78	975.00
651.12	967.30
651.46	959.88
651.80	952.70
652.14	945.45
652.49	937.97
652.83	930.62
653.17	923.02
653.51	915.24
653.85	907.98
654.20	900.71
654.54	893.19
654.88	885.81
655.22	878.50
655.56	871.51
655.90	864.62
656.25	857.94
656.59	850.95
656.93	843.91
657.27	836.63
657.61	829.51
657.95	823.42
658.29	817.46
658.64	811.31
658.98	804.79
659.32	798.19
659.66	791.87
660.00	785.60
660.34	779.40
660.68	773.37
661.02	766.97
661.36	760.96
661.70	755.13
662.05	749.52
662.39	743.99
662.73	738.59
663.07	733.20
663.41	727.49
663.75	721.78
664.09	716.09
664.43	710.63
664.77	705.30
665.11	699.43
665.45	693.46
665.79	687.55
666.13	681.79
666.47	676.24
666.81	670.72
667.15	665.22
667.49	659.96
667.83	654.63
668.17	649.30
668.51	644.11
668.85	639.18
669.19	634.26
669.53	629.19
669.87	623.97
670.21	619.09
670.55	614.40
670.89	609.91
671.23	605.47
671.57	601.02
671.91	596.67
672.25	592.51
672.58	588.31
672.92	584.26
673.26	580.32
673.60	576.45
673.94	572.71
674.28	569.15
674.62	565.44
674.96	561.61
675.30	558.12
675.64	554.46
675.97	550.79
676.31	547.12
676.65	543.54
676.99	540.14
677.33	536.33
677.67	532.66
678.01	528.77
678.34	525.12
678.68	521.58
679.02	517.96
679.36	514.21
679.70	510.62
680.04	506.98
680.37	503.49
680.71	500.14
681.05	496.85
681.39	493.52
681.73	490.29
682.06	487.25
682.40	484.21
682.74	480.99
683.08	477.78
683.42	474.56
683.75	471.52
684.09	468.43
684.43	465.60
684.77	462.61
685.10	459.73
685.44	456.80
685.78	453.83
686.12	451.00
686.45	448.20
686.79	445.46
687.13	442.90
687.46	440.23
687.80	437.46
688.14	434.65
688.48	431.93
688.81	429.23
689.15	426.59
689.49	423.87
689.82	421.30
690.16	418.68
690.50	416.20
690.83	413.66
691.17	411.08
691.51	408.56
691.84	406.27
692.18	404.00
692.52	401.81
692.85	399.67
693.19	397.49
693.52	395.37
693.86	393.12
694.20	390.91
694.53	388.71
694.87	386.48
695.21	384.27
695.54	382.11
695.88	379.93
696.21	377.71
696.55	375.54
696.88	373.44
697.22	371.44
697.56	369.50
697.89	367.62
698.23	365.82
698.56	363.98
698.90	362.21
699.23	360.25
699.57	358.30
699.90	356.34
700.24	354.49
700.58	352.66
700.91	350.99
701.25	349.39
701.58	347.78
701.92	346.18
702.25	344.55
702.59	342.87
702.92	341.32
703.26	339.73
703.59	338.23
703.93	336.93
704.26	335.47
704.60	333.90
704.93	332.39
705.26	330.88
705.60	329.38
705.93	327.84
706.27	326.52
706.60	325.23
706.94	324.00
707.27	322.62
707.61	321.27
707.94	319.89
708.27	318.35
708.61	316.86
708.94	315.46
709.28	314.16
709.61	312.90
709.94	311.69
710.28	310.45
710.61	309.21
710.95	307.78
711.28	306.70
711.61	305.52
711.95	304.37
712.28	303.16
712.61	301.97
712.95	300.85
713.28	299.78
713.61	298.61
713.95	297.44
714.28	296.41
714.61	295.36
714.95	294.30
715.28	293.26
715.61	292.27
715.95	291.26
716.28	290.26
716.61	289.30
716.95	288.25
717.28	287.33
717.61	286.39
717.94	285.48
718.28	284.38
718.61	283.52
718.94	282.57
719.27	281.67
719.61	280.85
719.94	280.00
720.27	279.01
720.60	278.14
720.94	277.32
721.27	276.59
721.60	275.87
721.93	275.15
722.27	274.51
722.60	273.79
722.93	273.07
723.26	272.41
723.59	271.71
723.93	271.06
724.26	270.38
724.59	269.71
724.92	269.10
725.25	268.55
725.59	267.95
725.92	267.45
726.25	266.92
726.58	266.32
726.91	265.71
727.24	265.19
727.57	264.67
727.91	264.07
728.24	263.48
728.57	262.88
728.90	262.35
729.23	261.73
729.56	261.32
729.89	260.76
730.22	260.15
730.55	259.61
730.89	259.04
731.22	258.53
731.55	258.01
731.88	257.45
732.21	256.94
732.54	256.37
732.87	255.80
733.20	255.27
733.53	254.76
733.86	254.29
734.19	253.80
734.52	253.34
734.85	253.06
735.18	252.54
735.51	252.18
735.84	251.71
736.17	251.33
736.50	250.78
736.83	250.67
737.16	250.30
737.49	249.90
737.82	249.53
738.15	249.10
738.48	248.74
738.81	248.35
739.14	247.92
739.47	247.55
739.80	247.18
740.13	246.84
740.46	246.46
740.79	246.06
741.12	245.69
741.45	245.31
741.78	244.84
742.11	244.61
742.44	244.20
742.77	243.87
743.10	243.49
743.43	243.17
743.75	242.58
744.08	242.49
744.41	242.13
744.74	241.77
745.07	241.42
745.40	241.08
745.73	240.84
746.06	240.54
746.39	240.21
746.71	239.86
747.04	239.48
747.37	239.13
747.70	238.87
748.03	238.52
748.36	238.25
748.68	237.92
749.01	237.50
749.34	237.20
749.67	236.91
750.00	236.67
750.33	236.51
750.65	236.22
750.98	235.69
751.31	235.44
751.64	235.23
751.97	235.12
752.29	234.86
752.62	234.51
752.95	234.24
753.28	233.97
753.60	233.75
753.93	233.59
754.26	233.42
754.59	233.11
754.91	232.89
755.24	232.64
755.57	232.39
755.90	232.17
756.22	231.91
756.55	231.67
756.88	231.40
757.20	231.01
757.53	230.76
757.86	230.57
758.19	230.40
758.51	230.17
758.84	229.82
759.17	229.59
759.49	229.45
759.82	229.38
760.15	229.24
760.47	229.03
760.80	228.77
761.13	228.58
761.45	228.41
761.78	228.22
762.11	228.03
762.43	227.86
762.76	227.69
763.08	227.55
763.41	227.41
763.74	227.28
764.06	227.13
764.39	226.98
764.71	226.79
765.04	226.59
765.37	226.42
765.69	226.28
766.02	226.16
766.34	225.97
766.67	225.75
767.00	225.62
767.32	225.61
767.65	225.62
767.97	225.47
768.30	225.35
768.62	225.22
768.95	225.06
769.27	224.94
769.60	224.85
769.92	224.71
770.25	224.50
770.57	224.33
770.90	224.23
771.22	224.11
771.55	224.04
771.87	223.95
772.20	223.83
772.52	223.88
772.85	224.03
773.17	223.94
773.50	223.80
773.82	223.67
774.15	223.50
774.47	223.28
774.80	223.19
775.12	223.07
775.45	222.99
775.77	222.91
776.09	222.82
776.42	222.73
776.74	222.71
777.07	222.64
777.39	222.58
777.72	222.50
778.04	222.43
778.36	222.28
778.69	222.18
779.01	222.11
779.33	221.85
779.66	221.51
779.98	221.42
780.31	221.37
780.63	221.36
780.95	221.27
781.28	221.21
781.60	221.11
781.92	221.07
782.25	221.00
782.57	220.94
782.89	220.88
783.22	220.80
783.54	220.70
783.86	220.67
784.19	220.57
784.51	220.54
784.83	220.48
785.16	220.44
785.48	220.41
785.80	220.33
786.12	220.28
