SpectraSuite Data File
++++++++++++++++++++++++++++++++++++
Date: Tue Jan 29 16:24:53 EST 2013
User: group
Dark Spectrum Present: No
Reference Spectrum Present: No
Number of Sampled Component Spectra: 1
Spectrometers: USB2E7196
Integration Time (usec): 65000 (USB2E7196)
Spectra Averaged: 100 (USB2E7196)
Boxcar Smoothing: 10 (USB2E7196)
Correct for Electrical Dark: No (USB2E7196)
Strobe/Lamp Enabled: No (USB2E7196)
Correct for Detector Non-linearity: No (USB2E7196)
Correct for Stray Light: No (USB2E7196)
Number of Pixels in Processed Spectrum: 2048
>>>>>Begin Processed Spectral Data<<<<<
339.09	0.00
339.48	202.10
339.86	203.41
340.24	205.00
340.63	206.06
341.01	210.62
341.39	208.49
341.78	210.02
342.16	211.88
342.54	212.10
342.93	201.23
343.31	211.39
343.69	211.96
344.07	212.45
344.46	212.91
344.84	213.35
345.22	213.52
345.60	213.80
345.99	214.04
346.37	214.18
346.75	214.30
347.13	214.39
347.52	214.49
347.90	214.64
348.28	214.66
348.66	214.78
349.05	214.76
349.43	214.85
349.81	214.92
350.19	214.97
350.57	215.07
350.96	215.19
351.34	215.31
351.72	215.39
352.10	215.48
352.48	215.54
352.87	215.57
353.25	215.69
353.63	215.75
354.01	215.82
354.39	215.88
354.77	215.98
355.15	216.06
355.54	216.11
355.92	216.07
356.30	216.15
356.68	216.38
357.06	216.43
357.44	216.49
357.82	216.54
358.20	216.62
358.58	216.67
358.97	216.73
359.35	216.85
359.73	216.97
360.11	217.05
360.49	217.13
360.87	217.18
361.25	217.24
361.63	217.40
362.01	217.47
362.39	217.51
362.77	217.57
363.15	217.64
363.53	217.71
363.91	217.80
364.29	217.84
364.67	217.66
365.05	217.69
365.43	217.70
365.81	217.75
366.19	217.86
366.57	217.95
366.95	217.96
367.33	217.90
367.71	217.88
368.09	217.91
368.47	217.92
368.85	217.90
369.23	217.94
369.61	217.85
369.99	217.89
370.37	217.91
370.75	217.98
371.13	217.93
371.51	217.85
371.89	217.84
372.27	217.79
372.65	217.79
373.03	217.76
373.41	217.75
373.78	217.71
374.16	217.55
374.54	217.45
374.92	217.43
375.30	217.39
375.68	217.32
376.06	217.27
376.44	217.18
376.82	217.16
377.19	217.09
377.57	217.02
377.95	216.90
378.33	216.84
378.71	216.67
379.09	216.65
379.47	216.63
379.84	216.56
380.22	216.53
380.60	216.40
380.98	216.37
381.36	216.28
381.73	216.21
382.11	216.20
382.49	216.20
382.87	216.11
383.25	216.07
383.62	216.26
384.00	216.19
384.38	216.15
384.76	216.18
385.13	216.20
385.51	216.18
385.89	216.10
386.27	216.11
386.64	216.12
387.02	216.06
387.40	216.02
387.78	216.01
388.15	215.99
388.53	215.99
388.91	215.93
389.29	215.92
389.66	215.92
390.04	215.87
390.42	215.84
390.79	215.85
391.17	215.87
391.55	215.63
391.92	215.63
392.30	215.66
392.68	215.59
393.05	215.56
393.43	215.54
393.81	215.56
394.18	215.51
394.56	215.49
394.94	215.56
395.31	215.55
395.69	215.59
396.06	215.62
396.44	215.65
396.82	215.67
397.19	215.77
397.57	215.79
397.95	215.90
398.32	215.87
398.70	215.89
399.07	215.96
399.45	215.98
399.82	216.03
400.20	216.06
400.58	216.12
400.95	216.10
401.33	216.23
401.70	216.46
402.08	216.56
402.45	216.65
402.83	216.79
403.20	216.88
403.58	216.97
403.95	217.13
404.33	217.28
404.71	217.42
405.08	217.69
405.46	217.88
405.83	218.02
406.21	218.22
406.58	218.47
406.96	218.67
407.33	218.93
407.70	219.23
408.08	219.69
408.45	220.04
408.83	220.46
409.20	220.78
409.58	221.02
409.95	221.47
410.33	221.94
410.70	222.35
411.08	222.92
411.45	223.48
411.82	224.05
412.20	224.74
412.57	225.58
412.95	226.16
413.32	226.98
413.69	227.85
414.07	228.77
414.44	229.74
414.82	230.78
415.19	231.96
415.56	233.14
415.94	234.32
416.31	235.72
416.68	237.12
417.06	238.75
417.43	240.30
417.81	242.04
418.18	243.81
418.55	245.74
418.93	247.74
419.30	249.85
419.67	252.04
420.04	254.32
420.42	256.66
420.79	259.44
421.16	262.25
421.54	265.12
421.91	268.08
422.28	271.14
422.66	274.40
423.03	277.64
423.40	280.94
423.77	284.50
424.15	288.12
424.52	291.96
424.89	296.09
425.26	300.17
425.64	304.00
426.01	308.25
426.38	312.69
426.75	317.27
427.13	321.97
427.50	326.92
427.87	332.13
428.24	337.34
428.61	342.31
428.99	347.80
429.36	353.81
429.73	359.70
430.10	365.58
430.47	371.62
430.85	377.91
431.22	384.59
431.59	391.69
431.96	398.49
432.33	405.89
432.70	413.11
433.08	421.56
433.45	429.67
433.82	437.65
434.19	446.49
434.56	455.07
434.93	463.41
435.30	471.64
435.68	480.71
436.05	489.70
436.42	498.63
436.79	506.73
437.16	515.48
437.53	524.71
437.90	533.84
438.27	542.79
438.64	551.94
439.01	560.48
439.38	568.07
439.75	575.36
440.13	583.78
440.50	591.72
440.87	598.12
441.24	604.67
441.61	611.97
441.98	617.39
442.35	623.79
442.72	630.05
443.09	636.11
443.46	639.88
443.83	642.26
444.20	644.44
444.57	647.60
444.94	648.99
445.31	650.38
445.68	651.71
446.05	652.29
446.42	651.56
446.79	650.59
447.16	649.50
447.53	648.79
447.90	645.50
448.27	642.16
448.64	637.55
449.01	634.23
449.37	628.38
449.74	622.68
450.11	615.74
450.48	608.38
450.85	600.97
451.22	594.41
451.59	588.34
451.96	582.51
452.33	574.61
452.70	567.50
453.07	559.04
453.43	550.50
453.80	542.21
454.17	534.20
454.54	526.67
454.91	518.49
455.28	510.50
455.65	503.10
456.02	495.72
456.38	489.42
456.75	481.61
457.12	475.01
457.49	468.53
457.86	462.41
458.23	457.03
458.59	451.10
458.96	445.13
459.33	439.92
459.70	434.50
460.07	430.25
460.43	425.44
460.80	420.92
461.17	416.89
461.54	412.74
461.91	408.74
462.27	404.66
462.64	401.25
463.01	397.48
463.38	393.86
463.74	390.08
464.11	386.83
464.48	383.99
464.85	380.96
465.21	378.57
465.58	375.91
465.95	372.79
466.32	370.19
466.68	367.66
467.05	365.04
467.42	362.54
467.78	359.83
468.15	357.28
468.52	355.39
468.88	352.94
469.25	350.72
469.62	348.95
469.98	347.07
470.35	345.26
470.72	343.55
471.08	341.70
471.45	340.22
471.82	338.73
472.18	337.09
472.55	335.90
472.92	334.46
473.28	333.33
473.65	332.22
474.02	331.12
474.38	330.17
474.75	329.39
475.11	328.63
475.48	328.09
475.85	327.62
476.21	327.14
476.58	326.84
476.94	326.66
477.31	326.35
477.67	326.04
478.04	325.89
478.41	325.86
478.77	326.02
479.14	325.96
479.50	326.10
479.87	326.41
480.23	326.76
480.60	327.02
480.96	327.24
481.33	327.84
481.69	328.40
482.06	328.95
482.42	329.47
482.79	330.07
483.15	330.91
483.52	331.82
483.88	332.67
484.25	333.63
484.61	334.63
484.98	335.71
485.34	337.06
485.71	338.43
486.07	339.92
486.44	341.27
486.80	342.95
487.17	344.66
487.53	346.46
487.90	348.30
488.26	350.38
488.62	352.55
488.99	354.63
489.35	356.80
489.72	359.21
490.08	361.72
490.44	364.26
490.81	366.95
491.17	369.66
491.54	372.65
491.90	375.69
492.26	378.92
492.63	382.34
492.99	385.80
493.36	389.46
493.72	393.31
494.08	397.36
494.45	401.56
494.81	405.92
495.17	410.39
495.54	415.08
495.90	419.90
496.26	424.87
496.63	430.03
496.99	435.42
497.35	440.97
497.72	446.79
498.08	452.79
498.44	458.92
498.80	465.40
499.17	472.01
499.53	478.76
499.89	485.75
500.26	492.77
500.62	499.89
500.98	507.38
501.34	514.91
501.71	522.76
502.07	530.69
502.43	538.70
502.79	546.88
503.16	555.39
503.52	564.02
503.88	572.82
504.24	581.86
504.60	591.04
504.97	600.39
505.33	609.69
505.69	619.59
506.05	629.50
506.41	639.45
506.78	649.56
507.14	659.84
507.50	670.35
507.86	681.16
508.22	692.05
508.59	702.79
508.95	713.89
509.31	725.14
509.67	736.70
510.03	748.25
510.39	760.07
510.75	771.97
511.12	783.96
511.48	796.14
511.84	808.53
512.20	820.88
512.56	833.67
512.92	846.64
513.28	859.34
513.64	872.25
514.00	885.22
514.37	898.29
514.73	911.48
515.09	924.58
515.45	937.56
515.81	950.71
516.17	964.19
516.53	977.60
516.89	990.81
517.25	1004.06
517.61	1017.71
517.97	1031.30
518.33	1044.50
518.69	1058.17
519.05	1071.99
519.41	1085.67
519.77	1099.83
520.13	1113.11
520.49	1126.36
520.85	1139.88
521.21	1153.35
521.57	1167.12
521.93	1180.36
522.29	1194.29
522.65	1208.06
523.01	1221.84
523.37	1235.21
523.73	1248.63
524.09	1261.85
524.45	1275.49
524.81	1289.12
525.17	1302.63
525.53	1315.87
525.89	1329.33
526.25	1342.66
526.61	1355.66
526.97	1368.93
527.33	1381.89
527.68	1395.53
528.04	1409.24
528.40	1422.57
528.76	1436.03
529.12	1449.13
529.48	1462.47
529.84	1474.74
530.20	1487.48
530.56	1500.16
530.91	1513.54
531.27	1526.49
531.63	1539.33
531.99	1552.18
532.35	1564.47
532.71	1576.83
533.07	1589.82
533.42	1602.18
533.78	1614.28
534.14	1626.50
534.50	1637.91
534.86	1649.67
535.21	1660.66
535.57	1672.26
535.93	1683.61
536.29	1694.70
536.65	1706.28
537.00	1717.41
537.36	1729.06
537.72	1740.25
538.08	1751.68
538.44	1762.77
538.79	1773.97
539.15	1785.12
539.51	1796.01
539.87	1807.40
540.22	1818.43
540.58	1829.54
540.94	1840.58
541.29	1851.09
541.65	1860.86
542.01	1871.44
542.37	1881.64
542.72	1892.00
543.08	1901.83
543.44	1912.40
543.79	1921.74
544.15	1931.20
544.51	1941.26
544.87	1951.09
545.22	1960.29
545.58	1969.30
545.94	1978.13
546.29	1986.72
546.65	1995.09
547.01	2003.29
547.36	2011.15
547.72	2018.85
548.07	2026.33
548.43	2034.11
548.79	2041.91
549.14	2050.09
549.50	2058.55
549.86	2066.42
550.21	2073.74
550.57	2081.48
550.92	2088.29
551.28	2095.95
551.64	2103.25
551.99	2110.87
552.35	2118.14
552.70	2125.19
553.06	2131.94
553.41	2138.44
553.77	2144.88
554.13	2151.38
554.48	2158.62
554.84	2165.63
555.19	2172.28
555.55	2178.86
555.90	2185.21
556.26	2192.02
556.61	2198.22
556.97	2203.06
557.32	2208.85
557.68	2215.38
558.03	2221.15
558.39	2226.64
558.74	2232.65
559.10	2238.30
559.45	2243.82
559.81	2249.39
560.16	2254.91
560.52	2260.73
560.87	2267.13
561.23	2273.27
561.58	2280.01
561.94	2285.10
562.29	2289.92
562.64	2296.10
563.00	2301.90
563.35	2307.59
563.71	2313.60
564.06	2319.30
564.42	2325.41
564.77	2330.55
565.12	2335.94
565.48	2341.22
565.83	2346.76
566.19	2352.24
566.54	2357.60
566.89	2362.21
567.25	2366.79
567.60	2372.63
567.96	2377.88
568.31	2382.32
568.66	2386.63
569.02	2390.60
569.37	2394.73
569.72	2399.13
570.08	2402.63
570.43	2405.76
570.78	2408.92
571.14	2411.32
571.49	2414.54
571.84	2418.11
572.20	2421.11
572.55	2424.10
572.90	2426.42
573.26	2429.27
573.61	2431.87
573.96	2434.09
574.31	2436.16
574.67	2438.32
575.02	2438.99
575.37	2440.44
575.72	2441.46
576.08	2442.86
576.43	2442.98
576.78	2443.26
577.13	2445.00
577.49	2446.19
577.84	2447.25
578.19	2448.61
578.54	2449.36
578.90	2450.03
579.25	2450.04
579.60	2450.00
579.95	2449.31
580.30	2449.40
580.66	2448.74
581.01	2447.13
581.36	2444.83
581.71	2443.53
582.06	2442.32
582.42	2441.63
582.77	2439.48
583.12	2437.82
583.47	2436.55
583.82	2436.07
584.17	2434.87
584.53	2432.73
584.88	2430.84
585.23	2428.98
585.58	2426.63
585.93	2424.55
586.28	2422.59
586.63	2420.10
586.98	2417.99
587.34	2416.03
587.69	2413.65
588.04	2411.57
588.39	2410.31
588.74	2407.88
589.09	2405.06
589.44	2401.92
589.79	2399.36
590.14	2397.38
590.49	2394.59
590.84	2390.86
591.19	2387.60
591.54	2384.36
591.89	2380.40
592.25	2377.07
592.60	2372.94
592.95	2368.96
593.30	2364.86
593.65	2360.43
594.00	2355.88
594.35	2352.91
594.70	2348.28
595.05	2343.81
595.40	2338.40
595.75	2332.39
596.10	2328.75
596.45	2324.09
596.80	2319.54
597.15	2314.50
597.50	2308.73
597.85	2303.76
598.19	2298.51
598.54	2292.71
598.89	2287.38
599.24	2282.74
599.59	2276.62
599.94	2270.68
600.29	2264.57
600.64	2258.63
600.99	2251.67
601.34	2246.16
601.69	2239.08
602.04	2232.54
602.39	2225.71
602.74	2219.48
603.08	2214.05
603.43	2207.49
603.78	2200.47
604.13	2193.23
604.48	2185.78
604.83	2179.52
605.18	2173.22
605.53	2166.21
605.87	2159.13
606.22	2152.48
606.57	2144.47
606.92	2136.45
607.27	2129.46
607.62	2122.69
607.96	2115.71
608.31	2109.33
608.66	2101.69
609.01	2093.87
609.36	2086.83
609.70	2079.14
610.05	2071.32
610.40	2062.87
610.75	2054.42
611.10	2046.57
611.44	2037.62
611.79	2028.80
612.14	2018.69
612.49	2007.99
612.83	1998.54
613.18	1989.35
613.53	1979.91
613.88	1970.24
614.22	1961.44
614.57	1951.55
614.92	1940.98
615.27	1930.56
615.61	1920.34
615.96	1910.43
616.31	1900.87
616.65	1891.26
617.00	1881.42
617.35	1871.76
617.70	1861.97
618.04	1851.97
618.39	1841.76
618.74	1832.12
619.08	1822.46
619.43	1813.79
619.78	1805.45
620.12	1796.84
620.47	1787.03
620.82	1776.45
621.16	1766.53
621.51	1756.55
621.85	1746.55
622.20	1736.17
622.55	1725.60
622.89	1715.47
623.24	1705.70
623.59	1695.80
623.93	1685.67
624.28	1675.74
624.62	1665.42
624.97	1655.00
625.32	1645.05
625.66	1636.09
626.01	1627.21
626.35	1617.78
626.70	1607.52
627.04	1597.31
627.39	1586.92
627.73	1577.59
628.08	1568.61
628.43	1559.12
628.77	1549.87
629.12	1540.91
629.46	1532.95
629.81	1524.45
630.15	1514.93
630.50	1504.95
630.84	1494.32
631.19	1484.34
631.53	1474.99
631.88	1464.77
632.22	1454.69
632.57	1445.17
632.91	1434.93
633.26	1424.85
633.60	1415.16
633.95	1405.77
634.29	1396.20
634.64	1386.83
634.98	1376.74
635.32	1367.31
635.67	1358.72
636.01	1349.19
636.36	1339.37
636.70	1329.70
637.05	1320.17
637.39	1311.25
637.73	1302.55
638.08	1294.94
638.42	1286.57
638.77	1277.67
639.11	1269.34
639.45	1261.43
639.80	1252.86
640.14	1243.97
640.49	1235.20
640.83	1226.22
641.17	1217.95
641.52	1209.63
641.86	1201.04
642.20	1193.14
642.55	1184.31
642.89	1175.23
643.23	1166.59
643.58	1158.32
643.92	1149.11
644.26	1140.34
644.61	1131.64
644.95	1122.75
645.29	1113.44
645.64	1104.15
645.98	1095.41
646.32	1087.42
646.66	1078.74
647.01	1070.33
647.35	1062.17
647.69	1053.66
648.04	1045.34
648.38	1036.36
648.72	1027.52
649.06	1018.89
649.41	1010.49
649.75	1002.60
650.09	994.59
650.43	986.41
650.78	977.96
651.12	970.21
651.46	962.77
651.80	955.48
652.14	948.19
652.49	940.48
652.83	933.03
653.17	925.34
653.51	917.59
653.85	910.32
654.20	902.85
654.54	895.28
654.88	887.96
655.22	880.63
655.56	873.54
655.90	866.58
656.25	859.87
656.59	852.90
656.93	845.82
657.27	838.67
657.61	831.61
657.95	825.51
658.29	819.41
658.64	813.07
658.98	806.45
659.32	799.71
659.66	793.42
660.00	787.02
660.34	780.84
660.68	774.66
661.02	768.18
661.36	762.16
661.70	756.30
662.05	750.60
662.39	744.98
662.73	739.51
663.07	734.05
663.41	728.36
663.75	722.61
664.09	716.73
664.43	711.18
664.77	705.80
665.11	699.87
665.45	693.96
665.79	688.09
666.13	682.35
666.47	676.83
666.81	671.32
667.15	665.91
667.49	660.67
667.83	655.34
668.17	650.01
668.51	644.86
668.85	639.77
669.19	634.83
669.53	629.75
669.87	624.64
670.21	619.88
670.55	615.03
670.89	610.47
671.23	606.11
671.57	601.73
671.91	597.33
672.25	593.13
672.58	588.91
672.92	584.82
673.26	580.85
673.60	576.92
673.94	573.00
674.28	569.35
674.62	565.59
674.96	561.80
675.30	558.24
675.64	554.51
675.97	550.91
676.31	547.17
676.65	543.51
676.99	540.01
677.33	536.07
677.67	532.42
678.01	528.58
678.34	524.88
678.68	521.28
679.02	517.69
679.36	513.91
679.70	510.21
680.04	506.63
680.37	503.12
680.71	499.73
681.05	496.56
681.39	493.21
681.73	489.96
682.06	486.88
682.40	483.77
682.74	480.55
683.08	477.27
683.42	474.07
683.75	471.04
684.09	467.93
684.43	465.11
684.77	462.07
685.10	459.18
685.44	456.24
685.78	453.24
686.12	450.38
686.45	447.64
686.79	444.97
687.13	442.41
687.46	439.77
687.80	437.07
688.14	434.17
688.48	431.46
688.81	428.78
689.15	426.11
689.49	423.46
689.82	420.89
690.16	418.26
690.50	415.76
690.83	413.24
691.17	410.65
691.51	408.16
691.84	405.93
692.18	403.62
692.52	401.41
692.85	399.31
693.19	397.13
693.52	394.88
693.86	392.62
694.20	390.43
694.53	388.25
694.87	385.99
695.21	383.81
695.54	381.62
695.88	379.44
696.21	377.21
696.55	375.11
696.88	373.06
697.22	371.10
697.56	369.14
697.89	367.20
698.23	365.44
698.56	363.63
698.90	361.81
699.23	359.93
699.57	358.00
699.90	356.05
700.24	354.26
700.58	352.55
700.91	350.88
701.25	349.24
701.58	347.61
701.92	346.05
702.25	344.49
702.59	342.87
702.92	341.28
703.26	339.73
703.59	338.24
703.93	336.86
704.26	335.42
704.60	333.98
704.93	332.48
705.26	330.96
705.60	329.44
705.93	327.90
706.27	326.58
706.60	325.32
706.94	324.14
707.27	322.75
707.61	321.36
707.94	319.96
708.27	318.43
708.61	316.95
708.94	315.55
709.28	314.19
709.61	312.95
709.94	311.74
710.28	310.53
710.61	309.26
710.95	307.87
711.28	306.75
711.61	305.56
711.95	304.45
712.28	303.24
712.61	302.06
712.95	301.02
713.28	299.90
713.61	298.72
713.95	297.49
714.28	296.44
714.61	295.39
714.95	294.36
715.28	293.34
715.61	292.32
715.95	291.34
716.28	290.34
716.61	289.38
716.95	288.36
717.28	287.41
717.61	286.47
717.94	285.55
718.28	284.50
718.61	283.56
718.94	282.66
719.27	281.80
719.61	280.97
719.94	280.07
720.27	279.13
720.60	278.29
720.94	277.47
721.27	276.69
721.60	275.99
721.93	275.30
722.27	274.62
722.60	273.95
722.93	273.21
723.26	272.57
723.59	271.87
723.93	271.23
724.26	270.59
724.59	269.93
724.92	269.33
725.25	268.79
725.59	268.22
725.92	267.66
726.25	267.06
726.58	266.46
726.91	265.83
727.24	265.30
727.57	264.73
727.91	264.14
728.24	263.59
728.57	262.97
728.90	262.41
729.23	261.80
729.56	261.37
729.89	260.85
730.22	260.27
730.55	259.70
730.89	259.11
731.22	258.53
731.55	258.00
731.88	257.46
732.21	256.89
732.54	256.33
732.87	255.80
733.20	255.32
733.53	254.85
733.86	254.43
734.19	253.92
734.52	253.47
734.85	253.18
735.18	252.69
735.51	252.34
735.84	251.88
736.17	251.51
736.50	250.99
736.83	250.81
737.16	250.43
737.49	250.05
737.82	249.66
738.15	249.28
738.48	248.89
738.81	248.51
739.14	248.09
739.47	247.68
739.80	247.28
740.13	246.93
740.46	246.53
740.79	246.11
741.12	245.75
741.45	245.38
741.78	244.92
742.11	244.66
742.44	244.28
742.77	244.01
743.10	243.63
743.43	243.25
743.75	242.68
744.08	242.60
744.41	242.23
744.74	241.89
745.07	241.53
745.40	241.27
745.73	241.00
746.06	240.70
746.39	240.41
746.71	240.08
747.04	239.75
747.37	239.44
747.70	239.16
748.03	238.89
748.36	238.60
748.68	238.27
749.01	237.87
749.34	237.55
749.67	237.27
750.00	237.00
750.33	236.87
750.65	236.62
750.98	236.12
751.31	235.89
751.64	235.68
751.97	235.55
752.29	235.26
752.62	234.93
752.95	234.65
753.28	234.42
753.60	234.22
753.93	234.05
754.26	233.82
754.59	233.51
754.91	233.24
755.24	233.03
755.57	232.80
755.90	232.59
756.22	232.37
756.55	232.10
756.88	231.84
757.20	231.50
757.53	231.25
757.86	231.03
758.19	230.85
758.51	230.62
758.84	230.32
759.17	230.10
759.49	229.92
759.82	229.87
760.15	229.69
760.47	229.46
760.80	229.21
761.13	229.05
761.45	228.89
761.78	228.72
762.11	228.54
762.43	228.37
762.76	228.22
763.08	228.05
763.41	227.90
763.74	227.75
764.06	227.60
764.39	227.43
764.71	227.25
765.04	227.07
765.37	226.91
765.69	226.77
766.02	226.63
766.34	226.49
766.67	226.24
767.00	226.14
767.32	226.14
767.65	226.13
767.97	225.98
768.30	225.87
768.62	225.75
768.95	225.60
769.27	225.47
769.60	225.37
769.92	225.21
770.25	225.01
770.57	224.86
770.90	224.71
771.22	224.59
771.55	224.49
771.87	224.38
772.20	224.25
772.52	224.30
772.85	224.45
773.17	224.35
773.50	224.28
773.82	224.12
774.15	223.88
774.47	223.64
774.80	223.51
775.12	223.37
775.45	223.24
775.77	223.14
776.09	223.07
776.42	222.96
776.74	222.94
777.07	222.86
777.39	222.79
777.72	222.73
778.04	222.68
778.36	222.57
778.69	222.47
779.01	222.42
779.33	222.13
779.66	221.78
779.98	221.70
780.31	221.57
780.63	221.58
780.95	221.54
781.28	221.50
781.60	221.42
781.92	221.40
782.25	221.33
782.57	221.29
782.89	221.22
783.22	221.15
783.54	221.06
783.86	221.01
784.19	220.93
784.51	220.91
784.83	220.80
785.16	220.74
785.48	220.70
785.80	220.60
786.12	220.59
