SpectraSuite Data File
++++++++++++++++++++++++++++++++++++
Date: Tue Jan 29 16:51:53 EST 2013
User: group
Dark Spectrum Present: No
Reference Spectrum Present: No
Number of Sampled Component Spectra: 1
Spectrometers: USB2E7196
Integration Time (usec): 65000 (USB2E7196)
Spectra Averaged: 100 (USB2E7196)
Boxcar Smoothing: 10 (USB2E7196)
Correct for Electrical Dark: No (USB2E7196)
Strobe/Lamp Enabled: No (USB2E7196)
Correct for Detector Non-linearity: No (USB2E7196)
Correct for Stray Light: No (USB2E7196)
Number of Pixels in Processed Spectrum: 2048
>>>>>Begin Processed Spectral Data<<<<<
339.09	0.00
339.48	201.21
339.86	202.85
340.24	204.10
340.63	205.12
341.01	209.82
341.39	208.31
341.78	209.47
342.16	211.48
342.54	211.42
342.93	200.66
343.31	210.80
343.69	211.36
344.07	211.84
344.46	212.31
344.84	212.76
345.22	212.95
345.60	213.24
345.99	213.46
346.37	213.59
346.75	213.71
347.13	213.80
347.52	213.88
347.90	213.98
348.28	214.02
348.66	214.11
349.05	214.11
349.43	214.18
349.81	214.26
350.19	214.30
350.57	214.40
350.96	214.50
351.34	214.61
351.72	214.74
352.10	214.87
352.48	214.94
352.87	215.00
353.25	215.11
353.63	215.18
354.01	215.22
354.39	215.31
354.77	215.38
355.15	215.49
355.54	215.56
355.92	215.58
356.30	215.65
356.68	215.84
357.06	215.89
357.44	215.94
357.82	216.00
358.20	216.10
358.58	216.14
358.97	216.19
359.35	216.28
359.73	216.37
360.11	216.41
360.49	216.46
360.87	216.49
361.25	216.52
361.63	216.62
362.01	216.71
362.39	216.74
362.77	216.79
363.15	216.80
363.53	216.81
363.91	216.87
364.29	216.86
364.67	216.68
365.05	216.71
365.43	216.76
365.81	216.80
366.19	216.86
366.57	216.95
366.95	216.95
367.33	216.89
367.71	216.86
368.09	216.86
368.47	216.84
368.85	216.83
369.23	216.88
369.61	216.77
369.99	216.79
370.37	216.76
370.75	216.84
371.13	216.76
371.51	216.71
371.89	216.67
372.27	216.69
372.65	216.62
373.03	216.56
373.41	216.49
373.78	216.43
374.16	216.31
374.54	216.20
374.92	216.15
375.30	216.14
375.68	216.06
376.06	216.03
376.44	215.98
376.82	215.94
377.19	215.85
377.57	215.80
377.95	215.68
378.33	215.68
378.71	215.53
379.09	215.52
379.47	215.51
379.84	215.46
380.22	215.37
380.60	215.33
380.98	215.28
381.36	215.21
381.73	215.13
382.11	215.14
382.49	215.12
382.87	215.04
383.25	214.98
383.62	215.19
384.00	215.12
384.38	215.07
384.76	215.05
385.13	215.09
385.51	215.07
385.89	215.04
386.27	215.00
386.64	214.99
387.02	214.96
387.40	214.93
387.78	214.92
388.15	214.93
388.53	214.89
388.91	214.88
389.29	214.87
389.66	214.93
390.04	214.91
390.42	214.91
390.79	214.92
391.17	214.90
391.55	214.66
391.92	214.65
392.30	214.68
392.68	214.63
393.05	214.62
393.43	214.63
393.81	214.62
394.18	214.57
394.56	214.60
394.94	214.66
395.31	214.65
395.69	214.72
396.06	214.76
396.44	214.81
396.82	214.85
397.19	214.99
397.57	214.96
397.95	215.01
398.32	214.97
398.70	215.03
399.07	215.11
399.45	215.14
399.82	215.19
400.20	215.21
400.58	215.29
400.95	215.29
401.33	215.35
401.70	215.54
402.08	215.63
402.45	215.68
402.83	215.77
403.20	215.88
403.58	215.95
403.95	216.10
404.33	216.26
404.71	216.39
405.08	216.61
405.46	216.77
405.83	216.97
406.21	217.19
406.58	217.40
406.96	217.65
407.33	217.93
407.70	218.24
408.08	218.73
408.45	219.06
408.83	219.42
409.20	219.78
409.58	220.09
409.95	220.57
410.33	221.08
410.70	221.55
411.08	222.12
411.45	222.71
411.82	223.29
412.20	224.00
412.57	224.83
412.95	225.41
413.32	226.28
413.69	227.10
414.07	228.01
414.44	228.98
414.82	230.00
415.19	231.19
415.56	232.37
415.94	233.54
416.31	234.99
416.68	236.41
417.06	238.06
417.43	239.62
417.81	241.42
418.18	243.23
418.55	245.18
418.93	247.19
419.30	249.32
419.67	251.55
420.04	253.82
420.42	256.19
420.79	259.09
421.16	261.84
421.54	264.80
421.91	267.83
422.28	270.97
422.66	274.28
423.03	277.53
423.40	280.94
423.77	284.55
424.15	288.23
424.52	292.10
424.89	296.29
425.26	300.42
425.64	304.29
426.01	308.60
426.38	313.08
426.75	317.68
427.13	322.41
427.50	327.43
427.87	332.69
428.24	337.95
428.61	342.92
428.99	348.50
429.36	354.51
429.73	360.42
430.10	366.32
430.47	372.42
430.85	378.77
431.22	385.46
431.59	392.61
431.96	399.47
432.33	407.07
432.70	414.36
433.08	422.97
433.45	431.04
433.82	439.12
434.19	448.07
434.56	456.83
434.93	465.17
435.30	473.46
435.68	482.64
436.05	491.65
436.42	500.63
436.79	508.81
437.16	517.64
437.53	526.98
437.90	536.15
438.27	545.14
438.64	554.45
439.01	563.11
439.38	570.74
439.75	578.13
440.13	586.61
440.50	594.59
440.87	600.98
441.24	607.63
441.61	614.95
441.98	620.33
442.35	626.71
442.72	633.08
443.09	639.22
443.46	642.86
443.83	645.43
444.20	647.65
444.57	650.82
444.94	652.28
445.31	653.72
445.68	655.14
446.05	655.83
446.42	655.02
446.79	654.08
447.16	653.03
447.53	652.31
447.90	648.92
448.27	645.65
448.64	641.01
449.01	637.76
449.37	631.90
449.74	626.26
450.11	619.33
450.48	611.96
450.85	604.45
451.22	598.06
451.59	591.92
451.96	586.02
452.33	578.19
452.70	571.07
453.07	562.54
453.43	553.95
453.80	545.61
454.17	537.63
454.54	529.96
454.91	521.72
455.28	513.66
455.65	506.15
456.02	498.62
456.38	492.28
456.75	484.31
457.12	477.62
457.49	471.04
457.86	464.80
458.23	459.32
458.59	453.35
458.96	447.27
459.33	441.85
459.70	436.48
460.07	432.15
460.43	427.24
460.80	422.64
461.17	418.56
461.54	414.30
461.91	410.21
462.27	406.10
462.64	402.63
463.01	398.82
463.38	395.15
463.74	391.40
464.11	388.11
464.48	385.29
464.85	382.17
465.21	379.70
465.58	377.07
465.95	373.93
466.32	371.32
466.68	368.73
467.05	366.15
467.42	363.55
467.78	360.85
468.15	358.24
468.52	356.27
468.88	353.79
469.25	351.55
469.62	349.77
469.98	347.75
470.35	345.91
470.72	344.17
471.08	342.31
471.45	340.78
471.82	339.23
472.18	337.52
472.55	336.30
472.92	334.89
473.28	333.64
473.65	332.46
474.02	331.35
474.38	330.40
474.75	329.64
475.11	328.82
475.48	328.24
475.85	327.73
476.21	327.25
476.58	326.90
476.94	326.65
477.31	326.25
477.67	325.99
478.04	325.82
478.41	325.76
478.77	325.92
479.14	325.87
479.50	325.95
479.87	326.26
480.23	326.59
480.60	326.82
480.96	327.09
481.33	327.69
481.69	328.22
482.06	328.74
482.42	329.19
482.79	329.76
483.15	330.53
483.52	331.49
483.88	332.40
484.25	333.32
484.61	334.32
484.98	335.40
485.34	336.73
485.71	338.09
486.07	339.48
486.44	340.78
486.80	342.42
487.17	344.08
487.53	345.85
487.90	347.73
488.26	349.82
488.62	351.96
488.99	354.00
489.35	356.14
489.72	358.49
490.08	361.01
490.44	363.59
490.81	366.32
491.17	369.00
491.54	371.96
491.90	374.99
492.26	378.24
492.63	381.67
492.99	385.09
493.36	388.74
493.72	392.65
494.08	396.64
494.45	400.87
494.81	405.23
495.17	409.67
495.54	414.34
495.90	419.11
496.26	424.06
496.63	429.24
496.99	434.65
497.35	440.25
497.72	446.06
498.08	451.99
498.44	458.03
498.80	464.49
499.17	470.92
499.53	477.67
499.89	484.54
500.26	491.51
500.62	498.61
500.98	506.02
501.34	513.48
501.71	521.28
502.07	529.04
502.43	537.03
502.79	545.13
503.16	553.49
503.52	562.03
503.88	570.68
504.24	579.63
504.60	588.63
504.97	597.81
505.33	607.11
505.69	616.89
506.05	626.78
506.41	636.61
506.78	646.70
507.14	656.84
507.50	667.22
507.86	677.84
508.22	688.61
508.59	699.23
508.95	710.25
509.31	721.42
509.67	732.85
510.03	744.24
510.39	756.00
510.75	767.75
511.12	779.62
511.48	791.69
511.84	803.95
512.20	816.27
512.56	828.87
512.92	841.51
513.28	854.26
513.64	866.99
514.00	879.81
514.37	892.72
514.73	905.86
515.09	918.79
515.45	931.62
515.81	944.70
516.17	958.13
516.53	971.38
516.89	984.51
517.25	997.67
517.61	1011.20
517.97	1024.64
518.33	1037.82
518.69	1051.43
519.05	1065.18
519.41	1078.83
519.77	1092.71
520.13	1106.11
520.49	1119.32
520.85	1132.70
521.21	1146.02
521.57	1159.66
521.93	1172.78
522.29	1186.56
522.65	1200.34
523.01	1214.09
523.37	1227.27
523.73	1240.66
524.09	1253.83
524.45	1267.34
524.81	1280.80
525.17	1294.17
525.53	1307.38
525.89	1320.72
526.25	1333.82
526.61	1346.75
526.97	1359.88
527.33	1372.95
527.68	1386.46
528.04	1400.11
528.40	1413.27
528.76	1426.72
529.12	1439.71
529.48	1453.01
529.84	1465.33
530.20	1478.10
530.56	1490.66
530.91	1503.97
531.27	1516.86
531.63	1529.68
531.99	1542.39
532.35	1554.74
532.71	1567.23
533.07	1580.13
533.42	1592.60
533.78	1604.81
534.14	1616.88
534.50	1628.18
534.86	1639.79
535.21	1650.59
535.57	1662.25
535.93	1673.48
536.29	1684.59
536.65	1696.13
537.00	1707.16
537.36	1718.54
537.72	1729.58
538.08	1741.14
538.44	1752.13
538.79	1763.26
539.15	1774.21
539.51	1785.21
539.87	1796.56
540.22	1807.48
540.58	1818.54
540.94	1829.56
541.29	1839.88
541.65	1849.62
542.01	1860.03
542.37	1870.16
542.72	1880.50
543.08	1890.07
543.44	1900.66
543.79	1910.02
544.15	1919.44
544.51	1929.50
544.87	1939.50
545.22	1948.87
545.58	1957.82
545.94	1966.69
546.29	1975.29
546.65	1983.73
547.01	1991.85
547.36	1999.59
547.72	2007.26
548.07	2014.77
548.43	2022.43
548.79	2030.42
549.14	2038.76
549.50	2047.46
549.86	2055.30
550.21	2062.83
550.57	2070.64
550.92	2077.46
551.28	2085.01
551.64	2092.25
551.99	2099.76
552.35	2107.02
552.70	2113.83
553.06	2120.57
553.41	2126.93
553.77	2133.40
554.13	2139.78
554.48	2146.86
554.84	2153.96
555.19	2160.63
555.55	2167.13
555.90	2173.39
556.26	2180.18
556.61	2186.36
556.97	2191.24
557.32	2197.10
557.68	2203.49
558.03	2209.32
558.39	2214.83
558.74	2220.78
559.10	2226.46
559.45	2232.01
559.81	2237.38
560.16	2242.78
560.52	2248.37
560.87	2254.71
561.23	2260.51
561.58	2267.12
561.94	2272.27
562.29	2276.96
562.64	2282.87
563.00	2288.44
563.35	2293.95
563.71	2299.52
564.06	2305.07
564.42	2310.82
564.77	2315.86
565.12	2321.07
565.48	2326.11
565.83	2331.34
566.19	2336.53
566.54	2341.67
566.89	2346.15
567.25	2350.77
567.60	2356.43
567.96	2361.65
568.31	2366.12
568.66	2370.47
569.02	2374.40
569.37	2378.19
569.72	2382.48
570.08	2385.91
570.43	2388.97
570.78	2391.95
571.14	2394.32
571.49	2397.28
571.84	2400.72
572.20	2403.60
572.55	2406.44
572.90	2408.59
573.26	2411.21
573.61	2413.77
573.96	2415.78
574.31	2417.71
574.67	2419.40
575.02	2419.92
575.37	2421.11
575.72	2421.65
576.08	2422.82
576.43	2422.80
576.78	2422.81
577.13	2424.12
577.49	2425.30
577.84	2426.16
578.19	2427.29
578.54	2427.69
578.90	2428.15
579.25	2427.83
579.60	2427.40
579.95	2426.35
580.30	2426.15
580.66	2425.36
581.01	2423.48
581.36	2420.85
581.71	2419.38
582.06	2418.05
582.42	2417.12
582.77	2414.70
583.12	2412.92
583.47	2411.23
583.82	2410.32
584.17	2408.97
584.53	2406.72
584.88	2404.33
585.23	2402.18
585.58	2399.73
585.93	2397.67
586.28	2395.27
586.63	2392.52
586.98	2390.11
587.34	2388.01
587.69	2385.52
588.04	2383.34
588.39	2381.65
588.74	2379.10
589.09	2376.06
589.44	2372.68
589.79	2370.00
590.14	2368.01
590.49	2365.06
590.84	2361.18
591.19	2357.92
591.54	2354.66
591.89	2350.49
592.25	2347.04
592.60	2342.79
592.95	2338.52
593.30	2334.25
593.65	2329.75
594.00	2325.19
594.35	2322.12
594.70	2317.29
595.05	2312.66
595.40	2306.87
595.75	2300.96
596.10	2297.28
596.45	2292.56
596.80	2287.87
597.15	2282.68
597.50	2276.65
597.85	2271.74
598.19	2266.48
598.54	2260.76
598.89	2255.32
599.24	2250.66
599.59	2244.56
599.94	2238.45
600.29	2232.45
600.64	2226.47
600.99	2219.73
601.34	2214.36
601.69	2207.37
602.04	2201.05
602.39	2194.22
602.74	2188.27
603.08	2182.96
603.43	2176.51
603.78	2169.46
604.13	2162.51
604.48	2155.11
604.83	2148.90
605.18	2142.53
605.53	2135.61
605.87	2128.45
606.22	2121.79
606.57	2113.88
606.92	2105.85
607.27	2099.16
607.62	2092.51
607.96	2085.51
608.31	2079.01
608.66	2071.25
609.01	2063.64
609.36	2056.43
609.70	2048.83
610.05	2041.03
610.40	2032.42
610.75	2023.90
611.10	2016.17
611.44	2007.28
611.79	1998.70
612.14	1988.82
612.49	1978.20
612.83	1968.79
613.18	1959.48
613.53	1950.10
613.88	1940.63
614.22	1932.04
614.57	1922.12
614.92	1911.58
615.27	1901.24
615.61	1891.16
615.96	1881.47
616.31	1871.80
616.65	1862.45
617.00	1852.82
617.35	1843.22
617.70	1833.57
618.04	1823.74
618.39	1813.79
618.74	1804.16
619.08	1794.55
619.43	1785.93
619.78	1777.76
620.12	1769.23
620.47	1759.81
620.82	1749.56
621.16	1739.79
621.51	1729.99
621.85	1720.37
622.20	1710.20
622.55	1699.84
622.89	1689.92
623.24	1680.28
623.59	1670.58
623.93	1660.66
624.28	1650.85
624.62	1640.85
624.97	1630.83
625.32	1621.11
625.66	1612.10
626.01	1603.47
626.35	1594.26
626.70	1584.24
627.04	1574.31
627.39	1564.31
627.73	1555.16
628.08	1546.44
628.43	1536.97
628.77	1527.78
629.12	1518.94
629.46	1511.17
629.81	1502.99
630.15	1493.76
630.50	1484.19
630.84	1473.90
631.19	1464.00
631.53	1454.96
631.88	1444.87
632.22	1435.02
632.57	1425.72
632.91	1415.93
633.26	1406.11
633.60	1396.51
633.95	1387.38
634.29	1377.94
634.64	1368.72
634.98	1358.87
635.32	1349.70
635.67	1341.37
636.01	1332.21
636.36	1322.58
636.70	1313.20
637.05	1303.89
637.39	1295.05
637.73	1286.53
638.08	1279.06
638.42	1271.05
638.77	1262.38
639.11	1254.33
639.45	1246.58
639.80	1238.24
640.14	1229.49
640.49	1220.84
640.83	1212.19
641.17	1204.11
641.52	1196.10
641.86	1187.69
642.20	1179.92
642.55	1171.32
642.89	1162.56
643.23	1154.03
643.58	1145.96
643.92	1137.02
644.26	1128.48
644.61	1120.08
644.95	1111.43
645.29	1102.28
645.64	1093.20
645.98	1084.58
646.32	1076.72
646.66	1068.30
647.01	1060.08
647.35	1052.02
647.69	1043.78
648.04	1035.64
648.38	1026.88
648.72	1018.16
649.06	1009.80
649.41	1001.69
649.75	993.78
650.09	986.00
650.43	978.08
650.78	969.85
651.12	962.11
651.46	954.72
651.80	947.61
652.14	940.32
652.49	932.91
652.83	925.71
653.17	918.24
653.51	910.65
653.85	903.47
654.20	896.24
654.54	888.94
654.88	881.65
655.22	874.46
655.56	867.45
655.90	860.69
656.25	854.06
656.59	847.26
656.93	840.32
657.27	833.25
657.61	826.24
657.95	820.11
658.29	814.25
658.64	808.17
658.98	801.68
659.32	795.13
659.66	788.88
660.00	782.53
660.34	776.36
660.68	770.34
661.02	764.05
661.36	758.04
661.70	752.19
662.05	746.59
662.39	741.08
662.73	735.63
663.07	730.31
663.41	724.67
663.75	718.90
664.09	713.26
664.43	707.75
664.77	702.47
665.11	696.78
665.45	690.91
665.79	685.06
666.13	679.40
666.47	673.89
666.81	668.50
667.15	663.04
667.49	657.90
667.83	652.62
668.17	647.36
668.51	642.25
668.85	637.32
669.19	632.47
669.53	627.53
669.87	622.53
670.21	617.77
670.55	613.05
670.89	608.59
671.23	604.22
671.57	599.85
671.91	595.52
672.25	591.32
672.58	587.20
672.92	583.13
673.26	579.25
673.60	575.37
673.94	571.59
674.28	568.06
674.62	564.27
674.96	560.52
675.30	556.96
675.64	553.33
675.97	549.72
676.31	546.07
676.65	542.42
676.99	539.03
677.33	535.10
677.67	531.51
678.01	527.68
678.34	524.07
678.68	520.53
679.02	516.98
679.36	513.29
679.70	509.62
680.04	506.05
680.37	502.51
680.71	499.20
681.05	495.96
681.39	492.65
681.73	489.49
682.06	486.40
682.40	483.30
682.74	480.12
683.08	476.90
683.42	473.60
683.75	470.58
684.09	467.42
684.43	464.65
684.77	461.65
685.10	458.82
685.44	455.87
685.78	452.99
686.12	450.17
686.45	447.39
686.79	444.67
687.13	442.11
687.46	439.48
687.80	436.79
688.14	433.89
688.48	431.23
688.81	428.54
689.15	425.93
689.49	423.29
689.82	420.73
690.16	418.18
690.50	415.74
690.83	413.24
691.17	410.72
691.51	408.24
691.84	405.96
692.18	403.66
692.52	401.35
692.85	399.17
693.19	396.98
693.52	394.81
693.86	392.56
694.20	390.37
694.53	388.17
694.87	385.88
695.21	383.76
695.54	381.53
695.88	379.36
696.21	377.18
696.55	375.02
696.88	372.95
697.22	370.86
697.56	368.94
697.89	367.04
698.23	365.28
698.56	363.43
698.90	361.64
699.23	359.74
699.57	357.89
699.90	356.01
700.24	354.20
700.58	352.43
700.91	350.73
701.25	349.12
701.58	347.48
701.92	345.95
702.25	344.31
702.59	342.70
702.92	341.14
703.26	339.56
703.59	338.09
703.93	336.77
704.26	335.34
704.60	333.81
704.93	332.29
705.26	330.74
705.60	329.21
705.93	327.67
706.27	326.30
706.60	325.04
706.94	323.78
707.27	322.37
707.61	321.01
707.94	319.69
708.27	318.19
708.61	316.75
708.94	315.34
709.28	314.00
709.61	312.75
709.94	311.51
710.28	310.27
710.61	309.07
710.95	307.63
711.28	306.58
711.61	305.38
711.95	304.26
712.28	303.07
712.61	301.91
712.95	300.82
713.28	299.77
713.61	298.57
713.95	297.39
714.28	296.32
714.61	295.26
714.95	294.21
715.28	293.13
715.61	292.07
715.95	291.12
716.28	290.14
716.61	289.17
716.95	288.16
717.28	287.20
717.61	286.18
717.94	285.27
718.28	284.19
718.61	283.30
718.94	282.33
719.27	281.44
719.61	280.61
719.94	279.72
720.27	278.71
720.60	277.87
720.94	277.07
721.27	276.31
721.60	275.60
721.93	274.84
722.27	274.21
722.60	273.54
722.93	272.76
723.26	272.11
723.59	271.36
723.93	270.68
724.26	270.02
724.59	269.38
724.92	268.78
725.25	268.23
725.59	267.66
725.92	267.13
726.25	266.57
726.58	265.97
726.91	265.35
727.24	264.83
727.57	264.25
727.91	263.59
728.24	263.03
728.57	262.44
728.90	261.87
729.23	261.25
729.56	260.82
729.89	260.26
730.22	259.65
730.55	259.11
730.89	258.60
731.22	258.08
731.55	257.52
731.88	256.98
732.21	256.41
732.54	255.81
732.87	255.33
733.20	254.84
733.53	254.36
733.86	253.94
734.19	253.45
734.52	252.99
734.85	252.70
735.18	252.22
735.51	251.87
735.84	251.42
736.17	251.02
736.50	250.41
736.83	250.25
737.16	249.89
737.49	249.49
737.82	249.07
738.15	248.65
738.48	248.30
738.81	247.88
739.14	247.47
739.47	247.10
739.80	246.65
740.13	246.28
740.46	245.88
740.79	245.47
741.12	245.12
741.45	244.77
741.78	244.35
742.11	244.07
742.44	243.65
742.77	243.38
743.10	243.02
743.43	242.73
743.75	242.17
744.08	242.09
744.41	241.76
744.74	241.41
745.07	241.07
745.40	240.77
745.73	240.54
746.06	240.20
746.39	239.92
746.71	239.60
747.04	239.22
747.37	238.87
747.70	238.62
748.03	238.32
748.36	238.06
748.68	237.73
749.01	237.33
749.34	237.00
749.67	236.67
750.00	236.44
750.33	236.29
750.65	236.04
750.98	235.52
751.31	235.26
751.64	235.04
751.97	234.88
752.29	234.59
752.62	234.23
752.95	233.95
753.28	233.68
753.60	233.43
753.93	233.26
754.26	233.05
754.59	232.77
754.91	232.53
755.24	232.27
755.57	232.01
755.90	231.79
756.22	231.55
756.55	231.34
756.88	231.08
757.20	230.71
757.53	230.44
757.86	230.22
758.19	230.01
758.51	229.78
758.84	229.49
759.17	229.27
759.49	229.11
759.82	229.08
760.15	228.91
760.47	228.73
760.80	228.49
761.13	228.36
761.45	228.13
761.78	227.91
762.11	227.73
762.43	227.59
762.76	227.44
763.08	227.31
763.41	227.15
763.74	226.97
764.06	226.84
764.39	226.67
764.71	226.53
765.04	226.33
765.37	226.19
765.69	226.02
766.02	225.89
766.34	225.73
766.67	225.46
767.00	225.34
767.32	225.32
767.65	225.33
767.97	225.15
768.30	225.05
768.62	224.93
768.95	224.77
769.27	224.60
769.60	224.47
769.92	224.31
770.25	224.14
770.57	224.00
770.90	223.84
771.22	223.73
771.55	223.62
771.87	223.54
772.20	223.38
772.52	223.45
772.85	223.61
773.17	223.52
773.50	223.43
773.82	223.30
774.15	223.11
774.47	222.85
774.80	222.75
775.12	222.65
775.45	222.54
775.77	222.49
776.09	222.42
776.42	222.34
776.74	222.30
777.07	222.19
777.39	222.11
777.72	222.02
778.04	221.95
778.36	221.85
778.69	221.79
779.01	221.72
779.33	221.48
779.66	221.10
779.98	220.98
780.31	220.91
780.63	220.93
780.95	220.87
781.28	220.82
781.60	220.72
781.92	220.63
782.25	220.58
782.57	220.47
782.89	220.37
783.22	220.28
783.54	220.17
783.86	220.16
784.19	220.10
784.51	220.12
784.83	220.04
785.16	219.97
785.48	219.88
785.80	219.84
786.12	219.81
