SpectraSuite Data File
++++++++++++++++++++++++++++++++++++
Date: Tue Jan 29 16:20:26 EST 2013
User: group
Dark Spectrum Present: No
Reference Spectrum Present: No
Number of Sampled Component Spectra: 1
Spectrometers: USB2E7196
Integration Time (usec): 65000 (USB2E7196)
Spectra Averaged: 100 (USB2E7196)
Boxcar Smoothing: 10 (USB2E7196)
Correct for Electrical Dark: No (USB2E7196)
Strobe/Lamp Enabled: No (USB2E7196)
Correct for Detector Non-linearity: No (USB2E7196)
Correct for Stray Light: No (USB2E7196)
Number of Pixels in Processed Spectrum: 2048
>>>>>Begin Processed Spectral Data<<<<<
339.09	0.00
339.48	202.48
339.86	203.60
340.24	205.28
340.63	206.78
341.01	211.63
341.39	209.29
341.78	211.10
342.16	212.34
342.54	212.63
342.93	201.64
343.31	211.82
343.69	212.38
344.07	212.86
344.46	213.30
344.84	213.71
345.22	213.89
345.60	214.20
345.99	214.43
346.37	214.55
346.75	214.67
347.13	214.78
347.52	214.84
347.90	214.98
348.28	215.03
348.66	215.15
349.05	215.07
349.43	215.17
349.81	215.23
350.19	215.26
350.57	215.32
350.96	215.41
351.34	215.53
351.72	215.62
352.10	215.73
352.48	215.82
352.87	215.85
353.25	215.88
353.63	215.89
354.01	215.92
354.39	216.03
354.77	216.09
355.15	216.20
355.54	216.22
355.92	216.25
356.30	216.33
356.68	216.50
357.06	216.60
357.44	216.62
357.82	216.67
358.20	216.77
358.58	216.80
358.97	216.89
359.35	216.95
359.73	217.04
360.11	217.11
360.49	217.16
360.87	217.20
361.25	217.30
361.63	217.42
362.01	217.48
362.39	217.48
362.77	217.55
363.15	217.57
363.53	217.65
363.91	217.67
364.29	217.70
364.67	217.53
365.05	217.53
365.43	217.58
365.81	217.61
366.19	217.70
366.57	217.83
366.95	217.83
367.33	217.80
367.71	217.77
368.09	217.79
368.47	217.79
368.85	217.77
369.23	217.77
369.61	217.72
369.99	217.76
370.37	217.78
370.75	217.83
371.13	217.78
371.51	217.75
371.89	217.70
372.27	217.68
372.65	217.69
373.03	217.67
373.41	217.64
373.78	217.60
374.16	217.46
374.54	217.38
374.92	217.32
375.30	217.28
375.68	217.23
376.06	217.18
376.44	217.13
376.82	217.12
377.19	217.05
377.57	216.97
377.95	216.85
378.33	216.79
378.71	216.64
379.09	216.59
379.47	216.53
379.84	216.49
380.22	216.42
380.60	216.34
380.98	216.28
381.36	216.22
381.73	216.16
382.11	216.19
382.49	216.13
382.87	216.06
383.25	216.05
383.62	216.27
384.00	216.19
384.38	216.17
384.76	216.18
385.13	216.22
385.51	216.20
385.89	216.15
386.27	216.10
386.64	216.09
387.02	216.07
387.40	216.02
387.78	215.99
388.15	215.99
388.53	215.96
388.91	215.95
389.29	215.91
389.66	215.91
390.04	215.81
390.42	215.83
390.79	215.85
391.17	215.84
391.55	215.59
391.92	215.61
392.30	215.56
392.68	215.50
393.05	215.49
393.43	215.50
393.81	215.51
394.18	215.51
394.56	215.52
394.94	215.56
395.31	215.55
395.69	215.64
396.06	215.64
396.44	215.66
396.82	215.65
397.19	215.77
397.57	215.79
397.95	215.87
398.32	215.80
398.70	215.84
399.07	215.90
399.45	215.90
399.82	215.94
400.20	216.00
400.58	216.06
400.95	216.05
401.33	216.14
401.70	216.36
402.08	216.43
402.45	216.54
402.83	216.67
403.20	216.79
403.58	216.86
403.95	217.03
404.33	217.20
404.71	217.41
405.08	217.69
405.46	217.84
405.83	218.03
406.21	218.27
406.58	218.47
406.96	218.69
407.33	218.98
407.70	219.26
408.08	219.71
408.45	220.08
408.83	220.47
409.20	220.81
409.58	221.07
409.95	221.55
410.33	222.01
410.70	222.43
411.08	223.00
411.45	223.55
411.82	224.12
412.20	224.78
412.57	225.54
412.95	226.04
413.32	226.89
413.69	227.74
414.07	228.63
414.44	229.66
414.82	230.64
415.19	231.80
415.56	233.01
415.94	234.17
416.31	235.55
416.68	236.93
417.06	238.47
417.43	240.00
417.81	241.75
418.18	243.49
418.55	245.39
418.93	247.38
419.30	249.49
419.67	251.68
420.04	253.94
420.42	256.28
420.79	259.13
421.16	261.86
421.54	264.71
421.91	267.67
422.28	270.74
422.66	274.02
423.03	277.21
423.40	280.50
423.77	284.04
424.15	287.65
424.52	291.44
424.89	295.55
425.26	299.59
425.64	303.39
426.01	307.64
426.38	312.09
426.75	316.56
427.13	321.20
427.50	326.15
427.87	331.30
428.24	336.42
428.61	341.30
428.99	346.70
429.36	352.63
429.73	358.43
430.10	364.20
430.47	370.22
430.85	376.46
431.22	383.04
431.59	390.06
431.96	396.73
432.33	404.13
432.70	411.32
433.08	419.71
433.45	427.68
433.82	435.59
434.19	444.34
434.56	452.94
434.93	461.17
435.30	469.25
435.68	478.24
436.05	487.09
436.42	495.88
436.79	503.92
437.16	512.58
437.53	521.71
437.90	530.73
438.27	539.49
438.64	548.63
439.01	557.04
439.38	564.47
439.75	571.70
440.13	580.08
440.50	587.89
440.87	594.23
441.24	600.76
441.61	608.01
441.98	613.30
442.35	619.53
442.72	625.76
443.09	631.78
443.46	635.47
443.83	638.01
444.20	640.15
444.57	643.28
444.94	644.70
445.31	646.16
445.68	647.49
446.05	648.16
446.42	647.29
446.79	646.36
447.16	645.32
447.53	644.58
447.90	641.19
448.27	637.95
448.64	633.31
449.01	630.03
449.37	624.21
449.74	618.56
450.11	611.72
450.48	604.39
450.85	597.01
451.22	590.55
451.59	584.47
451.96	578.74
452.33	571.02
452.70	563.95
453.07	555.55
453.43	547.11
453.80	538.92
454.17	531.04
454.54	523.58
454.91	515.51
455.28	507.66
455.65	500.36
456.02	493.05
456.38	486.86
456.75	479.10
457.12	472.61
457.49	466.31
457.86	460.22
458.23	454.98
458.59	449.15
458.96	443.34
459.33	438.09
459.70	432.81
460.07	428.54
460.43	423.77
460.80	419.24
461.17	415.30
461.54	411.17
461.91	407.26
462.27	403.24
462.64	399.89
463.01	396.21
463.38	392.58
463.74	388.87
464.11	385.64
464.48	382.87
464.85	379.80
465.21	377.36
465.58	374.81
465.95	371.71
466.32	369.12
466.68	366.50
467.05	363.98
467.42	361.43
467.78	358.80
468.15	356.30
468.52	354.41
468.88	351.96
469.25	349.75
469.62	347.97
469.98	346.04
470.35	344.24
470.72	342.52
471.08	340.76
471.45	339.31
471.82	337.84
472.18	336.22
472.55	335.08
472.92	333.71
473.28	332.46
473.65	331.33
474.02	330.26
474.38	329.40
474.75	328.63
475.11	327.85
475.48	327.31
475.85	326.87
476.21	326.45
476.58	326.08
476.94	325.86
477.31	325.56
477.67	325.33
478.04	325.20
478.41	325.18
478.77	325.33
479.14	325.28
479.50	325.38
479.87	325.62
480.23	325.91
480.60	326.18
480.96	326.48
481.33	327.08
481.69	327.65
482.06	328.20
482.42	328.70
482.79	329.32
483.15	330.17
483.52	331.12
483.88	332.00
484.25	332.93
484.61	333.96
484.98	335.03
485.34	336.33
485.71	337.69
486.07	339.18
486.44	340.53
486.80	342.13
487.17	343.86
487.53	345.75
487.90	347.61
488.26	349.64
488.62	351.83
488.99	353.91
489.35	356.06
489.72	358.49
490.08	361.03
490.44	363.56
490.81	366.24
491.17	368.90
491.54	371.87
491.90	374.91
492.26	378.18
492.63	381.61
492.99	385.12
493.36	388.80
493.72	392.70
494.08	396.72
494.45	400.94
494.81	405.30
495.17	409.79
495.54	414.52
495.90	419.35
496.26	424.28
496.63	429.47
496.99	434.88
497.35	440.44
497.72	446.28
498.08	452.30
498.44	458.40
498.80	464.88
499.17	471.46
499.53	478.24
499.89	485.14
500.26	492.15
500.62	499.25
500.98	506.80
501.34	514.27
501.71	522.01
502.07	529.92
502.43	537.97
502.79	546.19
503.16	554.61
503.52	563.23
503.88	571.95
504.24	581.03
504.60	590.14
504.97	599.37
505.33	608.70
505.69	618.54
506.05	628.49
506.41	638.39
506.78	648.54
507.14	658.89
507.50	669.37
507.86	680.16
508.22	691.00
508.59	701.57
508.95	712.67
509.31	724.05
509.67	735.51
510.03	746.88
510.39	758.57
510.75	770.50
511.12	782.44
511.48	794.60
511.84	806.93
512.20	819.27
512.56	832.02
512.92	844.85
513.28	857.56
513.64	870.39
514.00	883.33
514.37	896.24
514.73	909.41
515.09	922.52
515.45	935.47
515.81	948.64
516.17	962.16
516.53	975.51
516.89	988.58
517.25	1001.78
517.61	1015.42
517.97	1028.88
518.33	1042.08
518.69	1055.69
519.05	1069.54
519.41	1083.14
519.77	1097.12
520.13	1110.44
520.49	1123.70
520.85	1137.14
521.21	1150.52
521.57	1164.22
521.93	1177.34
522.29	1191.05
522.65	1204.67
523.01	1218.33
523.37	1231.59
523.73	1244.86
524.09	1258.08
524.45	1271.65
524.81	1285.23
525.17	1298.66
525.53	1311.83
525.89	1325.08
526.25	1338.28
526.61	1351.01
526.97	1364.23
527.33	1377.28
527.68	1390.75
528.04	1404.15
528.40	1417.35
528.76	1430.60
529.12	1443.48
529.48	1456.97
529.84	1469.29
530.20	1482.04
530.56	1494.59
530.91	1507.78
531.27	1520.74
531.63	1533.39
531.99	1546.19
532.35	1558.43
532.71	1570.82
533.07	1583.77
533.42	1596.10
533.78	1608.02
534.14	1620.21
534.50	1631.34
534.86	1642.78
535.21	1653.63
535.57	1665.19
535.93	1676.43
536.29	1687.60
536.65	1699.02
537.00	1709.83
537.36	1721.12
537.72	1732.14
538.08	1743.60
538.44	1754.41
538.79	1765.38
539.15	1776.28
539.51	1786.98
539.87	1798.16
540.22	1808.90
540.58	1819.74
540.94	1830.63
541.29	1841.01
541.65	1850.78
542.01	1861.22
542.37	1871.32
542.72	1881.59
543.08	1891.37
543.44	1901.89
543.79	1911.19
544.15	1920.62
544.51	1930.57
544.87	1940.34
545.22	1949.49
545.58	1958.19
545.94	1967.17
546.29	1975.69
546.65	1984.05
547.01	1992.21
547.36	2000.02
547.72	2007.77
548.07	2015.22
548.43	2022.87
548.79	2030.76
549.14	2038.82
549.50	2047.33
549.86	2055.17
550.21	2062.49
550.57	2070.22
550.92	2076.85
551.28	2084.24
551.64	2091.36
551.99	2098.85
552.35	2105.98
552.70	2112.81
553.06	2119.51
553.41	2125.75
553.77	2132.33
554.13	2138.65
554.48	2145.61
554.84	2152.67
555.19	2159.18
555.55	2165.75
555.90	2171.96
556.26	2178.83
556.61	2184.93
556.97	2189.68
557.32	2195.41
557.68	2201.81
558.03	2207.50
558.39	2212.94
558.74	2219.02
559.10	2224.73
559.45	2230.34
559.81	2236.08
560.16	2241.70
560.52	2247.66
560.87	2254.10
561.23	2260.03
561.58	2266.77
561.94	2272.05
562.29	2276.84
562.64	2283.02
563.00	2288.79
563.35	2294.44
563.71	2300.21
564.06	2305.90
564.42	2312.03
564.77	2317.08
565.12	2322.40
565.48	2327.52
565.83	2333.05
566.19	2338.50
566.54	2343.80
566.89	2348.40
567.25	2353.07
567.60	2358.93
567.96	2364.11
568.31	2368.72
568.66	2373.18
569.02	2377.22
569.37	2381.21
569.72	2385.73
570.08	2389.30
570.43	2392.54
570.78	2395.86
571.14	2398.41
571.49	2401.70
571.84	2405.35
572.20	2408.64
572.55	2411.70
572.90	2414.24
573.26	2417.18
573.61	2419.77
573.96	2422.10
574.31	2424.25
574.67	2426.28
575.02	2426.97
575.37	2428.61
575.72	2429.42
576.08	2430.81
576.43	2431.11
576.78	2431.63
577.13	2433.30
577.49	2434.62
577.84	2435.68
578.19	2437.13
578.54	2437.82
578.90	2438.70
579.25	2438.68
579.60	2438.68
579.95	2438.13
580.30	2438.24
580.66	2437.62
581.01	2436.15
581.36	2433.91
581.71	2432.57
582.06	2431.49
582.42	2430.91
582.77	2428.82
583.12	2427.24
583.47	2426.06
583.82	2425.44
584.17	2424.33
584.53	2422.32
584.88	2420.49
585.23	2418.86
585.58	2416.57
585.93	2414.72
586.28	2412.59
586.63	2410.15
586.98	2408.07
587.34	2406.31
587.69	2404.06
588.04	2402.07
588.39	2400.75
588.74	2398.50
589.09	2396.07
589.44	2393.00
589.79	2390.64
590.14	2388.63
590.49	2386.03
590.84	2382.35
591.19	2379.36
591.54	2376.24
591.89	2372.27
592.25	2368.94
592.60	2364.64
592.95	2360.78
593.30	2356.76
593.65	2352.45
594.00	2348.26
594.35	2345.30
594.70	2340.64
595.05	2336.11
595.40	2330.94
595.75	2325.26
596.10	2321.75
596.45	2317.03
596.80	2312.44
597.15	2307.20
597.50	2301.57
597.85	2296.65
598.19	2291.46
598.54	2285.86
598.89	2280.46
599.24	2276.01
599.59	2269.87
599.94	2264.21
600.29	2258.17
600.64	2252.19
600.99	2245.39
601.34	2239.79
601.69	2232.83
602.04	2226.42
602.39	2219.78
602.74	2213.54
603.08	2207.98
603.43	2201.47
603.78	2194.49
604.13	2187.55
604.48	2180.19
604.83	2173.97
605.18	2167.91
605.53	2160.98
605.87	2153.89
606.22	2147.34
606.57	2139.43
606.92	2131.36
607.27	2124.33
607.62	2117.66
607.96	2110.71
608.31	2104.34
608.66	2096.59
609.01	2088.97
609.36	2081.91
609.70	2074.21
610.05	2066.47
610.40	2058.16
610.75	2049.75
611.10	2041.99
611.44	2033.06
611.79	2024.55
612.14	2014.43
612.49	2003.63
612.83	1994.28
613.18	1984.94
613.53	1975.50
613.88	1965.80
614.22	1957.31
614.57	1947.46
614.92	1936.81
615.27	1926.38
615.61	1916.05
615.96	1906.42
616.31	1896.58
616.65	1887.04
617.00	1877.19
617.35	1867.40
617.70	1857.58
618.04	1847.50
618.39	1837.33
618.74	1827.56
619.08	1817.57
619.43	1808.85
619.78	1800.44
620.12	1791.62
620.47	1781.89
620.82	1771.38
621.16	1761.48
621.51	1751.33
621.85	1741.37
622.20	1730.95
622.55	1720.51
622.89	1710.58
623.24	1700.75
623.59	1690.93
623.93	1680.67
624.28	1670.84
624.62	1660.61
624.97	1650.07
625.32	1640.04
625.66	1631.06
626.01	1622.22
626.35	1612.82
626.70	1602.69
627.04	1592.57
627.39	1582.42
627.73	1573.05
628.08	1563.98
628.43	1554.37
628.77	1545.06
629.12	1535.99
629.46	1528.13
629.81	1519.68
630.15	1509.95
630.50	1499.92
630.84	1489.32
631.19	1479.32
631.53	1469.88
631.88	1459.64
632.22	1449.59
632.57	1440.32
632.91	1430.04
633.26	1419.95
633.60	1410.23
633.95	1400.79
634.29	1391.17
634.64	1381.71
634.98	1371.67
635.32	1362.31
635.67	1353.66
636.01	1344.34
636.36	1334.46
636.70	1324.80
637.05	1315.20
637.39	1306.27
637.73	1297.56
638.08	1289.93
638.42	1281.67
638.77	1272.88
639.11	1264.51
639.45	1256.67
639.80	1247.91
640.14	1239.03
640.49	1230.14
640.83	1221.34
641.17	1213.07
641.52	1204.85
641.86	1196.18
642.20	1188.20
642.55	1179.51
642.89	1170.52
643.23	1161.70
643.58	1153.54
643.92	1144.40
644.26	1135.67
644.61	1127.08
644.95	1118.18
645.29	1108.82
645.64	1099.50
645.98	1090.76
646.32	1082.79
646.66	1074.14
647.01	1065.65
647.35	1057.37
647.69	1048.95
648.04	1040.56
648.38	1031.65
648.72	1022.78
649.06	1014.23
649.41	1005.90
649.75	997.80
650.09	989.81
650.43	981.77
650.78	973.35
651.12	965.50
651.46	957.96
651.80	950.64
652.14	943.31
652.49	935.78
652.83	928.48
653.17	920.74
653.51	913.02
653.85	905.68
654.20	898.44
654.54	890.99
654.88	883.57
655.22	876.31
655.56	869.18
655.90	862.22
656.25	855.48
656.59	848.58
656.93	841.53
657.27	834.38
657.61	827.26
657.95	821.11
658.29	815.13
658.64	808.91
658.98	802.39
659.32	795.76
659.66	789.40
660.00	783.01
660.34	776.84
660.68	770.68
661.02	764.29
661.36	758.26
661.70	752.37
662.05	746.77
662.39	741.16
662.73	735.73
663.07	730.28
663.41	724.63
663.75	718.78
664.09	713.01
664.43	707.51
664.77	702.15
665.11	696.27
665.45	690.26
665.79	684.39
666.13	678.64
666.47	673.12
666.81	667.64
667.15	662.12
667.49	656.93
667.83	651.60
668.17	646.37
668.51	641.19
668.85	636.25
669.19	631.34
669.53	626.26
669.87	621.09
670.21	616.33
670.55	611.51
670.89	607.05
671.23	602.67
671.57	598.25
671.91	593.97
672.25	589.81
672.58	585.68
672.92	581.59
673.26	577.63
673.60	573.66
673.94	569.79
674.28	566.14
674.62	562.33
674.96	558.55
675.30	555.02
675.64	551.31
675.97	547.67
676.31	544.07
676.65	540.44
676.99	536.98
677.33	533.13
677.67	529.49
678.01	525.65
678.34	521.98
678.68	518.50
679.02	514.84
679.36	511.16
679.70	507.51
680.04	503.93
680.37	500.43
680.71	497.13
681.05	493.91
681.39	490.58
681.73	487.37
682.06	484.36
682.40	481.24
682.74	478.00
683.08	474.79
683.42	471.47
683.75	468.44
684.09	465.41
684.43	462.57
684.77	459.60
685.10	456.73
685.44	453.91
685.78	450.93
686.12	448.14
686.45	445.33
686.79	442.67
687.13	440.19
687.46	437.56
687.80	434.82
688.14	431.99
688.48	429.36
688.81	426.68
689.15	424.04
689.49	421.33
689.82	418.77
690.16	416.09
690.50	413.67
690.83	411.15
691.17	408.60
691.51	406.15
691.84	403.89
692.18	401.65
692.52	399.39
692.85	397.25
693.19	395.14
693.52	393.01
693.86	390.75
694.20	388.48
694.53	386.31
694.87	384.17
695.21	382.06
695.54	379.90
695.88	377.72
696.21	375.50
696.55	373.41
696.88	371.38
697.22	369.48
697.56	367.57
697.89	365.71
698.23	363.93
698.56	362.07
698.90	360.29
699.23	358.38
699.57	356.51
699.90	354.62
700.24	352.76
700.58	350.95
700.91	349.24
701.25	347.69
701.58	346.12
701.92	344.50
702.25	342.90
702.59	341.30
702.92	339.79
703.26	338.27
703.59	336.79
703.93	335.54
704.26	334.09
704.60	332.57
704.93	331.10
705.26	329.62
705.60	328.18
705.93	326.66
706.27	325.30
706.60	323.99
706.94	322.77
707.27	321.41
707.61	320.08
707.94	318.76
708.27	317.23
708.61	315.72
708.94	314.38
709.28	313.09
709.61	311.87
709.94	310.69
710.28	309.49
710.61	308.32
710.95	306.90
711.28	305.81
711.61	304.62
711.95	303.50
712.28	302.28
712.61	301.08
712.95	300.06
713.28	299.06
713.61	297.95
713.95	296.77
714.28	295.74
714.61	294.70
714.95	293.68
715.28	292.63
715.61	291.64
715.95	290.68
716.28	289.73
716.61	288.78
716.95	287.73
717.28	286.79
717.61	285.79
717.94	284.89
718.28	283.87
718.61	282.98
718.94	282.06
719.27	281.22
719.61	280.42
719.94	279.54
720.27	278.59
720.60	277.71
720.94	276.93
721.27	276.15
721.60	275.48
721.93	274.76
722.27	274.16
722.60	273.50
722.93	272.75
723.26	272.07
723.59	271.38
723.93	270.81
724.26	270.15
724.59	269.56
724.92	268.95
725.25	268.39
725.59	267.84
725.92	267.31
726.25	266.75
726.58	266.14
726.91	265.53
727.24	264.97
727.57	264.40
727.91	263.78
728.24	263.24
728.57	262.63
728.90	262.06
729.23	261.43
729.56	260.99
729.89	260.44
730.22	259.88
730.55	259.33
730.89	258.74
731.22	258.19
731.55	257.63
731.88	257.12
732.21	256.58
732.54	256.00
732.87	255.49
733.20	255.03
733.53	254.59
733.86	254.15
734.19	253.64
734.52	253.24
734.85	252.98
735.18	252.52
735.51	252.21
735.84	251.80
736.17	251.46
736.50	250.92
736.83	250.78
737.16	250.37
737.49	250.01
737.82	249.62
738.15	249.24
738.48	248.86
738.81	248.46
739.14	248.07
739.47	247.74
739.80	247.35
740.13	246.97
740.46	246.55
740.79	246.16
741.12	245.81
741.45	245.42
741.78	244.96
742.11	244.67
742.44	244.26
742.77	243.96
743.10	243.57
743.43	243.22
743.75	242.64
744.08	242.59
744.41	242.17
744.74	241.85
745.07	241.49
745.40	241.22
745.73	240.99
746.06	240.66
746.39	240.33
746.71	239.99
747.04	239.64
747.37	239.31
747.70	239.01
748.03	238.69
748.36	238.41
748.68	238.11
749.01	237.73
749.34	237.42
749.67	237.12
750.00	236.87
750.33	236.77
750.65	236.51
750.98	235.97
751.31	235.74
751.64	235.50
751.97	235.38
752.29	235.12
752.62	234.79
752.95	234.55
753.28	234.29
753.60	234.06
753.93	233.91
754.26	233.71
754.59	233.49
754.91	233.28
755.24	233.07
755.57	232.83
755.90	232.62
756.22	232.37
756.55	232.12
756.88	231.86
757.20	231.51
757.53	231.25
757.86	231.03
758.19	230.88
758.51	230.65
758.84	230.33
759.17	230.10
759.49	229.94
759.82	229.82
760.15	229.66
760.47	229.47
760.80	229.19
761.13	229.06
761.45	228.84
761.78	228.68
762.11	228.47
762.43	228.30
762.76	228.15
763.08	227.99
763.41	227.84
763.74	227.66
764.06	227.50
764.39	227.36
764.71	227.21
765.04	227.00
765.37	226.85
765.69	226.71
766.02	226.56
766.34	226.35
766.67	226.14
767.00	226.03
767.32	226.03
767.65	226.03
767.97	225.86
768.30	225.74
768.62	225.58
768.95	225.44
769.27	225.31
769.60	225.18
769.92	225.03
770.25	224.88
770.57	224.76
770.90	224.61
771.22	224.47
771.55	224.33
771.87	224.25
772.20	224.11
772.52	224.17
772.85	224.30
773.17	224.22
773.50	224.10
773.82	223.98
774.15	223.73
774.47	223.48
774.80	223.35
775.12	223.23
775.45	223.17
775.77	223.11
776.09	223.02
776.42	222.93
776.74	222.92
777.07	222.84
777.39	222.76
777.72	222.71
778.04	222.68
778.36	222.61
778.69	222.54
779.01	222.51
779.33	222.27
779.66	221.93
779.98	221.86
780.31	221.81
780.63	221.83
780.95	221.79
781.28	221.77
781.60	221.66
781.92	221.62
782.25	221.53
782.57	221.50
782.89	221.39
783.22	221.30
783.54	221.19
783.86	221.16
784.19	221.08
784.51	221.10
784.83	220.95
785.16	220.89
785.48	220.82
785.80	220.73
786.12	220.68
