SpectraSuite Data File
++++++++++++++++++++++++++++++++++++
Date: Tue Jan 29 16:56:15 EST 2013
User: group
Dark Spectrum Present: No
Reference Spectrum Present: No
Number of Sampled Component Spectra: 1
Spectrometers: USB2E7196
Integration Time (usec): 65000 (USB2E7196)
Spectra Averaged: 100 (USB2E7196)
Boxcar Smoothing: 10 (USB2E7196)
Correct for Electrical Dark: No (USB2E7196)
Strobe/Lamp Enabled: No (USB2E7196)
Correct for Detector Non-linearity: No (USB2E7196)
Correct for Stray Light: No (USB2E7196)
Number of Pixels in Processed Spectrum: 2048
>>>>>Begin Processed Spectral Data<<<<<
339.09	0.00
339.48	200.91
339.86	202.61
340.24	204.43
340.63	205.41
341.01	210.50
341.39	207.79
341.78	209.57
342.16	211.12
342.54	211.09
342.93	200.41
343.31	210.54
343.69	211.09
344.07	211.57
344.46	211.98
344.84	212.38
345.22	212.54
345.60	212.82
345.99	213.04
346.37	213.18
346.75	213.31
347.13	213.39
347.52	213.49
347.90	213.63
348.28	213.65
348.66	213.75
349.05	213.74
349.43	213.82
349.81	213.89
350.19	213.97
350.57	214.08
350.96	214.20
351.34	214.33
351.72	214.46
352.10	214.57
352.48	214.67
352.87	214.74
353.25	214.81
353.63	214.89
354.01	214.96
354.39	215.05
354.77	215.12
355.15	215.27
355.54	215.31
355.92	215.30
356.30	215.38
356.68	215.57
357.06	215.65
357.44	215.68
357.82	215.78
358.20	215.87
358.58	215.92
358.97	216.00
359.35	216.09
359.73	216.16
360.11	216.21
360.49	216.24
360.87	216.31
361.25	216.38
361.63	216.50
362.01	216.56
362.39	216.57
362.77	216.64
363.15	216.63
363.53	216.68
363.91	216.70
364.29	216.73
364.67	216.53
365.05	216.56
365.43	216.60
365.81	216.65
366.19	216.74
366.57	216.83
366.95	216.79
367.33	216.74
367.71	216.72
368.09	216.78
368.47	216.80
368.85	216.76
369.23	216.80
369.61	216.70
369.99	216.77
370.37	216.76
370.75	216.84
371.13	216.80
371.51	216.76
371.89	216.81
372.27	216.79
372.65	216.81
373.03	216.78
373.41	216.70
373.78	216.62
374.16	216.48
374.54	216.37
374.92	216.33
375.30	216.29
375.68	216.25
376.06	216.16
376.44	216.11
376.82	216.09
377.19	216.01
377.57	215.96
377.95	215.83
378.33	215.77
378.71	215.60
379.09	215.57
379.47	215.57
379.84	215.50
380.22	215.44
380.60	215.36
380.98	215.32
381.36	215.26
381.73	215.23
382.11	215.23
382.49	215.18
382.87	215.13
383.25	215.10
383.62	215.29
384.00	215.25
384.38	215.21
384.76	215.20
385.13	215.28
385.51	215.21
385.89	215.15
386.27	215.13
386.64	215.13
387.02	215.07
387.40	215.01
387.78	214.98
388.15	214.94
388.53	214.90
388.91	214.85
389.29	214.86
389.66	214.86
390.04	214.82
390.42	214.85
390.79	214.83
391.17	214.78
391.55	214.52
391.92	214.51
392.30	214.55
392.68	214.51
393.05	214.46
393.43	214.47
393.81	214.50
394.18	214.47
394.56	214.44
394.94	214.50
395.31	214.46
395.69	214.54
396.06	214.62
396.44	214.66
396.82	214.69
397.19	214.81
397.57	214.81
397.95	214.84
398.32	214.81
398.70	214.88
399.07	215.00
399.45	215.05
399.82	215.12
400.20	215.13
400.58	215.20
400.95	215.16
401.33	215.32
401.70	215.54
402.08	215.65
402.45	215.77
402.83	215.89
403.20	216.04
403.58	216.11
403.95	216.25
404.33	216.38
404.71	216.52
405.08	216.77
405.46	216.95
405.83	217.12
406.21	217.31
406.58	217.52
406.96	217.71
407.33	217.97
407.70	218.24
408.08	218.70
408.45	219.03
408.83	219.46
409.20	219.78
409.58	220.04
409.95	220.55
410.33	221.06
410.70	221.49
411.08	222.06
411.45	222.67
411.82	223.25
412.20	223.98
412.57	224.86
412.95	225.42
413.32	226.28
413.69	227.16
414.07	228.07
414.44	229.09
414.82	230.11
415.19	231.31
415.56	232.53
415.94	233.72
416.31	235.15
416.68	236.56
417.06	238.16
417.43	239.71
417.81	241.43
418.18	243.18
418.55	245.11
418.93	247.16
419.30	249.26
419.67	251.50
420.04	253.76
420.42	256.15
420.79	258.97
421.16	261.81
421.54	264.74
421.91	267.76
422.28	270.90
422.66	274.25
423.03	277.50
423.40	280.87
423.77	284.48
424.15	288.16
424.52	292.00
424.89	296.21
425.26	300.34
425.64	304.24
426.01	308.53
426.38	313.08
426.75	317.61
427.13	322.39
427.50	327.36
427.87	332.60
428.24	337.85
428.61	342.92
428.99	348.41
429.36	354.46
429.73	360.42
430.10	366.29
430.47	372.37
430.85	378.77
431.22	385.52
431.59	392.66
431.96	399.54
432.33	407.10
432.70	414.40
433.08	422.95
433.45	431.05
433.82	439.12
434.19	448.03
434.56	456.77
434.93	465.14
435.30	473.53
435.68	482.74
436.05	491.80
436.42	500.80
436.79	508.98
437.16	517.79
437.53	527.13
437.90	536.41
438.27	545.47
438.64	554.75
439.01	563.31
439.38	570.96
439.75	578.30
440.13	586.78
440.50	594.82
440.87	601.28
441.24	608.01
441.61	615.43
441.98	620.82
442.35	627.25
442.72	633.66
443.09	639.70
443.46	643.43
443.83	645.88
444.20	648.02
444.57	651.22
444.94	652.69
445.31	654.12
445.68	655.48
446.05	656.07
446.42	655.30
446.79	654.33
447.16	653.27
447.53	652.52
447.90	649.17
448.27	645.85
448.64	641.17
449.01	637.87
449.37	631.97
449.74	626.32
450.11	619.37
450.48	611.89
450.85	604.39
451.22	597.95
451.59	591.87
451.96	586.01
452.33	578.17
452.70	571.06
453.07	562.58
453.43	553.91
453.80	545.58
454.17	537.52
454.54	529.91
454.91	521.69
455.28	513.69
455.65	506.23
456.02	498.66
456.38	492.32
456.75	484.27
457.12	477.61
457.49	471.04
457.86	464.77
458.23	459.38
458.59	453.40
458.96	447.29
459.33	441.89
459.70	436.50
460.07	432.13
460.43	427.17
460.80	422.49
461.17	418.41
461.54	414.19
461.91	410.16
462.27	406.01
462.64	402.56
463.01	398.71
463.38	394.91
463.74	391.16
464.11	387.89
464.48	385.10
464.85	382.01
465.21	379.56
465.58	376.91
465.95	373.73
466.32	371.10
466.68	368.53
467.05	365.91
467.42	363.38
467.78	360.68
468.15	358.11
468.52	356.20
468.88	353.68
469.25	351.41
469.62	349.55
469.98	347.61
470.35	345.74
470.72	344.03
471.08	342.23
471.45	340.71
471.82	339.14
472.18	337.44
472.55	336.22
472.92	334.77
473.28	333.56
473.65	332.38
474.02	331.25
474.38	330.31
474.75	329.53
475.11	328.63
475.48	328.01
475.85	327.46
476.21	326.97
476.58	326.60
476.94	326.34
477.31	325.99
477.67	325.70
478.04	325.52
478.41	325.46
478.77	325.68
479.14	325.60
479.50	325.71
479.87	326.00
480.23	326.29
480.60	326.56
480.96	326.79
481.33	327.36
481.69	327.91
482.06	328.41
482.42	328.87
482.79	329.49
483.15	330.33
483.52	331.27
483.88	332.12
484.25	333.11
484.61	334.11
484.98	335.22
485.34	336.54
485.71	337.96
486.07	339.45
486.44	340.76
486.80	342.38
487.17	344.12
487.53	345.95
487.90	347.82
488.26	349.90
488.62	352.07
488.99	354.11
489.35	356.27
489.72	358.64
490.08	361.18
490.44	363.70
490.81	366.33
491.17	369.07
491.54	372.06
491.90	375.02
492.26	378.27
492.63	381.63
492.99	385.08
493.36	388.72
493.72	392.51
494.08	396.47
494.45	400.72
494.81	405.03
495.17	409.46
495.54	414.17
495.90	418.94
496.26	423.85
496.63	429.02
496.99	434.40
497.35	439.96
497.72	445.74
498.08	451.70
498.44	457.82
498.80	464.22
499.17	470.70
499.53	477.47
499.89	484.42
500.26	491.38
500.62	498.51
500.98	505.87
501.34	513.38
501.71	521.16
502.07	528.89
502.43	536.87
502.79	544.99
503.16	553.36
503.52	561.99
503.88	570.70
504.24	579.69
504.60	588.78
504.97	598.05
505.33	607.31
505.69	617.10
506.05	626.91
506.41	636.74
506.78	646.78
507.14	657.02
507.50	667.45
507.86	678.10
508.22	688.77
508.59	699.40
508.95	710.39
509.31	721.59
509.67	733.01
510.03	744.26
510.39	755.91
510.75	767.59
511.12	779.32
511.48	791.35
511.84	803.51
512.20	815.71
512.56	828.29
512.92	841.02
513.28	853.70
513.64	866.45
514.00	879.25
514.37	892.15
514.73	905.16
515.09	918.11
515.45	931.08
515.81	944.05
516.17	957.50
516.53	970.80
516.89	983.84
517.25	997.05
517.61	1010.64
517.97	1024.11
518.33	1037.27
518.69	1050.90
519.05	1064.69
519.41	1078.29
519.77	1092.20
520.13	1105.47
520.49	1118.69
520.85	1132.05
521.21	1145.37
521.57	1159.13
521.93	1172.21
522.29	1185.98
522.65	1199.63
523.01	1213.27
523.37	1226.62
523.73	1239.94
524.09	1253.05
524.45	1266.57
524.81	1280.15
525.17	1293.65
525.53	1306.86
525.89	1320.29
526.25	1333.43
526.61	1346.32
526.97	1359.52
527.33	1372.57
527.68	1386.07
528.04	1399.56
528.40	1412.75
528.76	1426.13
529.12	1439.06
529.48	1452.45
529.84	1464.71
530.20	1477.46
530.56	1490.01
530.91	1503.23
531.27	1516.04
531.63	1528.84
531.99	1541.65
532.35	1553.88
532.71	1566.19
533.07	1579.15
533.42	1591.49
533.78	1603.67
534.14	1615.73
534.50	1627.02
534.86	1638.52
535.21	1649.48
535.57	1661.13
535.93	1672.33
536.29	1683.41
536.65	1694.88
537.00	1705.91
537.36	1717.46
537.72	1728.37
538.08	1739.95
538.44	1751.11
538.79	1762.37
539.15	1773.52
539.51	1784.38
539.87	1795.95
540.22	1806.85
540.58	1817.87
540.94	1828.85
541.29	1839.31
541.65	1849.20
542.01	1859.89
542.37	1870.06
542.72	1880.17
543.08	1890.07
543.44	1900.81
543.79	1910.26
544.15	1919.78
544.51	1929.80
544.87	1939.81
545.22	1949.11
545.58	1958.08
545.94	1967.03
546.29	1975.51
546.65	1983.78
547.01	1991.98
547.36	1999.49
547.72	2007.25
548.07	2014.76
548.43	2022.60
548.79	2030.34
549.14	2038.52
549.50	2046.95
549.86	2055.02
550.21	2062.61
550.57	2070.27
550.92	2076.98
551.28	2084.42
551.64	2091.69
551.99	2099.08
552.35	2106.17
552.70	2113.32
553.06	2119.75
553.41	2125.97
553.77	2132.38
554.13	2138.81
554.48	2145.79
554.84	2153.05
555.19	2159.67
555.55	2166.04
555.90	2172.20
556.26	2179.01
556.61	2185.14
556.97	2189.92
557.32	2195.58
557.68	2201.92
558.03	2207.65
558.39	2213.04
558.74	2219.14
559.10	2224.62
559.45	2230.35
559.81	2235.91
560.16	2241.24
560.52	2247.22
560.87	2253.61
561.23	2259.56
561.58	2266.26
561.94	2271.59
562.29	2276.01
562.64	2281.99
563.00	2287.71
563.35	2293.21
563.71	2298.79
564.06	2304.40
564.42	2310.20
564.77	2315.22
565.12	2320.47
565.48	2325.25
565.83	2330.69
566.19	2335.73
566.54	2340.90
566.89	2345.32
567.25	2349.67
567.60	2355.24
567.96	2360.22
568.31	2364.53
568.66	2368.80
569.02	2372.44
569.37	2376.13
569.72	2380.38
570.08	2383.60
570.43	2386.59
570.78	2389.62
571.14	2392.00
571.49	2394.98
571.84	2398.46
572.20	2401.15
572.55	2403.94
572.90	2406.24
573.26	2408.87
573.61	2411.51
573.96	2413.65
574.31	2415.62
574.67	2417.55
575.02	2418.26
575.37	2419.69
575.72	2420.24
576.08	2421.42
576.43	2421.35
576.78	2421.46
577.13	2422.81
577.49	2424.17
577.84	2424.96
578.19	2425.93
578.54	2426.48
578.90	2426.79
579.25	2426.48
579.60	2426.18
579.95	2425.13
580.30	2425.05
580.66	2424.18
581.01	2422.35
581.36	2419.64
581.71	2417.99
582.06	2416.52
582.42	2415.30
582.77	2412.74
583.12	2411.02
583.47	2409.51
583.82	2408.71
584.17	2407.31
584.53	2405.14
584.88	2402.58
585.23	2400.56
585.58	2398.18
585.93	2395.97
586.28	2393.71
586.63	2390.93
586.98	2388.59
587.34	2386.53
587.69	2383.74
588.04	2381.35
588.39	2379.70
588.74	2377.09
589.09	2374.08
589.44	2370.61
589.79	2367.83
590.14	2365.53
590.49	2362.39
590.84	2358.29
591.19	2354.92
591.54	2351.54
591.89	2347.43
592.25	2344.11
592.60	2339.75
592.95	2335.48
593.30	2331.15
593.65	2326.71
594.00	2322.32
594.35	2319.24
594.70	2314.51
595.05	2310.14
595.40	2304.78
595.75	2298.70
596.10	2295.04
596.45	2290.11
596.80	2285.45
597.15	2280.38
597.50	2274.52
597.85	2269.57
598.19	2264.47
598.54	2258.74
598.89	2253.46
599.24	2248.79
599.59	2242.60
599.94	2236.49
600.29	2230.43
600.64	2224.39
600.99	2217.45
601.34	2211.89
601.69	2204.85
602.04	2198.45
602.39	2191.63
602.74	2185.27
603.08	2179.81
603.43	2173.34
603.78	2166.53
604.13	2159.54
604.48	2152.12
604.83	2146.07
605.18	2140.05
605.53	2132.98
605.87	2126.06
606.22	2119.25
606.57	2111.31
606.92	2103.30
607.27	2096.53
607.62	2089.91
607.96	2083.01
608.31	2076.72
608.66	2068.95
609.01	2061.22
609.36	2054.07
609.70	2046.37
610.05	2038.63
610.40	2030.38
610.75	2021.90
611.10	2014.18
611.44	2005.09
611.79	1996.57
612.14	1986.66
612.49	1975.68
612.83	1966.36
613.18	1957.02
613.53	1947.64
613.88	1938.09
614.22	1929.59
614.57	1919.76
614.92	1909.18
615.27	1898.84
615.61	1888.45
615.96	1878.86
616.31	1869.46
616.65	1860.01
617.00	1850.54
617.35	1840.99
617.70	1831.23
618.04	1821.47
618.39	1811.37
618.74	1802.02
619.08	1792.36
619.43	1783.63
619.78	1775.46
620.12	1767.13
620.47	1757.72
620.82	1747.49
621.16	1737.82
621.51	1728.06
621.85	1718.42
622.20	1708.33
622.55	1698.03
622.89	1688.21
623.24	1678.48
623.59	1668.71
623.93	1658.71
624.28	1648.84
624.62	1638.95
624.97	1628.93
625.32	1619.06
625.66	1610.18
626.01	1601.47
626.35	1592.34
626.70	1582.46
627.04	1572.76
627.39	1562.48
627.73	1553.27
628.08	1544.57
628.43	1535.21
628.77	1525.99
629.12	1517.17
629.46	1509.28
629.81	1501.03
630.15	1491.86
630.50	1482.36
630.84	1472.07
631.19	1462.37
631.53	1453.28
631.88	1443.24
632.22	1433.39
632.57	1424.24
632.91	1414.36
633.26	1404.67
633.60	1395.18
633.95	1386.02
634.29	1376.55
634.64	1367.43
634.98	1357.54
635.32	1348.32
635.67	1339.92
636.01	1330.76
636.36	1321.19
636.70	1311.89
637.05	1302.69
637.39	1293.90
637.73	1285.37
638.08	1277.85
638.42	1269.91
638.77	1261.25
639.11	1253.07
639.45	1245.34
639.80	1237.08
640.14	1228.49
640.49	1219.73
640.83	1210.97
641.17	1202.90
641.52	1194.98
641.86	1186.53
642.20	1178.90
642.55	1170.31
642.89	1161.59
643.23	1153.07
643.58	1145.04
643.92	1136.14
644.26	1127.49
644.61	1119.12
644.95	1110.35
645.29	1101.27
645.64	1092.15
645.98	1083.70
646.32	1075.89
646.66	1067.48
647.01	1059.12
647.35	1051.14
647.69	1042.97
648.04	1034.88
648.38	1026.12
648.72	1017.42
649.06	1009.00
649.41	1000.78
649.75	992.99
650.09	985.08
650.43	977.21
650.78	968.93
651.12	961.25
651.46	953.91
651.80	946.76
652.14	939.54
652.49	932.13
652.83	924.87
653.17	917.26
653.51	909.71
653.85	902.57
654.20	895.46
654.54	888.15
654.88	880.96
655.22	873.76
655.56	866.80
655.90	860.00
656.25	853.45
656.59	846.67
656.93	839.72
657.27	832.70
657.61	825.62
657.95	819.60
658.29	813.62
658.64	807.65
658.98	801.13
659.32	794.79
659.66	788.57
660.00	782.26
660.34	776.19
660.68	770.09
661.02	763.69
661.36	757.73
661.70	751.88
662.05	746.28
662.39	740.81
662.73	735.41
663.07	730.05
663.41	724.46
663.75	718.66
664.09	713.03
664.43	707.56
664.77	702.33
665.11	696.50
665.45	690.73
665.79	684.84
666.13	679.23
666.47	673.62
666.81	668.18
667.15	662.72
667.49	657.53
667.83	652.32
668.17	647.10
668.51	641.97
668.85	637.00
669.19	632.11
669.53	627.15
669.87	622.08
670.21	617.33
670.55	612.63
670.89	608.31
671.23	603.88
671.57	599.46
671.91	595.14
672.25	591.02
672.58	586.93
672.92	582.90
673.26	578.92
673.60	575.10
673.94	571.33
674.28	567.81
674.62	564.12
674.96	560.31
675.30	556.82
675.64	553.15
675.97	549.51
676.31	545.86
676.65	542.18
676.99	538.78
677.33	534.94
677.67	531.29
678.01	527.38
678.34	523.80
678.68	520.32
679.02	516.75
679.36	513.06
679.70	509.38
680.04	505.81
680.37	502.37
680.71	498.98
681.05	495.77
681.39	492.40
681.73	489.19
682.06	486.19
682.40	483.04
682.74	479.85
683.08	476.70
683.42	473.50
683.75	470.45
684.09	467.33
684.43	464.51
684.77	461.54
685.10	458.64
685.44	455.73
685.78	452.81
686.12	449.97
686.45	447.26
686.79	444.54
687.13	441.99
687.46	439.41
687.80	436.74
688.14	433.81
688.48	431.14
688.81	428.46
689.15	425.81
689.49	423.20
689.82	420.64
690.16	418.00
690.50	415.51
690.83	413.05
691.17	410.50
691.51	407.96
691.84	405.67
692.18	403.46
692.52	401.19
692.85	399.01
693.19	396.91
693.52	394.69
693.86	392.44
694.20	390.23
694.53	387.98
694.87	385.79
695.21	383.70
695.54	381.56
695.88	379.36
696.21	377.15
696.55	374.99
696.88	372.88
697.22	370.85
697.56	368.99
697.89	367.06
698.23	365.25
698.56	363.47
698.90	361.72
699.23	359.80
699.57	357.95
699.90	356.05
700.24	354.22
700.58	352.43
700.91	350.78
701.25	349.17
701.58	347.59
701.92	345.99
702.25	344.33
702.59	342.64
702.92	341.10
703.26	339.53
703.59	338.03
703.93	336.72
704.26	335.25
704.60	333.66
704.93	332.15
705.26	330.65
705.60	329.15
705.93	327.50
706.27	326.11
706.60	324.78
706.94	323.58
707.27	322.16
707.61	320.80
707.94	319.41
708.27	317.86
708.61	316.39
708.94	314.97
709.28	313.68
709.61	312.44
709.94	311.21
710.28	310.01
710.61	308.85
710.95	307.47
711.28	306.41
711.61	305.22
711.95	304.05
712.28	302.83
712.61	301.66
712.95	300.66
713.28	299.60
713.61	298.49
713.95	297.27
714.28	296.22
714.61	295.17
714.95	294.16
715.28	293.14
715.61	292.09
715.95	291.05
716.28	290.07
716.61	289.08
716.95	288.02
717.28	287.07
717.61	286.07
717.94	285.10
718.28	284.01
718.61	283.13
718.94	282.23
719.27	281.38
719.61	280.58
719.94	279.69
720.27	278.73
720.60	277.78
720.94	276.96
721.27	276.19
721.60	275.47
721.93	274.68
722.27	274.03
722.60	273.35
722.93	272.64
723.26	271.95
723.59	271.20
723.93	270.58
724.26	269.90
724.59	269.26
724.92	268.66
725.25	268.14
725.59	267.51
725.92	266.96
726.25	266.35
726.58	265.73
726.91	265.12
727.24	264.55
727.57	264.00
727.91	263.42
728.24	262.83
728.57	262.25
728.90	261.71
729.23	261.06
729.56	260.62
729.89	260.09
730.22	259.51
730.55	259.00
730.89	258.48
731.22	257.94
731.55	257.41
731.88	256.92
732.21	256.38
732.54	255.87
732.87	255.33
733.20	254.80
733.53	254.29
733.86	253.79
734.19	253.27
734.52	252.87
734.85	252.56
735.18	252.08
735.51	251.67
735.84	251.26
736.17	250.91
736.50	250.36
736.83	250.19
737.16	249.83
737.49	249.48
737.82	249.06
738.15	248.65
738.48	248.24
738.81	247.84
739.14	247.40
739.47	246.97
739.80	246.63
740.13	246.33
740.46	245.94
740.79	245.58
741.12	245.23
741.45	244.86
741.78	244.37
742.11	244.09
742.44	243.71
742.77	243.40
743.10	243.03
743.43	242.69
743.75	242.13
744.08	242.06
744.41	241.65
744.74	241.30
745.07	240.94
745.40	240.65
745.73	240.38
746.06	240.08
746.39	239.83
746.71	239.47
747.04	239.10
747.37	238.80
747.70	238.47
748.03	238.18
748.36	237.88
748.68	237.60
749.01	237.28
749.34	236.99
749.67	236.67
750.00	236.43
750.33	236.29
750.65	236.03
750.98	235.51
751.31	235.28
751.64	235.04
751.97	234.87
752.29	234.60
752.62	234.26
752.95	234.00
753.28	233.73
753.60	233.52
753.93	233.33
754.26	233.10
754.59	232.87
754.91	232.61
755.24	232.38
755.57	232.12
755.90	231.82
756.22	231.60
756.55	231.33
756.88	231.06
757.20	230.72
757.53	230.47
757.86	230.21
758.19	230.01
758.51	229.81
758.84	229.52
759.17	229.30
759.49	229.15
759.82	229.07
760.15	228.88
760.47	228.67
760.80	228.43
761.13	228.25
761.45	228.03
761.78	227.88
762.11	227.67
762.43	227.47
762.76	227.33
763.08	227.15
763.41	227.01
763.74	226.88
764.06	226.71
764.39	226.56
764.71	226.45
765.04	226.26
765.37	226.06
765.69	225.93
766.02	225.77
766.34	225.62
766.67	225.40
767.00	225.32
767.32	225.29
767.65	225.30
767.97	225.17
768.30	225.08
768.62	224.92
768.95	224.81
769.27	224.74
769.60	224.69
769.92	224.52
770.25	224.37
770.57	224.19
770.90	224.04
771.22	223.86
771.55	223.72
771.87	223.63
772.20	223.55
772.52	223.60
772.85	223.75
773.17	223.62
773.50	223.47
773.82	223.35
774.15	223.10
774.47	222.85
774.80	222.74
775.12	222.61
775.45	222.53
775.77	222.42
776.09	222.29
776.42	222.12
776.74	222.12
777.07	222.04
777.39	221.95
777.72	221.87
778.04	221.87
778.36	221.76
778.69	221.69
779.01	221.60
779.33	221.33
779.66	221.01
779.98	220.94
780.31	220.88
780.63	220.83
780.95	220.83
781.28	220.74
781.60	220.65
781.92	220.59
782.25	220.48
782.57	220.39
782.89	220.34
783.22	220.29
783.54	220.17
783.86	220.06
784.19	220.00
784.51	220.01
784.83	219.88
785.16	219.84
785.48	219.80
785.80	219.75
786.12	219.70
