SpectraSuite Data File
++++++++++++++++++++++++++++++++++++
Date: Tue Jan 29 16:07:08 EST 2013
User: group
Dark Spectrum Present: No
Reference Spectrum Present: No
Number of Sampled Component Spectra: 1
Spectrometers: USB2E7196
Integration Time (usec): 65000 (USB2E7196)
Spectra Averaged: 100 (USB2E7196)
Boxcar Smoothing: 10 (USB2E7196)
Correct for Electrical Dark: No (USB2E7196)
Strobe/Lamp Enabled: No (USB2E7196)
Correct for Detector Non-linearity: No (USB2E7196)
Correct for Stray Light: No (USB2E7196)
Number of Pixels in Processed Spectrum: 2048
>>>>>Begin Processed Spectral Data<<<<<
339.09	0.00
339.48	202.53
339.86	204.15
340.24	205.78
340.63	206.59
341.01	211.75
341.39	209.96
341.78	211.79
342.16	212.59
342.54	213.33
342.93	202.11
343.31	212.31
343.69	212.85
344.07	213.33
344.46	213.75
344.84	214.19
345.22	214.36
345.60	214.61
345.99	214.78
346.37	214.91
346.75	215.00
347.13	215.07
347.52	215.12
347.90	215.24
348.28	215.26
348.66	215.29
349.05	215.25
349.43	215.33
349.81	215.36
350.19	215.41
350.57	215.42
350.96	215.48
351.34	215.57
351.72	215.67
352.10	215.76
352.48	215.84
352.87	215.87
353.25	215.93
353.63	215.96
354.01	216.01
354.39	216.07
354.77	216.13
355.15	216.24
355.54	216.29
355.92	216.31
356.30	216.38
356.68	216.57
357.06	216.62
357.44	216.65
357.82	216.69
358.20	216.75
358.58	216.85
358.97	216.93
359.35	217.03
359.73	217.11
360.11	217.15
360.49	217.21
360.87	217.24
361.25	217.29
361.63	217.43
362.01	217.50
362.39	217.54
362.77	217.61
363.15	217.64
363.53	217.67
363.91	217.68
364.29	217.70
364.67	217.56
365.05	217.60
365.43	217.65
365.81	217.71
366.19	217.82
366.57	217.91
366.95	217.90
367.33	217.85
367.71	217.87
368.09	217.93
368.47	217.93
368.85	217.93
369.23	218.00
369.61	217.91
369.99	217.99
370.37	217.98
370.75	218.04
371.13	217.99
371.51	217.93
371.89	217.93
372.27	217.94
372.65	217.92
373.03	217.91
373.41	217.89
373.78	217.85
374.16	217.70
374.54	217.61
374.92	217.57
375.30	217.55
375.68	217.49
376.06	217.44
376.44	217.38
376.82	217.34
377.19	217.25
377.57	217.19
377.95	217.07
378.33	217.03
378.71	216.87
379.09	216.85
379.47	216.86
379.84	216.79
380.22	216.72
380.60	216.64
380.98	216.60
381.36	216.53
381.73	216.44
382.11	216.45
382.49	216.42
382.87	216.35
383.25	216.32
383.62	216.54
384.00	216.46
384.38	216.45
384.76	216.48
385.13	216.53
385.51	216.53
385.89	216.45
386.27	216.43
386.64	216.45
387.02	216.44
387.40	216.40
387.78	216.39
388.15	216.41
388.53	216.38
388.91	216.38
389.29	216.36
389.66	216.37
390.04	216.33
390.42	216.32
390.79	216.37
391.17	216.34
391.55	216.05
391.92	216.04
392.30	216.04
392.68	215.98
393.05	215.98
393.43	215.97
393.81	216.03
394.18	215.97
394.56	215.95
394.94	215.97
395.31	215.92
395.69	216.00
396.06	215.99
396.44	216.06
396.82	216.05
397.19	216.18
397.57	216.19
397.95	216.23
398.32	216.20
398.70	216.23
399.07	216.34
399.45	216.41
399.82	216.47
400.20	216.52
400.58	216.59
400.95	216.52
401.33	216.63
401.70	216.84
402.08	216.95
402.45	217.06
402.83	217.22
403.20	217.38
403.58	217.47
403.95	217.63
404.33	217.79
404.71	217.92
405.08	218.15
405.46	218.31
405.83	218.51
406.21	218.71
406.58	218.94
406.96	219.15
407.33	219.41
407.70	219.69
408.08	220.15
408.45	220.47
408.83	220.89
409.20	221.19
409.58	221.43
409.95	221.86
410.33	222.29
410.70	222.72
411.08	223.24
411.45	223.76
411.82	224.32
412.20	224.97
412.57	225.78
412.95	226.31
413.32	227.11
413.69	227.91
414.07	228.80
414.44	229.73
414.82	230.71
415.19	231.82
415.56	232.96
415.94	234.07
416.31	235.46
416.68	236.79
417.06	238.38
417.43	239.88
417.81	241.55
418.18	243.26
418.55	245.10
418.93	247.04
419.30	249.11
419.67	251.24
420.04	253.41
420.42	255.70
420.79	258.41
421.16	261.09
421.54	263.91
421.91	266.83
422.28	269.81
422.66	272.97
423.03	276.13
423.40	279.37
423.77	282.86
424.15	286.36
424.52	290.07
424.89	294.07
425.26	298.02
425.64	301.76
426.01	305.95
426.38	310.28
426.75	314.69
427.13	319.23
427.50	324.05
427.87	329.10
428.24	334.07
428.61	338.90
428.99	344.24
429.36	350.08
429.73	355.74
430.10	361.46
430.47	367.34
430.85	373.43
431.22	379.92
431.59	386.75
431.96	393.34
432.33	400.58
432.70	407.58
433.08	415.80
433.45	423.59
433.82	431.29
434.19	439.82
434.56	448.26
434.93	456.35
435.30	464.35
435.68	473.14
436.05	481.83
436.42	490.43
436.79	498.28
437.16	506.73
437.53	515.70
437.90	524.53
438.27	533.07
438.64	542.01
439.01	550.21
439.38	557.57
439.75	564.68
440.13	572.76
440.50	580.43
440.87	586.58
441.24	593.01
441.61	600.05
441.98	605.29
442.35	611.33
442.72	617.36
443.09	623.14
443.46	626.73
443.83	629.20
444.20	631.31
444.57	634.32
444.94	635.62
445.31	636.99
445.68	638.24
446.05	638.85
446.42	638.01
446.79	637.12
447.16	636.02
447.53	635.20
447.90	631.97
448.27	628.76
448.64	624.33
449.01	621.12
449.37	615.44
449.74	609.90
450.11	603.24
450.48	596.12
450.85	588.95
451.22	582.72
451.59	576.76
451.96	571.16
452.33	563.63
452.70	556.83
453.07	548.64
453.43	540.35
453.80	532.43
454.17	524.75
454.54	517.48
454.91	509.63
455.28	501.99
455.65	494.98
456.02	487.84
456.38	481.72
456.75	474.17
457.12	467.92
457.49	461.70
457.86	455.75
458.23	450.61
458.59	445.00
458.96	439.21
459.33	434.12
459.70	428.92
460.07	424.79
460.43	420.13
460.80	415.68
461.17	411.86
461.54	407.84
461.91	403.96
462.27	399.98
462.64	396.64
463.01	392.99
463.38	389.35
463.74	385.74
464.11	382.59
464.48	379.83
464.85	376.80
465.21	374.48
465.58	371.97
465.95	368.95
466.32	366.36
466.68	363.84
467.05	361.34
467.42	358.89
467.78	356.29
468.15	353.83
468.52	352.05
468.88	349.64
469.25	347.47
469.62	345.78
469.98	343.96
470.35	342.27
470.72	340.64
471.08	338.95
471.45	337.54
471.82	336.12
472.18	334.51
472.55	333.35
472.92	332.00
473.28	330.86
473.65	329.77
474.02	328.70
474.38	327.88
474.75	327.15
475.11	326.45
475.48	325.94
475.85	325.48
476.21	325.01
476.58	324.71
476.94	324.53
477.31	324.25
477.67	323.96
478.04	323.80
478.41	323.76
478.77	323.94
479.14	323.88
479.50	324.03
479.87	324.37
480.23	324.71
480.60	324.96
480.96	325.24
481.33	325.84
481.69	326.43
482.06	326.97
482.42	327.49
482.79	328.04
483.15	328.84
483.52	329.80
483.88	330.70
484.25	331.65
484.61	332.68
484.98	333.75
485.34	335.13
485.71	336.55
486.07	338.02
486.44	339.38
486.80	341.06
487.17	342.70
487.53	344.53
487.90	346.45
488.26	348.49
488.62	350.65
488.99	352.68
489.35	354.84
489.72	357.25
490.08	359.77
490.44	362.34
490.81	365.07
491.17	367.77
491.54	370.73
491.90	373.77
492.26	376.98
492.63	380.40
492.99	383.89
493.36	387.55
493.72	391.41
494.08	395.33
494.45	399.46
494.81	403.84
495.17	408.21
495.54	412.88
495.90	417.71
496.26	422.65
496.63	427.83
496.99	433.21
497.35	438.75
497.72	444.57
498.08	450.51
498.44	456.59
498.80	462.97
499.17	469.46
499.53	476.16
499.89	483.05
500.26	490.01
500.62	497.07
500.98	504.41
501.34	511.77
501.71	519.52
502.07	527.34
502.43	535.36
502.79	543.51
503.16	551.79
503.52	560.34
503.88	568.97
504.24	577.86
504.60	586.87
504.97	596.07
505.33	605.36
505.69	615.21
506.05	625.01
506.41	634.81
506.78	644.79
507.14	655.00
507.50	665.46
507.86	676.09
508.22	686.81
508.59	697.45
508.95	708.53
509.31	719.73
509.67	731.12
510.03	742.47
510.39	754.16
510.75	766.01
511.12	777.93
511.48	789.99
511.84	802.16
512.20	814.43
512.56	826.97
512.92	839.57
513.28	852.13
513.64	864.76
514.00	877.50
514.37	890.40
514.73	903.34
515.09	916.21
515.45	928.90
515.81	941.80
516.17	955.07
516.53	968.16
516.89	981.18
517.25	994.17
517.61	1007.52
517.97	1020.72
518.33	1033.65
518.69	1046.95
519.05	1060.58
519.41	1074.05
519.77	1087.78
520.13	1100.88
520.49	1113.87
520.85	1127.02
521.21	1140.22
521.57	1153.68
521.93	1166.56
522.29	1180.17
522.65	1193.56
523.01	1207.02
523.37	1220.00
523.73	1233.05
524.09	1245.96
524.45	1259.13
524.81	1272.38
525.17	1285.45
525.53	1298.44
525.89	1311.62
526.25	1324.52
526.61	1336.90
526.97	1349.72
527.33	1362.42
527.68	1375.62
528.04	1388.85
528.40	1401.70
528.76	1414.79
529.12	1427.43
529.48	1440.42
529.84	1452.35
530.20	1464.78
530.56	1476.99
530.91	1489.99
531.27	1502.51
531.63	1515.00
531.99	1527.45
532.35	1539.47
532.71	1551.59
533.07	1563.98
533.42	1575.71
533.78	1587.52
534.14	1599.37
534.50	1610.30
534.86	1621.61
535.21	1632.24
535.57	1643.43
535.93	1654.52
536.29	1665.31
536.65	1676.44
537.00	1687.16
537.36	1698.31
537.72	1709.11
538.08	1720.20
538.44	1730.79
538.79	1741.55
539.15	1752.18
539.51	1762.54
539.87	1773.55
540.22	1783.98
540.58	1794.65
540.94	1805.44
541.29	1815.28
541.65	1824.82
542.01	1835.17
542.37	1844.84
542.72	1854.74
543.08	1864.20
543.44	1874.15
543.79	1883.05
544.15	1892.15
544.51	1901.89
544.87	1911.35
545.22	1920.12
545.58	1928.69
545.94	1937.22
546.29	1945.42
546.65	1953.55
547.01	1961.65
547.36	1969.02
547.72	1976.70
548.07	1984.15
548.43	1991.64
548.79	1999.38
549.14	2007.21
549.50	2015.27
549.86	2022.81
550.21	2029.89
550.57	2037.28
550.92	2043.88
551.28	2051.27
551.64	2058.39
551.99	2065.55
552.35	2072.49
552.70	2079.21
553.06	2085.82
553.41	2092.00
553.77	2098.48
554.13	2104.65
554.48	2111.43
554.84	2118.42
555.19	2124.57
555.55	2130.90
555.90	2136.95
556.26	2143.58
556.61	2149.50
556.97	2154.36
557.32	2160.16
557.68	2166.49
558.03	2172.05
558.39	2177.25
558.74	2183.00
559.10	2188.66
559.45	2194.18
559.81	2199.63
560.16	2205.20
560.52	2211.05
560.87	2217.53
561.23	2223.42
561.58	2229.99
561.94	2235.17
562.29	2239.89
562.64	2245.98
563.00	2251.51
563.35	2257.12
563.71	2263.02
564.06	2268.72
564.42	2274.54
564.77	2279.69
565.12	2284.88
565.48	2290.24
565.83	2295.92
566.19	2301.54
566.54	2306.83
566.89	2311.64
567.25	2316.39
567.60	2322.07
567.96	2327.21
568.31	2331.56
568.66	2335.75
569.02	2339.66
569.37	2343.40
569.72	2347.90
570.08	2351.55
570.43	2354.67
570.78	2357.85
571.14	2360.52
571.49	2363.81
571.84	2367.48
572.20	2370.41
572.55	2373.50
572.90	2375.85
573.26	2378.91
573.61	2381.39
573.96	2383.58
574.31	2385.59
574.67	2387.49
575.02	2388.48
575.37	2389.98
575.72	2391.17
576.08	2392.83
576.43	2393.33
576.78	2394.18
577.13	2395.95
577.49	2397.30
577.84	2398.71
578.19	2400.21
578.54	2400.93
578.90	2402.05
579.25	2402.12
579.60	2402.38
579.95	2402.01
580.30	2402.61
580.66	2402.09
581.01	2400.60
581.36	2398.72
581.71	2397.47
582.06	2396.78
582.42	2396.14
582.77	2394.16
583.12	2392.66
583.47	2391.56
583.82	2391.18
584.17	2390.20
584.53	2388.19
584.88	2386.40
585.23	2384.69
585.58	2382.70
585.93	2380.73
586.28	2378.45
586.63	2376.30
586.98	2374.24
587.34	2372.54
587.69	2370.26
588.04	2368.41
588.39	2367.10
588.74	2364.85
589.09	2362.56
589.44	2359.53
589.79	2357.24
590.14	2355.63
590.49	2352.85
590.84	2349.32
591.19	2346.47
591.54	2343.25
591.89	2339.44
592.25	2336.18
592.60	2332.11
592.95	2328.03
593.30	2323.96
593.65	2319.94
594.00	2315.59
594.35	2312.65
594.70	2307.95
595.05	2303.35
595.40	2297.99
595.75	2292.72
596.10	2289.06
596.45	2284.30
596.80	2279.80
597.15	2274.63
597.50	2268.71
597.85	2264.04
598.19	2258.86
598.54	2253.13
598.89	2248.20
599.24	2243.75
599.59	2237.81
599.94	2232.21
600.29	2226.43
600.64	2220.69
600.99	2213.96
601.34	2208.61
601.69	2201.57
602.04	2195.40
602.39	2188.99
602.74	2182.99
603.08	2177.31
603.43	2170.92
603.78	2164.20
604.13	2157.12
604.48	2150.08
604.83	2144.19
605.18	2137.83
605.53	2131.00
605.87	2123.92
606.22	2117.06
606.57	2109.17
606.92	2101.49
607.27	2094.71
607.62	2088.22
607.96	2081.26
608.31	2074.81
608.66	2067.21
609.01	2059.82
609.36	2052.82
609.70	2045.17
610.05	2037.56
610.40	2029.42
610.75	2021.26
611.10	2013.64
611.44	2005.06
611.79	1996.38
612.14	1986.51
612.49	1976.13
612.83	1966.92
613.18	1957.86
613.53	1948.71
613.88	1939.30
614.22	1930.61
614.57	1920.66
614.92	1910.20
615.27	1900.20
615.61	1890.20
615.96	1880.49
616.31	1870.93
616.65	1861.49
617.00	1851.54
617.35	1842.00
617.70	1832.33
618.04	1822.09
618.39	1811.74
618.74	1802.06
619.08	1792.46
619.43	1783.74
619.78	1775.41
620.12	1766.78
620.47	1756.88
620.82	1746.56
621.16	1736.74
621.51	1726.82
621.85	1716.94
622.20	1706.34
622.55	1695.69
622.89	1685.89
623.24	1676.29
623.59	1666.46
623.93	1656.36
624.28	1646.85
624.62	1636.57
624.97	1626.25
625.32	1616.64
625.66	1607.90
626.01	1599.13
626.35	1589.65
626.70	1579.43
627.04	1569.32
627.39	1559.16
627.73	1549.99
628.08	1540.81
628.43	1531.23
628.77	1521.92
629.12	1512.97
629.46	1505.18
629.81	1496.82
630.15	1487.20
630.50	1477.27
630.84	1466.90
631.19	1456.99
631.53	1447.49
631.88	1437.29
632.22	1427.30
632.57	1417.88
632.91	1407.66
633.26	1397.72
633.60	1388.19
633.95	1378.87
634.29	1369.48
634.64	1360.11
634.98	1350.27
635.32	1341.04
635.67	1332.36
636.01	1323.31
636.36	1313.58
636.70	1304.00
637.05	1294.60
637.39	1285.68
637.73	1277.10
638.08	1269.63
638.42	1261.24
638.77	1252.44
639.11	1244.18
639.45	1236.16
639.80	1227.50
640.14	1218.81
640.49	1209.86
640.83	1201.11
641.17	1193.04
641.52	1184.81
641.86	1176.18
642.20	1168.24
642.55	1159.77
642.89	1150.96
643.23	1142.16
643.58	1134.11
643.92	1125.13
644.26	1116.42
644.61	1107.96
644.95	1099.16
645.29	1089.80
645.64	1080.77
645.98	1072.41
646.32	1064.42
646.66	1056.08
647.01	1047.76
647.35	1039.64
647.69	1031.34
648.04	1022.98
648.38	1014.06
648.72	1005.33
649.06	996.98
649.41	988.87
649.75	980.76
650.09	972.96
650.43	964.93
650.78	956.69
651.12	949.05
651.46	941.76
651.80	934.51
652.14	927.17
652.49	919.74
652.83	912.46
653.17	904.72
653.51	897.24
653.85	890.03
654.20	882.77
654.54	875.13
654.88	868.08
655.22	860.89
655.56	853.96
655.90	847.19
656.25	840.52
656.59	833.50
656.93	826.53
657.27	819.41
657.61	812.60
657.95	806.60
658.29	800.78
658.64	794.66
658.98	788.24
659.32	781.77
659.66	775.53
660.00	769.23
660.34	763.25
660.68	757.12
661.02	750.81
661.36	744.97
661.70	739.30
662.05	733.63
662.39	728.24
662.73	722.91
663.07	717.62
663.41	712.08
663.75	706.57
664.09	701.07
664.43	695.71
664.77	690.39
665.11	684.52
665.45	678.60
665.79	672.78
666.13	667.15
666.47	661.76
666.81	656.37
667.15	650.99
667.49	645.85
667.83	640.67
668.17	635.53
668.51	630.51
668.85	625.73
669.19	620.83
669.53	615.88
669.87	610.85
670.21	606.08
670.55	601.44
670.89	597.06
671.23	592.79
671.57	588.53
671.91	584.23
672.25	580.25
672.58	576.22
672.92	572.19
673.26	568.31
673.60	564.44
673.94	560.69
674.28	557.13
674.62	553.46
674.96	549.77
675.30	546.28
675.64	542.66
675.97	539.09
676.31	535.58
676.65	532.05
676.99	528.63
677.33	524.88
677.67	521.30
678.01	517.46
678.34	513.86
678.68	510.37
679.02	506.82
679.36	503.07
679.70	499.44
680.04	496.03
680.37	492.60
680.71	489.39
681.05	486.26
681.39	483.09
681.73	479.92
682.06	476.96
682.40	473.92
682.74	470.80
683.08	467.67
683.42	464.55
683.75	461.60
684.09	458.66
684.43	455.89
684.77	452.94
685.10	450.20
685.44	447.30
685.78	444.39
686.12	441.71
686.45	439.14
686.79	436.55
687.13	434.05
687.46	431.48
687.80	428.79
688.14	426.00
688.48	423.46
688.81	420.85
689.15	418.31
689.49	415.72
689.82	413.22
690.16	410.66
690.50	408.23
690.83	405.75
691.17	403.26
691.51	400.89
691.84	398.75
692.18	396.54
692.52	394.42
692.85	392.33
693.19	390.22
693.52	388.05
693.86	385.89
694.20	383.76
694.53	381.71
694.87	379.57
695.21	377.50
695.54	375.33
695.88	373.19
696.21	371.04
696.55	369.00
696.88	367.02
697.22	365.13
697.56	363.32
697.89	361.47
698.23	359.68
698.56	357.88
698.90	356.12
699.23	354.24
699.57	352.40
699.90	350.66
700.24	348.92
700.58	347.15
700.91	345.57
701.25	343.98
701.58	342.43
701.92	340.89
702.25	339.35
702.59	337.80
702.92	336.34
703.26	334.85
703.59	333.46
703.93	332.20
704.26	330.80
704.60	329.28
704.93	327.85
705.26	326.46
705.60	325.05
705.93	323.57
706.27	322.30
706.60	321.08
706.94	319.83
707.27	318.41
707.61	317.14
707.94	315.77
708.27	314.33
708.61	312.86
708.94	311.53
709.28	310.30
709.61	309.10
709.94	307.92
710.28	306.76
710.61	305.52
710.95	304.15
711.28	303.08
711.61	301.96
711.95	300.86
712.28	299.66
712.61	298.54
712.95	297.55
713.28	296.56
713.61	295.42
713.95	294.32
714.28	293.35
714.61	292.31
714.95	291.38
715.28	290.39
715.61	289.45
715.95	288.57
716.28	287.61
716.61	286.65
716.95	285.72
717.28	284.78
717.61	283.87
717.94	283.00
718.28	282.00
718.61	281.13
718.94	280.22
719.27	279.43
719.61	278.60
719.94	277.74
720.27	276.77
720.60	275.97
720.94	275.15
721.27	274.44
721.60	273.81
721.93	273.07
722.27	272.47
722.60	271.84
722.93	271.10
723.26	270.46
723.59	269.82
723.93	269.17
724.26	268.56
724.59	267.94
724.92	267.38
725.25	266.87
725.59	266.32
725.92	265.84
726.25	265.29
726.58	264.75
726.91	264.16
727.24	263.67
727.57	263.10
727.91	262.52
728.24	261.99
728.57	261.38
728.90	260.89
729.23	260.28
729.56	259.82
729.89	259.29
730.22	258.71
730.55	258.16
730.89	257.63
731.22	257.08
731.55	256.56
731.88	256.03
732.21	255.45
732.54	254.92
732.87	254.41
733.20	253.93
733.53	253.50
733.86	253.08
734.19	252.62
734.52	252.25
734.85	252.01
735.18	251.54
735.51	251.17
735.84	250.73
736.17	250.35
736.50	249.85
736.83	249.75
737.16	249.39
737.49	249.05
737.82	248.68
738.15	248.35
738.48	248.01
738.81	247.65
739.14	247.29
739.47	246.93
739.80	246.54
740.13	246.21
740.46	245.79
740.79	245.38
741.12	245.00
741.45	244.62
741.78	244.20
742.11	243.94
742.44	243.58
742.77	243.28
743.10	242.94
743.43	242.60
743.75	242.01
744.08	241.96
744.41	241.61
744.74	241.27
745.07	240.91
745.40	240.61
745.73	240.38
746.06	240.10
746.39	239.80
746.71	239.50
747.04	239.16
747.37	238.86
747.70	238.61
748.03	238.33
748.36	238.11
748.68	237.78
749.01	237.42
749.34	237.10
749.67	236.83
750.00	236.56
750.33	236.45
750.65	236.22
750.98	235.70
751.31	235.46
751.64	235.23
751.97	235.09
752.29	234.81
752.62	234.43
752.95	234.13
753.28	233.89
753.60	233.63
753.93	233.50
754.26	233.28
754.59	233.01
754.91	232.79
755.24	232.52
755.57	232.32
755.90	232.12
756.22	231.95
756.55	231.69
756.88	231.46
757.20	231.10
757.53	230.88
757.86	230.64
758.19	230.45
758.51	230.24
758.84	229.95
759.17	229.79
759.49	229.67
759.82	229.62
760.15	229.43
760.47	229.27
760.80	228.98
761.13	228.83
761.45	228.64
761.78	228.46
762.11	228.32
762.43	228.08
762.76	227.94
763.08	227.78
763.41	227.63
763.74	227.51
764.06	227.35
764.39	227.16
764.71	227.04
765.04	226.85
765.37	226.70
765.69	226.56
766.02	226.37
766.34	226.23
766.67	226.00
767.00	225.88
767.32	225.87
767.65	225.89
767.97	225.73
768.30	225.64
768.62	225.51
768.95	225.38
769.27	225.29
769.60	225.15
769.92	225.02
770.25	224.84
770.57	224.66
770.90	224.57
771.22	224.45
771.55	224.38
771.87	224.31
772.20	224.19
772.52	224.23
772.85	224.39
773.17	224.28
773.50	224.18
773.82	224.08
774.15	223.88
774.47	223.69
774.80	223.61
775.12	223.49
775.45	223.38
775.77	223.28
776.09	223.21
776.42	223.14
776.74	223.13
777.07	223.08
777.39	223.03
777.72	222.90
778.04	222.87
778.36	222.76
778.69	222.66
779.01	222.62
779.33	222.38
779.66	222.04
779.98	221.94
780.31	221.87
780.63	221.89
780.95	221.84
781.28	221.75
781.60	221.63
781.92	221.59
782.25	221.53
782.57	221.46
782.89	221.37
783.22	221.28
783.54	221.15
783.86	221.12
784.19	221.00
784.51	221.03
784.83	220.92
785.16	220.80
785.48	220.76
785.80	220.66
786.12	220.61
