SpectraSuite Data File
++++++++++++++++++++++++++++++++++++
Date: Tue Jan 29 16:04:14 EST 2013
User: group
Dark Spectrum Present: No
Reference Spectrum Present: No
Number of Sampled Component Spectra: 1
Spectrometers: USB2E7196
Integration Time (usec): 65000 (USB2E7196)
Spectra Averaged: 100 (USB2E7196)
Boxcar Smoothing: 10 (USB2E7196)
Correct for Electrical Dark: No (USB2E7196)
Strobe/Lamp Enabled: No (USB2E7196)
Correct for Detector Non-linearity: No (USB2E7196)
Correct for Stray Light: No (USB2E7196)
Number of Pixels in Processed Spectrum: 2048
>>>>>Begin Processed Spectral Data<<<<<
339.09	0.00
339.48	202.15
339.86	204.01
340.24	205.56
340.63	207.12
341.01	212.15
341.39	209.37
341.78	211.12
342.16	213.28
342.54	212.79
342.93	201.93
343.31	212.10
343.69	212.66
344.07	213.14
344.46	213.58
344.84	213.96
345.22	214.08
345.60	214.37
345.99	214.57
346.37	214.69
346.75	214.79
347.13	214.85
347.52	214.89
347.90	215.03
348.28	215.11
348.66	215.18
349.05	215.17
349.43	215.22
349.81	215.28
350.19	215.34
350.57	215.40
350.96	215.48
351.34	215.62
351.72	215.71
352.10	215.81
352.48	215.86
352.87	215.89
353.25	215.99
353.63	216.03
354.01	216.08
354.39	216.14
354.77	216.20
355.15	216.34
355.54	216.38
355.92	216.33
356.30	216.37
356.68	216.58
357.06	216.66
357.44	216.71
357.82	216.77
358.20	216.87
358.58	216.92
358.97	216.98
359.35	217.06
359.73	217.19
360.11	217.23
360.49	217.32
360.87	217.41
361.25	217.47
361.63	217.57
362.01	217.63
362.39	217.66
362.77	217.75
363.15	217.78
363.53	217.84
363.91	217.89
364.29	217.88
364.67	217.73
365.05	217.73
365.43	217.77
365.81	217.81
366.19	217.90
366.57	218.00
366.95	218.02
367.33	217.99
367.71	217.98
368.09	218.01
368.47	217.99
368.85	217.98
369.23	218.01
369.61	217.97
369.99	218.02
370.37	218.02
370.75	218.12
371.13	218.06
371.51	218.02
371.89	218.04
372.27	218.06
372.65	218.05
373.03	218.06
373.41	218.01
373.78	217.96
374.16	217.81
374.54	217.71
374.92	217.64
375.30	217.59
375.68	217.53
376.06	217.51
376.44	217.47
376.82	217.46
377.19	217.40
377.57	217.34
377.95	217.21
378.33	217.14
378.71	216.97
379.09	216.98
379.47	216.93
379.84	216.84
380.22	216.74
380.60	216.64
380.98	216.56
381.36	216.49
381.73	216.43
382.11	216.43
382.49	216.38
382.87	216.32
383.25	216.26
383.62	216.46
384.00	216.35
384.38	216.30
384.76	216.26
385.13	216.32
385.51	216.28
385.89	216.25
386.27	216.25
386.64	216.27
387.02	216.21
387.40	216.18
387.78	216.15
388.15	216.17
388.53	216.18
388.91	216.16
389.29	216.13
389.66	216.13
390.04	216.09
390.42	216.11
390.79	216.09
391.17	216.10
391.55	215.83
391.92	215.88
392.30	215.90
392.68	215.86
393.05	215.83
393.43	215.83
393.81	215.83
394.18	215.78
394.56	215.78
394.94	215.84
395.31	215.82
395.69	215.90
396.06	215.92
396.44	215.93
396.82	215.92
397.19	216.07
397.57	216.09
397.95	216.15
398.32	216.14
398.70	216.20
399.07	216.28
399.45	216.34
399.82	216.34
400.20	216.37
400.58	216.44
400.95	216.40
401.33	216.52
401.70	216.73
402.08	216.82
402.45	216.89
402.83	216.97
403.20	217.08
403.58	217.17
403.95	217.32
404.33	217.47
404.71	217.64
405.08	217.88
405.46	218.06
405.83	218.26
406.21	218.44
406.58	218.65
406.96	218.86
407.33	219.10
407.70	219.40
408.08	219.87
408.45	220.19
408.83	220.60
409.20	220.93
409.58	221.18
409.95	221.66
410.33	222.11
410.70	222.54
411.08	223.08
411.45	223.63
411.82	224.16
412.20	224.84
412.57	225.66
412.95	226.17
413.32	226.95
413.69	227.75
414.07	228.61
414.44	229.56
414.82	230.53
415.19	231.66
415.56	232.81
415.94	233.90
416.31	235.26
416.68	236.58
417.06	238.14
417.43	239.62
417.81	241.29
418.18	243.00
418.55	244.87
418.93	246.83
419.30	248.89
419.67	251.07
420.04	253.27
420.42	255.53
420.79	258.28
421.16	260.99
421.54	263.77
421.91	266.66
422.28	269.68
422.66	272.83
423.03	275.98
423.40	279.24
423.77	282.75
424.15	286.29
424.52	290.00
424.89	294.05
425.26	298.01
425.64	301.80
426.01	305.94
426.38	310.26
426.75	314.64
427.13	319.17
427.50	323.95
427.87	329.01
428.24	334.06
428.61	338.92
428.99	344.28
429.36	350.07
429.73	355.77
430.10	361.46
430.47	367.35
430.85	373.43
431.22	379.93
431.59	386.77
431.96	393.36
432.33	400.57
432.70	407.49
433.08	415.73
433.45	423.46
433.82	431.24
434.19	439.84
434.56	448.28
434.93	456.34
435.30	464.31
435.68	473.07
436.05	481.72
436.42	490.27
436.79	498.11
437.16	506.58
437.53	515.49
437.90	524.28
438.27	532.86
438.64	541.80
439.01	550.00
439.38	557.34
439.75	564.37
440.13	572.50
440.50	580.21
440.87	586.38
441.24	592.77
441.61	599.79
441.98	604.95
442.35	610.98
442.72	616.98
443.09	622.84
443.46	626.49
443.83	628.93
444.20	631.01
444.57	634.02
444.94	635.37
445.31	636.78
445.68	638.09
446.05	638.70
446.42	637.85
446.79	636.87
447.16	635.78
447.53	635.02
447.90	631.76
448.27	628.51
448.64	624.00
449.01	620.74
449.37	615.01
449.74	609.48
450.11	602.84
450.48	595.82
450.85	588.61
451.22	582.25
451.59	576.26
451.96	570.67
452.33	563.04
452.70	556.22
453.07	548.05
453.43	539.84
453.80	531.85
454.17	524.20
454.54	517.00
454.91	509.12
455.28	501.51
455.65	494.45
456.02	487.29
456.38	481.23
456.75	473.77
457.12	467.53
457.49	461.32
457.86	455.42
458.23	450.17
458.59	444.48
458.96	438.75
459.33	433.76
459.70	428.59
460.07	424.55
460.43	419.82
460.80	415.40
461.17	411.52
461.54	407.51
461.91	403.64
462.27	399.65
462.64	396.38
463.01	392.69
463.38	389.12
463.74	385.59
464.11	382.47
464.48	379.70
464.85	376.66
465.21	374.32
465.58	371.77
465.95	368.80
466.32	366.31
466.68	363.81
467.05	361.23
467.42	358.80
467.78	356.26
468.15	353.85
468.52	352.01
468.88	349.58
469.25	347.41
469.62	345.73
469.98	343.90
470.35	342.18
470.72	340.59
471.08	338.87
471.45	337.43
471.82	336.02
472.18	334.46
472.55	333.38
472.92	332.08
473.28	330.92
473.65	329.87
474.02	328.84
474.38	328.01
474.75	327.35
475.11	326.56
475.48	326.00
475.85	325.56
476.21	325.13
476.58	324.86
476.94	324.69
477.31	324.39
477.67	324.17
478.04	323.99
478.41	323.95
478.77	324.11
479.14	324.09
479.50	324.21
479.87	324.48
480.23	324.79
480.60	325.04
480.96	325.33
481.33	325.93
481.69	326.50
482.06	327.03
482.42	327.54
482.79	328.16
483.15	328.99
483.52	329.97
483.88	330.89
484.25	331.83
484.61	332.87
484.98	333.92
485.34	335.22
485.71	336.62
486.07	338.10
486.44	339.43
486.80	341.00
487.17	342.69
487.53	344.53
487.90	346.43
488.26	348.46
488.62	350.62
488.99	352.65
489.35	354.78
489.72	357.17
490.08	359.68
490.44	362.22
490.81	364.86
491.17	367.54
491.54	370.53
491.90	373.57
492.26	376.75
492.63	380.16
492.99	383.65
493.36	387.35
493.72	391.19
494.08	395.22
494.45	399.46
494.81	403.76
495.17	408.17
495.54	412.81
495.90	417.60
496.26	422.52
496.63	427.67
496.99	433.12
497.35	438.62
497.72	444.39
498.08	450.34
498.44	456.43
498.80	462.81
499.17	469.23
499.53	475.91
499.89	482.84
500.26	489.83
500.62	496.84
500.98	504.19
501.34	511.59
501.71	519.31
502.07	527.09
502.43	535.12
502.79	543.27
503.16	551.65
503.52	560.22
503.88	568.90
504.24	577.83
504.60	586.81
504.97	596.12
505.33	605.38
505.69	615.15
506.05	625.04
506.41	634.85
506.78	644.88
507.14	655.06
507.50	665.41
507.86	676.05
508.22	686.81
508.59	697.48
508.95	708.55
509.31	719.79
509.67	731.16
510.03	742.59
510.39	754.36
510.75	766.10
511.12	777.93
511.48	790.00
511.84	802.22
512.20	814.47
512.56	826.99
512.92	839.72
513.28	852.25
513.64	864.88
514.00	877.63
514.37	890.46
514.73	903.52
515.09	916.42
515.45	929.17
515.81	942.09
516.17	955.33
516.53	968.34
516.89	981.32
517.25	994.38
517.61	1007.67
517.97	1020.83
518.33	1033.82
518.69	1047.32
519.05	1060.90
519.41	1074.35
519.77	1088.12
520.13	1101.23
520.49	1114.25
520.85	1127.48
521.21	1140.59
521.57	1153.97
521.93	1166.94
522.29	1180.45
522.65	1193.94
523.01	1207.28
523.37	1220.25
523.73	1233.24
524.09	1246.24
524.45	1259.46
524.81	1272.75
525.17	1285.87
525.53	1298.75
525.89	1311.72
526.25	1324.39
526.61	1337.00
526.97	1349.74
527.33	1362.31
527.68	1375.47
528.04	1388.60
528.40	1401.50
528.76	1414.56
529.12	1427.23
529.48	1440.26
529.84	1452.25
530.20	1464.67
530.56	1477.09
530.91	1490.13
531.27	1502.71
531.63	1515.14
531.99	1527.59
532.35	1539.54
532.71	1551.73
533.07	1564.26
533.42	1576.24
533.78	1588.20
534.14	1599.87
534.50	1610.94
534.86	1622.31
535.21	1632.83
535.57	1643.90
535.93	1655.00
536.29	1665.98
536.65	1677.15
537.00	1687.80
537.36	1698.85
537.72	1709.59
538.08	1720.76
538.44	1731.40
538.79	1742.21
539.15	1752.79
539.51	1763.03
539.87	1774.10
540.22	1784.51
540.58	1795.13
540.94	1805.71
541.29	1815.60
541.65	1825.13
542.01	1835.32
542.37	1845.10
542.72	1855.01
543.08	1864.64
543.44	1874.59
543.79	1883.50
544.15	1892.70
544.51	1902.43
544.87	1912.07
545.22	1920.92
545.58	1929.46
545.94	1937.94
546.29	1946.16
546.65	1954.23
547.01	1962.36
547.36	1969.77
547.72	1977.34
548.07	1984.91
548.43	1992.45
548.79	2000.14
549.14	2008.08
549.50	2016.14
549.86	2023.69
550.21	2030.87
550.57	2038.26
550.92	2044.90
551.28	2052.11
551.64	2059.22
551.99	2066.56
552.35	2073.47
552.70	2080.03
553.06	2086.37
553.41	2092.46
553.77	2098.73
554.13	2105.13
554.48	2111.98
554.84	2118.79
555.19	2125.03
555.55	2131.32
555.90	2137.48
556.26	2144.06
556.61	2149.78
556.97	2154.66
557.32	2160.50
557.68	2166.89
558.03	2172.63
558.39	2177.85
558.74	2183.83
559.10	2189.28
559.45	2194.65
559.81	2200.12
560.16	2205.84
560.52	2211.83
560.87	2218.25
561.23	2224.29
561.58	2230.81
561.94	2235.90
562.29	2240.88
562.64	2247.10
563.00	2252.48
563.35	2258.14
563.71	2264.06
564.06	2269.74
564.42	2275.63
564.77	2280.81
565.12	2285.88
565.48	2291.15
565.83	2296.73
566.19	2302.23
566.54	2307.71
566.89	2312.48
567.25	2317.04
567.60	2322.77
567.96	2327.91
568.31	2332.51
568.66	2336.75
569.02	2340.58
569.37	2344.52
569.72	2348.73
570.08	2352.17
570.43	2355.51
570.78	2358.59
571.14	2361.25
571.49	2364.49
571.84	2368.21
572.20	2371.03
572.55	2374.31
572.90	2376.65
573.26	2379.76
573.61	2382.30
573.96	2384.48
574.31	2386.45
574.67	2388.47
575.02	2389.46
575.37	2391.05
575.72	2391.99
576.08	2393.58
576.43	2394.19
576.78	2395.01
577.13	2396.98
577.49	2398.25
577.84	2399.66
578.19	2401.21
578.54	2402.05
578.90	2403.26
579.25	2403.30
579.60	2403.66
579.95	2403.19
580.30	2403.67
580.66	2402.97
581.01	2401.45
581.36	2399.44
581.71	2398.18
582.06	2397.63
582.42	2396.89
582.77	2395.07
583.12	2393.77
583.47	2392.82
583.82	2392.35
584.17	2391.36
584.53	2389.36
584.88	2387.67
585.23	2385.88
585.58	2383.80
585.93	2381.74
586.28	2379.62
586.63	2377.56
586.98	2375.56
587.34	2373.80
587.69	2371.51
588.04	2369.83
588.39	2368.68
588.74	2366.36
589.09	2364.08
589.44	2361.02
589.79	2358.83
590.14	2357.06
590.49	2354.39
590.84	2350.79
591.19	2347.97
591.54	2344.71
591.89	2340.66
592.25	2337.47
592.60	2333.46
592.95	2329.59
593.30	2325.64
593.65	2321.30
594.00	2316.92
594.35	2313.87
594.70	2309.36
595.05	2304.81
595.40	2299.37
595.75	2293.89
596.10	2290.48
596.45	2285.88
596.80	2281.44
597.15	2276.26
597.50	2270.33
597.85	2265.46
598.19	2260.14
598.54	2254.40
598.89	2249.48
599.24	2245.33
599.59	2239.44
599.94	2234.02
600.29	2228.32
600.64	2222.59
600.99	2216.19
601.34	2210.81
601.69	2203.91
602.04	2197.55
602.39	2191.15
602.74	2185.31
603.08	2179.92
603.43	2173.35
603.78	2166.46
604.13	2159.38
604.48	2152.29
604.83	2146.36
605.18	2140.11
605.53	2133.30
605.87	2126.34
606.22	2119.58
606.57	2111.66
606.92	2103.82
607.27	2096.79
607.62	2090.05
607.96	2083.03
608.31	2076.46
608.66	2068.79
609.01	2061.29
609.36	2054.32
609.70	2046.59
610.05	2038.90
610.40	2030.54
610.75	2022.44
611.10	2014.99
611.44	2006.40
611.79	1997.64
612.14	1987.64
612.49	1977.23
612.83	1968.07
613.18	1959.04
613.53	1949.71
613.88	1940.08
614.22	1931.61
614.57	1921.60
614.92	1911.17
615.27	1901.23
615.61	1891.23
615.96	1881.62
616.31	1872.04
616.65	1862.67
617.00	1852.92
617.35	1843.33
617.70	1833.67
618.04	1823.60
618.39	1813.24
618.74	1803.43
619.08	1793.98
619.43	1785.36
619.78	1777.09
620.12	1768.33
620.47	1758.43
620.82	1748.17
621.16	1738.58
621.51	1728.54
621.85	1718.63
622.20	1708.06
622.55	1697.40
622.89	1687.62
623.24	1677.93
623.59	1668.11
623.93	1657.96
624.28	1648.25
624.62	1637.92
624.97	1627.48
625.32	1617.76
625.66	1608.99
626.01	1600.13
626.35	1590.57
626.70	1580.36
627.04	1570.25
627.39	1560.21
627.73	1550.94
628.08	1541.81
628.43	1532.02
628.77	1522.72
629.12	1513.92
629.46	1506.13
629.81	1497.77
630.15	1488.04
630.50	1478.08
630.84	1467.66
631.19	1457.76
631.53	1448.22
631.88	1438.21
632.22	1428.27
632.57	1418.85
632.91	1408.58
633.26	1398.78
633.60	1389.22
633.95	1379.90
634.29	1370.54
634.64	1361.20
634.98	1351.36
635.32	1341.98
635.67	1333.45
636.01	1324.21
636.36	1314.36
636.70	1304.83
637.05	1295.33
637.39	1286.42
637.73	1277.89
638.08	1270.34
638.42	1261.99
638.77	1253.32
639.11	1245.04
639.45	1237.13
639.80	1228.41
640.14	1219.70
640.49	1210.72
640.83	1201.90
641.17	1193.81
641.52	1185.45
641.86	1176.75
642.20	1168.84
642.55	1160.38
642.89	1151.56
643.23	1142.86
643.58	1134.78
643.92	1125.81
644.26	1117.22
644.61	1108.79
644.95	1099.93
645.29	1090.66
645.64	1081.50
645.98	1073.12
646.32	1065.09
646.66	1056.63
647.01	1048.32
647.35	1040.17
647.69	1031.85
648.04	1023.51
648.38	1014.52
648.72	1005.69
649.06	997.30
649.41	989.18
649.75	981.13
650.09	973.21
650.43	965.16
650.78	956.97
651.12	949.21
651.46	941.81
651.80	934.54
652.14	927.28
652.49	919.75
652.83	912.47
653.17	904.70
653.51	897.11
653.85	889.87
654.20	882.65
654.54	875.09
654.88	867.87
655.22	860.70
655.56	853.83
655.90	847.20
656.25	840.62
656.59	833.56
656.93	826.63
657.27	819.54
657.61	812.70
657.95	806.66
658.29	800.80
658.64	794.64
658.98	788.22
659.32	781.64
659.66	775.47
660.00	769.18
660.34	763.16
660.68	757.10
661.02	750.82
661.36	745.01
661.70	739.33
662.05	733.76
662.39	728.43
662.73	723.09
663.07	717.74
663.41	712.20
663.75	706.75
664.09	701.17
664.43	695.89
664.77	690.55
665.11	684.73
665.45	678.94
665.79	673.19
666.13	667.61
666.47	662.18
666.81	656.89
667.15	651.63
667.49	646.51
667.83	641.33
668.17	636.16
668.51	631.03
668.85	626.20
669.19	621.37
669.53	616.37
669.87	611.36
670.21	606.59
670.55	601.96
670.89	597.61
671.23	593.36
671.57	589.00
671.91	584.83
672.25	580.79
672.58	576.64
672.92	572.64
673.26	568.70
673.60	564.91
673.94	561.09
674.28	557.41
674.62	553.73
674.96	550.01
675.30	546.53
675.64	542.92
675.97	539.38
676.31	535.76
676.65	532.18
676.99	528.73
677.33	525.01
677.67	521.34
678.01	517.41
678.34	513.80
678.68	510.33
679.02	506.74
679.36	503.03
679.70	499.44
680.04	496.01
680.37	492.68
680.71	489.39
681.05	486.26
681.39	483.10
681.73	479.98
682.06	477.04
682.40	474.01
682.74	470.84
683.08	467.65
683.42	464.54
683.75	461.59
684.09	458.65
684.43	455.86
684.77	452.96
685.10	450.19
685.44	447.30
685.78	444.39
686.12	441.68
686.45	439.02
686.79	436.40
687.13	433.85
687.46	431.21
687.80	428.59
688.14	425.80
688.48	423.23
688.81	420.56
689.15	418.04
689.49	415.49
689.82	413.10
690.16	410.60
690.50	408.20
690.83	405.79
691.17	403.28
691.51	400.86
691.84	398.69
692.18	396.54
692.52	394.37
692.85	392.36
693.19	390.23
693.52	388.10
693.86	385.94
694.20	383.83
694.53	381.72
694.87	379.56
695.21	377.50
695.54	375.38
695.88	373.28
696.21	371.10
696.55	369.01
696.88	366.97
697.22	365.01
697.56	363.16
697.89	361.32
698.23	359.64
698.56	357.90
698.90	356.16
699.23	354.27
699.57	352.42
699.90	350.58
700.24	348.85
700.58	347.13
700.91	345.53
701.25	344.03
701.58	342.48
701.92	340.96
702.25	339.41
702.59	337.85
702.92	336.35
703.26	334.88
703.59	333.48
703.93	332.24
704.26	330.87
704.60	329.44
704.93	328.02
705.26	326.53
705.60	325.12
705.93	323.65
706.27	322.41
706.60	321.20
706.94	319.98
707.27	318.61
707.61	317.32
707.94	316.02
708.27	314.50
708.61	313.15
708.94	311.79
709.28	310.55
709.61	309.33
709.94	308.16
710.28	306.95
710.61	305.77
710.95	304.38
711.28	303.32
711.61	302.14
711.95	300.98
712.28	299.84
712.61	298.68
712.95	297.66
713.28	296.59
713.61	295.47
713.95	294.34
714.28	293.36
714.61	292.35
714.95	291.35
715.28	290.37
715.61	289.34
715.95	288.40
716.28	287.44
716.61	286.51
716.95	285.56
717.28	284.63
717.61	283.70
717.94	282.85
718.28	281.86
718.61	280.99
718.94	280.13
719.27	279.28
719.61	278.47
719.94	277.60
720.27	276.67
720.60	275.86
720.94	275.08
721.27	274.33
721.60	273.64
721.93	272.95
722.27	272.33
722.60	271.72
722.93	271.03
723.26	270.41
723.59	269.72
723.93	269.11
724.26	268.49
724.59	267.87
724.92	267.27
725.25	266.76
725.59	266.23
725.92	265.76
726.25	265.22
726.58	264.63
726.91	264.07
727.24	263.53
727.57	262.98
727.91	262.38
728.24	261.86
728.57	261.29
728.90	260.74
729.23	260.11
729.56	259.66
729.89	259.18
730.22	258.62
730.55	258.12
730.89	257.60
731.22	257.10
731.55	256.60
731.88	256.07
732.21	255.53
732.54	254.97
732.87	254.42
733.20	253.94
733.53	253.49
733.86	253.07
734.19	252.60
734.52	252.20
734.85	251.92
735.18	251.45
735.51	251.07
735.84	250.65
736.17	250.33
736.50	249.79
736.83	249.61
737.16	249.24
737.49	248.80
737.82	248.42
738.15	248.04
738.48	247.66
738.81	247.29
739.14	246.85
739.47	246.49
739.80	246.12
740.13	245.75
740.46	245.38
740.79	244.99
741.12	244.67
741.45	244.30
741.78	243.88
742.11	243.64
742.44	243.27
742.77	242.98
743.10	242.62
743.43	242.27
743.75	241.71
744.08	241.63
744.41	241.32
744.74	240.95
745.07	240.59
745.40	240.31
745.73	240.09
746.06	239.80
746.39	239.51
746.71	239.23
747.04	238.92
747.37	238.63
747.70	238.36
748.03	238.08
748.36	237.87
748.68	237.60
749.01	237.20
749.34	236.96
749.67	236.66
750.00	236.42
750.33	236.32
750.65	236.11
750.98	235.61
751.31	235.39
751.64	235.22
751.97	235.13
752.29	234.87
752.62	234.52
752.95	234.32
753.28	234.07
753.60	233.82
753.93	233.69
754.26	233.51
754.59	233.26
754.91	233.04
755.24	232.74
755.57	232.50
755.90	232.31
756.22	232.03
756.55	231.83
756.88	231.56
757.20	231.22
757.53	230.96
757.86	230.75
758.19	230.59
758.51	230.33
758.84	230.00
759.17	229.82
759.49	229.66
759.82	229.55
760.15	229.40
760.47	229.23
760.80	228.95
761.13	228.75
761.45	228.55
761.78	228.34
762.11	228.18
762.43	228.00
762.76	227.84
763.08	227.75
763.41	227.58
763.74	227.43
764.06	227.29
764.39	227.10
764.71	226.98
765.04	226.82
765.37	226.72
765.69	226.59
766.02	226.44
766.34	226.30
766.67	226.07
767.00	225.99
767.32	225.97
767.65	225.99
767.97	225.88
768.30	225.79
768.62	225.69
768.95	225.55
769.27	225.44
769.60	225.37
769.92	225.22
770.25	225.07
770.57	224.94
770.90	224.81
771.22	224.70
771.55	224.59
771.87	224.46
772.20	224.33
772.52	224.38
772.85	224.55
773.17	224.47
773.50	224.38
773.82	224.21
774.15	224.04
774.47	223.82
774.80	223.72
775.12	223.62
775.45	223.53
775.77	223.47
776.09	223.41
776.42	223.28
776.74	223.23
777.07	223.13
777.39	223.07
777.72	222.99
778.04	222.94
778.36	222.81
778.69	222.73
779.01	222.63
779.33	222.38
779.66	222.05
779.98	221.94
780.31	221.86
780.63	221.88
780.95	221.78
781.28	221.70
781.60	221.57
781.92	221.48
782.25	221.44
782.57	221.32
782.89	221.24
783.22	221.15
783.54	221.04
783.86	221.01
784.19	220.91
784.51	220.91
784.83	220.83
785.16	220.79
785.48	220.75
785.80	220.72
786.12	220.68
