SpectraSuite Data File
++++++++++++++++++++++++++++++++++++
Date: Tue Jan 29 16:26:20 EST 2013
User: group
Dark Spectrum Present: No
Reference Spectrum Present: No
Number of Sampled Component Spectra: 1
Spectrometers: USB2E7196
Integration Time (usec): 65000 (USB2E7196)
Spectra Averaged: 100 (USB2E7196)
Boxcar Smoothing: 10 (USB2E7196)
Correct for Electrical Dark: No (USB2E7196)
Strobe/Lamp Enabled: No (USB2E7196)
Correct for Detector Non-linearity: No (USB2E7196)
Correct for Stray Light: No (USB2E7196)
Number of Pixels in Processed Spectrum: 2048
>>>>>Begin Processed Spectral Data<<<<<
339.09	0.00
339.48	202.30
339.86	203.36
340.24	205.49
340.63	206.39
341.01	210.88
341.39	208.88
341.78	210.28
342.16	211.85
342.54	212.47
342.93	201.37
343.31	211.55
343.69	212.10
344.07	212.58
344.46	212.99
344.84	213.39
345.22	213.58
345.60	213.87
345.99	214.11
346.37	214.25
346.75	214.36
347.13	214.46
347.52	214.54
347.90	214.69
348.28	214.73
348.66	214.80
349.05	214.75
349.43	214.82
349.81	214.86
350.19	214.94
350.57	215.03
350.96	215.12
351.34	215.24
351.72	215.33
352.10	215.44
352.48	215.50
352.87	215.55
353.25	215.61
353.63	215.65
354.01	215.70
354.39	215.78
354.77	215.85
355.15	215.96
355.54	215.99
355.92	215.99
356.30	216.08
356.68	216.30
357.06	216.38
357.44	216.40
357.82	216.47
358.20	216.50
358.58	216.56
358.97	216.64
359.35	216.73
359.73	216.81
360.11	216.88
360.49	216.99
360.87	217.03
361.25	217.08
361.63	217.21
362.01	217.27
362.39	217.28
362.77	217.35
363.15	217.35
363.53	217.42
363.91	217.43
364.29	217.46
364.67	217.28
365.05	217.34
365.43	217.43
365.81	217.51
366.19	217.63
366.57	217.73
366.95	217.74
367.33	217.69
367.71	217.68
368.09	217.72
368.47	217.68
368.85	217.69
369.23	217.76
369.61	217.69
369.99	217.73
370.37	217.77
370.75	217.85
371.13	217.79
371.51	217.75
371.89	217.78
372.27	217.73
372.65	217.70
373.03	217.64
373.41	217.58
373.78	217.49
374.16	217.35
374.54	217.23
374.92	217.16
375.30	217.13
375.68	217.09
376.06	217.05
376.44	217.02
376.82	216.97
377.19	216.89
377.57	216.84
377.95	216.73
378.33	216.67
378.71	216.49
379.09	216.47
379.47	216.43
379.84	216.35
380.22	216.33
380.60	216.26
380.98	216.23
381.36	216.16
381.73	216.10
382.11	216.10
382.49	216.08
382.87	216.03
383.25	216.01
383.62	216.21
384.00	216.11
384.38	216.10
384.76	216.13
385.13	216.19
385.51	216.13
385.89	216.09
386.27	216.04
386.64	216.05
387.02	216.03
387.40	215.96
387.78	215.97
388.15	215.94
388.53	215.91
388.91	215.89
389.29	215.86
389.66	215.87
390.04	215.80
390.42	215.81
390.79	215.77
391.17	215.72
391.55	215.47
391.92	215.48
392.30	215.46
392.68	215.40
393.05	215.36
393.43	215.38
393.81	215.40
394.18	215.37
394.56	215.34
394.94	215.41
395.31	215.41
395.69	215.45
396.06	215.49
396.44	215.50
396.82	215.49
397.19	215.63
397.57	215.64
397.95	215.71
398.32	215.67
398.70	215.75
399.07	215.87
399.45	215.89
399.82	215.92
400.20	215.94
400.58	216.01
400.95	215.99
401.33	216.09
401.70	216.27
402.08	216.37
402.45	216.47
402.83	216.57
403.20	216.67
403.58	216.72
403.95	216.88
404.33	217.06
404.71	217.23
405.08	217.45
405.46	217.62
405.83	217.83
406.21	218.06
406.58	218.30
406.96	218.53
407.33	218.79
407.70	219.09
408.08	219.54
408.45	219.82
408.83	220.23
409.20	220.54
409.58	220.84
409.95	221.28
410.33	221.79
410.70	222.19
411.08	222.76
411.45	223.36
411.82	223.93
412.20	224.60
412.57	225.42
412.95	225.99
413.32	226.81
413.69	227.60
414.07	228.53
414.44	229.51
414.82	230.50
415.19	231.69
415.56	232.92
415.94	234.10
416.31	235.58
416.68	236.98
417.06	238.59
417.43	240.12
417.81	241.87
418.18	243.61
418.55	245.55
418.93	247.58
419.30	249.65
419.67	251.87
420.04	254.15
420.42	256.52
420.79	259.33
421.16	262.10
421.54	265.02
421.91	267.94
422.28	271.03
422.66	274.29
423.03	277.50
423.40	280.82
423.77	284.40
424.15	288.03
424.52	291.84
424.89	296.03
425.26	300.08
425.64	303.92
426.01	308.22
426.38	312.71
426.75	317.22
427.13	321.92
427.50	326.86
427.87	332.09
428.24	337.31
428.61	342.30
428.99	347.79
429.36	353.75
429.73	359.66
430.10	365.55
430.47	371.61
430.85	377.94
431.22	384.63
431.59	391.74
431.96	398.51
432.33	405.99
432.70	413.19
433.08	421.67
433.45	429.76
433.82	437.80
434.19	446.62
434.56	455.34
434.93	463.64
435.30	471.88
435.68	480.96
436.05	489.86
436.42	498.75
436.79	506.89
437.16	515.65
437.53	524.88
437.90	533.94
438.27	542.83
438.64	551.92
439.01	560.44
439.38	567.95
439.75	575.25
440.13	583.67
440.50	591.56
440.87	597.98
441.24	604.50
441.61	611.72
441.98	617.07
442.35	623.37
442.72	629.67
443.09	635.74
443.46	639.37
443.83	641.97
444.20	644.15
444.57	647.28
444.94	648.75
445.31	650.18
445.68	651.59
446.05	652.21
446.42	651.50
446.79	650.51
447.16	649.44
447.53	648.66
447.90	645.33
448.27	642.09
448.64	637.48
449.01	634.17
449.37	628.34
449.74	622.72
450.11	615.79
450.48	608.49
450.85	601.03
451.22	594.61
451.59	588.40
451.96	582.55
452.33	574.76
452.70	567.65
453.07	559.21
453.43	550.65
453.80	542.44
454.17	534.44
454.54	526.89
454.91	518.77
455.28	510.84
455.65	503.39
456.02	495.91
456.38	489.58
456.75	481.79
457.12	475.22
457.49	468.74
457.86	462.61
458.23	457.25
458.59	451.35
458.96	445.38
459.33	440.11
459.70	434.72
460.07	430.47
460.43	425.61
460.80	421.03
461.17	417.03
461.54	412.80
461.91	408.84
462.27	404.79
462.64	401.37
463.01	397.60
463.38	393.93
463.74	390.27
464.11	387.08
464.48	384.23
464.85	381.19
465.21	378.73
465.58	376.14
465.95	372.97
466.32	370.37
466.68	367.79
467.05	365.24
467.42	362.76
467.78	360.05
468.15	357.48
468.52	355.63
468.88	353.15
469.25	350.95
469.62	349.13
469.98	347.20
470.35	345.38
470.72	343.68
471.08	341.89
471.45	340.41
471.82	338.84
472.18	337.21
472.55	336.01
472.92	334.64
473.28	333.42
473.65	332.29
474.02	331.23
474.38	330.35
474.75	329.58
475.11	328.75
475.48	328.18
475.85	327.70
476.21	327.17
476.58	326.80
476.94	326.57
477.31	326.25
477.67	326.02
478.04	325.93
478.41	325.92
478.77	326.04
479.14	325.96
479.50	326.12
479.87	326.42
480.23	326.75
480.60	326.98
480.96	327.25
481.33	327.87
481.69	328.43
482.06	328.93
482.42	329.46
482.79	330.08
483.15	330.89
483.52	331.86
483.88	332.76
484.25	333.71
484.61	334.70
484.98	335.77
485.34	337.05
485.71	338.39
486.07	339.82
486.44	341.18
486.80	342.77
487.17	344.45
487.53	346.30
487.90	348.12
488.26	350.17
488.62	352.35
488.99	354.33
489.35	356.46
489.72	358.90
490.08	361.36
490.44	363.91
490.81	366.64
491.17	369.36
491.54	372.35
491.90	375.40
492.26	378.68
492.63	382.15
492.99	385.69
493.36	389.38
493.72	393.24
494.08	397.29
494.45	401.52
494.81	405.90
495.17	410.34
495.54	415.13
495.90	419.93
496.26	424.88
496.63	430.14
496.99	435.55
497.35	441.13
497.72	446.92
498.08	452.88
498.44	459.01
498.80	465.47
499.17	472.00
499.53	478.72
499.89	485.67
500.26	492.63
500.62	499.74
500.98	507.17
501.34	514.72
501.71	522.50
502.07	530.46
502.43	538.51
502.79	546.69
503.16	555.08
503.52	563.76
503.88	572.51
504.24	581.55
504.60	590.72
504.97	600.01
505.33	609.42
505.69	619.28
506.05	629.21
506.41	639.08
506.78	649.19
507.14	659.53
507.50	670.07
507.86	680.82
508.22	691.70
508.59	702.49
508.95	713.60
509.31	724.91
509.67	736.41
510.03	747.84
510.39	759.70
510.75	771.67
511.12	783.69
511.48	795.84
511.84	808.14
512.20	820.52
512.56	833.26
512.92	846.16
513.28	858.97
513.64	871.90
514.00	884.85
514.37	897.94
514.73	911.01
515.09	924.10
515.45	937.16
515.81	950.25
516.17	963.75
516.53	977.17
516.89	990.38
517.25	1003.77
517.61	1017.54
517.97	1031.03
518.33	1044.20
518.69	1057.87
519.05	1071.77
519.41	1085.65
519.77	1099.73
520.13	1113.15
520.49	1126.53
520.85	1140.05
521.21	1153.45
521.57	1167.36
521.93	1180.63
522.29	1194.64
522.65	1208.29
523.01	1221.98
523.37	1235.32
523.73	1248.75
524.09	1261.98
524.45	1275.63
524.81	1289.15
525.17	1302.58
525.53	1315.88
525.89	1329.40
526.25	1342.61
526.61	1355.60
526.97	1368.70
527.33	1381.82
527.68	1395.39
528.04	1409.00
528.40	1422.20
528.76	1435.67
529.12	1448.63
529.48	1461.97
529.84	1474.29
530.20	1487.24
530.56	1499.89
530.91	1513.35
531.27	1526.40
531.63	1539.32
531.99	1552.04
532.35	1564.29
532.71	1576.85
533.07	1589.81
533.42	1602.16
533.78	1614.38
534.14	1626.51
534.50	1637.79
534.86	1649.41
535.21	1660.40
535.57	1671.93
535.93	1683.42
536.29	1694.54
536.65	1706.05
537.00	1717.19
537.36	1728.80
537.72	1739.83
538.08	1751.42
538.44	1762.41
538.79	1773.41
539.15	1784.39
539.51	1795.31
539.87	1806.78
540.22	1817.58
540.58	1828.58
540.94	1839.55
541.29	1849.98
541.65	1859.81
542.01	1870.42
542.37	1880.58
542.72	1890.80
543.08	1900.65
543.44	1911.13
543.79	1920.51
544.15	1930.09
544.51	1940.11
544.87	1950.05
545.22	1959.42
545.58	1968.48
545.94	1977.48
546.29	1986.04
546.65	1994.38
547.01	2002.59
547.36	2010.47
547.72	2018.39
548.07	2026.04
548.43	2033.87
548.79	2041.82
549.14	2050.06
549.50	2058.69
549.86	2066.59
550.21	2074.13
550.57	2081.91
550.92	2088.67
551.28	2096.18
551.64	2103.49
551.99	2110.98
552.35	2118.24
552.70	2125.16
553.06	2131.82
553.41	2138.06
553.77	2144.80
554.13	2151.35
554.48	2158.56
554.84	2165.69
555.19	2172.26
555.55	2178.77
555.90	2185.07
556.26	2191.86
556.61	2198.02
556.97	2202.80
557.32	2208.56
557.68	2214.88
558.03	2220.76
558.39	2226.28
558.74	2232.39
559.10	2237.87
559.45	2243.50
559.81	2248.98
560.16	2254.64
560.52	2260.55
560.87	2267.01
561.23	2272.92
561.58	2279.62
561.94	2284.98
562.29	2289.59
562.64	2295.76
563.00	2301.42
563.35	2307.03
563.71	2312.89
564.06	2318.62
564.42	2324.77
564.77	2329.89
565.12	2335.35
565.48	2340.46
565.83	2345.95
566.19	2351.42
566.54	2356.98
566.89	2361.74
567.25	2366.44
567.60	2372.26
567.96	2377.50
568.31	2382.07
568.66	2386.33
569.02	2390.23
569.37	2393.95
569.72	2398.47
570.08	2401.99
570.43	2405.28
570.78	2408.59
571.14	2411.16
571.49	2414.26
571.84	2417.79
572.20	2420.85
572.55	2423.83
572.90	2426.20
573.26	2429.14
573.61	2431.78
573.96	2433.96
574.31	2436.01
574.67	2437.85
575.02	2438.62
575.37	2440.02
575.72	2440.85
576.08	2442.35
576.43	2442.49
576.78	2443.05
577.13	2444.80
577.49	2445.96
577.84	2446.93
578.19	2448.20
578.54	2448.81
578.90	2449.65
579.25	2449.61
579.60	2449.57
579.95	2448.83
580.30	2448.76
580.66	2448.04
581.01	2446.40
581.36	2444.18
581.71	2442.66
582.06	2441.55
582.42	2440.60
582.77	2438.55
583.12	2436.94
583.47	2435.61
583.82	2435.09
584.17	2433.95
584.53	2431.75
584.88	2429.79
585.23	2428.01
585.58	2425.68
585.93	2423.72
586.28	2421.48
586.63	2418.97
586.98	2416.81
587.34	2414.88
587.69	2412.66
588.04	2410.76
588.39	2409.28
588.74	2406.81
589.09	2404.26
589.44	2401.15
589.79	2398.67
590.14	2396.55
590.49	2393.70
590.84	2389.79
591.19	2386.69
591.54	2383.25
591.89	2379.19
592.25	2375.85
592.60	2371.55
592.95	2367.47
593.30	2363.22
593.65	2358.86
594.00	2354.40
594.35	2351.37
594.70	2346.61
595.05	2342.07
595.40	2336.39
595.75	2330.55
596.10	2326.76
596.45	2321.78
596.80	2317.14
597.15	2312.00
597.50	2306.01
597.85	2301.05
598.19	2295.87
598.54	2290.00
598.89	2284.81
599.24	2280.18
599.59	2273.95
599.94	2268.17
600.29	2262.09
600.64	2256.07
600.99	2249.18
601.34	2243.70
601.69	2236.58
602.04	2230.30
602.39	2223.52
602.74	2217.41
603.08	2211.89
603.43	2205.31
603.78	2198.43
604.13	2191.41
604.48	2183.96
604.83	2177.83
605.18	2171.61
605.53	2164.66
605.87	2157.56
606.22	2150.69
606.57	2142.71
606.92	2134.69
607.27	2127.71
607.62	2121.06
607.96	2114.00
608.31	2107.54
608.66	2099.60
609.01	2092.03
609.36	2084.92
609.70	2077.17
610.05	2069.45
610.40	2061.10
610.75	2052.78
611.10	2044.95
611.44	2035.89
611.79	2027.05
612.14	2017.02
612.49	2006.16
612.83	1996.65
613.18	1987.44
613.53	1978.08
613.88	1968.39
614.22	1959.70
614.57	1949.77
614.92	1939.23
615.27	1928.93
615.61	1918.74
615.96	1909.04
616.31	1899.30
616.65	1889.60
617.00	1879.76
617.35	1870.01
617.70	1860.04
618.04	1849.85
618.39	1839.70
618.74	1829.93
619.08	1820.27
619.43	1811.56
619.78	1803.35
620.12	1794.75
620.47	1785.05
620.82	1774.61
621.16	1764.82
621.51	1754.75
621.85	1744.79
622.20	1734.22
622.55	1723.69
622.89	1713.65
623.24	1703.99
623.59	1694.07
623.93	1683.91
624.28	1673.99
624.62	1663.72
624.97	1653.40
625.32	1643.48
625.66	1634.49
626.01	1625.62
626.35	1616.24
626.70	1606.05
627.04	1595.81
627.39	1585.61
627.73	1576.27
628.08	1567.35
628.43	1557.72
628.77	1548.60
629.12	1539.64
629.46	1531.68
629.81	1523.27
630.15	1513.77
630.50	1503.82
630.84	1493.25
631.19	1483.27
631.53	1473.89
631.88	1463.60
632.22	1453.48
632.57	1444.15
632.91	1433.99
633.26	1424.12
633.60	1414.41
633.95	1405.06
634.29	1395.46
634.64	1386.08
634.98	1375.97
635.32	1366.49
635.67	1357.84
636.01	1348.30
636.36	1338.47
636.70	1328.91
637.05	1319.34
637.39	1310.16
637.73	1301.38
638.08	1293.73
638.42	1285.47
638.77	1276.67
639.11	1268.33
639.45	1260.53
639.80	1251.87
640.14	1242.99
640.49	1233.97
640.83	1225.04
641.17	1216.67
641.52	1208.56
641.86	1199.80
642.20	1191.85
642.55	1183.07
642.89	1174.04
643.23	1165.35
643.58	1157.02
643.92	1147.90
644.26	1139.19
644.61	1130.72
644.95	1121.87
645.29	1112.59
645.64	1103.30
645.98	1094.59
646.32	1086.68
646.66	1078.13
647.01	1069.73
647.35	1061.50
647.69	1053.10
648.04	1044.75
648.38	1035.83
648.72	1026.88
649.06	1018.37
649.41	1010.03
649.75	1002.11
650.09	994.20
650.43	986.04
650.78	977.76
651.12	969.98
651.46	962.42
651.80	955.04
652.14	947.65
652.49	940.12
652.83	932.81
653.17	925.07
653.51	917.36
653.85	909.89
654.20	902.45
654.54	894.89
654.88	887.63
655.22	880.46
655.56	873.37
655.90	866.49
656.25	859.72
656.59	852.81
656.93	845.61
657.27	838.34
657.61	831.32
657.95	825.15
658.29	819.18
658.64	813.04
658.98	806.54
659.32	799.92
659.66	793.55
660.00	787.08
660.34	781.02
660.68	774.77
661.02	768.33
661.36	762.31
661.70	756.47
662.05	750.74
662.39	745.09
662.73	739.61
663.07	734.12
663.41	728.46
663.75	722.70
664.09	716.93
664.43	711.46
664.77	706.09
665.11	700.08
665.45	694.00
665.79	688.07
666.13	682.27
666.47	676.73
666.81	671.23
667.15	665.73
667.49	660.43
667.83	655.06
668.17	649.83
668.51	644.67
668.85	639.61
669.19	634.70
669.53	629.66
669.87	624.49
670.21	619.70
670.55	614.94
670.89	610.40
671.23	606.06
671.57	601.63
671.91	597.20
672.25	593.09
672.58	588.93
672.92	584.86
673.26	580.94
673.60	576.99
673.94	573.15
674.28	569.53
674.62	565.74
674.96	562.01
675.30	558.46
675.64	554.76
675.97	551.13
676.31	547.40
676.65	543.74
676.99	540.28
677.33	536.38
677.67	532.68
678.01	528.79
678.34	525.06
678.68	521.49
679.02	517.91
679.36	514.17
679.70	510.53
680.04	506.87
680.37	503.34
680.71	500.02
681.05	496.70
681.39	493.39
681.73	490.20
682.06	487.13
682.40	484.03
682.74	480.85
683.08	477.59
683.42	474.40
683.75	471.33
684.09	468.27
684.43	465.47
684.77	462.44
685.10	459.53
685.44	456.60
685.78	453.68
686.12	450.79
686.45	447.98
686.79	445.27
687.13	442.65
687.46	439.98
687.80	437.25
688.14	434.39
688.48	431.71
688.81	428.94
689.15	426.29
689.49	423.58
689.82	420.95
690.16	418.35
690.50	415.87
690.83	413.36
691.17	410.75
691.51	408.24
691.84	405.99
692.18	403.74
692.52	401.55
692.85	399.37
693.19	397.29
693.52	395.11
693.86	392.88
694.20	390.71
694.53	388.58
694.87	386.30
695.21	384.13
695.54	381.93
695.88	379.72
696.21	377.46
696.55	375.35
696.88	373.28
697.22	371.25
697.56	369.31
697.89	367.36
698.23	365.58
698.56	363.71
698.90	361.92
699.23	360.01
699.57	358.05
699.90	356.13
700.24	354.21
700.58	352.45
700.91	350.74
701.25	349.15
701.58	347.48
701.92	345.91
702.25	344.30
702.59	342.64
702.92	341.14
703.26	339.59
703.59	338.08
703.93	336.79
704.26	335.41
704.60	333.85
704.93	332.37
705.26	330.85
705.60	329.41
705.93	327.85
706.27	326.50
706.60	325.23
706.94	324.02
707.27	322.63
707.61	321.22
707.94	319.85
708.27	318.33
708.61	316.88
708.94	315.47
709.28	314.17
709.61	312.92
709.94	311.67
710.28	310.48
710.61	309.26
710.95	307.83
711.28	306.69
711.61	305.52
711.95	304.36
712.28	303.15
712.61	301.94
712.95	300.88
713.28	299.86
713.61	298.68
713.95	297.49
714.28	296.46
714.61	295.40
714.95	294.34
715.28	293.30
715.61	292.25
715.95	291.29
716.28	290.32
716.61	289.36
716.95	288.31
717.28	287.34
717.61	286.35
717.94	285.43
718.28	284.38
718.61	283.47
718.94	282.57
719.27	281.69
719.61	280.84
719.94	279.99
720.27	279.00
720.60	278.14
720.94	277.32
721.27	276.59
721.60	275.93
721.93	275.20
722.27	274.57
722.60	273.93
722.93	273.20
723.26	272.52
723.59	271.81
723.93	271.19
724.26	270.54
724.59	269.90
724.92	269.33
725.25	268.78
725.59	268.22
725.92	267.68
726.25	267.15
726.58	266.58
726.91	265.97
727.24	265.45
727.57	264.87
727.91	264.28
728.24	263.70
728.57	263.06
728.90	262.54
729.23	261.90
729.56	261.40
729.89	260.85
730.22	260.27
730.55	259.70
730.89	259.17
731.22	258.62
731.55	258.11
731.88	257.55
732.21	257.01
732.54	256.46
732.87	255.91
733.20	255.40
733.53	254.91
733.86	254.43
734.19	253.93
734.52	253.52
734.85	253.24
735.18	252.73
735.51	252.39
735.84	251.91
736.17	251.53
736.50	251.02
736.83	250.87
737.16	250.51
737.49	250.09
737.82	249.64
738.15	249.28
738.48	248.88
738.81	248.49
739.14	248.09
739.47	247.71
739.80	247.35
740.13	247.03
740.46	246.62
740.79	246.25
741.12	245.90
741.45	245.50
741.78	245.02
742.11	244.73
742.44	244.31
742.77	244.01
743.10	243.67
743.43	243.28
743.75	242.69
744.08	242.57
744.41	242.26
744.74	241.96
745.07	241.58
745.40	241.28
745.73	240.99
746.06	240.64
746.39	240.29
746.71	239.92
747.04	239.53
747.37	239.19
747.70	238.89
748.03	238.52
748.36	238.28
748.68	238.02
749.01	237.68
749.34	237.39
749.67	237.10
750.00	236.80
750.33	236.70
750.65	236.45
750.98	235.94
751.31	235.68
751.64	235.44
751.97	235.33
752.29	235.07
752.62	234.74
752.95	234.45
753.28	234.20
753.60	233.95
753.93	233.81
754.26	233.60
754.59	233.32
754.91	233.10
755.24	232.82
755.57	232.52
755.90	232.29
756.22	232.04
756.55	231.80
756.88	231.54
757.20	231.18
757.53	230.93
757.86	230.71
758.19	230.51
758.51	230.28
758.84	229.95
759.17	229.76
759.49	229.57
759.82	229.52
760.15	229.37
760.47	229.20
760.80	228.92
761.13	228.78
761.45	228.58
761.78	228.40
762.11	228.24
762.43	228.07
762.76	227.94
763.08	227.77
763.41	227.64
763.74	227.49
764.06	227.32
764.39	227.20
764.71	227.01
765.04	226.86
765.37	226.72
765.69	226.58
766.02	226.39
766.34	226.29
766.67	226.06
767.00	225.96
767.32	225.92
767.65	225.90
767.97	225.77
768.30	225.67
768.62	225.56
768.95	225.39
769.27	225.25
769.60	225.16
769.92	225.03
770.25	224.86
770.57	224.72
770.90	224.61
771.22	224.43
771.55	224.33
771.87	224.20
772.20	224.04
772.52	224.08
772.85	224.25
773.17	224.12
773.50	224.02
773.82	223.89
774.15	223.68
774.47	223.47
774.80	223.32
775.12	223.19
775.45	223.09
775.77	223.00
776.09	222.93
776.42	222.80
776.74	222.78
777.07	222.67
777.39	222.60
777.72	222.51
778.04	222.47
778.36	222.41
778.69	222.35
779.01	222.30
779.33	222.06
779.66	221.72
779.98	221.61
780.31	221.53
780.63	221.52
780.95	221.44
781.28	221.38
781.60	221.32
781.92	221.27
782.25	221.19
782.57	221.16
782.89	221.08
783.22	220.99
783.54	220.89
783.86	220.83
784.19	220.76
784.51	220.74
784.83	220.64
785.16	220.55
785.48	220.47
785.80	220.39
786.12	220.34
