SpectraSuite Data File
++++++++++++++++++++++++++++++++++++
Date: Tue Jan 29 16:17:11 EST 2013
User: group
Dark Spectrum Present: No
Reference Spectrum Present: No
Number of Sampled Component Spectra: 1
Spectrometers: USB2E7196
Integration Time (usec): 65000 (USB2E7196)
Spectra Averaged: 100 (USB2E7196)
Boxcar Smoothing: 10 (USB2E7196)
Correct for Electrical Dark: No (USB2E7196)
Strobe/Lamp Enabled: No (USB2E7196)
Correct for Detector Non-linearity: No (USB2E7196)
Correct for Stray Light: No (USB2E7196)
Number of Pixels in Processed Spectrum: 2048
>>>>>Begin Processed Spectral Data<<<<<
339.09	0.00
339.48	202.92
339.86	204.19
340.24	205.10
340.63	206.82
341.01	210.90
341.39	209.48
341.78	211.45
342.16	212.18
342.54	212.73
342.93	201.75
343.31	211.94
343.69	212.47
344.07	212.93
344.46	213.40
344.84	213.82
345.22	213.98
345.60	214.24
345.99	214.42
346.37	214.57
346.75	214.67
347.13	214.76
347.52	214.85
347.90	214.95
348.28	215.01
348.66	215.07
349.05	215.06
349.43	215.11
349.81	215.17
350.19	215.24
350.57	215.30
350.96	215.34
351.34	215.44
351.72	215.54
352.10	215.63
352.48	215.68
352.87	215.72
353.25	215.81
353.63	215.87
354.01	215.91
354.39	215.98
354.77	216.06
355.15	216.18
355.54	216.21
355.92	216.23
356.30	216.30
356.68	216.49
357.06	216.54
357.44	216.59
357.82	216.64
358.20	216.73
358.58	216.79
358.97	216.91
359.35	217.03
359.73	217.13
360.11	217.20
360.49	217.26
360.87	217.31
361.25	217.40
361.63	217.55
362.01	217.61
362.39	217.62
362.77	217.67
363.15	217.67
363.53	217.70
363.91	217.73
364.29	217.71
364.67	217.52
365.05	217.55
365.43	217.56
365.81	217.62
366.19	217.70
366.57	217.76
366.95	217.71
367.33	217.66
367.71	217.62
368.09	217.64
368.47	217.64
368.85	217.60
369.23	217.61
369.61	217.51
369.99	217.57
370.37	217.60
370.75	217.69
371.13	217.64
371.51	217.60
371.89	217.58
372.27	217.63
372.65	217.61
373.03	217.60
373.41	217.60
373.78	217.52
374.16	217.36
374.54	217.27
374.92	217.22
375.30	217.18
375.68	217.08
376.06	217.03
376.44	217.00
376.82	216.98
377.19	216.91
377.57	216.84
377.95	216.73
378.33	216.64
378.71	216.47
379.09	216.46
379.47	216.48
379.84	216.42
380.22	216.33
380.60	216.28
380.98	216.20
381.36	216.14
381.73	216.11
382.11	216.17
382.49	216.14
382.87	216.12
383.25	216.07
383.62	216.31
384.00	216.28
384.38	216.24
384.76	216.26
385.13	216.30
385.51	216.28
385.89	216.22
386.27	216.25
386.64	216.28
387.02	216.23
387.40	216.14
387.78	216.12
388.15	216.09
388.53	216.07
388.91	216.06
389.29	216.03
389.66	216.03
390.04	215.96
390.42	215.97
390.79	215.92
391.17	215.91
391.55	215.65
391.92	215.64
392.30	215.61
392.68	215.54
393.05	215.53
393.43	215.51
393.81	215.56
394.18	215.46
394.56	215.46
394.94	215.52
395.31	215.52
395.69	215.61
396.06	215.65
396.44	215.67
396.82	215.64
397.19	215.77
397.57	215.77
397.95	215.81
398.32	215.78
398.70	215.87
399.07	215.96
399.45	216.01
399.82	216.05
400.20	216.10
400.58	216.18
400.95	216.14
401.33	216.29
401.70	216.48
402.08	216.62
402.45	216.69
402.83	216.82
403.20	216.92
403.58	216.99
403.95	217.17
404.33	217.33
404.71	217.49
405.08	217.73
405.46	217.89
405.83	218.09
406.21	218.29
406.58	218.50
406.96	218.71
407.33	218.98
407.70	219.27
408.08	219.75
408.45	220.07
408.83	220.45
409.20	220.76
409.58	221.03
409.95	221.48
410.33	221.95
410.70	222.37
411.08	222.94
411.45	223.52
411.82	224.04
412.20	224.69
412.57	225.52
412.95	226.05
413.32	226.86
413.69	227.66
414.07	228.52
414.44	229.46
414.82	230.44
415.19	231.54
415.56	232.68
415.94	233.78
416.31	235.14
416.68	236.51
417.06	238.05
417.43	239.57
417.81	241.24
418.18	242.96
418.55	244.83
418.93	246.77
419.30	248.78
419.67	250.94
420.04	253.16
420.42	255.42
420.79	258.17
421.16	260.83
421.54	263.68
421.91	266.58
422.28	269.58
422.66	272.78
423.03	276.00
423.40	279.29
423.77	282.76
424.15	286.31
424.52	290.00
424.89	294.06
425.26	298.00
425.64	301.70
426.01	305.83
426.38	310.16
426.75	314.59
427.13	319.14
427.50	323.98
427.87	328.97
428.24	334.00
428.61	338.80
428.99	344.19
429.36	349.96
429.73	355.69
430.10	361.36
430.47	367.22
430.85	373.27
431.22	379.68
431.59	386.61
431.96	393.24
432.33	400.47
432.70	407.44
433.08	415.68
433.45	423.50
433.82	431.27
434.19	439.83
434.56	448.24
434.93	456.32
435.30	464.30
435.68	473.10
436.05	481.81
436.42	490.40
436.79	498.24
437.16	506.66
437.53	515.55
437.90	524.39
438.27	533.04
438.64	541.96
439.01	550.27
439.38	557.57
439.75	564.61
440.13	572.76
440.50	580.45
440.87	586.59
441.24	593.01
441.61	600.07
441.98	605.28
442.35	611.34
442.72	617.39
443.09	623.19
443.46	626.78
443.83	629.19
444.20	631.32
444.57	634.35
444.94	635.81
445.31	637.21
445.68	638.56
446.05	639.09
446.42	638.25
446.79	637.21
447.16	636.18
447.53	635.49
447.90	632.30
448.27	629.09
448.64	624.63
449.01	621.45
449.37	615.76
449.74	610.23
450.11	603.59
450.48	596.48
450.85	589.30
451.22	583.09
451.59	577.12
451.96	571.50
452.33	563.95
452.70	557.03
453.07	548.85
453.43	540.52
453.80	532.54
454.17	524.96
454.54	517.74
454.91	509.83
455.28	502.10
455.65	494.91
456.02	487.71
456.38	481.65
456.75	474.06
457.12	467.71
457.49	461.47
457.86	455.53
458.23	450.38
458.59	444.69
458.96	438.95
459.33	433.91
459.70	428.75
460.07	424.62
460.43	419.98
460.80	415.59
461.17	411.77
461.54	407.76
461.91	403.88
462.27	399.93
462.64	396.64
463.01	392.99
463.38	389.43
463.74	385.86
464.11	382.70
464.48	379.99
464.85	377.00
465.21	374.70
465.58	372.14
465.95	369.08
466.32	366.58
466.68	364.07
467.05	361.55
467.42	359.06
467.78	356.45
468.15	354.01
468.52	352.17
468.88	349.80
469.25	347.65
469.62	345.89
469.98	344.01
470.35	342.26
470.72	340.58
471.08	338.82
471.45	337.38
471.82	335.92
472.18	334.30
472.55	333.16
472.92	331.79
473.28	330.64
473.65	329.56
474.02	328.50
474.38	327.63
474.75	326.93
475.11	326.15
475.48	325.68
475.85	325.21
476.21	324.76
476.58	324.39
476.94	324.22
477.31	323.94
477.67	323.67
478.04	323.57
478.41	323.57
478.77	323.77
479.14	323.77
479.50	323.89
479.87	324.20
480.23	324.56
480.60	324.84
480.96	325.09
481.33	325.73
481.69	326.31
482.06	326.84
482.42	327.39
482.79	328.04
483.15	328.84
483.52	329.82
483.88	330.72
484.25	331.71
484.61	332.72
484.98	333.81
485.34	335.16
485.71	336.51
486.07	337.97
486.44	339.31
486.80	340.90
487.17	342.58
487.53	344.41
487.90	346.22
488.26	348.24
488.62	350.45
488.99	352.51
489.35	354.67
489.72	357.04
490.08	359.55
490.44	362.09
490.81	364.74
491.17	367.42
491.54	370.33
491.90	373.33
492.26	376.57
492.63	379.99
492.99	383.48
493.36	387.12
493.72	390.95
494.08	395.00
494.45	399.19
494.81	403.56
495.17	407.99
495.54	412.68
495.90	417.53
496.26	422.44
496.63	427.55
496.99	432.94
497.35	438.52
497.72	444.26
498.08	450.20
498.44	456.29
498.80	462.73
499.17	469.31
499.53	475.96
499.89	482.80
500.26	489.67
500.62	496.70
500.98	504.08
501.34	511.55
501.71	519.19
502.07	526.91
502.43	534.84
502.79	542.91
503.16	551.26
503.52	559.74
503.88	568.30
504.24	577.23
504.60	586.17
504.97	595.31
505.33	604.48
505.69	614.24
506.05	624.04
506.41	633.79
506.78	643.74
507.14	653.93
507.50	664.27
507.86	674.94
508.22	685.57
508.59	696.15
508.95	707.13
509.31	718.36
509.67	729.80
510.03	741.16
510.39	752.83
510.75	764.59
511.12	776.45
511.48	788.49
511.84	800.55
512.20	812.81
512.56	825.33
512.92	838.04
513.28	850.60
513.64	863.19
514.00	875.81
514.37	888.60
514.73	901.51
515.09	914.22
515.45	926.86
515.81	939.80
516.17	953.01
516.53	966.07
516.89	978.96
517.25	991.93
517.61	1005.20
517.97	1018.32
518.33	1031.18
518.69	1044.54
519.05	1058.08
519.41	1071.56
519.77	1085.18
520.13	1098.21
520.49	1111.11
520.85	1124.22
521.21	1137.36
521.57	1150.76
521.93	1163.56
522.29	1177.09
522.65	1190.56
523.01	1203.86
523.37	1216.78
523.73	1229.80
524.09	1242.69
524.45	1255.86
524.81	1269.05
525.17	1282.13
525.53	1294.99
525.89	1308.10
526.25	1320.78
526.61	1333.31
526.97	1346.10
527.33	1358.71
527.68	1371.87
528.04	1385.02
528.40	1397.78
528.76	1410.67
529.12	1423.25
529.48	1436.20
529.84	1448.17
530.20	1460.62
530.56	1473.04
530.91	1485.83
531.27	1498.39
531.63	1510.86
531.99	1523.06
532.35	1534.97
532.71	1547.08
533.07	1559.63
533.42	1571.44
533.78	1583.22
534.14	1594.98
534.50	1605.88
534.86	1617.22
535.21	1627.79
535.57	1639.00
535.93	1650.05
536.29	1660.88
536.65	1672.11
537.00	1682.84
537.36	1693.91
537.72	1704.52
538.08	1715.40
538.44	1726.17
538.79	1736.77
539.15	1747.22
539.51	1757.74
539.87	1768.75
540.22	1779.12
540.58	1789.78
540.94	1800.38
541.29	1810.42
541.65	1819.82
542.01	1830.05
542.37	1839.64
542.72	1849.53
543.08	1859.05
543.44	1869.16
543.79	1878.27
544.15	1887.31
544.51	1897.00
544.87	1906.47
545.22	1915.39
545.58	1924.15
545.94	1932.65
546.29	1940.92
546.65	1949.04
547.01	1957.11
547.36	1964.42
547.72	1971.87
548.07	1979.16
548.43	1986.50
548.79	1994.22
549.14	2002.14
549.50	2010.36
549.86	2018.00
550.21	2025.06
550.57	2032.54
550.92	2038.92
551.28	2046.16
551.64	2053.30
551.99	2060.58
552.35	2067.63
552.70	2074.19
553.06	2080.61
553.41	2086.67
553.77	2093.07
554.13	2099.27
554.48	2106.11
554.84	2113.01
555.19	2119.48
555.55	2125.77
555.90	2132.04
556.26	2138.39
556.61	2144.25
556.97	2148.90
557.32	2154.64
557.68	2160.97
558.03	2166.44
558.39	2171.76
558.74	2177.61
559.10	2183.13
559.45	2188.44
559.81	2193.78
560.16	2199.40
560.52	2205.10
560.87	2211.47
561.23	2217.51
561.58	2224.06
561.94	2229.16
562.29	2233.95
562.64	2239.90
563.00	2245.38
563.35	2250.97
563.71	2256.83
564.06	2262.43
564.42	2268.35
564.77	2273.45
565.12	2278.63
565.48	2283.85
565.83	2289.27
566.19	2294.61
566.54	2299.97
566.89	2304.67
567.25	2309.24
567.60	2314.87
567.96	2320.13
568.31	2324.78
568.66	2328.86
569.02	2332.79
569.37	2336.51
569.72	2340.93
570.08	2344.59
570.43	2347.90
570.78	2351.00
571.14	2353.72
571.49	2356.81
571.84	2360.44
572.20	2363.25
572.55	2366.50
572.90	2368.82
573.26	2371.88
573.61	2374.47
573.96	2376.59
574.31	2378.82
574.67	2380.82
575.02	2381.86
575.37	2383.39
575.72	2384.24
576.08	2385.89
576.43	2386.26
576.78	2387.07
577.13	2388.92
577.49	2390.19
577.84	2391.55
578.19	2393.04
578.54	2393.80
578.90	2394.89
579.25	2394.91
579.60	2395.15
579.95	2394.37
580.30	2394.76
580.66	2394.21
581.01	2392.67
581.36	2390.49
581.71	2389.08
582.06	2388.35
582.42	2387.68
582.77	2385.79
583.12	2384.39
583.47	2383.21
583.82	2382.78
584.17	2381.64
584.53	2379.53
584.88	2377.75
585.23	2375.77
585.58	2373.68
585.93	2371.68
586.28	2369.63
586.63	2367.36
586.98	2365.31
587.34	2363.59
587.69	2361.37
588.04	2359.57
588.39	2358.32
588.74	2356.13
589.09	2353.78
589.44	2350.85
589.79	2348.36
590.14	2346.44
590.49	2343.78
590.84	2340.08
591.19	2337.11
591.54	2334.00
591.89	2330.09
592.25	2326.82
592.60	2322.83
592.95	2318.81
593.30	2314.83
593.65	2310.52
594.00	2306.19
594.35	2303.25
594.70	2298.79
595.05	2294.14
595.40	2288.65
595.75	2283.14
596.10	2279.66
596.45	2274.89
596.80	2270.30
597.15	2265.28
597.50	2259.43
597.85	2254.49
598.19	2249.38
598.54	2243.71
598.89	2238.61
599.24	2234.25
599.59	2228.15
599.94	2222.53
600.29	2216.90
600.64	2210.97
600.99	2204.45
601.34	2199.16
601.69	2192.24
602.04	2186.03
602.39	2179.74
602.74	2173.87
603.08	2168.40
603.43	2161.98
603.78	2155.18
604.13	2148.17
604.48	2141.14
604.83	2135.19
605.18	2129.03
605.53	2122.19
605.87	2115.27
606.22	2108.55
606.57	2100.72
606.92	2093.00
607.27	2086.11
607.62	2079.43
607.96	2072.59
608.31	2066.08
608.66	2058.46
609.01	2051.05
609.36	2043.81
609.70	2036.08
610.05	2028.35
610.40	2020.22
610.75	2011.89
611.10	2004.33
611.44	1995.64
611.79	1986.90
612.14	1976.97
612.49	1966.47
612.83	1957.34
613.18	1948.26
613.53	1939.00
613.88	1929.59
614.22	1921.00
614.57	1911.21
614.92	1900.76
615.27	1890.64
615.61	1880.73
615.96	1871.02
616.31	1861.42
616.65	1852.24
617.00	1842.55
617.35	1833.11
617.70	1823.41
618.04	1813.51
618.39	1803.31
618.74	1793.64
619.08	1784.19
619.43	1775.67
619.78	1767.40
620.12	1758.74
620.47	1749.00
620.82	1738.77
621.16	1728.99
621.51	1719.23
621.85	1709.29
622.20	1698.88
622.55	1688.48
622.89	1678.59
623.24	1669.05
623.59	1659.41
623.93	1649.31
624.28	1639.61
624.62	1629.40
624.97	1619.06
625.32	1609.36
625.66	1600.65
626.01	1591.91
626.35	1582.49
626.70	1572.27
627.04	1562.38
627.39	1552.41
627.73	1543.26
628.08	1534.31
628.43	1524.68
628.77	1515.43
629.12	1506.70
629.46	1498.91
629.81	1490.48
630.15	1480.94
630.50	1471.06
630.84	1460.64
631.19	1450.72
631.53	1441.27
631.88	1431.23
632.22	1421.35
632.57	1411.96
632.91	1401.86
633.26	1391.98
633.60	1382.55
633.95	1373.29
634.29	1363.83
634.64	1354.38
634.98	1344.45
635.32	1335.27
635.67	1326.88
636.01	1317.72
636.36	1307.97
636.70	1298.45
637.05	1289.20
637.39	1280.37
637.73	1271.87
638.08	1264.39
638.42	1256.20
638.77	1247.55
639.11	1239.36
639.45	1231.50
639.80	1222.91
640.14	1214.26
640.49	1205.49
640.83	1196.66
641.17	1188.70
641.52	1180.57
641.86	1172.12
642.20	1164.37
642.55	1155.71
642.89	1146.91
643.23	1138.33
643.58	1130.35
643.92	1121.39
644.26	1112.79
644.61	1104.40
644.95	1095.69
645.29	1086.47
645.64	1077.39
645.98	1069.10
646.32	1061.14
646.66	1052.75
647.01	1044.47
647.35	1036.22
647.69	1028.00
648.04	1019.73
648.38	1010.94
648.72	1002.15
649.06	993.77
649.41	985.60
649.75	977.78
650.09	970.02
650.43	961.93
650.78	953.80
651.12	946.18
651.46	938.77
651.80	931.54
652.14	924.21
652.49	916.76
652.83	909.52
653.17	901.80
653.51	894.31
653.85	887.16
654.20	880.06
654.54	872.71
654.88	865.56
655.22	858.49
655.56	851.52
655.90	844.82
656.25	838.32
656.59	831.37
656.93	824.38
657.27	817.32
657.61	810.52
657.95	804.49
658.29	798.67
658.64	792.67
658.98	786.37
659.32	779.95
659.66	773.81
660.00	767.56
660.34	761.61
660.68	755.56
661.02	749.30
661.36	743.48
661.70	737.85
662.05	732.23
662.39	726.71
662.73	721.44
663.07	716.20
663.41	710.54
663.75	705.07
664.09	699.53
664.43	694.17
664.77	688.94
665.11	683.12
665.45	677.29
665.79	671.53
666.13	665.80
666.47	660.39
666.81	655.03
667.15	649.76
667.49	644.68
667.83	639.57
668.17	634.41
668.51	629.29
668.85	624.39
669.19	619.56
669.53	614.75
669.87	609.75
670.21	605.03
670.55	600.40
670.89	596.01
671.23	591.83
671.57	587.51
671.91	583.24
672.25	579.25
672.58	575.17
672.92	571.20
673.26	567.41
673.60	563.66
673.94	559.93
674.28	556.40
674.62	552.66
674.96	548.96
675.30	545.52
675.64	541.93
675.97	538.46
676.31	534.95
676.65	531.35
676.99	527.95
677.33	524.19
677.67	520.62
678.01	516.81
678.34	513.21
678.68	509.79
679.02	506.17
679.36	502.45
679.70	498.90
680.04	495.38
680.37	492.01
680.71	488.76
681.05	485.60
681.39	482.38
681.73	479.31
682.06	476.33
682.40	473.29
682.74	470.15
683.08	466.96
683.42	463.81
683.75	460.90
684.09	457.93
684.43	455.18
684.77	452.29
685.10	449.60
685.44	446.75
685.78	443.90
686.12	441.28
686.45	438.65
686.79	436.06
687.13	433.65
687.46	431.05
687.80	428.38
688.14	425.58
688.48	423.03
688.81	420.40
689.15	417.84
689.49	415.30
689.82	412.88
690.16	410.37
690.50	408.04
690.83	405.57
691.17	403.09
691.51	400.65
691.84	398.49
692.18	396.32
692.52	394.20
692.85	392.10
693.19	390.00
693.52	387.88
693.86	385.73
694.20	383.55
694.53	381.48
694.87	379.36
695.21	377.32
695.54	375.25
695.88	373.20
696.21	371.04
696.55	368.97
696.88	366.94
697.22	365.06
697.56	363.21
697.89	361.40
698.23	359.73
698.56	358.01
698.90	356.29
699.23	354.35
699.57	352.50
699.90	350.66
700.24	348.88
700.58	347.22
700.91	345.60
701.25	344.12
701.58	342.60
701.92	341.04
702.25	339.46
702.59	337.85
702.92	336.34
703.26	334.83
703.59	333.39
703.93	332.18
704.26	330.76
704.60	329.22
704.93	327.73
705.26	326.22
705.60	324.77
705.93	323.30
706.27	322.04
706.60	320.82
706.94	319.61
707.27	318.27
707.61	316.93
707.94	315.64
708.27	314.12
708.61	312.66
708.94	311.34
709.28	310.13
709.61	308.90
709.94	307.71
710.28	306.56
710.61	305.36
710.95	303.95
711.28	302.90
711.61	301.82
711.95	300.77
712.28	299.60
712.61	298.47
712.95	297.43
713.28	296.40
713.61	295.27
713.95	294.15
714.28	293.11
714.61	292.09
714.95	291.13
715.28	290.11
715.61	289.16
715.95	288.24
716.28	287.29
716.61	286.35
716.95	285.42
717.28	284.50
717.61	283.60
717.94	282.74
718.28	281.76
718.61	280.86
718.94	279.97
719.27	279.17
719.61	278.35
719.94	277.49
720.27	276.58
720.60	275.74
720.94	275.00
721.27	274.30
721.60	273.60
721.93	272.87
722.27	272.28
722.60	271.64
722.93	270.93
723.26	270.28
723.59	269.64
723.93	269.02
724.26	268.37
724.59	267.75
724.92	267.18
725.25	266.64
725.59	266.09
725.92	265.55
726.25	264.98
726.58	264.46
726.91	263.89
727.24	263.42
727.57	262.88
727.91	262.26
728.24	261.72
728.57	261.16
728.90	260.63
729.23	260.03
729.56	259.60
729.89	259.09
730.22	258.53
730.55	257.98
730.89	257.42
731.22	256.93
731.55	256.42
731.88	255.93
732.21	255.37
732.54	254.84
732.87	254.35
733.20	253.88
733.53	253.43
733.86	253.01
734.19	252.48
734.52	252.10
734.85	251.85
735.18	251.39
735.51	251.01
735.84	250.57
736.17	250.21
736.50	249.66
736.83	249.50
737.16	249.15
737.49	248.81
737.82	248.44
738.15	248.11
738.48	247.75
738.81	247.33
739.14	246.96
739.47	246.60
739.80	246.22
740.13	245.89
740.46	245.49
740.79	245.15
741.12	244.81
741.45	244.45
741.78	244.00
742.11	243.70
742.44	243.33
742.77	243.06
743.10	242.69
743.43	242.37
743.75	241.82
744.08	241.76
744.41	241.40
744.74	241.07
745.07	240.71
745.40	240.39
745.73	240.17
746.06	239.85
746.39	239.54
746.71	239.21
747.04	238.88
747.37	238.54
747.70	238.22
748.03	237.93
748.36	237.66
748.68	237.37
749.01	237.06
749.34	236.81
749.67	236.51
750.00	236.28
750.33	236.14
750.65	235.89
750.98	235.36
751.31	235.13
751.64	234.88
751.97	234.74
752.29	234.53
752.62	234.22
752.95	233.95
753.28	233.75
753.60	233.53
753.93	233.32
754.26	233.14
754.59	232.87
754.91	232.65
755.24	232.40
755.57	232.16
755.90	231.91
756.22	231.65
756.55	231.39
756.88	231.13
757.20	230.82
757.53	230.59
757.86	230.37
758.19	230.18
758.51	230.00
758.84	229.68
759.17	229.46
759.49	229.31
759.82	229.24
760.15	229.05
760.47	228.83
760.80	228.62
761.13	228.45
761.45	228.30
761.78	228.12
762.11	227.97
762.43	227.79
762.76	227.65
763.08	227.53
763.41	227.43
763.74	227.33
764.06	227.15
764.39	226.97
764.71	226.84
765.04	226.69
765.37	226.54
765.69	226.44
766.02	226.27
766.34	226.08
766.67	225.87
767.00	225.78
767.32	225.81
767.65	225.80
767.97	225.68
768.30	225.55
768.62	225.43
768.95	225.29
769.27	225.18
769.60	225.10
769.92	224.92
770.25	224.75
770.57	224.59
770.90	224.52
771.22	224.39
771.55	224.30
771.87	224.19
772.20	224.05
772.52	224.10
772.85	224.26
773.17	224.16
773.50	224.03
773.82	223.89
774.15	223.67
774.47	223.46
774.80	223.34
775.12	223.25
775.45	223.16
775.77	223.10
776.09	223.03
776.42	222.90
776.74	222.89
777.07	222.79
777.39	222.70
777.72	222.57
778.04	222.53
778.36	222.44
778.69	222.38
779.01	222.30
779.33	222.02
779.66	221.72
779.98	221.62
780.31	221.56
780.63	221.55
780.95	221.53
781.28	221.46
781.60	221.38
781.92	221.31
782.25	221.23
782.57	221.16
782.89	221.07
783.22	220.99
783.54	220.89
783.86	220.85
784.19	220.80
784.51	220.78
784.83	220.67
785.16	220.62
785.48	220.56
785.80	220.56
786.12	220.54
