SpectraSuite Data File
++++++++++++++++++++++++++++++++++++
Date: Tue Jan 29 15:58:04 EST 2013
User: group
Dark Spectrum Present: No
Reference Spectrum Present: No
Number of Sampled Component Spectra: 1
Spectrometers: USB2E7196
Integration Time (usec): 65000 (USB2E7196)
Spectra Averaged: 100 (USB2E7196)
Boxcar Smoothing: 10 (USB2E7196)
Correct for Electrical Dark: No (USB2E7196)
Strobe/Lamp Enabled: No (USB2E7196)
Correct for Detector Non-linearity: No (USB2E7196)
Correct for Stray Light: No (USB2E7196)
Number of Pixels in Processed Spectrum: 2048
>>>>>Begin Processed Spectral Data<<<<<
339.09	0.00
339.48	202.87
339.86	204.42
340.24	205.59
340.63	206.87
341.01	211.34
341.39	210.16
341.78	211.45
342.16	213.46
342.54	213.28
342.93	202.19
343.31	212.42
343.69	212.98
344.07	213.44
344.46	213.90
344.84	214.32
345.22	214.51
345.60	214.78
345.99	214.98
346.37	215.12
346.75	215.22
347.13	215.28
347.52	215.36
347.90	215.51
348.28	215.57
348.66	215.66
349.05	215.63
349.43	215.69
349.81	215.75
350.19	215.82
350.57	215.88
350.96	215.98
351.34	216.07
351.72	216.16
352.10	216.27
352.48	216.32
352.87	216.36
353.25	216.41
353.63	216.48
354.01	216.53
354.39	216.58
354.77	216.67
355.15	216.80
355.54	216.82
355.92	216.82
356.30	216.88
356.68	217.08
357.06	217.19
357.44	217.23
357.82	217.28
358.20	217.32
358.58	217.36
358.97	217.41
359.35	217.51
359.73	217.59
360.11	217.66
360.49	217.73
360.87	217.78
361.25	217.84
361.63	217.90
362.01	217.94
362.39	217.94
362.77	217.95
363.15	217.95
363.53	217.96
363.91	217.97
364.29	217.99
364.67	217.78
365.05	217.78
365.43	217.82
365.81	217.85
366.19	217.95
366.57	218.01
366.95	218.01
367.33	217.98
367.71	218.01
368.09	218.03
368.47	218.03
368.85	218.04
369.23	218.08
369.61	218.03
369.99	218.06
370.37	218.09
370.75	218.17
371.13	218.11
371.51	218.05
371.89	218.08
372.27	218.05
372.65	218.03
373.03	218.02
373.41	217.96
373.78	217.89
374.16	217.73
374.54	217.66
374.92	217.61
375.30	217.54
375.68	217.43
376.06	217.40
376.44	217.34
376.82	217.30
377.19	217.26
377.57	217.20
377.95	217.11
378.33	217.05
378.71	216.91
379.09	216.91
379.47	216.92
379.84	216.85
380.22	216.79
380.60	216.73
380.98	216.65
381.36	216.60
381.73	216.55
382.11	216.58
382.49	216.55
382.87	216.46
383.25	216.43
383.62	216.60
384.00	216.52
384.38	216.45
384.76	216.44
385.13	216.48
385.51	216.47
385.89	216.45
386.27	216.43
386.64	216.39
387.02	216.34
387.40	216.30
387.78	216.27
388.15	216.26
388.53	216.23
388.91	216.22
389.29	216.20
389.66	216.23
390.04	216.14
390.42	216.13
390.79	216.14
391.17	216.11
391.55	215.93
391.92	215.90
392.30	215.97
392.68	215.92
393.05	215.88
393.43	215.88
393.81	215.87
394.18	215.84
394.56	215.86
394.94	215.90
395.31	215.90
395.69	215.96
396.06	216.01
396.44	216.04
396.82	216.02
397.19	216.16
397.57	216.18
397.95	216.31
398.32	216.31
398.70	216.37
399.07	216.49
399.45	216.52
399.82	216.58
400.20	216.61
400.58	216.70
400.95	216.66
401.33	216.77
401.70	217.00
402.08	217.08
402.45	217.19
402.83	217.34
403.20	217.46
403.58	217.55
403.95	217.71
404.33	217.88
404.71	218.05
405.08	218.29
405.46	218.41
405.83	218.54
406.21	218.73
406.58	218.94
406.96	219.13
407.33	219.37
407.70	219.67
408.08	220.09
408.45	220.44
408.83	220.83
409.20	221.14
409.58	221.39
409.95	221.85
410.33	222.31
410.70	222.71
411.08	223.22
411.45	223.77
411.82	224.30
412.20	224.93
412.57	225.73
412.95	226.29
413.32	227.10
413.69	227.94
414.07	228.83
414.44	229.79
414.82	230.75
415.19	231.89
415.56	233.03
415.94	234.16
416.31	235.48
416.68	236.83
417.06	238.38
417.43	239.90
417.81	241.57
418.18	243.29
418.55	245.14
418.93	247.11
419.30	249.12
419.67	251.29
420.04	253.52
420.42	255.78
420.79	258.53
421.16	261.22
421.54	264.00
421.91	266.91
422.28	269.88
422.66	273.07
423.03	276.19
423.40	279.39
423.77	282.85
424.15	286.39
424.52	290.07
424.89	294.11
425.26	298.00
425.64	301.76
426.01	305.89
426.38	310.18
426.75	314.56
427.13	319.14
427.50	323.89
427.87	328.87
428.24	333.90
428.61	338.65
428.99	343.96
429.36	349.72
429.73	355.37
430.10	361.02
430.47	366.84
430.85	372.92
431.22	379.36
431.59	386.22
431.96	392.78
432.33	399.97
432.70	406.94
433.08	415.18
433.45	422.87
433.82	430.54
434.19	439.07
434.56	447.43
434.93	455.43
435.30	463.42
435.68	472.21
436.05	480.79
436.42	489.39
436.79	497.21
437.16	505.63
437.53	514.51
437.90	523.28
438.27	531.89
438.64	540.71
439.01	548.94
439.38	556.21
439.75	563.26
440.13	571.39
440.50	578.94
440.87	585.07
441.24	591.51
441.61	598.56
441.98	603.73
442.35	609.84
442.72	615.85
443.09	621.63
443.46	625.18
443.83	627.64
444.20	629.70
444.57	632.68
444.94	634.01
445.31	635.39
445.68	636.71
446.05	637.28
446.42	636.53
446.79	635.59
447.16	634.49
447.53	633.70
447.90	630.44
448.27	627.30
448.64	622.83
449.01	619.55
449.37	613.87
449.74	608.37
450.11	601.66
450.48	594.58
450.85	587.44
451.22	581.20
451.59	575.28
451.96	569.67
452.33	562.14
452.70	555.33
453.07	547.21
453.43	538.98
453.80	530.99
454.17	523.34
454.54	516.10
454.91	508.28
455.28	500.63
455.65	493.53
456.02	486.39
456.38	480.36
456.75	472.87
457.12	466.63
457.49	460.42
457.86	454.53
458.23	449.41
458.59	443.71
458.96	437.99
459.33	432.94
459.70	427.78
460.07	423.76
460.43	419.16
460.80	414.72
461.17	410.94
461.54	406.98
461.91	403.12
462.27	399.22
462.64	395.92
463.01	392.28
463.38	388.72
463.74	385.16
464.11	382.02
464.48	379.25
464.85	376.24
465.21	373.93
465.58	371.45
465.95	368.43
466.32	365.91
466.68	363.40
467.05	360.90
467.42	358.49
467.78	355.90
468.15	353.44
468.52	351.68
468.88	349.27
469.25	347.17
469.62	345.41
469.98	343.52
470.35	341.81
470.72	340.27
471.08	338.58
471.45	337.13
471.82	335.67
472.18	334.15
472.55	333.01
472.92	331.70
473.28	330.51
473.65	329.42
474.02	328.41
474.38	327.62
474.75	326.92
475.11	326.17
475.48	325.59
475.85	325.15
476.21	324.66
476.58	324.32
476.94	324.11
477.31	323.89
477.67	323.69
478.04	323.59
478.41	323.55
478.77	323.73
479.14	323.74
479.50	323.92
479.87	324.22
480.23	324.58
480.60	324.85
480.96	325.14
481.33	325.79
481.69	326.33
482.06	326.84
482.42	327.36
482.79	327.98
483.15	328.82
483.52	329.79
483.88	330.72
484.25	331.68
484.61	332.68
484.98	333.76
485.34	335.07
485.71	336.44
486.07	337.88
486.44	339.24
486.80	340.85
487.17	342.49
487.53	344.33
487.90	346.19
488.26	348.23
488.62	350.39
488.99	352.39
489.35	354.59
489.72	356.98
490.08	359.49
490.44	362.04
490.81	364.73
491.17	367.43
491.54	370.39
491.90	373.44
492.26	376.74
492.63	380.19
492.99	383.65
493.36	387.35
493.72	391.22
494.08	395.20
494.45	399.43
494.81	403.82
495.17	408.25
495.54	412.91
495.90	417.74
496.26	422.68
496.63	427.89
496.99	433.25
497.35	438.77
497.72	444.51
498.08	450.45
498.44	456.52
498.80	462.93
499.17	469.44
499.53	476.05
499.89	482.88
500.26	489.76
500.62	496.82
500.98	504.16
501.34	511.56
501.71	519.33
502.07	527.11
502.43	535.09
502.79	543.22
503.16	551.60
503.52	560.11
503.88	568.75
504.24	577.74
504.60	586.80
504.97	596.04
505.33	605.41
505.69	615.24
506.05	625.11
506.41	634.91
506.78	644.84
507.14	655.14
507.50	665.50
507.86	676.20
508.22	686.94
508.59	697.60
508.95	708.70
509.31	719.89
509.67	731.33
510.03	742.81
510.39	754.53
510.75	766.25
511.12	778.10
511.48	790.15
511.84	802.23
512.20	814.48
512.56	826.98
512.92	839.58
513.28	852.04
513.64	864.63
514.00	877.38
514.37	890.26
514.73	903.21
515.09	916.08
515.45	928.70
515.81	941.55
516.17	954.71
516.53	967.76
516.89	980.66
517.25	993.61
517.61	1006.86
517.97	1020.01
518.33	1032.99
518.69	1046.38
519.05	1059.89
519.41	1073.34
519.77	1087.04
520.13	1100.14
520.49	1113.11
520.85	1126.40
521.21	1139.57
521.57	1153.05
521.93	1166.07
522.29	1179.71
522.65	1193.31
523.01	1206.72
523.37	1219.76
523.73	1232.80
524.09	1245.62
524.45	1258.83
524.81	1272.16
525.17	1285.28
525.53	1298.12
525.89	1311.26
526.25	1324.05
526.61	1336.64
526.97	1349.56
527.33	1362.15
527.68	1375.32
528.04	1388.51
528.40	1401.32
528.76	1414.40
529.12	1426.99
529.48	1439.83
529.84	1451.62
530.20	1463.90
530.56	1476.31
530.91	1489.28
531.27	1501.83
531.63	1514.36
531.99	1526.69
532.35	1538.53
532.71	1550.66
533.07	1563.20
533.42	1574.98
533.78	1586.75
534.14	1598.43
534.50	1609.28
534.86	1620.56
535.21	1631.09
535.57	1642.15
535.93	1653.20
536.29	1663.97
536.65	1674.93
537.00	1685.68
537.36	1696.80
537.72	1707.48
538.08	1718.35
538.44	1728.88
538.79	1739.61
539.15	1750.09
539.51	1760.55
539.87	1771.66
540.22	1781.92
540.58	1792.49
540.94	1802.98
541.29	1813.04
541.65	1822.59
542.01	1832.86
542.37	1842.59
542.72	1852.58
543.08	1862.13
543.44	1872.21
543.79	1881.24
544.15	1890.45
544.51	1900.19
544.87	1909.69
545.22	1918.44
545.58	1927.00
545.94	1935.57
546.29	1943.85
546.65	1951.84
547.01	1959.78
547.36	1967.03
547.72	1974.45
548.07	1981.95
548.43	1989.65
548.79	1997.14
549.14	2005.03
549.50	2013.05
549.86	2020.41
550.21	2027.40
550.57	2034.90
550.92	2041.25
551.28	2048.42
551.64	2055.46
551.99	2062.55
552.35	2069.63
552.70	2076.35
553.06	2082.89
553.41	2088.96
553.77	2095.20
554.13	2101.49
554.48	2108.35
554.84	2115.14
555.19	2121.52
555.55	2127.81
555.90	2133.72
556.26	2140.31
556.61	2145.93
556.97	2150.73
557.32	2156.61
557.68	2162.97
558.03	2168.58
558.39	2173.87
558.74	2179.66
559.10	2185.29
559.45	2190.84
559.81	2196.22
560.16	2201.79
560.52	2207.59
560.87	2213.98
561.23	2220.07
561.58	2226.74
561.94	2231.92
562.29	2236.96
562.64	2243.33
563.00	2248.75
563.35	2254.46
563.71	2260.43
564.06	2266.30
564.42	2272.41
564.77	2277.70
565.12	2282.84
565.48	2287.91
565.83	2293.46
566.19	2299.18
566.54	2304.67
566.89	2309.31
567.25	2313.87
567.60	2319.58
567.96	2324.88
568.31	2329.49
568.66	2333.70
569.02	2337.53
569.37	2341.34
569.72	2345.71
570.08	2349.10
570.43	2352.36
570.78	2355.44
571.14	2358.01
571.49	2361.17
571.84	2364.68
572.20	2367.50
572.55	2370.73
572.90	2373.07
573.26	2376.26
573.61	2378.80
573.96	2380.94
574.31	2383.07
574.67	2385.20
575.02	2386.21
575.37	2387.57
575.72	2388.63
576.08	2390.20
576.43	2390.81
576.78	2391.71
577.13	2393.60
577.49	2394.97
577.84	2396.52
578.19	2398.33
578.54	2399.29
578.90	2400.54
579.25	2400.65
579.60	2401.01
579.95	2400.61
580.30	2401.17
580.66	2400.59
581.01	2399.06
581.36	2397.07
581.71	2395.99
582.06	2395.28
582.42	2394.70
582.77	2393.10
583.12	2391.69
583.47	2390.79
583.82	2390.45
584.17	2389.35
584.53	2387.22
584.88	2385.49
585.23	2383.70
585.58	2381.67
585.93	2379.63
586.28	2377.61
586.63	2375.50
586.98	2373.54
587.34	2371.99
587.69	2369.90
588.04	2368.19
588.39	2366.93
588.74	2364.67
589.09	2362.30
589.44	2359.19
589.79	2357.00
590.14	2355.31
590.49	2352.77
590.84	2349.25
591.19	2346.41
591.54	2343.31
591.89	2339.52
592.25	2336.39
592.60	2332.34
592.95	2328.19
593.30	2324.26
593.65	2319.99
594.00	2315.83
594.35	2312.85
594.70	2308.24
595.05	2303.72
595.40	2298.43
595.75	2293.21
596.10	2289.74
596.45	2284.96
596.80	2280.67
597.15	2275.47
597.50	2269.55
597.85	2264.67
598.19	2259.52
598.54	2253.76
598.89	2248.93
599.24	2244.57
599.59	2238.63
599.94	2233.14
600.29	2227.52
600.64	2221.73
600.99	2215.37
601.34	2210.06
601.69	2203.08
602.04	2196.75
602.39	2190.41
602.74	2184.44
603.08	2178.78
603.43	2172.34
603.78	2165.62
604.13	2158.53
604.48	2151.51
604.83	2145.62
605.18	2139.41
605.53	2132.57
605.87	2125.76
606.22	2118.92
606.57	2111.18
606.92	2103.45
607.27	2096.74
607.62	2090.18
607.96	2083.26
608.31	2076.74
608.66	2068.93
609.01	2061.56
609.36	2054.56
609.70	2046.91
610.05	2039.29
610.40	2031.18
610.75	2023.13
611.10	2015.56
611.44	2006.98
611.79	1998.26
612.14	1988.31
612.49	1977.88
612.83	1968.66
613.18	1959.50
613.53	1950.28
613.88	1940.71
614.22	1932.03
614.57	1921.82
614.92	1911.42
615.27	1901.44
615.61	1891.44
615.96	1881.84
616.31	1872.17
616.65	1862.85
617.00	1852.94
617.35	1843.25
617.70	1833.45
618.04	1823.24
618.39	1812.93
618.74	1803.31
619.08	1793.89
619.43	1785.27
619.78	1777.13
620.12	1768.35
620.47	1758.54
620.82	1748.20
621.16	1738.53
621.51	1728.62
621.85	1718.86
622.20	1708.28
622.55	1697.63
622.89	1687.66
623.24	1677.84
623.59	1668.21
623.93	1658.05
624.28	1648.31
624.62	1638.13
624.97	1627.96
625.32	1618.24
625.66	1609.53
626.01	1600.38
626.35	1590.67
626.70	1580.35
627.04	1570.07
627.39	1559.95
627.73	1550.66
628.08	1541.57
628.43	1531.83
628.77	1522.52
629.12	1513.71
629.46	1505.85
629.81	1497.37
630.15	1487.81
630.50	1478.09
630.84	1467.54
631.19	1457.56
631.53	1448.15
631.88	1437.91
632.22	1427.68
632.57	1418.27
632.91	1407.94
633.26	1398.28
633.60	1388.79
633.95	1379.57
634.29	1370.19
634.64	1360.85
634.98	1350.96
635.32	1341.67
635.67	1333.14
636.01	1323.92
636.36	1313.97
636.70	1304.33
637.05	1294.95
637.39	1285.85
637.73	1277.10
638.08	1269.55
638.42	1261.23
638.77	1252.36
639.11	1244.16
639.45	1236.29
639.80	1227.57
640.14	1218.93
640.49	1209.96
640.83	1201.09
641.17	1192.96
641.52	1184.53
641.86	1175.90
642.20	1167.99
642.55	1159.31
642.89	1150.40
643.23	1141.63
643.58	1133.57
643.92	1124.59
644.26	1115.83
644.61	1107.46
644.95	1098.81
645.29	1089.51
645.64	1080.41
645.98	1072.12
646.32	1064.08
646.66	1055.68
647.01	1047.25
647.35	1039.15
647.69	1030.75
648.04	1022.50
648.38	1013.58
648.72	1004.88
649.06	996.48
649.41	988.28
649.75	980.34
650.09	972.41
650.43	964.39
650.78	956.21
651.12	948.51
651.46	941.27
651.80	933.96
652.14	926.54
652.49	919.05
652.83	911.72
653.17	903.93
653.51	896.42
653.85	889.14
654.20	881.97
654.54	874.38
654.88	867.26
655.22	860.08
655.56	853.09
655.90	846.35
656.25	839.68
656.59	832.73
656.93	825.70
657.27	818.76
657.61	811.93
657.95	805.83
658.29	800.01
658.64	793.87
658.98	787.49
659.32	780.92
659.66	774.73
660.00	768.40
660.34	762.44
660.68	756.38
661.02	750.13
661.36	744.32
661.70	738.56
662.05	732.90
662.39	727.42
662.73	722.11
663.07	716.84
663.41	711.36
663.75	705.73
664.09	700.25
664.43	694.94
664.77	689.54
665.11	683.74
665.45	677.90
665.79	672.15
666.13	666.45
666.47	661.03
666.81	655.67
667.15	650.37
667.49	645.20
667.83	639.97
668.17	634.80
668.51	629.74
668.85	624.88
669.19	620.04
669.53	615.14
669.87	610.15
670.21	605.41
670.55	600.61
670.89	596.28
671.23	591.98
671.57	587.61
671.91	583.41
672.25	579.42
672.58	575.30
672.92	571.32
673.26	567.50
673.60	563.75
673.94	559.94
674.28	556.35
674.62	552.66
674.96	548.99
675.30	545.53
675.64	541.90
675.97	538.40
676.31	534.91
676.65	531.36
676.99	527.92
677.33	524.07
677.67	520.55
678.01	516.78
678.34	513.25
678.68	509.74
679.02	506.18
679.36	502.41
679.70	498.83
680.04	495.31
680.37	491.95
680.71	488.70
681.05	485.59
681.39	482.48
681.73	479.42
682.06	476.43
682.40	473.37
682.74	470.23
683.08	467.09
683.42	463.98
683.75	461.04
684.09	458.11
684.43	455.45
684.77	452.58
685.10	449.73
685.44	446.80
685.78	443.89
686.12	441.19
686.45	438.59
686.79	435.98
687.13	433.49
687.46	430.85
687.80	428.23
688.14	425.48
688.48	422.89
688.81	420.22
689.15	417.67
689.49	415.09
689.82	412.64
690.16	410.12
690.50	407.69
690.83	405.19
691.17	402.69
691.51	400.18
691.84	397.97
692.18	395.82
692.52	393.65
692.85	391.62
693.19	389.52
693.52	387.37
693.86	385.20
694.20	383.09
694.53	381.06
694.87	378.85
695.21	376.84
695.54	374.72
695.88	372.62
696.21	370.47
696.55	368.41
696.88	366.38
697.22	364.46
697.56	362.66
697.89	360.85
698.23	359.16
698.56	357.47
698.90	355.76
699.23	353.87
699.57	352.09
699.90	350.30
700.24	348.56
700.58	346.83
700.91	345.25
701.25	343.69
701.58	342.08
701.92	340.56
702.25	338.93
702.59	337.36
702.92	335.89
703.26	334.35
703.59	332.96
703.93	331.73
704.26	330.34
704.60	328.84
704.93	327.43
705.26	325.99
705.60	324.57
705.93	323.08
706.27	321.88
706.60	320.64
706.94	319.44
707.27	318.04
707.61	316.76
707.94	315.44
708.27	314.00
708.61	312.62
708.94	311.33
709.28	310.12
709.61	308.88
709.94	307.67
710.28	306.55
710.61	305.39
710.95	303.99
711.28	302.93
711.61	301.78
711.95	300.68
712.28	299.49
712.61	298.33
712.95	297.34
713.28	296.28
713.61	295.19
713.95	294.10
714.28	293.16
714.61	292.14
714.95	291.14
715.28	290.12
715.61	289.12
715.95	288.20
716.28	287.23
716.61	286.34
716.95	285.42
717.28	284.51
717.61	283.59
717.94	282.72
718.28	281.73
718.61	280.89
718.94	279.98
719.27	279.15
719.61	278.36
719.94	277.49
720.27	276.54
720.60	275.72
720.94	274.93
721.27	274.20
721.60	273.53
721.93	272.87
722.27	272.26
722.60	271.63
722.93	270.93
723.26	270.30
723.59	269.64
723.93	269.00
724.26	268.39
724.59	267.73
724.92	267.20
725.25	266.70
725.59	266.18
725.92	265.69
726.25	265.16
726.58	264.61
726.91	264.02
727.24	263.53
727.57	262.96
727.91	262.38
728.24	261.82
728.57	261.21
728.90	260.64
729.23	260.06
729.56	259.65
729.89	259.13
730.22	258.60
730.55	258.05
730.89	257.52
731.22	257.00
731.55	256.52
731.88	255.99
732.21	255.39
732.54	254.86
732.87	254.31
733.20	253.81
733.53	253.32
733.86	252.91
734.19	252.43
734.52	252.05
734.85	251.76
735.18	251.29
735.51	250.96
735.84	250.55
736.17	250.14
736.50	249.59
736.83	249.47
737.16	249.08
737.49	248.69
737.82	248.31
738.15	247.98
738.48	247.64
738.81	247.29
739.14	246.91
739.47	246.56
739.80	246.22
740.13	245.92
740.46	245.56
740.79	245.19
741.12	244.84
741.45	244.47
741.78	244.04
742.11	243.80
742.44	243.42
742.77	243.15
743.10	242.86
743.43	242.52
743.75	241.96
744.08	241.86
744.41	241.52
744.74	241.18
745.07	240.80
745.40	240.49
745.73	240.25
746.06	239.96
746.39	239.62
746.71	239.33
747.04	238.96
747.37	238.69
747.70	238.42
748.03	238.16
748.36	237.89
748.68	237.62
749.01	237.27
749.34	236.98
749.67	236.70
750.00	236.44
750.33	236.33
750.65	236.10
750.98	235.62
751.31	235.43
751.64	235.22
751.97	235.10
752.29	234.81
752.62	234.47
752.95	234.24
753.28	233.99
753.60	233.74
753.93	233.57
754.26	233.36
754.59	233.06
754.91	232.80
755.24	232.57
755.57	232.33
755.90	232.12
756.22	231.95
756.55	231.71
756.88	231.47
757.20	231.13
757.53	230.89
757.86	230.70
758.19	230.51
758.51	230.31
758.84	230.02
759.17	229.85
759.49	229.68
759.82	229.60
760.15	229.48
760.47	229.31
760.80	229.06
761.13	228.91
761.45	228.74
761.78	228.61
762.11	228.44
762.43	228.30
762.76	228.10
763.08	227.91
763.41	227.77
763.74	227.64
764.06	227.49
764.39	227.35
764.71	227.16
765.04	227.00
765.37	226.84
765.69	226.72
766.02	226.60
766.34	226.48
766.67	226.29
767.00	226.19
767.32	226.15
767.65	226.16
767.97	226.05
768.30	225.95
768.62	225.81
768.95	225.63
769.27	225.48
769.60	225.41
769.92	225.27
770.25	225.12
770.57	224.99
770.90	224.88
771.22	224.73
771.55	224.65
771.87	224.55
772.20	224.42
772.52	224.47
772.85	224.60
773.17	224.46
773.50	224.31
773.82	224.18
774.15	223.99
774.47	223.75
774.80	223.62
775.12	223.53
775.45	223.44
775.77	223.41
776.09	223.33
776.42	223.24
776.74	223.21
777.07	223.09
777.39	222.99
777.72	222.88
778.04	222.85
778.36	222.73
778.69	222.62
779.01	222.61
779.33	222.37
779.66	222.04
779.98	221.97
780.31	221.93
780.63	221.95
780.95	221.91
781.28	221.87
781.60	221.78
781.92	221.70
782.25	221.66
782.57	221.58
782.89	221.48
783.22	221.42
783.54	221.29
783.86	221.27
784.19	221.21
784.51	221.21
784.83	221.13
785.16	221.05
785.48	221.02
785.80	220.92
786.12	220.90
