SpectraSuite Data File
++++++++++++++++++++++++++++++++++++
Date: Tue Jan 29 16:30:01 EST 2013
User: group
Dark Spectrum Present: No
Reference Spectrum Present: No
Number of Sampled Component Spectra: 1
Spectrometers: USB2E7196
Integration Time (usec): 65000 (USB2E7196)
Spectra Averaged: 100 (USB2E7196)
Boxcar Smoothing: 10 (USB2E7196)
Correct for Electrical Dark: No (USB2E7196)
Strobe/Lamp Enabled: No (USB2E7196)
Correct for Detector Non-linearity: No (USB2E7196)
Correct for Stray Light: No (USB2E7196)
Number of Pixels in Processed Spectrum: 2048
>>>>>Begin Processed Spectral Data<<<<<
339.09	0.00
339.48	201.99
339.86	203.24
340.24	204.91
340.63	206.66
341.01	211.01
341.39	209.05
341.78	209.71
342.16	211.85
342.54	212.00
342.93	201.25
343.31	211.42
343.69	211.95
344.07	212.42
344.46	212.87
344.84	213.25
345.22	213.43
345.60	213.69
345.99	213.93
346.37	214.08
346.75	214.17
347.13	214.26
347.52	214.32
347.90	214.51
348.28	214.55
348.66	214.62
349.05	214.63
349.43	214.69
349.81	214.74
350.19	214.80
350.57	214.87
350.96	214.97
351.34	215.06
351.72	215.19
352.10	215.30
352.48	215.36
352.87	215.43
353.25	215.47
353.63	215.52
354.01	215.59
354.39	215.64
354.77	215.72
355.15	215.84
355.54	215.88
355.92	215.84
356.30	215.91
356.68	216.11
357.06	216.18
357.44	216.21
357.82	216.25
358.20	216.34
358.58	216.42
358.97	216.45
359.35	216.58
359.73	216.66
360.11	216.72
360.49	216.79
360.87	216.81
361.25	216.90
361.63	217.03
362.01	217.12
362.39	217.14
362.77	217.22
363.15	217.22
363.53	217.26
363.91	217.32
364.29	217.34
364.67	217.13
365.05	217.13
365.43	217.20
365.81	217.26
366.19	217.32
366.57	217.40
366.95	217.40
367.33	217.34
367.71	217.33
368.09	217.38
368.47	217.36
368.85	217.38
369.23	217.39
369.61	217.30
369.99	217.34
370.37	217.38
370.75	217.42
371.13	217.38
371.51	217.33
371.89	217.32
372.27	217.32
372.65	217.35
373.03	217.34
373.41	217.25
373.78	217.18
374.16	217.07
374.54	216.97
374.92	216.94
375.30	216.93
375.68	216.84
376.06	216.77
376.44	216.71
376.82	216.67
377.19	216.60
377.57	216.57
377.95	216.44
378.33	216.37
378.71	216.22
379.09	216.20
379.47	216.16
379.84	216.07
380.22	216.01
380.60	215.93
380.98	215.88
381.36	215.85
381.73	215.78
382.11	215.78
382.49	215.75
382.87	215.67
383.25	215.62
383.62	215.84
384.00	215.80
384.38	215.80
384.76	215.79
385.13	215.88
385.51	215.86
385.89	215.81
386.27	215.78
386.64	215.80
387.02	215.74
387.40	215.73
387.78	215.75
388.15	215.76
388.53	215.75
388.91	215.73
389.29	215.69
389.66	215.69
390.04	215.67
390.42	215.70
390.79	215.71
391.17	215.69
391.55	215.42
391.92	215.40
392.30	215.41
392.68	215.37
393.05	215.34
393.43	215.30
393.81	215.31
394.18	215.27
394.56	215.28
394.94	215.34
395.31	215.33
395.69	215.35
396.06	215.34
396.44	215.34
396.82	215.34
397.19	215.48
397.57	215.48
397.95	215.53
398.32	215.50
398.70	215.52
399.07	215.59
399.45	215.66
399.82	215.71
400.20	215.70
400.58	215.75
400.95	215.75
401.33	215.88
401.70	216.11
402.08	216.23
402.45	216.29
402.83	216.45
403.20	216.56
403.58	216.65
403.95	216.82
404.33	216.96
404.71	217.13
405.08	217.36
405.46	217.54
405.83	217.72
406.21	217.94
406.58	218.18
406.96	218.44
407.33	218.74
407.70	219.03
408.08	219.50
408.45	219.86
408.83	220.25
409.20	220.57
409.58	220.82
409.95	221.26
410.33	221.75
410.70	222.18
411.08	222.72
411.45	223.32
411.82	223.91
412.20	224.60
412.57	225.41
412.95	226.01
413.32	226.85
413.69	227.67
414.07	228.56
414.44	229.54
414.82	230.53
415.19	231.66
415.56	232.84
415.94	234.05
416.31	235.46
416.68	236.82
417.06	238.42
417.43	239.97
417.81	241.71
418.18	243.49
418.55	245.42
418.93	247.48
419.30	249.56
419.67	251.75
420.04	254.03
420.42	256.42
420.79	259.24
421.16	262.04
421.54	264.96
421.91	267.97
422.28	271.08
422.66	274.38
423.03	277.64
423.40	281.00
423.77	284.57
424.15	288.23
424.52	292.08
424.89	296.22
425.26	300.29
425.64	304.19
426.01	308.45
426.38	312.91
426.75	317.45
427.13	322.17
427.50	327.16
427.87	332.40
428.24	337.60
428.61	342.59
428.99	348.08
429.36	354.07
429.73	359.92
430.10	365.79
430.47	371.84
430.85	378.12
431.22	384.84
431.59	391.88
431.96	398.70
432.33	406.25
432.70	413.52
433.08	422.07
433.45	430.16
433.82	438.16
434.19	446.99
434.56	455.67
434.93	464.03
435.30	472.32
435.68	481.42
436.05	490.37
436.42	499.23
436.79	507.41
437.16	516.14
437.53	525.44
437.90	534.55
438.27	543.47
438.64	552.72
439.01	561.18
439.38	568.83
439.75	576.07
440.13	584.47
440.50	592.40
440.87	598.75
441.24	605.31
441.61	612.68
441.98	618.09
442.35	624.37
442.72	630.66
443.09	636.73
443.46	640.39
443.83	642.91
444.20	645.08
444.57	648.21
444.94	649.68
445.31	651.06
445.68	652.50
446.05	653.13
446.42	652.33
446.79	651.45
447.16	650.28
447.53	649.55
447.90	646.18
448.27	642.85
448.64	638.29
449.01	635.03
449.37	629.14
449.74	623.49
450.11	616.61
450.48	609.22
450.85	601.76
451.22	595.30
451.59	589.20
451.96	583.41
452.33	575.55
452.70	568.41
453.07	559.95
453.43	551.32
453.80	543.04
454.17	535.08
454.54	527.48
454.91	519.37
455.28	511.47
455.65	504.07
456.02	496.63
456.38	490.31
456.75	482.43
457.12	475.81
457.49	469.22
457.86	463.07
458.23	457.66
458.59	451.71
458.96	445.77
459.33	440.45
459.70	435.10
460.07	430.86
460.43	426.06
460.80	421.53
461.17	417.53
461.54	413.36
461.91	409.32
462.27	405.19
462.64	401.76
463.01	397.94
463.38	394.29
463.74	390.56
464.11	387.27
464.48	384.46
464.85	381.39
465.21	379.06
465.58	376.43
465.95	373.34
466.32	370.69
466.68	368.07
467.05	365.51
467.42	362.98
467.78	360.29
468.15	357.72
468.52	355.79
468.88	353.29
469.25	351.08
469.62	349.27
469.98	347.36
470.35	345.52
470.72	343.82
471.08	342.00
471.45	340.54
471.82	339.02
472.18	337.35
472.55	336.16
472.92	334.74
473.28	333.55
473.65	332.39
474.02	331.34
474.38	330.46
474.75	329.67
475.11	328.83
475.48	328.23
475.85	327.77
476.21	327.27
476.58	326.95
476.94	326.68
477.31	326.38
477.67	326.13
478.04	326.03
478.41	326.03
478.77	326.16
479.14	326.10
479.50	326.24
479.87	326.50
480.23	326.84
480.60	327.11
480.96	327.33
481.33	327.94
481.69	328.50
482.06	329.03
482.42	329.47
482.79	330.07
483.15	330.88
483.52	331.79
483.88	332.68
484.25	333.61
484.61	334.65
484.98	335.74
485.34	337.05
485.71	338.40
486.07	339.81
486.44	341.17
486.80	342.79
487.17	344.46
487.53	346.32
487.90	348.16
488.26	350.17
488.62	352.37
488.99	354.42
489.35	356.58
489.72	358.95
490.08	361.47
490.44	364.03
490.81	366.75
491.17	369.47
491.54	372.48
491.90	375.55
492.26	378.80
492.63	382.18
492.99	385.72
493.36	389.36
493.72	393.23
494.08	397.23
494.45	401.42
494.81	405.79
495.17	410.21
495.54	415.00
495.90	419.85
496.26	424.79
496.63	429.98
496.99	435.40
497.35	440.97
497.72	446.84
498.08	452.86
498.44	458.94
498.80	465.42
499.17	471.93
499.53	478.68
499.89	485.58
500.26	492.66
500.62	499.77
500.98	507.25
501.34	514.78
501.71	522.65
502.07	530.52
502.43	538.56
502.79	546.72
503.16	555.07
503.52	563.67
503.88	572.46
504.24	581.41
504.60	590.52
504.97	599.83
505.33	609.18
505.69	619.13
506.05	629.03
506.41	638.97
506.78	649.08
507.14	659.38
507.50	669.84
507.86	680.61
508.22	691.42
508.59	702.11
508.95	713.24
509.31	724.54
509.67	736.06
510.03	747.47
510.39	759.33
510.75	771.26
511.12	783.23
511.48	795.30
511.84	807.81
512.20	820.14
512.56	832.87
512.92	845.84
513.28	858.48
513.64	871.36
514.00	884.30
514.37	897.38
514.73	910.53
515.09	923.64
515.45	936.53
515.81	949.75
516.17	963.29
516.53	976.54
516.89	989.72
517.25	1003.02
517.61	1016.75
517.97	1030.27
518.33	1043.56
518.69	1057.32
519.05	1071.15
519.41	1084.88
519.77	1098.93
520.13	1112.24
520.49	1125.43
520.85	1138.99
521.21	1152.44
521.57	1166.21
521.93	1179.35
522.29	1193.20
522.65	1207.01
523.01	1220.78
523.37	1234.02
523.73	1247.43
524.09	1260.80
524.45	1274.29
524.81	1287.87
525.17	1301.33
525.53	1314.69
525.89	1328.09
526.25	1341.21
526.61	1354.24
526.97	1367.51
527.33	1380.61
527.68	1394.31
528.04	1407.87
528.40	1421.07
528.76	1434.53
529.12	1447.47
529.48	1460.97
529.84	1473.32
530.20	1486.19
530.56	1498.85
530.91	1512.25
531.27	1525.16
531.63	1538.04
531.99	1550.99
532.35	1563.26
532.71	1575.80
533.07	1588.65
533.42	1601.10
533.78	1613.37
534.14	1625.50
534.50	1636.73
534.86	1648.50
535.21	1659.50
535.57	1671.22
535.93	1682.68
536.29	1693.88
536.65	1705.43
537.00	1716.56
537.36	1728.17
537.72	1739.22
538.08	1750.80
538.44	1761.83
538.79	1773.15
539.15	1784.19
539.51	1794.98
539.87	1806.41
540.22	1817.31
540.58	1828.48
540.94	1839.45
541.29	1849.84
541.65	1859.66
542.01	1870.29
542.37	1880.42
542.72	1890.60
543.08	1900.48
543.44	1910.96
543.79	1920.42
544.15	1930.10
544.51	1940.16
544.87	1950.11
545.22	1959.39
545.58	1968.41
545.94	1977.40
546.29	1985.90
546.65	1994.39
547.01	2002.68
547.36	2010.55
547.72	2018.36
548.07	2026.02
548.43	2033.64
548.79	2041.73
549.14	2050.06
549.50	2058.61
549.86	2066.46
550.21	2074.03
550.57	2081.73
550.92	2088.67
551.28	2096.16
551.64	2103.52
551.99	2111.04
552.35	2118.19
552.70	2125.21
553.06	2131.75
553.41	2138.11
553.77	2144.74
554.13	2151.13
554.48	2158.36
554.84	2165.51
555.19	2172.22
555.55	2178.58
555.90	2185.05
556.26	2191.83
556.61	2197.86
556.97	2202.78
557.32	2208.67
557.68	2215.11
558.03	2220.94
558.39	2226.27
558.74	2232.34
559.10	2237.80
559.45	2243.42
559.81	2249.03
560.16	2254.66
560.52	2260.71
560.87	2267.10
561.23	2272.94
561.58	2279.70
561.94	2284.83
562.29	2289.45
562.64	2295.50
563.00	2301.39
563.35	2307.00
563.71	2312.77
564.06	2318.57
564.42	2324.58
564.77	2329.71
565.12	2335.01
565.48	2340.25
565.83	2345.78
566.19	2351.11
566.54	2356.59
566.89	2361.19
567.25	2365.89
567.60	2371.58
567.96	2376.69
568.31	2381.26
568.66	2385.69
569.02	2389.51
569.37	2393.37
569.72	2397.99
570.08	2401.43
570.43	2404.46
570.78	2407.62
571.14	2410.08
571.49	2413.14
571.84	2416.68
572.20	2419.52
572.55	2422.59
572.90	2424.84
573.26	2427.62
573.61	2430.32
573.96	2432.44
574.31	2434.54
574.67	2436.39
575.02	2437.21
575.37	2438.72
575.72	2439.53
576.08	2440.88
576.43	2441.05
576.78	2441.57
577.13	2443.03
577.49	2444.14
577.84	2445.17
578.19	2446.40
578.54	2447.05
578.90	2447.88
579.25	2447.76
579.60	2447.83
579.95	2446.95
580.30	2446.97
580.66	2446.30
581.01	2444.56
581.36	2442.06
581.71	2440.52
582.06	2439.39
582.42	2438.47
582.77	2436.19
583.12	2434.54
583.47	2433.29
583.82	2432.65
584.17	2431.27
584.53	2429.15
584.88	2427.02
585.23	2425.21
585.58	2422.84
585.93	2420.83
586.28	2418.57
586.63	2416.24
586.98	2413.95
587.34	2411.93
587.69	2409.42
588.04	2407.44
588.39	2405.96
588.74	2403.53
589.09	2400.87
589.44	2397.54
589.79	2394.97
590.14	2392.89
590.49	2389.91
590.84	2385.83
591.19	2382.76
591.54	2379.48
591.89	2375.33
592.25	2372.04
592.60	2367.72
592.95	2363.68
593.30	2359.34
593.65	2354.92
594.00	2350.17
594.35	2347.02
594.70	2342.24
595.05	2337.70
595.40	2332.12
595.75	2326.25
596.10	2322.68
596.45	2317.77
596.80	2313.26
597.15	2308.02
597.50	2301.98
597.85	2297.07
598.19	2291.96
598.54	2286.09
598.89	2280.87
599.24	2276.29
599.59	2270.18
599.94	2264.27
600.29	2258.20
600.64	2252.17
600.99	2245.30
601.34	2239.75
601.69	2232.73
602.04	2226.46
602.39	2219.88
602.74	2213.60
603.08	2208.05
603.43	2201.36
603.78	2194.49
604.13	2187.34
604.48	2179.95
604.83	2173.76
605.18	2167.47
605.53	2160.50
605.87	2153.23
606.22	2146.46
606.57	2138.48
606.92	2130.39
607.27	2123.49
607.62	2116.71
607.96	2109.74
608.31	2103.20
608.66	2095.38
609.01	2087.77
609.36	2080.61
609.70	2072.68
610.05	2064.86
610.40	2056.50
610.75	2048.12
611.10	2040.41
611.44	2031.33
611.79	2022.59
612.14	2012.73
612.49	2002.03
612.83	1992.59
613.18	1983.41
613.53	1973.95
613.88	1964.29
614.22	1955.72
614.57	1945.69
614.92	1935.19
615.27	1924.92
615.61	1914.78
615.96	1905.08
616.31	1895.38
616.65	1885.80
617.00	1876.06
617.35	1866.46
617.70	1856.64
618.04	1846.59
618.39	1836.22
618.74	1826.60
619.08	1816.98
619.43	1808.21
619.78	1799.75
620.12	1791.09
620.47	1781.33
620.82	1771.01
621.16	1761.21
621.51	1751.36
621.85	1741.44
622.20	1730.99
622.55	1720.38
622.89	1710.41
623.24	1700.71
623.59	1690.78
623.93	1680.73
624.28	1670.87
624.62	1660.60
624.97	1650.39
625.32	1640.56
625.66	1631.68
626.01	1622.93
626.35	1613.43
626.70	1603.26
627.04	1593.14
627.39	1582.87
627.73	1573.62
628.08	1564.51
628.43	1554.81
628.77	1545.45
629.12	1536.60
629.46	1528.69
629.81	1520.29
630.15	1510.81
630.50	1500.91
630.84	1490.44
631.19	1480.34
631.53	1471.02
631.88	1460.93
632.22	1450.69
632.57	1441.28
632.91	1431.13
633.26	1421.21
633.60	1411.54
633.95	1402.22
634.29	1392.77
634.64	1383.50
634.98	1373.49
635.32	1364.27
635.67	1355.78
636.01	1346.38
636.36	1336.50
636.70	1326.94
637.05	1317.50
637.39	1308.47
637.73	1299.79
638.08	1292.21
638.42	1284.07
638.77	1275.24
639.11	1266.89
639.45	1259.17
639.80	1250.62
640.14	1241.75
640.49	1232.77
640.83	1223.96
641.17	1215.79
641.52	1207.65
641.86	1199.03
642.20	1191.08
642.55	1182.29
642.89	1173.40
643.23	1164.71
643.58	1156.61
643.92	1147.49
644.26	1138.77
644.61	1130.30
644.95	1121.46
645.29	1112.18
645.64	1102.81
645.98	1094.21
646.32	1086.29
646.66	1077.64
647.01	1069.13
647.35	1060.97
647.69	1052.66
648.04	1044.29
648.38	1035.32
648.72	1026.41
649.06	1017.90
649.41	1009.73
649.75	1001.72
650.09	993.82
650.43	985.74
650.78	977.38
651.12	969.66
651.46	962.09
651.80	954.66
652.14	947.25
652.49	939.66
652.83	932.36
653.17	924.60
653.51	916.80
653.85	909.49
654.20	902.21
654.54	894.64
654.88	887.17
655.22	879.97
655.56	872.89
655.90	866.07
656.25	859.21
656.59	852.21
656.93	845.14
657.27	837.84
657.61	830.85
657.95	824.61
658.29	818.63
658.64	812.46
658.98	805.99
659.32	799.42
659.66	793.06
660.00	786.63
660.34	780.49
660.68	774.32
661.02	767.87
661.36	761.93
661.70	756.05
662.05	750.46
662.39	744.85
662.73	739.41
663.07	733.91
663.41	728.29
663.75	722.46
664.09	716.70
664.43	711.25
664.77	705.81
665.11	699.91
665.45	693.93
665.79	688.14
666.13	682.32
666.47	676.80
666.81	671.31
667.15	665.89
667.49	660.64
667.83	655.37
668.17	650.13
668.51	644.93
668.85	640.00
669.19	635.07
669.53	630.00
669.87	624.83
670.21	620.08
670.55	615.36
670.89	610.89
671.23	606.55
671.57	602.10
671.91	597.72
672.25	593.53
672.58	589.35
672.92	585.20
673.26	581.25
673.60	577.30
673.94	573.47
674.28	569.86
674.62	566.08
674.96	562.26
675.30	558.65
675.64	554.90
675.97	551.26
676.31	547.56
676.65	543.93
676.99	540.48
677.33	536.56
677.67	532.86
678.01	528.93
678.34	525.24
678.68	521.70
679.02	518.09
679.36	514.33
679.70	510.64
680.04	507.05
680.37	503.59
680.71	500.21
681.05	496.90
681.39	493.51
681.73	490.30
682.06	487.24
682.40	484.16
682.74	480.90
683.08	477.65
683.42	474.37
683.75	471.31
684.09	468.24
684.43	465.38
684.77	462.34
685.10	459.52
685.44	456.60
685.78	453.62
686.12	450.78
686.45	448.05
686.79	445.33
687.13	442.78
687.46	440.14
687.80	437.44
688.14	434.55
688.48	431.93
688.81	429.23
689.15	426.59
689.49	423.93
689.82	421.40
690.16	418.79
690.50	416.30
690.83	413.74
691.17	411.10
691.51	408.60
691.84	406.34
692.18	404.07
692.52	401.80
692.85	399.63
693.19	397.53
693.52	395.31
693.86	393.04
694.20	390.78
694.53	388.58
694.87	386.34
695.21	384.21
695.54	381.98
695.88	379.78
696.21	377.55
696.55	375.37
696.88	373.25
697.22	371.21
697.56	369.32
697.89	367.40
698.23	365.65
698.56	363.85
698.90	362.08
699.23	360.17
699.57	358.28
699.90	356.38
700.24	354.41
700.58	352.65
700.91	350.96
701.25	349.41
701.58	347.80
701.92	346.19
702.25	344.59
702.59	342.94
702.92	341.35
703.26	339.73
703.59	338.25
703.93	336.97
704.26	335.54
704.60	333.95
704.93	332.51
705.26	330.95
705.60	329.44
705.93	327.83
706.27	326.44
706.60	325.14
706.94	323.89
707.27	322.50
707.61	321.16
707.94	319.81
708.27	318.23
708.61	316.73
708.94	315.35
709.28	314.02
709.61	312.78
709.94	311.61
710.28	310.43
710.61	309.22
710.95	307.78
711.28	306.67
711.61	305.50
711.95	304.32
712.28	303.11
712.61	301.96
712.95	300.92
713.28	299.88
713.61	298.74
713.95	297.60
714.28	296.61
714.61	295.52
714.95	294.47
715.28	293.44
715.61	292.43
715.95	291.44
716.28	290.46
716.61	289.46
716.95	288.42
717.28	287.44
717.61	286.49
717.94	285.59
718.28	284.53
718.61	283.65
718.94	282.74
719.27	281.91
719.61	281.05
719.94	280.15
720.27	279.16
720.60	278.28
720.94	277.47
721.27	276.68
721.60	276.00
721.93	275.29
722.27	274.65
722.60	274.00
722.93	273.27
723.26	272.60
723.59	271.91
723.93	271.27
724.26	270.65
724.59	269.99
724.92	269.38
725.25	268.86
725.59	268.27
725.92	267.72
726.25	267.11
726.58	266.53
726.91	265.97
727.24	265.43
727.57	264.85
727.91	264.20
728.24	263.60
728.57	262.99
728.90	262.40
729.23	261.76
729.56	261.30
729.89	260.79
730.22	260.24
730.55	259.67
730.89	259.11
731.22	258.53
731.55	257.97
731.88	257.43
732.21	256.85
732.54	256.28
732.87	255.74
733.20	255.27
733.53	254.75
733.86	254.26
734.19	253.74
734.52	253.35
734.85	253.05
735.18	252.57
735.51	252.22
735.84	251.79
736.17	251.38
736.50	250.83
736.83	250.66
737.16	250.24
737.49	249.83
737.82	249.40
738.15	249.04
738.48	248.68
738.81	248.30
739.14	247.87
739.47	247.51
739.80	247.16
740.13	246.86
740.46	246.47
740.79	246.06
741.12	245.73
741.45	245.31
741.78	244.89
742.11	244.63
742.44	244.21
742.77	243.89
743.10	243.53
743.43	243.17
743.75	242.56
744.08	242.50
744.41	242.15
744.74	241.83
745.07	241.43
745.40	241.12
745.73	240.83
746.06	240.52
746.39	240.20
746.71	239.85
747.04	239.43
747.37	239.11
747.70	238.87
748.03	238.57
748.36	238.31
748.68	237.98
749.01	237.65
749.34	237.37
749.67	237.08
750.00	236.84
750.33	236.72
750.65	236.47
750.98	235.94
751.31	235.75
751.64	235.53
751.97	235.41
752.29	235.12
752.62	234.81
752.95	234.57
753.28	234.34
753.60	234.08
753.93	233.94
754.26	233.74
754.59	233.43
754.91	233.16
755.24	232.91
755.57	232.69
755.90	232.45
756.22	232.20
756.55	231.95
756.88	231.69
757.20	231.31
757.53	231.06
757.86	230.85
758.19	230.61
758.51	230.40
758.84	230.08
759.17	229.91
759.49	229.72
759.82	229.65
760.15	229.47
760.47	229.31
760.80	229.02
761.13	228.85
761.45	228.67
761.78	228.49
762.11	228.29
762.43	228.08
762.76	227.87
763.08	227.73
763.41	227.60
763.74	227.44
764.06	227.29
764.39	227.15
764.71	226.98
765.04	226.83
765.37	226.64
765.69	226.54
766.02	226.38
766.34	226.23
766.67	225.99
767.00	225.85
767.32	225.82
767.65	225.82
767.97	225.67
768.30	225.57
768.62	225.44
768.95	225.31
769.27	225.19
769.60	225.11
769.92	224.94
770.25	224.75
770.57	224.62
770.90	224.50
771.22	224.36
771.55	224.28
771.87	224.19
772.20	224.06
772.52	224.11
772.85	224.22
773.17	224.13
773.50	224.04
773.82	223.93
774.15	223.72
774.47	223.49
774.80	223.37
775.12	223.26
775.45	223.16
775.77	223.10
776.09	223.02
776.42	222.92
776.74	222.90
777.07	222.81
777.39	222.72
777.72	222.64
778.04	222.58
778.36	222.47
778.69	222.36
779.01	222.31
779.33	222.04
779.66	221.72
779.98	221.61
780.31	221.51
780.63	221.52
780.95	221.47
781.28	221.43
781.60	221.34
781.92	221.28
782.25	221.23
782.57	221.17
782.89	221.08
783.22	221.03
783.54	220.89
783.86	220.87
784.19	220.78
784.51	220.76
784.83	220.65
785.16	220.56
785.48	220.52
785.80	220.44
786.12	220.39
