SpectraSuite Data File
++++++++++++++++++++++++++++++++++++
Date: Tue Jan 29 16:00:32 EST 2013
User: group
Dark Spectrum Present: No
Reference Spectrum Present: No
Number of Sampled Component Spectra: 1
Spectrometers: USB2E7196
Integration Time (usec): 65000 (USB2E7196)
Spectra Averaged: 100 (USB2E7196)
Boxcar Smoothing: 10 (USB2E7196)
Correct for Electrical Dark: No (USB2E7196)
Strobe/Lamp Enabled: No (USB2E7196)
Correct for Detector Non-linearity: No (USB2E7196)
Correct for Stray Light: No (USB2E7196)
Number of Pixels in Processed Spectrum: 2048
>>>>>Begin Processed Spectral Data<<<<<
339.09	0.00
339.48	202.78
339.86	204.30
340.24	205.82
340.63	207.55
341.01	211.66
341.39	210.05
341.78	211.48
342.16	212.60
342.54	212.90
342.93	202.13
343.31	212.34
343.69	212.90
344.07	213.37
344.46	213.83
344.84	214.21
345.22	214.38
345.60	214.65
345.99	214.88
346.37	215.04
346.75	215.17
347.13	215.28
347.52	215.40
347.90	215.56
348.28	215.62
348.66	215.67
349.05	215.66
349.43	215.72
349.81	215.77
350.19	215.80
350.57	215.88
350.96	215.98
351.34	216.09
351.72	216.18
352.10	216.29
352.48	216.33
352.87	216.37
353.25	216.44
353.63	216.48
354.01	216.51
354.39	216.59
354.77	216.64
355.15	216.74
355.54	216.77
355.92	216.76
356.30	216.81
356.68	216.98
357.06	217.03
357.44	217.07
357.82	217.12
358.20	217.19
358.58	217.23
358.97	217.28
359.35	217.34
359.73	217.43
360.11	217.48
360.49	217.56
360.87	217.63
361.25	217.71
361.63	217.81
362.01	217.84
362.39	217.83
362.77	217.91
363.15	217.93
363.53	217.92
363.91	217.92
364.29	217.93
364.67	217.75
365.05	217.76
365.43	217.80
365.81	217.82
366.19	217.88
366.57	217.95
366.95	217.92
367.33	217.88
367.71	217.86
368.09	217.88
368.47	217.85
368.85	217.81
369.23	217.79
369.61	217.71
369.99	217.75
370.37	217.76
370.75	217.78
371.13	217.72
371.51	217.68
371.89	217.68
372.27	217.70
372.65	217.68
373.03	217.66
373.41	217.59
373.78	217.59
374.16	217.51
374.54	217.43
374.92	217.39
375.30	217.35
375.68	217.29
376.06	217.26
376.44	217.23
376.82	217.22
377.19	217.18
377.57	217.14
377.95	217.07
378.33	216.99
378.71	216.86
379.09	216.86
379.47	216.85
379.84	216.81
380.22	216.76
380.60	216.70
380.98	216.63
381.36	216.60
381.73	216.49
382.11	216.50
382.49	216.46
382.87	216.41
383.25	216.38
383.62	216.55
384.00	216.46
384.38	216.41
384.76	216.43
385.13	216.50
385.51	216.45
385.89	216.38
386.27	216.36
386.64	216.36
387.02	216.29
387.40	216.24
387.78	216.19
388.15	216.20
388.53	216.20
388.91	216.21
389.29	216.18
389.66	216.19
390.04	216.15
390.42	216.17
390.79	216.17
391.17	216.17
391.55	215.97
391.92	215.97
392.30	215.98
392.68	215.91
393.05	215.86
393.43	215.88
393.81	215.92
394.18	215.93
394.56	215.94
394.94	216.00
395.31	216.01
395.69	216.09
396.06	216.10
396.44	216.12
396.82	216.10
397.19	216.24
397.57	216.27
397.95	216.30
398.32	216.24
398.70	216.29
399.07	216.39
399.45	216.42
399.82	216.47
400.20	216.51
400.58	216.55
400.95	216.51
401.33	216.63
401.70	216.83
402.08	216.91
402.45	217.00
402.83	217.12
403.20	217.23
403.58	217.33
403.95	217.47
404.33	217.65
404.71	217.81
405.08	218.05
405.46	218.18
405.83	218.36
406.21	218.59
406.58	218.80
406.96	218.97
407.33	219.23
407.70	219.50
408.08	219.96
408.45	220.34
408.83	220.77
409.20	221.08
409.58	221.34
409.95	221.77
410.33	222.22
410.70	222.64
411.08	223.21
411.45	223.74
411.82	224.29
412.20	224.93
412.57	225.70
412.95	226.23
413.32	227.04
413.69	227.86
414.07	228.72
414.44	229.67
414.82	230.69
415.19	231.82
415.56	232.97
415.94	234.08
416.31	235.41
416.68	236.74
417.06	238.27
417.43	239.73
417.81	241.44
418.18	243.19
418.55	245.03
418.93	246.93
419.30	248.92
419.67	251.07
420.04	253.26
420.42	255.56
420.79	258.30
421.16	260.99
421.54	263.79
421.91	266.67
422.28	269.63
422.66	272.80
423.03	275.92
423.40	279.13
423.77	282.59
424.15	286.13
424.52	289.86
424.89	293.87
425.26	297.81
425.64	301.51
426.01	305.59
426.38	309.92
426.75	314.31
427.13	318.93
427.50	323.68
427.87	328.68
428.24	333.69
428.61	338.50
428.99	343.87
429.36	349.63
429.73	355.29
430.10	360.98
430.47	366.79
430.85	372.88
431.22	379.30
431.59	386.15
431.96	392.75
432.33	399.94
432.70	406.94
433.08	415.21
433.45	422.98
433.82	430.69
434.19	439.29
434.56	447.74
434.93	455.72
435.30	463.74
435.68	472.54
436.05	481.17
436.42	489.74
436.79	497.56
437.16	506.00
437.53	514.96
437.90	523.75
438.27	532.36
438.64	541.29
439.01	549.54
439.38	556.86
439.75	563.90
440.13	571.98
440.50	579.61
440.87	585.79
441.24	592.15
441.61	599.20
441.98	604.30
442.35	610.30
442.72	616.39
443.09	622.20
443.46	625.74
443.83	628.13
444.20	630.24
444.57	633.21
444.94	634.57
445.31	635.94
445.68	637.27
446.05	637.87
446.42	637.00
446.79	636.07
447.16	635.05
447.53	634.28
447.90	631.05
448.27	627.92
448.64	623.37
449.01	620.20
449.37	614.50
449.74	609.03
450.11	602.38
450.48	595.27
450.85	588.08
451.22	581.83
451.59	576.00
451.96	570.35
452.33	562.85
452.70	556.03
453.07	547.90
453.43	539.63
453.80	531.72
454.17	524.12
454.54	516.87
454.91	508.91
455.28	501.28
455.65	494.20
456.02	487.05
456.38	480.98
456.75	473.45
457.12	467.15
457.49	461.00
457.86	455.12
458.23	450.01
458.59	444.34
458.96	438.61
459.33	433.54
459.70	428.45
460.07	424.31
460.43	419.65
460.80	415.17
461.17	411.39
461.54	407.31
461.91	403.44
462.27	399.54
462.64	396.32
463.01	392.62
463.38	389.04
463.74	385.43
464.11	382.27
464.48	379.55
464.85	376.60
465.21	374.21
465.58	371.63
465.95	368.55
466.32	366.02
466.68	363.51
467.05	360.98
467.42	358.49
467.78	355.97
468.15	353.52
468.52	351.79
468.88	349.38
469.25	347.28
469.62	345.57
469.98	343.70
470.35	341.99
470.72	340.45
471.08	338.74
471.45	337.31
471.82	335.90
472.18	334.34
472.55	333.22
472.92	331.91
473.28	330.75
473.65	329.70
474.02	328.67
474.38	327.84
474.75	327.14
475.11	326.38
475.48	325.82
475.85	325.38
476.21	324.91
476.58	324.59
476.94	324.39
477.31	324.11
477.67	323.87
478.04	323.72
478.41	323.66
478.77	323.87
479.14	323.89
479.50	324.07
479.87	324.34
480.23	324.69
480.60	324.97
480.96	325.31
481.33	325.95
481.69	326.54
482.06	327.13
482.42	327.63
482.79	328.27
483.15	329.08
483.52	330.05
483.88	331.00
484.25	331.98
484.61	332.97
484.98	334.01
485.34	335.32
485.71	336.66
486.07	338.11
486.44	339.39
486.80	340.98
487.17	342.63
487.53	344.45
487.90	346.30
488.26	348.31
488.62	350.42
488.99	352.47
489.35	354.59
489.72	356.95
490.08	359.46
490.44	362.00
490.81	364.64
491.17	367.32
491.54	370.28
491.90	373.25
492.26	376.48
492.63	379.93
492.99	383.40
493.36	387.09
493.72	390.96
494.08	394.96
494.45	399.16
494.81	403.55
495.17	408.00
495.54	412.73
495.90	417.57
496.26	422.51
496.63	427.71
496.99	433.14
497.35	438.73
497.72	444.50
498.08	450.37
498.44	456.47
498.80	462.87
499.17	469.32
499.53	476.01
499.89	482.88
500.26	489.84
500.62	496.88
500.98	504.28
501.34	511.74
501.71	519.50
502.07	527.22
502.43	535.26
502.79	543.34
503.16	551.65
503.52	560.12
503.88	568.85
504.24	577.80
504.60	586.84
504.97	596.01
505.33	605.29
505.69	615.22
506.05	625.10
506.41	634.92
506.78	644.89
507.14	655.18
507.50	665.62
507.86	676.27
508.22	687.06
508.59	697.65
508.95	708.72
509.31	719.97
509.67	731.48
510.03	742.82
510.39	754.57
510.75	766.38
511.12	778.34
511.48	790.38
511.84	802.54
512.20	814.81
512.56	827.44
512.92	840.15
513.28	852.65
513.64	865.24
514.00	877.89
514.37	890.82
514.73	903.83
515.09	916.62
515.45	929.36
515.81	942.27
516.17	955.49
516.53	968.44
516.89	981.35
517.25	994.32
517.61	1007.62
517.97	1020.75
518.33	1033.77
518.69	1047.16
519.05	1060.58
519.41	1074.07
519.77	1087.71
520.13	1100.69
520.49	1113.67
520.85	1126.82
521.21	1140.01
521.57	1153.62
521.93	1166.41
522.29	1179.85
522.65	1193.41
523.01	1206.82
523.37	1219.83
523.73	1232.86
524.09	1245.87
524.45	1259.08
524.81	1272.36
525.17	1285.50
525.53	1298.46
525.89	1311.46
526.25	1324.14
526.61	1336.84
526.97	1349.61
527.33	1362.39
527.68	1375.57
528.04	1388.77
528.40	1401.67
528.76	1414.76
529.12	1427.18
529.48	1440.38
529.84	1452.44
530.20	1464.88
530.56	1477.33
530.91	1490.26
531.27	1502.84
531.63	1515.35
531.99	1527.69
532.35	1539.58
532.71	1551.61
533.07	1564.06
533.42	1575.98
533.78	1587.82
534.14	1599.61
534.50	1610.56
534.86	1621.74
535.21	1632.41
535.57	1643.57
535.93	1654.58
536.29	1665.39
536.65	1676.59
537.00	1687.14
537.36	1698.10
537.72	1708.83
538.08	1719.69
538.44	1730.35
538.79	1741.13
539.15	1751.59
539.51	1761.94
539.87	1772.92
540.22	1783.46
540.58	1794.19
540.94	1804.84
541.29	1814.85
541.65	1824.19
542.01	1834.42
542.37	1844.25
542.72	1854.09
543.08	1863.63
543.44	1873.69
543.79	1882.65
544.15	1891.82
544.51	1901.51
544.87	1911.07
545.22	1919.84
545.58	1928.50
545.94	1936.96
546.29	1945.23
546.65	1953.41
547.01	1961.58
547.36	1969.13
547.72	1976.62
548.07	1984.09
548.43	1991.57
548.79	1999.11
549.14	2007.03
549.50	2015.07
549.86	2022.48
550.21	2029.62
550.57	2037.06
550.92	2043.60
551.28	2051.00
551.64	2058.26
551.99	2065.51
552.35	2072.66
552.70	2079.30
553.06	2085.77
553.41	2091.88
553.77	2098.25
554.13	2104.46
554.48	2111.29
554.84	2118.05
555.19	2124.30
555.55	2130.56
555.90	2136.65
556.26	2143.20
556.61	2148.95
556.97	2153.76
557.32	2159.62
557.68	2165.98
558.03	2171.48
558.39	2176.67
558.74	2182.43
559.10	2187.79
559.45	2193.39
559.81	2198.66
560.16	2204.36
560.52	2210.19
560.87	2216.57
561.23	2222.59
561.58	2229.22
561.94	2234.30
562.29	2239.21
562.64	2245.47
563.00	2250.87
563.35	2256.62
563.71	2262.57
564.06	2268.32
564.42	2274.26
564.77	2279.41
565.12	2284.55
565.48	2289.86
565.83	2295.50
566.19	2301.13
566.54	2306.62
566.89	2311.20
567.25	2315.90
567.60	2321.48
567.96	2326.83
568.31	2331.50
568.66	2335.68
569.02	2339.56
569.37	2343.40
569.72	2347.91
570.08	2351.46
570.43	2354.72
570.78	2357.74
571.14	2360.57
571.49	2363.81
571.84	2367.41
572.20	2370.41
572.55	2373.65
572.90	2376.06
573.26	2379.24
573.61	2381.64
573.96	2383.83
574.31	2386.10
574.67	2388.12
575.02	2389.14
575.37	2390.51
575.72	2391.58
576.08	2393.21
576.43	2393.67
576.78	2394.66
577.13	2396.55
577.49	2397.77
577.84	2399.42
578.19	2401.13
578.54	2402.02
578.90	2403.27
579.25	2403.51
579.60	2403.73
579.95	2403.28
580.30	2403.80
580.66	2403.08
581.01	2401.74
581.36	2399.83
581.71	2398.59
582.06	2397.91
582.42	2397.32
582.77	2395.39
583.12	2394.01
583.47	2392.98
583.82	2392.65
584.17	2391.53
584.53	2389.42
584.88	2387.66
585.23	2385.70
585.58	2383.61
585.93	2381.51
586.28	2379.47
586.63	2377.18
586.98	2375.23
587.34	2373.62
587.69	2371.34
588.04	2369.68
588.39	2368.40
588.74	2366.20
589.09	2363.82
589.44	2360.82
589.79	2358.70
590.14	2357.19
590.49	2354.45
590.84	2350.84
591.19	2347.87
591.54	2344.76
591.89	2341.00
592.25	2337.98
592.60	2334.00
592.95	2330.03
593.30	2326.03
593.65	2321.70
594.00	2317.64
594.35	2314.81
594.70	2310.13
595.05	2305.63
595.40	2300.29
595.75	2294.93
596.10	2291.21
596.45	2286.40
596.80	2282.01
597.15	2276.70
597.50	2270.86
597.85	2266.01
598.19	2260.79
598.54	2255.19
598.89	2250.28
599.24	2245.86
599.59	2239.85
599.94	2234.31
600.29	2228.51
600.64	2222.88
600.99	2216.44
601.34	2211.06
601.69	2204.01
602.04	2197.74
602.39	2191.40
602.74	2185.47
603.08	2179.96
603.43	2173.53
603.78	2166.82
604.13	2159.77
604.48	2152.78
604.83	2146.94
605.18	2140.78
605.53	2134.00
605.87	2127.06
606.22	2120.22
606.57	2112.32
606.92	2104.62
607.27	2097.61
607.62	2090.98
607.96	2083.87
608.31	2077.32
608.66	2069.57
609.01	2062.11
609.36	2055.19
609.70	2047.49
610.05	2039.71
610.40	2031.55
610.75	2023.48
611.10	2016.03
611.44	2007.34
611.79	1998.58
612.14	1988.44
612.49	1977.96
612.83	1968.92
613.18	1959.84
613.53	1950.50
613.88	1941.11
614.22	1932.58
614.57	1922.68
614.92	1912.28
615.27	1902.34
615.61	1892.35
615.96	1882.65
616.31	1873.19
616.65	1863.65
617.00	1853.74
617.35	1844.21
617.70	1834.31
618.04	1824.13
618.39	1813.64
618.74	1803.90
619.08	1794.33
619.43	1785.58
619.78	1777.41
620.12	1768.49
620.47	1758.58
620.82	1748.29
621.16	1738.43
621.51	1728.32
621.85	1718.53
622.20	1707.92
622.55	1697.16
622.89	1687.38
623.24	1677.67
623.59	1667.69
623.93	1657.59
624.28	1647.95
624.62	1637.63
624.97	1627.37
625.32	1617.76
625.66	1609.01
626.01	1600.05
626.35	1590.61
626.70	1580.54
627.04	1570.33
627.39	1560.38
627.73	1551.19
628.08	1542.17
628.43	1532.44
628.77	1523.22
629.12	1514.30
629.46	1506.54
629.81	1498.19
630.15	1488.45
630.50	1478.57
630.84	1468.20
631.19	1458.27
631.53	1448.69
631.88	1438.64
632.22	1428.63
632.57	1419.14
632.91	1408.91
633.26	1399.17
633.60	1389.64
633.95	1380.35
634.29	1370.86
634.64	1361.36
634.98	1351.35
635.32	1342.04
635.67	1333.65
636.01	1324.32
636.36	1314.51
636.70	1304.90
637.05	1295.54
637.39	1286.52
637.73	1277.89
638.08	1270.27
638.42	1261.96
638.77	1253.23
639.11	1244.88
639.45	1237.02
639.80	1228.40
640.14	1219.75
640.49	1210.83
640.83	1202.02
641.17	1193.81
641.52	1185.58
641.86	1177.02
642.20	1169.29
642.55	1160.69
642.89	1151.74
643.23	1143.02
643.58	1134.91
643.92	1125.79
644.26	1117.11
644.61	1108.69
644.95	1099.96
645.29	1090.64
645.64	1081.43
645.98	1073.13
646.32	1065.21
646.66	1056.64
647.01	1048.21
647.35	1039.98
647.69	1031.57
648.04	1023.12
648.38	1014.20
648.72	1005.45
649.06	996.99
649.41	988.75
649.75	980.79
650.09	972.94
650.43	964.86
650.78	956.70
651.12	949.19
651.46	941.77
651.80	934.52
652.14	927.15
652.49	919.68
652.83	912.46
653.17	904.64
653.51	897.02
653.85	889.80
654.20	882.61
654.54	875.02
654.88	867.98
655.22	860.88
655.56	853.95
655.90	847.19
656.25	840.50
656.59	833.42
656.93	826.43
657.27	819.29
657.61	812.49
657.95	806.47
658.29	800.58
658.64	794.43
658.98	788.06
659.32	781.57
659.66	775.38
660.00	769.08
660.34	763.15
660.68	757.06
661.02	750.87
661.36	745.00
661.70	739.40
662.05	733.70
662.39	728.22
662.73	722.83
663.07	717.48
663.41	711.98
663.75	706.52
664.09	700.87
664.43	695.55
664.77	690.28
665.11	684.40
665.45	678.58
665.79	672.88
666.13	667.17
666.47	661.76
666.81	656.41
667.15	651.12
667.49	645.97
667.83	640.79
668.17	635.55
668.51	630.48
668.85	625.61
669.19	620.78
669.53	615.88
669.87	610.93
670.21	606.22
670.55	601.55
670.89	597.20
671.23	593.03
671.57	588.64
671.91	584.35
672.25	580.30
672.58	576.15
672.92	572.12
673.26	568.27
673.60	564.46
673.94	560.66
674.28	557.02
674.62	553.22
674.96	549.55
675.30	546.13
675.64	542.56
675.97	538.99
676.31	535.44
676.65	531.87
676.99	528.47
677.33	524.66
677.67	520.99
678.01	517.10
678.34	513.46
678.68	510.08
679.02	506.47
679.36	502.78
679.70	499.22
680.04	495.76
680.37	492.35
680.71	489.08
681.05	486.00
681.39	482.89
681.73	479.88
682.06	476.86
682.40	473.77
682.74	470.58
683.08	467.43
683.42	464.31
683.75	461.35
684.09	458.40
684.43	455.63
684.77	452.82
685.10	450.08
685.44	447.22
685.78	444.27
686.12	441.69
686.45	439.02
686.79	436.37
687.13	433.85
687.46	431.24
687.80	428.60
688.14	425.79
688.48	423.22
688.81	420.50
689.15	418.02
689.49	415.44
689.82	413.04
690.16	410.54
690.50	408.10
690.83	405.64
691.17	403.15
691.51	400.76
691.84	398.53
692.18	396.32
692.52	394.19
692.85	392.16
693.19	390.03
693.52	387.88
693.86	385.77
694.20	383.67
694.53	381.62
694.87	379.49
695.21	377.44
695.54	375.29
695.88	373.29
696.21	371.12
696.55	369.09
696.88	366.99
697.22	365.04
697.56	363.22
697.89	361.38
698.23	359.67
698.56	357.94
698.90	356.24
699.23	354.36
699.57	352.47
699.90	350.68
700.24	348.89
700.58	347.17
700.91	345.52
701.25	344.00
701.58	342.44
701.92	340.87
702.25	339.27
702.59	337.71
702.92	336.10
703.26	334.61
703.59	333.19
703.93	331.96
704.26	330.55
704.60	329.09
704.93	327.63
705.26	326.12
705.60	324.69
705.93	323.24
706.27	322.03
706.60	320.80
706.94	319.56
707.27	318.17
707.61	316.93
707.94	315.68
708.27	314.19
708.61	312.75
708.94	311.42
709.28	310.22
709.61	309.01
709.94	307.91
710.28	306.74
710.61	305.53
710.95	304.16
711.28	303.12
711.61	301.96
711.95	300.88
712.28	299.73
712.61	298.58
712.95	297.54
713.28	296.49
713.61	295.38
713.95	294.23
714.28	293.27
714.61	292.21
714.95	291.21
715.28	290.22
715.61	289.27
715.95	288.36
716.28	287.37
716.61	286.43
716.95	285.46
717.28	284.49
717.61	283.57
717.94	282.75
718.28	281.75
718.61	280.91
718.94	280.05
719.27	279.25
719.61	278.43
719.94	277.59
720.27	276.67
720.60	275.86
720.94	275.07
721.27	274.33
721.60	273.69
721.93	272.95
722.27	272.32
722.60	271.64
722.93	270.94
723.26	270.31
723.59	269.61
723.93	268.99
724.26	268.41
724.59	267.81
724.92	267.21
725.25	266.69
725.59	266.15
725.92	265.63
726.25	265.07
726.58	264.53
726.91	263.95
727.24	263.43
727.57	262.90
727.91	262.35
728.24	261.79
728.57	261.22
728.90	260.71
729.23	260.13
729.56	259.71
729.89	259.20
730.22	258.65
730.55	258.18
730.89	257.66
731.22	257.14
731.55	256.63
731.88	256.10
732.21	255.57
732.54	255.00
732.87	254.51
733.20	254.05
733.53	253.56
733.86	253.13
734.19	252.61
734.52	252.20
734.85	251.92
735.18	251.47
735.51	251.09
735.84	250.66
736.17	250.30
736.50	249.81
736.83	249.64
737.16	249.28
737.49	248.88
737.82	248.52
738.15	248.19
738.48	247.84
738.81	247.48
739.14	247.08
739.47	246.73
739.80	246.36
740.13	245.99
740.46	245.60
740.79	245.19
741.12	244.90
741.45	244.55
741.78	244.11
742.11	243.82
742.44	243.45
742.77	243.16
743.10	242.84
743.43	242.49
743.75	241.94
744.08	241.88
744.41	241.52
744.74	241.12
745.07	240.73
745.40	240.46
745.73	240.21
746.06	239.92
746.39	239.61
746.71	239.29
747.04	238.98
747.37	238.70
747.70	238.49
748.03	238.18
748.36	237.93
748.68	237.63
749.01	237.31
749.34	237.05
749.67	236.74
750.00	236.50
750.33	236.38
750.65	236.14
750.98	235.62
751.31	235.44
751.64	235.27
751.97	235.16
752.29	234.90
752.62	234.56
752.95	234.29
753.28	234.04
753.60	233.80
753.93	233.65
754.26	233.45
754.59	233.18
754.91	232.96
755.24	232.74
755.57	232.52
755.90	232.34
756.22	232.12
756.55	231.85
756.88	231.59
757.20	231.26
757.53	231.01
757.86	230.81
758.19	230.65
758.51	230.44
758.84	230.14
759.17	229.95
759.49	229.84
759.82	229.79
760.15	229.66
760.47	229.47
760.80	229.19
761.13	229.04
761.45	228.85
761.78	228.66
762.11	228.47
762.43	228.33
762.76	228.13
763.08	227.98
763.41	227.90
763.74	227.78
764.06	227.64
764.39	227.50
764.71	227.36
765.04	227.15
765.37	227.03
765.69	226.89
766.02	226.73
766.34	226.53
766.67	226.29
767.00	226.18
767.32	226.18
767.65	226.23
767.97	226.07
768.30	225.97
768.62	225.87
768.95	225.73
769.27	225.58
769.60	225.49
769.92	225.32
770.25	225.15
770.57	224.96
770.90	224.86
771.22	224.74
771.55	224.63
771.87	224.56
772.20	224.39
772.52	224.47
772.85	224.61
773.17	224.50
773.50	224.40
773.82	224.26
774.15	224.05
774.47	223.78
774.80	223.65
775.12	223.48
775.45	223.38
775.77	223.28
776.09	223.24
776.42	223.15
776.74	223.14
777.07	223.05
777.39	222.96
777.72	222.85
778.04	222.79
778.36	222.72
778.69	222.62
779.01	222.55
779.33	222.29
779.66	221.95
779.98	221.87
780.31	221.80
780.63	221.84
780.95	221.83
781.28	221.80
781.60	221.71
781.92	221.69
782.25	221.66
782.57	221.58
782.89	221.46
783.22	221.37
783.54	221.26
783.86	221.23
784.19	221.17
784.51	221.16
784.83	221.05
785.16	220.97
785.48	220.89
785.80	220.86
786.12	220.82
