SpectraSuite Data File
++++++++++++++++++++++++++++++++++++
Date: Tue Jan 29 16:35:42 EST 2013
User: group
Dark Spectrum Present: No
Reference Spectrum Present: No
Number of Sampled Component Spectra: 1
Spectrometers: USB2E7196
Integration Time (usec): 65000 (USB2E7196)
Spectra Averaged: 100 (USB2E7196)
Boxcar Smoothing: 10 (USB2E7196)
Correct for Electrical Dark: No (USB2E7196)
Strobe/Lamp Enabled: No (USB2E7196)
Correct for Detector Non-linearity: No (USB2E7196)
Correct for Stray Light: No (USB2E7196)
Number of Pixels in Processed Spectrum: 2048
>>>>>Begin Processed Spectral Data<<<<<
339.09	0.00
339.48	202.63
339.86	203.53
340.24	205.27
340.63	206.10
341.01	211.07
341.39	208.96
341.78	210.39
342.16	211.83
342.54	212.10
342.93	201.20
343.31	211.36
343.69	211.87
344.07	212.34
344.46	212.77
344.84	213.18
345.22	213.34
345.60	213.59
345.99	213.79
346.37	213.91
346.75	214.01
347.13	214.11
347.52	214.18
347.90	214.31
348.28	214.36
348.66	214.43
349.05	214.44
349.43	214.48
349.81	214.54
350.19	214.57
350.57	214.64
350.96	214.75
351.34	214.86
351.72	214.94
352.10	215.02
352.48	215.07
352.87	215.11
353.25	215.17
353.63	215.22
354.01	215.27
354.39	215.34
354.77	215.44
355.15	215.53
355.54	215.59
355.92	215.58
356.30	215.64
356.68	215.85
357.06	215.87
357.44	215.90
357.82	215.99
358.20	216.12
358.58	216.14
358.97	216.19
359.35	216.28
359.73	216.39
360.11	216.47
360.49	216.53
360.87	216.55
361.25	216.62
361.63	216.74
362.01	216.78
362.39	216.80
362.77	216.84
363.15	216.89
363.53	216.90
363.91	216.95
364.29	216.96
364.67	216.76
365.05	216.81
365.43	216.86
365.81	216.86
366.19	216.91
366.57	217.00
366.95	217.00
367.33	216.96
367.71	216.96
368.09	216.96
368.47	216.95
368.85	216.95
369.23	216.99
369.61	216.91
369.99	216.96
370.37	216.99
370.75	217.05
371.13	216.94
371.51	216.89
371.89	216.87
372.27	216.87
372.65	216.89
373.03	216.83
373.41	216.76
373.78	216.69
374.16	216.55
374.54	216.50
374.92	216.52
375.30	216.45
375.68	216.36
376.06	216.38
376.44	216.34
376.82	216.33
377.19	216.27
377.57	216.22
377.95	216.14
378.33	216.07
378.71	215.91
379.09	215.92
379.47	215.92
379.84	215.86
380.22	215.79
380.60	215.70
380.98	215.67
381.36	215.65
381.73	215.61
382.11	215.63
382.49	215.61
382.87	215.50
383.25	215.49
383.62	215.69
384.00	215.58
384.38	215.51
384.76	215.52
385.13	215.54
385.51	215.50
385.89	215.40
386.27	215.40
386.64	215.44
387.02	215.39
387.40	215.33
387.78	215.32
388.15	215.32
388.53	215.31
388.91	215.31
389.29	215.24
389.66	215.26
390.04	215.19
390.42	215.18
390.79	215.16
391.17	215.14
391.55	214.90
391.92	214.89
392.30	214.95
392.68	214.88
393.05	214.87
393.43	214.91
393.81	214.94
394.18	214.91
394.56	214.88
394.94	214.95
395.31	214.95
395.69	215.04
396.06	215.10
396.44	215.09
396.82	215.12
397.19	215.28
397.57	215.26
397.95	215.34
398.32	215.33
398.70	215.42
399.07	215.49
399.45	215.55
399.82	215.59
400.20	215.62
400.58	215.67
400.95	215.62
401.33	215.71
401.70	215.96
402.08	216.03
402.45	216.13
402.83	216.26
403.20	216.41
403.58	216.48
403.95	216.62
404.33	216.82
404.71	216.97
405.08	217.21
405.46	217.42
405.83	217.62
406.21	217.83
406.58	218.09
406.96	218.31
407.33	218.57
407.70	218.88
408.08	219.35
408.45	219.73
408.83	220.17
409.20	220.50
409.58	220.73
409.95	221.22
410.33	221.71
410.70	222.11
411.08	222.66
411.45	223.20
411.82	223.77
412.20	224.45
412.57	225.27
412.95	225.86
413.32	226.68
413.69	227.51
414.07	228.42
414.44	229.37
414.82	230.38
415.19	231.57
415.56	232.73
415.94	233.93
416.31	235.33
416.68	236.71
417.06	238.31
417.43	239.88
417.81	241.63
418.18	243.42
418.55	245.36
418.93	247.38
419.30	249.53
419.67	251.76
420.04	254.02
420.42	256.40
420.79	259.22
421.16	262.02
421.54	264.93
421.91	267.89
422.28	271.00
422.66	274.34
423.03	277.60
423.40	280.97
423.77	284.55
424.15	288.21
424.52	292.07
424.89	296.26
425.26	300.39
425.64	304.28
426.01	308.57
426.38	313.05
426.75	317.61
427.13	322.34
427.50	327.37
427.87	332.62
428.24	337.85
428.61	342.86
428.99	348.42
429.36	354.46
429.73	360.34
430.10	366.23
430.47	372.29
430.85	378.62
431.22	385.38
431.59	392.53
431.96	399.43
432.33	406.93
432.70	414.17
433.08	422.67
433.45	430.75
433.82	438.82
434.19	447.71
434.56	456.43
434.93	464.77
435.30	472.99
435.68	482.13
436.05	491.11
436.42	500.02
436.79	508.09
437.16	516.77
437.53	526.13
437.90	535.31
438.27	544.27
438.64	553.51
439.01	562.06
439.38	569.64
439.75	576.95
440.13	585.44
440.50	593.42
440.87	599.81
441.24	606.47
441.61	613.84
441.98	619.26
442.35	625.56
442.72	631.89
443.09	638.03
443.46	641.79
443.83	644.34
444.20	646.56
444.57	649.86
444.94	651.42
445.31	652.87
445.68	654.20
446.05	654.84
446.42	654.09
446.79	653.04
447.16	651.96
447.53	651.17
447.90	647.84
448.27	644.59
448.64	639.95
449.01	636.61
449.37	630.67
449.74	624.98
450.11	618.09
450.48	610.71
450.85	603.19
451.22	596.65
451.59	590.45
451.96	584.61
452.33	576.66
452.70	569.54
453.07	561.01
453.43	552.43
453.80	544.12
454.17	536.09
454.54	528.63
454.91	520.41
455.28	512.48
455.65	505.00
456.02	497.48
456.38	491.19
456.75	483.24
457.12	476.65
457.49	470.13
457.86	463.95
458.23	458.55
458.59	452.59
458.96	446.64
459.33	441.36
459.70	435.97
460.07	431.71
460.43	426.77
460.80	422.24
461.17	418.20
461.54	413.98
461.91	409.94
462.27	405.78
462.64	402.39
463.01	398.54
463.38	394.83
463.74	391.09
464.11	387.81
464.48	385.00
464.85	381.84
465.21	379.44
465.58	376.79
465.95	373.66
466.32	371.04
466.68	368.36
467.05	365.71
467.42	363.13
467.78	360.42
468.15	357.92
468.52	355.97
468.88	353.50
469.25	351.28
469.62	349.49
469.98	347.57
470.35	345.70
470.72	344.02
471.08	342.22
471.45	340.78
471.82	339.27
472.18	337.64
472.55	336.47
472.92	335.07
473.28	333.87
473.65	332.70
474.02	331.62
474.38	330.74
474.75	330.06
475.11	329.26
475.48	328.68
475.85	328.20
476.21	327.69
476.58	327.33
476.94	327.09
477.31	326.76
477.67	326.47
478.04	326.30
478.41	326.22
478.77	326.37
479.14	326.25
479.50	326.38
479.87	326.60
480.23	326.91
480.60	327.09
480.96	327.35
481.33	327.95
481.69	328.50
482.06	329.04
482.42	329.44
482.79	330.00
483.15	330.81
483.52	331.75
483.88	332.63
484.25	333.58
484.61	334.56
484.98	335.60
485.34	336.91
485.71	338.27
486.07	339.72
486.44	341.07
486.80	342.65
487.17	344.33
487.53	346.17
487.90	348.01
488.26	350.10
488.62	352.28
488.99	354.29
489.35	356.48
489.72	358.88
490.08	361.44
490.44	364.02
490.81	366.70
491.17	369.36
491.54	372.38
491.90	375.44
492.26	378.73
492.63	382.13
492.99	385.64
493.36	389.31
493.72	393.18
494.08	397.22
494.45	401.45
494.81	405.73
495.17	410.21
495.54	414.94
495.90	419.75
496.26	424.63
496.63	429.89
496.99	435.29
497.35	440.87
497.72	446.64
498.08	452.61
498.44	458.71
498.80	465.20
499.17	471.63
499.53	478.31
499.89	485.20
500.26	492.23
500.62	499.36
500.98	506.82
501.34	514.41
501.71	522.14
502.07	529.97
502.43	538.12
502.79	546.32
503.16	554.71
503.52	563.35
503.88	572.15
504.24	581.15
504.60	590.16
504.97	599.38
505.33	608.75
505.69	618.65
506.05	628.55
506.41	638.44
506.78	648.59
507.14	658.87
507.50	669.35
507.86	680.10
508.22	690.83
508.59	701.51
508.95	712.55
509.31	723.86
509.67	735.41
510.03	746.81
510.39	758.53
510.75	770.47
511.12	782.43
511.48	794.52
511.84	806.78
512.20	819.24
512.56	831.95
512.92	844.85
513.28	857.61
513.64	870.43
514.00	883.30
514.37	896.34
514.73	909.51
515.09	922.56
515.45	935.53
515.81	948.75
516.17	962.25
516.53	975.58
516.89	988.75
517.25	1001.97
517.61	1015.62
517.97	1029.08
518.33	1042.31
518.69	1055.91
519.05	1069.78
519.41	1083.55
519.77	1097.50
520.13	1110.89
520.49	1124.06
520.85	1137.56
521.21	1150.96
521.57	1164.75
521.93	1177.87
522.29	1191.77
522.65	1205.64
523.01	1219.29
523.37	1232.57
523.73	1246.01
524.09	1259.27
524.45	1272.79
524.81	1286.40
525.17	1299.90
525.53	1313.15
525.89	1326.57
526.25	1339.78
526.61	1352.78
526.97	1366.01
527.33	1379.09
527.68	1392.77
528.04	1406.47
528.40	1419.65
528.76	1433.21
529.12	1446.27
529.48	1459.73
529.84	1472.11
530.20	1484.89
530.56	1497.63
530.91	1511.04
531.27	1523.97
531.63	1536.86
531.99	1549.72
532.35	1562.03
532.71	1574.63
533.07	1587.61
533.42	1600.03
533.78	1612.31
534.14	1624.47
534.50	1635.78
534.86	1647.47
535.21	1658.34
535.57	1670.04
535.93	1681.48
536.29	1692.53
536.65	1704.07
537.00	1715.28
537.36	1726.75
537.72	1737.81
538.08	1749.43
538.44	1760.43
538.79	1771.60
539.15	1782.67
539.51	1793.59
539.87	1805.07
540.22	1815.91
540.58	1827.09
540.94	1837.99
541.29	1848.32
541.65	1858.17
542.01	1868.81
542.37	1878.95
542.72	1889.32
543.08	1898.97
543.44	1909.61
543.79	1919.09
544.15	1928.65
544.51	1938.62
544.87	1948.59
545.22	1957.97
545.58	1966.73
545.94	1975.79
546.29	1984.39
546.65	1992.78
547.01	2001.13
547.36	2008.88
547.72	2016.67
548.07	2024.28
548.43	2032.09
548.79	2040.02
549.14	2048.20
549.50	2056.64
549.86	2064.66
550.21	2072.16
550.57	2080.05
550.92	2086.70
551.28	2094.30
551.64	2101.52
551.99	2109.06
552.35	2116.14
552.70	2123.10
553.06	2129.90
553.41	2136.07
553.77	2142.62
554.13	2149.12
554.48	2156.22
554.84	2163.37
555.19	2169.86
555.55	2176.36
555.90	2182.67
556.26	2189.63
556.61	2195.81
556.97	2200.76
557.32	2206.49
557.68	2212.95
558.03	2218.75
558.39	2224.23
558.74	2230.13
559.10	2235.77
559.45	2241.39
559.81	2247.10
560.16	2252.58
560.52	2258.49
560.87	2264.99
561.23	2271.02
561.58	2277.58
561.94	2282.85
562.29	2287.63
562.64	2293.98
563.00	2299.73
563.35	2305.23
563.71	2310.91
564.06	2316.67
564.42	2322.63
564.77	2327.60
565.12	2332.92
565.48	2338.07
565.83	2343.67
566.19	2349.07
566.54	2354.46
566.89	2358.91
567.25	2363.44
567.60	2369.08
567.96	2374.25
568.31	2378.79
568.66	2383.10
569.02	2387.04
569.37	2390.77
569.72	2395.10
570.08	2398.34
570.43	2401.28
570.78	2404.51
571.14	2406.88
571.49	2409.92
571.84	2413.24
572.20	2416.27
572.55	2419.13
572.90	2421.46
573.26	2424.14
573.61	2426.76
573.96	2428.75
574.31	2430.78
574.67	2432.68
575.02	2433.52
575.37	2434.90
575.72	2435.58
576.08	2436.89
576.43	2436.91
576.78	2437.18
577.13	2438.74
577.49	2439.91
577.84	2440.99
578.19	2442.23
578.54	2442.90
578.90	2443.51
579.25	2443.39
579.60	2443.20
579.95	2442.38
580.30	2442.26
580.66	2441.38
581.01	2439.57
581.36	2437.18
581.71	2435.63
582.06	2434.32
582.42	2433.27
582.77	2430.92
583.12	2429.12
583.47	2427.62
583.82	2427.03
584.17	2425.72
584.53	2423.50
584.88	2421.44
585.23	2419.41
585.58	2417.03
585.93	2414.77
586.28	2412.47
586.63	2410.01
586.98	2407.65
587.34	2405.57
587.69	2402.96
588.04	2400.89
588.39	2399.40
588.74	2396.97
589.09	2394.21
589.44	2391.04
589.79	2388.59
590.14	2386.56
590.49	2383.78
590.84	2379.86
591.19	2376.59
591.54	2373.26
591.89	2369.17
592.25	2365.62
592.60	2361.42
592.95	2357.30
593.30	2353.01
593.65	2348.52
594.00	2344.10
594.35	2341.11
594.70	2336.34
595.05	2331.69
595.40	2326.15
595.75	2320.23
596.10	2316.40
596.45	2311.68
596.80	2307.04
597.15	2301.68
597.50	2295.73
597.85	2290.75
598.19	2285.38
598.54	2279.60
598.89	2274.37
599.24	2269.62
599.59	2263.54
599.94	2257.57
600.29	2251.50
600.64	2245.64
600.99	2238.83
601.34	2233.28
601.69	2226.27
602.04	2219.82
602.39	2213.14
602.74	2206.96
603.08	2201.48
603.43	2194.92
603.78	2188.00
604.13	2180.76
604.48	2173.45
604.83	2167.29
605.18	2160.85
605.53	2153.97
605.87	2146.90
606.22	2140.00
606.57	2132.11
606.92	2124.06
607.27	2117.06
607.62	2110.51
607.96	2103.54
608.31	2097.05
608.66	2089.18
609.01	2081.50
609.36	2074.41
609.70	2066.80
610.05	2059.00
610.40	2050.48
610.75	2042.16
611.10	2034.44
611.44	2025.67
611.79	2016.91
612.14	2006.90
612.49	1996.33
612.83	1986.84
613.18	1977.45
613.53	1968.20
613.88	1958.55
614.22	1949.86
614.57	1939.93
614.92	1929.32
615.27	1919.12
615.61	1908.92
615.96	1899.20
616.31	1889.49
616.65	1880.09
617.00	1870.16
617.35	1860.59
617.70	1851.02
618.04	1840.98
618.39	1830.81
618.74	1821.08
619.08	1811.47
619.43	1802.80
619.78	1794.44
620.12	1785.98
620.47	1776.45
620.82	1766.07
621.16	1756.24
621.51	1746.44
621.85	1736.65
622.20	1726.15
622.55	1715.50
622.89	1705.52
623.24	1695.91
623.59	1686.16
623.93	1676.02
624.28	1666.34
624.62	1656.11
624.97	1645.80
625.32	1636.09
625.66	1627.10
626.01	1618.39
626.35	1608.99
626.70	1598.78
627.04	1588.79
627.39	1578.44
627.73	1569.08
628.08	1560.08
628.43	1550.56
628.77	1541.25
629.12	1532.44
629.46	1524.62
629.81	1516.36
630.15	1507.04
630.50	1497.13
630.84	1486.65
631.19	1476.73
631.53	1467.39
631.88	1457.19
632.22	1447.04
632.57	1437.55
632.91	1427.39
633.26	1417.40
633.60	1407.84
633.95	1398.62
634.29	1389.10
634.64	1379.94
634.98	1369.88
635.32	1360.61
635.67	1352.10
636.01	1342.87
636.36	1332.97
636.70	1323.42
637.05	1313.95
637.39	1304.89
637.73	1296.28
638.08	1288.57
638.42	1280.28
638.77	1271.48
639.11	1263.29
639.45	1255.65
639.80	1247.05
640.14	1238.32
640.49	1229.50
640.83	1220.60
641.17	1212.41
641.52	1204.26
641.86	1195.73
642.20	1187.97
642.55	1179.29
642.89	1170.41
643.23	1161.73
643.58	1153.66
643.92	1144.58
644.26	1135.85
644.61	1127.36
644.95	1118.52
645.29	1109.37
645.64	1100.19
645.98	1091.65
646.32	1083.70
646.66	1075.13
647.01	1066.86
647.35	1058.75
647.69	1050.38
648.04	1042.08
648.38	1033.14
648.72	1024.31
649.06	1015.80
649.41	1007.54
649.75	999.53
650.09	991.67
650.43	983.59
650.78	975.23
651.12	967.43
651.46	960.00
651.80	952.78
652.14	945.49
652.49	937.98
652.83	930.67
653.17	922.96
653.51	915.27
653.85	907.97
654.20	900.64
654.54	893.09
654.88	885.92
655.22	878.68
655.56	871.70
655.90	864.82
656.25	858.21
656.59	851.26
656.93	844.29
657.27	837.09
657.61	830.07
657.95	823.90
658.29	818.04
658.64	811.88
658.98	805.44
659.32	798.78
659.66	792.55
660.00	786.17
660.34	780.10
660.68	773.96
661.02	767.55
661.36	761.58
661.70	755.71
662.05	749.99
662.39	744.46
662.73	739.03
663.07	733.59
663.41	727.86
663.75	722.19
664.09	716.44
664.43	711.02
664.77	705.69
665.11	699.90
665.45	693.90
665.79	688.04
666.13	682.21
666.47	676.72
666.81	671.21
667.15	665.79
667.49	660.57
667.83	655.29
668.17	649.99
668.51	644.84
668.85	639.94
669.19	634.97
669.53	629.94
669.87	624.74
670.21	620.02
670.55	615.23
670.89	610.72
671.23	606.37
671.57	601.92
671.91	597.51
672.25	593.21
672.58	589.05
672.92	584.98
673.26	581.00
673.60	577.13
673.94	573.24
674.28	569.64
674.62	565.81
674.96	562.08
675.30	558.56
675.64	554.86
675.97	551.22
676.31	547.55
676.65	543.89
676.99	540.50
677.33	536.62
677.67	532.99
678.01	529.08
678.34	525.41
678.68	521.80
679.02	518.18
679.36	514.51
679.70	510.83
680.04	507.17
680.37	503.75
680.71	500.37
681.05	497.12
681.39	493.78
681.73	490.60
682.06	487.48
682.40	484.33
682.74	481.10
683.08	477.83
683.42	474.56
683.75	471.50
684.09	468.37
684.43	465.53
684.77	462.50
685.10	459.63
685.44	456.64
685.78	453.72
686.12	450.91
686.45	448.15
686.79	445.45
687.13	442.91
687.46	440.20
687.80	437.45
688.14	434.58
688.48	431.90
688.81	429.13
689.15	426.54
689.49	423.88
689.82	421.30
690.16	418.69
690.50	416.24
690.83	413.73
691.17	411.16
691.51	408.65
691.84	406.38
692.18	404.11
692.52	401.93
692.85	399.77
693.19	397.57
693.52	395.36
693.86	393.12
694.20	390.88
694.53	388.74
694.87	386.52
695.21	384.40
695.54	382.21
695.88	379.98
696.21	377.75
696.55	375.57
696.88	373.46
697.22	371.43
697.56	369.50
697.89	367.60
698.23	365.78
698.56	363.93
698.90	362.13
699.23	360.20
699.57	358.28
699.90	356.37
700.24	354.56
700.58	352.78
700.91	351.09
701.25	349.50
701.58	347.88
701.92	346.29
702.25	344.65
702.59	342.98
702.92	341.47
703.26	339.83
703.59	338.32
703.93	337.03
704.26	335.57
704.60	334.10
704.93	332.60
705.26	331.08
705.60	329.61
705.93	328.06
706.27	326.71
706.60	325.46
706.94	324.21
707.27	322.78
707.61	321.41
707.94	320.05
708.27	318.52
708.61	317.01
708.94	315.62
709.28	314.28
709.61	313.05
709.94	311.83
710.28	310.67
710.61	309.45
710.95	308.01
711.28	306.96
711.61	305.70
711.95	304.53
712.28	303.36
712.61	302.17
712.95	301.11
713.28	300.04
713.61	298.85
713.95	297.68
714.28	296.65
714.61	295.61
714.95	294.59
715.28	293.54
715.61	292.51
715.95	291.51
716.28	290.53
716.61	289.57
716.95	288.53
717.28	287.59
717.61	286.63
717.94	285.73
718.28	284.67
718.61	283.79
718.94	282.91
719.27	282.02
719.61	281.16
719.94	280.24
720.27	279.23
720.60	278.34
720.94	277.51
721.27	276.76
721.60	276.06
721.93	275.31
722.27	274.71
722.60	274.05
722.93	273.33
723.26	272.67
723.59	271.92
723.93	271.32
724.26	270.63
724.59	269.96
724.92	269.36
725.25	268.76
725.59	268.18
725.92	267.60
726.25	266.99
726.58	266.41
726.91	265.84
727.24	265.36
727.57	264.80
727.91	264.18
728.24	263.62
728.57	263.02
728.90	262.47
729.23	261.78
729.56	261.29
729.89	260.77
730.22	260.18
730.55	259.63
730.89	259.06
731.22	258.53
731.55	258.04
731.88	257.53
732.21	257.02
732.54	256.46
732.87	255.94
733.20	255.45
733.53	254.96
733.86	254.49
734.19	253.95
734.52	253.53
734.85	253.27
735.18	252.76
735.51	252.34
735.84	251.87
736.17	251.53
736.50	251.02
736.83	250.83
737.16	250.45
737.49	250.08
737.82	249.64
738.15	249.24
738.48	248.83
738.81	248.43
739.14	248.00
739.47	247.61
739.80	247.22
740.13	246.85
740.46	246.44
740.79	246.05
741.12	245.70
741.45	245.33
741.78	244.86
742.11	244.59
742.44	244.20
742.77	243.93
743.10	243.54
743.43	243.18
743.75	242.60
744.08	242.52
744.41	242.14
744.74	241.78
745.07	241.41
745.40	241.11
745.73	240.80
746.06	240.46
746.39	240.17
746.71	239.83
747.04	239.48
747.37	239.16
747.70	238.86
748.03	238.53
748.36	238.24
748.68	237.90
749.01	237.53
749.34	237.21
749.67	236.92
750.00	236.66
750.33	236.53
750.65	236.27
750.98	235.73
751.31	235.47
751.64	235.27
751.97	235.15
752.29	234.88
752.62	234.54
752.95	234.27
753.28	233.96
753.60	233.69
753.93	233.49
754.26	233.27
754.59	232.99
754.91	232.76
755.24	232.47
755.57	232.25
755.90	232.02
756.22	231.82
756.55	231.54
756.88	231.29
757.20	230.94
757.53	230.69
757.86	230.48
758.19	230.31
758.51	230.11
758.84	229.76
759.17	229.54
759.49	229.40
759.82	229.32
760.15	229.19
760.47	229.03
760.80	228.80
761.13	228.65
761.45	228.46
761.78	228.27
762.11	228.10
762.43	227.90
762.76	227.72
763.08	227.56
763.41	227.43
763.74	227.29
764.06	227.10
764.39	226.93
764.71	226.77
765.04	226.58
765.37	226.41
765.69	226.29
766.02	226.15
766.34	225.97
766.67	225.77
767.00	225.64
767.32	225.65
767.65	225.66
767.97	225.50
768.30	225.41
768.62	225.28
768.95	225.14
769.27	225.03
769.60	224.96
769.92	224.81
770.25	224.63
770.57	224.43
770.90	224.34
771.22	224.21
771.55	224.08
771.87	223.96
772.20	223.82
772.52	223.88
772.85	224.03
773.17	223.95
773.50	223.82
773.82	223.67
774.15	223.45
774.47	223.21
774.80	223.07
775.12	222.92
775.45	222.82
775.77	222.79
776.09	222.70
776.42	222.59
776.74	222.59
777.07	222.50
777.39	222.42
777.72	222.31
778.04	222.25
778.36	222.17
778.69	222.10
779.01	222.03
779.33	221.76
779.66	221.43
779.98	221.34
780.31	221.31
780.63	221.33
780.95	221.31
781.28	221.21
781.60	221.11
781.92	221.08
782.25	221.02
782.57	220.93
782.89	220.86
783.22	220.74
783.54	220.63
783.86	220.60
784.19	220.57
784.51	220.59
784.83	220.52
785.16	220.46
785.48	220.38
785.80	220.34
786.12	220.33
