SpectraSuite Data File
++++++++++++++++++++++++++++++++++++
Date: Tue Jan 29 16:19:12 EST 2013
User: group
Dark Spectrum Present: No
Reference Spectrum Present: No
Number of Sampled Component Spectra: 1
Spectrometers: USB2E7196
Integration Time (usec): 65000 (USB2E7196)
Spectra Averaged: 100 (USB2E7196)
Boxcar Smoothing: 10 (USB2E7196)
Correct for Electrical Dark: No (USB2E7196)
Strobe/Lamp Enabled: No (USB2E7196)
Correct for Detector Non-linearity: No (USB2E7196)
Correct for Stray Light: No (USB2E7196)
Number of Pixels in Processed Spectrum: 2048
>>>>>Begin Processed Spectral Data<<<<<
339.09	0.00
339.48	202.42
339.86	203.20
340.24	205.68
340.63	206.63
341.01	211.62
341.39	210.05
341.78	211.43
342.16	212.54
342.54	212.18
342.93	201.65
343.31	211.85
343.69	212.40
344.07	212.89
344.46	213.32
344.84	213.72
345.22	213.87
345.60	214.12
345.99	214.29
346.37	214.43
346.75	214.57
347.13	214.67
347.52	214.76
347.90	214.86
348.28	214.87
348.66	214.94
349.05	214.88
349.43	214.95
349.81	214.99
350.19	215.05
350.57	215.13
350.96	215.25
351.34	215.30
351.72	215.40
352.10	215.51
352.48	215.56
352.87	215.59
353.25	215.64
353.63	215.69
354.01	215.74
354.39	215.80
354.77	215.86
355.15	215.98
355.54	216.06
355.92	216.07
356.30	216.18
356.68	216.36
357.06	216.45
357.44	216.51
357.82	216.59
358.20	216.67
358.58	216.70
358.97	216.76
359.35	216.91
359.73	217.01
360.11	217.07
360.49	217.15
360.87	217.20
361.25	217.28
361.63	217.38
362.01	217.47
362.39	217.50
362.77	217.57
363.15	217.59
363.53	217.61
363.91	217.65
364.29	217.64
364.67	217.51
365.05	217.57
365.43	217.61
365.81	217.67
366.19	217.76
366.57	217.86
366.95	217.87
367.33	217.82
367.71	217.78
368.09	217.82
368.47	217.82
368.85	217.82
369.23	217.86
369.61	217.80
369.99	217.82
370.37	217.84
370.75	217.92
371.13	217.88
371.51	217.81
371.89	217.83
372.27	217.80
372.65	217.77
373.03	217.71
373.41	217.61
373.78	217.51
374.16	217.36
374.54	217.27
374.92	217.19
375.30	217.14
375.68	217.07
376.06	216.99
376.44	216.95
376.82	216.91
377.19	216.82
377.57	216.73
377.95	216.62
378.33	216.57
378.71	216.38
379.09	216.38
379.47	216.37
379.84	216.26
380.22	216.21
380.60	216.12
380.98	216.07
381.36	216.07
381.73	216.00
382.11	215.97
382.49	215.94
382.87	215.91
383.25	215.88
383.62	216.10
384.00	216.06
384.38	215.98
384.76	215.98
385.13	216.04
385.51	216.03
385.89	215.99
386.27	215.93
386.64	215.96
387.02	215.85
387.40	215.81
387.78	215.78
388.15	215.77
388.53	215.76
388.91	215.76
389.29	215.72
389.66	215.75
390.04	215.75
390.42	215.78
390.79	215.75
391.17	215.72
391.55	215.47
391.92	215.47
392.30	215.51
392.68	215.48
393.05	215.47
393.43	215.49
393.81	215.49
394.18	215.47
394.56	215.45
394.94	215.53
395.31	215.51
395.69	215.60
396.06	215.61
396.44	215.64
396.82	215.65
397.19	215.74
397.57	215.75
397.95	215.78
398.32	215.73
398.70	215.82
399.07	215.89
399.45	215.93
399.82	215.96
400.20	215.99
400.58	216.07
400.95	216.04
401.33	216.14
401.70	216.35
402.08	216.46
402.45	216.54
402.83	216.65
403.20	216.78
403.58	216.85
403.95	217.02
404.33	217.17
404.71	217.30
405.08	217.57
405.46	217.73
405.83	217.93
406.21	218.13
406.58	218.32
406.96	218.53
407.33	218.80
407.70	219.06
408.08	219.51
408.45	219.82
408.83	220.19
409.20	220.53
409.58	220.79
409.95	221.24
410.33	221.74
410.70	222.15
411.08	222.69
411.45	223.27
411.82	223.83
412.20	224.50
412.57	225.33
412.95	225.87
413.32	226.70
413.69	227.55
414.07	228.47
414.44	229.41
414.82	230.41
415.19	231.56
415.56	232.70
415.94	233.83
416.31	235.20
416.68	236.56
417.06	238.09
417.43	239.63
417.81	241.30
418.18	243.00
418.55	244.89
418.93	246.85
419.30	248.89
419.67	251.08
420.04	253.31
420.42	255.63
420.79	258.42
421.16	261.14
421.54	263.91
421.91	266.80
422.28	269.85
422.66	273.03
423.03	276.21
423.40	279.55
423.77	283.10
424.15	286.68
424.52	290.44
424.89	294.57
425.26	298.55
425.64	302.38
426.01	306.60
426.38	310.97
426.75	315.45
427.13	320.07
427.50	324.98
427.87	330.06
428.24	335.14
428.61	339.99
428.99	345.37
429.36	351.26
429.73	357.02
430.10	362.76
430.47	368.73
430.85	374.90
431.22	381.40
431.59	388.34
431.96	395.00
432.33	402.38
432.70	409.47
433.08	417.83
433.45	425.73
433.82	433.51
434.19	442.24
434.56	450.72
434.93	458.86
435.30	466.86
435.68	475.79
436.05	484.61
436.42	493.31
436.79	501.27
437.16	509.87
437.53	518.96
437.90	527.93
438.27	536.69
438.64	545.65
439.01	554.05
439.38	561.50
439.75	568.70
440.13	576.84
440.50	584.58
440.87	590.81
441.24	597.32
441.61	604.51
441.98	609.75
442.35	615.92
442.72	622.05
443.09	627.98
443.46	631.62
443.83	634.01
444.20	636.15
444.57	639.24
444.94	640.72
445.31	642.06
445.68	643.33
446.05	643.95
446.42	643.23
446.79	642.25
447.16	641.10
447.53	640.33
447.90	637.17
448.27	633.96
448.64	629.40
449.01	626.07
449.37	620.33
449.74	614.74
450.11	607.99
450.48	600.83
450.85	593.61
451.22	587.27
451.59	581.29
451.96	575.57
452.33	567.86
452.70	560.85
453.07	552.58
453.43	544.19
453.80	536.05
454.17	528.28
454.54	520.97
454.91	512.97
455.28	505.21
455.65	497.91
456.02	490.58
456.38	484.46
456.75	476.82
457.12	470.40
457.49	464.04
457.86	458.03
458.23	452.79
458.59	446.97
458.96	441.12
459.33	436.01
459.70	430.80
460.07	426.66
460.43	421.88
460.80	417.44
461.17	413.61
461.54	409.54
461.91	405.60
462.27	401.56
462.64	398.27
463.01	394.55
463.38	390.97
463.74	387.34
464.11	384.12
464.48	381.29
464.85	378.28
465.21	375.92
465.58	373.35
465.95	370.25
466.32	367.72
466.68	365.22
467.05	362.65
467.42	360.16
467.78	357.50
468.15	355.04
468.52	353.16
468.88	350.73
469.25	348.52
469.62	346.78
469.98	344.88
470.35	343.15
470.72	341.51
471.08	339.79
471.45	338.35
471.82	336.88
472.18	335.32
472.55	334.16
472.92	332.84
473.28	331.69
473.65	330.58
474.02	329.50
474.38	328.63
474.75	327.87
475.11	327.08
475.48	326.56
475.85	326.12
476.21	325.68
476.58	325.34
476.94	325.14
477.31	324.86
477.67	324.64
478.04	324.44
478.41	324.39
478.77	324.51
479.14	324.50
479.50	324.65
479.87	324.93
480.23	325.29
480.60	325.54
480.96	325.82
481.33	326.44
481.69	327.01
482.06	327.51
482.42	328.06
482.79	328.64
483.15	329.45
483.52	330.39
483.88	331.27
484.25	332.23
484.61	333.27
484.98	334.32
485.34	335.67
485.71	337.09
486.07	338.53
486.44	339.84
486.80	341.42
487.17	343.12
487.53	344.96
487.90	346.79
488.26	348.80
488.62	351.00
488.99	353.11
489.35	355.31
489.72	357.68
490.08	360.21
490.44	362.80
490.81	365.51
491.17	368.23
491.54	371.21
491.90	374.24
492.26	377.46
492.63	380.86
492.99	384.32
493.36	388.01
493.72	391.93
494.08	395.99
494.45	400.21
494.81	404.62
495.17	409.11
495.54	413.84
495.90	418.66
496.26	423.54
496.63	428.70
496.99	434.04
497.35	439.61
497.72	445.44
498.08	451.40
498.44	457.48
498.80	463.95
499.17	470.42
499.53	477.17
499.89	484.08
500.26	491.11
500.62	498.21
500.98	505.58
501.34	512.98
501.71	520.76
502.07	528.63
502.43	536.61
502.79	544.73
503.16	553.14
503.52	561.75
503.88	570.53
504.24	579.50
504.60	588.61
504.97	597.87
505.33	607.12
505.69	616.99
506.05	626.87
506.41	636.70
506.78	646.76
507.14	657.02
507.50	667.51
507.86	678.19
508.22	688.93
508.59	699.53
508.95	710.59
509.31	721.78
509.67	733.23
510.03	744.62
510.39	756.33
510.75	768.16
511.12	780.07
511.48	792.17
511.84	804.39
512.20	816.66
512.56	829.24
512.92	842.02
513.28	854.67
513.64	867.41
514.00	880.26
514.37	893.26
514.73	906.25
515.09	919.15
515.45	931.98
515.81	945.09
516.17	958.56
516.53	971.68
516.89	984.79
517.25	997.88
517.61	1011.43
517.97	1024.80
518.33	1037.76
518.69	1051.29
519.05	1064.87
519.41	1078.51
519.77	1092.39
520.13	1105.63
520.49	1118.84
520.85	1132.08
521.21	1145.32
521.57	1158.92
521.93	1171.91
522.29	1185.61
522.65	1199.13
523.01	1212.68
523.37	1225.82
523.73	1238.96
524.09	1252.10
524.45	1265.38
524.81	1278.78
525.17	1292.00
525.53	1305.11
525.89	1318.52
526.25	1331.61
526.61	1344.36
526.97	1357.34
527.33	1370.29
527.68	1383.70
528.04	1396.99
528.40	1410.00
528.76	1423.15
529.12	1435.93
529.48	1449.03
529.84	1461.14
530.20	1473.87
530.56	1486.50
530.91	1499.51
531.27	1512.21
531.63	1524.87
531.99	1537.55
532.35	1549.71
532.71	1562.02
533.07	1574.67
533.42	1586.70
533.78	1598.55
534.14	1610.50
534.50	1621.60
534.86	1632.93
535.21	1643.62
535.57	1655.04
535.93	1666.22
536.29	1677.19
536.65	1688.47
537.00	1699.32
537.36	1710.68
537.72	1721.52
538.08	1732.67
538.44	1743.48
538.79	1754.49
539.15	1765.25
539.51	1775.82
539.87	1786.93
540.22	1797.51
540.58	1808.32
540.94	1819.01
541.29	1829.15
541.65	1838.75
542.01	1849.21
542.37	1859.14
542.72	1869.07
543.08	1878.48
543.44	1888.87
543.79	1898.09
544.15	1907.42
544.51	1917.22
544.87	1926.74
545.22	1935.64
545.58	1944.27
545.94	1953.12
546.29	1961.46
546.65	1969.66
547.01	1977.76
547.36	1985.23
547.72	1992.76
548.07	2000.26
548.43	2007.94
548.79	2015.73
549.14	2023.73
549.50	2031.87
549.86	2039.62
550.21	2047.04
550.57	2054.77
550.92	2061.26
551.28	2068.55
551.64	2075.59
551.99	2083.06
552.35	2090.20
552.70	2097.06
553.06	2103.73
553.41	2109.74
553.77	2116.26
554.13	2122.57
554.48	2129.54
554.84	2136.71
555.19	2143.31
555.55	2149.62
555.90	2155.85
556.26	2162.49
556.61	2168.59
556.97	2173.41
557.32	2179.08
557.68	2185.48
558.03	2191.18
558.39	2196.54
558.74	2202.61
559.10	2208.22
559.45	2213.65
559.81	2219.35
560.16	2224.96
560.52	2230.81
560.87	2237.19
561.23	2242.97
561.58	2249.56
561.94	2254.94
562.29	2259.65
562.64	2265.79
563.00	2271.45
563.35	2277.05
563.71	2282.91
564.06	2288.59
564.42	2294.61
564.77	2299.80
565.12	2304.98
565.48	2310.25
565.83	2315.81
566.19	2321.18
566.54	2326.49
566.89	2331.18
567.25	2335.70
567.60	2341.45
567.96	2346.64
568.31	2351.42
568.66	2355.87
569.02	2360.00
569.37	2363.63
569.72	2368.18
570.08	2371.74
570.43	2375.06
570.78	2378.22
571.14	2380.86
571.49	2384.16
571.84	2387.75
572.20	2390.80
572.55	2394.03
572.90	2396.43
573.26	2399.47
573.61	2402.23
573.96	2404.75
574.31	2406.98
574.67	2409.07
575.02	2409.95
575.37	2411.41
575.72	2412.21
576.08	2413.85
576.43	2414.08
576.78	2414.86
577.13	2416.39
577.49	2417.59
577.84	2418.79
578.19	2420.35
578.54	2421.14
578.90	2421.97
579.25	2422.13
579.60	2422.29
579.95	2421.73
580.30	2421.90
580.66	2421.38
581.01	2419.82
581.36	2417.52
581.71	2416.28
582.06	2415.15
582.42	2414.49
582.77	2412.57
583.12	2411.08
583.47	2409.78
583.82	2409.43
584.17	2408.16
584.53	2406.33
584.88	2404.52
585.23	2402.86
585.58	2400.72
585.93	2398.94
586.28	2396.90
586.63	2394.46
586.98	2392.28
587.34	2390.32
587.69	2388.13
588.04	2386.13
588.39	2384.82
588.74	2382.45
589.09	2379.85
589.44	2376.85
589.79	2374.55
590.14	2372.79
590.49	2370.13
590.84	2366.46
591.19	2363.43
591.54	2360.49
591.89	2356.61
592.25	2353.53
592.60	2349.40
592.95	2345.32
593.30	2341.11
593.65	2336.86
594.00	2332.60
594.35	2329.76
594.70	2325.23
595.05	2320.85
595.40	2315.57
595.75	2309.98
596.10	2306.53
596.45	2301.92
596.80	2297.54
597.15	2292.31
597.50	2286.37
597.85	2281.42
598.19	2276.26
598.54	2270.56
598.89	2265.30
599.24	2260.83
599.59	2254.70
599.94	2248.87
600.29	2243.00
600.64	2237.11
600.99	2230.31
601.34	2224.92
601.69	2218.02
602.04	2211.90
602.39	2205.23
602.74	2199.16
603.08	2193.63
603.43	2187.08
603.78	2180.19
604.13	2173.13
604.48	2165.98
604.83	2160.03
605.18	2153.92
605.53	2147.08
605.87	2140.00
606.22	2133.30
606.57	2125.44
606.92	2117.53
607.27	2110.70
607.62	2104.14
607.96	2097.27
608.31	2090.89
608.66	2083.23
609.01	2075.60
609.36	2068.25
609.70	2060.47
610.05	2052.75
610.40	2044.42
610.75	2036.23
611.10	2028.46
611.44	2019.68
611.79	2010.99
612.14	2000.90
612.49	1990.26
612.83	1980.92
613.18	1971.73
613.53	1962.46
613.88	1952.76
614.22	1944.10
614.57	1934.14
614.92	1923.49
615.27	1913.23
615.61	1903.07
615.96	1893.28
616.31	1883.63
616.65	1874.27
617.00	1864.56
617.35	1854.89
617.70	1845.12
618.04	1834.95
618.39	1824.93
618.74	1815.20
619.08	1805.41
619.43	1796.72
619.78	1788.45
620.12	1779.84
620.47	1770.25
620.82	1759.82
621.16	1750.05
621.51	1740.05
621.85	1730.25
622.20	1719.78
622.55	1709.18
622.89	1699.27
623.24	1689.60
623.59	1679.82
623.93	1669.70
624.28	1659.86
624.62	1649.55
624.97	1639.47
625.32	1629.64
625.66	1620.62
626.01	1611.76
626.35	1602.40
626.70	1592.22
627.04	1582.04
627.39	1571.81
627.73	1562.41
628.08	1553.43
628.43	1543.73
628.77	1534.55
629.12	1525.54
629.46	1517.69
629.81	1509.36
630.15	1499.72
630.50	1489.79
630.84	1479.10
631.19	1469.18
631.53	1459.87
631.88	1449.71
632.22	1439.54
632.57	1430.10
632.91	1419.84
633.26	1409.81
633.60	1400.20
633.95	1390.90
634.29	1381.43
634.64	1372.13
634.98	1362.12
635.32	1352.74
635.67	1344.21
636.01	1334.78
636.36	1324.99
636.70	1315.45
637.05	1305.85
637.39	1296.88
637.73	1288.24
638.08	1280.73
638.42	1272.41
638.77	1263.54
639.11	1255.30
639.45	1247.39
639.80	1238.89
640.14	1230.14
640.49	1221.33
640.83	1212.36
641.17	1204.22
641.52	1196.00
641.86	1187.35
642.20	1179.54
642.55	1170.90
642.89	1162.00
643.23	1153.40
643.58	1145.20
643.92	1136.11
644.26	1127.40
644.61	1118.94
644.95	1110.00
645.29	1100.73
645.64	1091.55
645.98	1082.96
646.32	1075.02
646.66	1066.46
647.01	1058.04
647.35	1049.83
647.69	1041.50
648.04	1033.26
648.38	1024.30
648.72	1015.41
649.06	1006.90
649.41	998.55
649.75	990.43
650.09	982.51
650.43	974.40
650.78	966.07
651.12	958.34
651.46	950.92
651.80	943.62
652.14	936.35
652.49	928.82
652.83	921.46
653.17	913.75
653.51	906.03
653.85	898.70
654.20	891.40
654.54	883.91
654.88	876.69
655.22	869.47
655.56	862.44
655.90	855.73
656.25	848.98
656.59	842.04
656.93	835.14
657.27	827.95
657.61	821.00
657.95	814.89
658.29	808.89
658.64	802.75
658.98	796.31
659.32	789.72
659.66	783.38
660.00	776.95
660.34	770.89
660.68	764.76
661.02	758.45
661.36	752.42
661.70	746.65
662.05	740.92
662.39	735.39
662.73	730.04
663.07	724.63
663.41	719.00
663.75	713.30
664.09	707.54
664.43	702.20
664.77	696.82
665.11	690.97
665.45	685.10
665.79	679.22
666.13	673.49
666.47	668.07
666.81	662.67
667.15	657.30
667.49	652.10
667.83	646.89
668.17	641.66
668.51	636.59
668.85	631.64
669.19	626.81
669.53	621.82
669.87	616.64
670.21	611.87
670.55	607.12
670.89	602.69
671.23	598.38
671.57	593.98
671.91	589.61
672.25	585.41
672.58	581.30
672.92	577.34
673.26	573.40
673.60	569.48
673.94	565.68
674.28	562.14
674.62	558.37
674.96	554.57
675.30	551.12
675.64	547.41
675.97	543.79
676.31	540.11
676.65	536.50
676.99	533.06
677.33	529.19
677.67	525.62
678.01	521.69
678.34	518.02
678.68	514.46
679.02	510.90
679.36	507.29
679.70	503.65
680.04	500.11
680.37	496.70
680.71	493.36
681.05	490.11
681.39	486.82
681.73	483.66
682.06	480.63
682.40	477.50
682.74	474.37
683.08	471.20
683.42	468.01
683.75	465.03
684.09	462.02
684.43	459.23
684.77	456.31
685.10	453.58
685.44	450.71
685.78	447.86
686.12	445.06
686.45	442.33
686.79	439.65
687.13	437.09
687.46	434.46
687.80	431.85
688.14	429.06
688.48	426.42
688.81	423.77
689.15	421.21
689.49	418.60
689.82	416.04
690.16	413.48
690.50	411.07
690.83	408.57
691.17	406.09
691.51	403.66
691.84	401.38
692.18	399.12
692.52	396.93
692.85	394.79
693.19	392.76
693.52	390.63
693.86	388.43
694.20	386.22
694.53	384.07
694.87	381.85
695.21	379.73
695.54	377.65
695.88	375.50
696.21	373.38
696.55	371.30
696.88	369.27
697.22	367.32
697.56	365.42
697.89	363.57
698.23	361.85
698.56	360.08
698.90	358.34
699.23	356.50
699.57	354.66
699.90	352.77
700.24	350.94
700.58	349.18
700.91	347.54
701.25	346.06
701.58	344.47
701.92	342.92
702.25	341.35
702.59	339.67
702.92	338.14
703.26	336.57
703.59	335.10
703.93	333.86
704.26	332.44
704.60	330.97
704.93	329.49
705.26	327.95
705.60	326.52
705.93	325.00
706.27	323.68
706.60	322.40
706.94	321.24
707.27	319.83
707.61	318.53
707.94	317.19
708.27	315.68
708.61	314.24
708.94	312.86
709.28	311.59
709.61	310.40
709.94	309.24
710.28	308.05
710.61	306.85
710.95	305.44
711.28	304.40
711.61	303.20
711.95	302.05
712.28	300.85
712.61	299.63
712.95	298.60
713.28	297.58
713.61	296.45
713.95	295.31
714.28	294.31
714.61	293.26
714.95	292.26
715.28	291.25
715.61	290.22
715.95	289.29
716.28	288.27
716.61	287.32
716.95	286.30
717.28	285.38
717.61	284.44
717.94	283.57
718.28	282.55
718.61	281.71
718.94	280.86
719.27	280.02
719.61	279.24
719.94	278.42
720.27	277.48
720.60	276.62
720.94	275.82
721.27	275.08
721.60	274.40
721.93	273.68
722.27	273.06
722.60	272.42
722.93	271.71
723.26	271.11
723.59	270.40
723.93	269.79
724.26	269.14
724.59	268.51
724.92	267.91
725.25	267.36
725.59	266.74
725.92	266.20
726.25	265.67
726.58	265.08
726.91	264.45
727.24	263.93
727.57	263.38
727.91	262.78
728.24	262.23
728.57	261.66
728.90	261.11
729.23	260.48
729.56	260.06
729.89	259.50
730.22	258.90
730.55	258.38
730.89	257.86
731.22	257.33
731.55	256.84
731.88	256.33
732.21	255.81
732.54	255.31
732.87	254.82
733.20	254.33
733.53	253.83
733.86	253.37
734.19	252.89
734.52	252.51
734.85	252.22
735.18	251.73
735.51	251.38
735.84	250.95
736.17	250.59
736.50	250.03
736.83	249.93
737.16	249.57
737.49	249.21
737.82	248.85
738.15	248.50
738.48	248.10
738.81	247.70
739.14	247.29
739.47	246.95
739.80	246.57
740.13	246.22
740.46	245.86
740.79	245.50
741.12	245.15
741.45	244.77
741.78	244.35
742.11	244.09
742.44	243.70
742.77	243.39
743.10	243.06
743.43	242.77
743.75	242.18
744.08	242.11
744.41	241.75
744.74	241.38
745.07	241.04
745.40	240.73
745.73	240.50
746.06	240.17
746.39	239.88
746.71	239.55
747.04	239.22
747.37	238.93
747.70	238.63
748.03	238.28
748.36	238.00
748.68	237.66
749.01	237.29
749.34	237.02
749.67	236.75
750.00	236.47
750.33	236.33
750.65	236.04
750.98	235.51
751.31	235.25
751.64	235.00
751.97	234.86
752.29	234.61
752.62	234.28
752.95	234.01
753.28	233.73
753.60	233.50
753.93	233.32
754.26	233.09
754.59	232.85
754.91	232.66
755.24	232.44
755.57	232.25
755.90	232.08
756.22	231.82
756.55	231.57
756.88	231.32
757.20	231.00
757.53	230.78
757.86	230.59
758.19	230.41
758.51	230.22
758.84	229.91
759.17	229.71
759.49	229.54
759.82	229.49
760.15	229.32
760.47	229.14
760.80	228.88
761.13	228.74
761.45	228.52
761.78	228.30
762.11	228.09
762.43	227.92
762.76	227.73
763.08	227.61
763.41	227.46
763.74	227.30
764.06	227.13
764.39	226.99
764.71	226.85
765.04	226.68
765.37	226.51
765.69	226.34
766.02	226.20
766.34	226.05
766.67	225.82
767.00	225.76
767.32	225.73
767.65	225.75
767.97	225.61
768.30	225.51
768.62	225.39
768.95	225.26
769.27	225.12
769.60	225.01
769.92	224.84
770.25	224.67
770.57	224.56
770.90	224.46
771.22	224.35
771.55	224.24
771.87	224.16
772.20	224.06
772.52	224.14
772.85	224.27
773.17	224.14
773.50	224.04
773.82	223.87
774.15	223.66
774.47	223.41
774.80	223.28
775.12	223.21
775.45	223.14
775.77	223.06
776.09	223.00
776.42	222.91
776.74	222.87
777.07	222.81
777.39	222.71
777.72	222.59
778.04	222.55
778.36	222.42
778.69	222.35
779.01	222.29
779.33	222.04
779.66	221.69
779.98	221.62
780.31	221.51
780.63	221.52
780.95	221.50
781.28	221.45
781.60	221.39
781.92	221.31
782.25	221.22
782.57	221.17
782.89	221.09
783.22	221.01
783.54	220.93
783.86	220.90
784.19	220.83
784.51	220.85
784.83	220.72
785.16	220.68
785.48	220.59
785.80	220.53
786.12	220.50
