SpectraSuite Data File
++++++++++++++++++++++++++++++++++++
Date: Tue Jan 29 16:28:27 EST 2013
User: group
Dark Spectrum Present: No
Reference Spectrum Present: No
Number of Sampled Component Spectra: 1
Spectrometers: USB2E7196
Integration Time (usec): 65000 (USB2E7196)
Spectra Averaged: 100 (USB2E7196)
Boxcar Smoothing: 10 (USB2E7196)
Correct for Electrical Dark: No (USB2E7196)
Strobe/Lamp Enabled: No (USB2E7196)
Correct for Detector Non-linearity: No (USB2E7196)
Correct for Stray Light: No (USB2E7196)
Number of Pixels in Processed Spectrum: 2048
>>>>>Begin Processed Spectral Data<<<<<
339.09	0.00
339.48	202.35
339.86	204.02
340.24	205.22
340.63	206.80
341.01	211.10
341.39	208.89
341.78	211.02
342.16	212.12
342.54	212.69
342.93	201.63
343.31	211.83
343.69	212.38
344.07	212.83
344.46	213.30
344.84	213.74
345.22	213.90
345.60	214.19
345.99	214.39
346.37	214.53
346.75	214.65
347.13	214.71
347.52	214.77
347.90	214.86
348.28	214.89
348.66	215.01
349.05	214.98
349.43	215.01
349.81	215.08
350.19	215.11
350.57	215.19
350.96	215.28
351.34	215.35
351.72	215.45
352.10	215.55
352.48	215.59
352.87	215.57
353.25	215.64
353.63	215.69
354.01	215.72
354.39	215.77
354.77	215.81
355.15	215.96
355.54	216.00
355.92	216.00
356.30	216.06
356.68	216.23
357.06	216.29
357.44	216.32
357.82	216.34
358.20	216.42
358.58	216.48
358.97	216.52
359.35	216.62
359.73	216.69
360.11	216.75
360.49	216.81
360.87	216.86
361.25	216.90
361.63	217.04
362.01	217.13
362.39	217.17
362.77	217.24
363.15	217.25
363.53	217.30
363.91	217.33
364.29	217.35
364.67	217.20
365.05	217.21
365.43	217.27
365.81	217.32
366.19	217.43
366.57	217.50
366.95	217.52
367.33	217.48
367.71	217.46
368.09	217.50
368.47	217.49
368.85	217.49
369.23	217.55
369.61	217.45
369.99	217.52
370.37	217.53
370.75	217.59
371.13	217.51
371.51	217.47
371.89	217.48
372.27	217.48
372.65	217.45
373.03	217.44
373.41	217.39
373.78	217.32
374.16	217.17
374.54	217.08
374.92	217.02
375.30	217.00
375.68	216.92
376.06	216.89
376.44	216.84
376.82	216.81
377.19	216.77
377.57	216.71
377.95	216.58
378.33	216.53
378.71	216.37
379.09	216.37
379.47	216.36
379.84	216.27
380.22	216.23
380.60	216.19
380.98	216.12
381.36	216.10
381.73	216.07
382.11	216.06
382.49	216.01
382.87	215.98
383.25	215.91
383.62	216.14
384.00	216.05
384.38	216.02
384.76	216.02
385.13	216.05
385.51	216.02
385.89	215.96
386.27	215.91
386.64	215.90
387.02	215.82
387.40	215.75
387.78	215.75
388.15	215.71
388.53	215.67
388.91	215.66
389.29	215.60
389.66	215.60
390.04	215.58
390.42	215.59
390.79	215.57
391.17	215.58
391.55	215.30
391.92	215.31
392.30	215.32
392.68	215.25
393.05	215.21
393.43	215.24
393.81	215.23
394.18	215.21
394.56	215.20
394.94	215.26
395.31	215.27
395.69	215.33
396.06	215.33
396.44	215.37
396.82	215.39
397.19	215.54
397.57	215.55
397.95	215.59
398.32	215.55
398.70	215.57
399.07	215.63
399.45	215.67
399.82	215.71
400.20	215.74
400.58	215.82
400.95	215.79
401.33	215.88
401.70	216.10
402.08	216.20
402.45	216.31
402.83	216.46
403.20	216.56
403.58	216.65
403.95	216.82
404.33	216.95
404.71	217.05
405.08	217.28
405.46	217.43
405.83	217.61
406.21	217.85
406.58	218.10
406.96	218.33
407.33	218.61
407.70	218.91
408.08	219.36
408.45	219.71
408.83	220.13
409.20	220.49
409.58	220.74
409.95	221.20
410.33	221.66
410.70	222.06
411.08	222.64
411.45	223.21
411.82	223.79
412.20	224.49
412.57	225.32
412.95	225.92
413.32	226.75
413.69	227.60
414.07	228.49
414.44	229.48
414.82	230.51
415.19	231.68
415.56	232.88
415.94	234.08
416.31	235.50
416.68	236.89
417.06	238.49
417.43	240.07
417.81	241.80
418.18	243.62
418.55	245.57
418.93	247.60
419.30	249.69
419.67	251.89
420.04	254.17
420.42	256.57
420.79	259.38
421.16	262.16
421.54	265.06
421.91	268.08
422.28	271.18
422.66	274.43
423.03	277.69
423.40	281.02
423.77	284.59
424.15	288.19
424.52	291.97
424.89	296.13
425.26	300.19
425.64	304.08
426.01	308.34
426.38	312.79
426.75	317.32
427.13	322.04
427.50	327.07
427.87	332.28
428.24	337.45
428.61	342.39
428.99	347.92
429.36	353.91
429.73	359.79
430.10	365.62
430.47	371.67
430.85	377.92
431.22	384.61
431.59	391.69
431.96	398.57
432.33	406.10
432.70	413.31
433.08	421.89
433.45	429.94
433.82	437.97
434.19	446.86
434.56	455.60
434.93	463.96
435.30	472.19
435.68	481.31
436.05	490.28
436.42	499.18
436.79	507.33
437.16	516.09
437.53	525.27
437.90	534.42
438.27	543.45
438.64	552.73
439.01	561.26
439.38	568.85
439.75	576.12
440.13	584.55
440.50	592.50
440.87	598.89
441.24	605.54
441.61	612.83
441.98	618.15
442.35	624.42
442.72	630.68
443.09	636.70
443.46	640.41
443.83	642.91
444.20	645.11
444.57	648.25
444.94	649.74
445.31	651.22
445.68	652.63
446.05	653.17
446.42	652.31
446.79	651.40
447.16	650.30
447.53	649.55
447.90	646.28
448.27	642.98
448.64	638.32
449.01	634.94
449.37	629.05
449.74	623.40
450.11	616.47
450.48	609.12
450.85	601.71
451.22	595.27
451.59	589.16
451.96	583.35
452.33	575.43
452.70	568.37
453.07	559.94
453.43	551.29
453.80	543.00
454.17	535.12
454.54	527.52
454.91	519.43
455.28	511.44
455.65	503.98
456.02	496.51
456.38	490.20
456.75	482.33
457.12	475.81
457.49	469.33
457.86	463.19
458.23	457.81
458.59	451.88
458.96	445.90
459.33	440.65
459.70	435.28
460.07	431.04
460.43	426.05
460.80	421.46
461.17	417.53
461.54	413.40
461.91	409.33
462.27	405.24
462.64	401.76
463.01	398.03
463.38	394.32
463.74	390.59
464.11	387.31
464.48	384.53
464.85	381.44
465.21	379.00
465.58	376.36
465.95	373.24
466.32	370.61
466.68	368.00
467.05	365.38
467.42	362.86
467.78	360.23
468.15	357.76
468.52	355.88
468.88	353.38
469.25	351.12
469.62	349.32
469.98	347.37
470.35	345.60
470.72	343.93
471.08	342.16
471.45	340.71
471.82	339.18
472.18	337.52
472.55	336.30
472.92	334.92
473.28	333.73
473.65	332.61
474.02	331.53
474.38	330.65
474.75	329.91
475.11	329.11
475.48	328.53
475.85	328.02
476.21	327.49
476.58	327.14
476.94	326.93
477.31	326.61
477.67	326.33
478.04	326.13
478.41	326.04
478.77	326.19
479.14	326.14
479.50	326.28
479.87	326.56
480.23	326.90
480.60	327.15
480.96	327.45
481.33	328.02
481.69	328.59
482.06	329.11
482.42	329.62
482.79	330.23
483.15	331.04
483.52	332.04
483.88	332.97
484.25	333.94
484.61	334.93
484.98	336.00
485.34	337.37
485.71	338.78
486.07	340.22
486.44	341.56
486.80	343.18
487.17	344.87
487.53	346.70
487.90	348.52
488.26	350.57
488.62	352.70
488.99	354.73
489.35	356.89
489.72	359.31
490.08	361.79
490.44	364.32
490.81	367.04
491.17	369.69
491.54	372.68
491.90	375.75
492.26	379.06
492.63	382.49
492.99	385.96
493.36	389.60
493.72	393.52
494.08	397.54
494.45	401.76
494.81	406.14
495.17	410.58
495.54	415.29
495.90	420.14
496.26	425.15
496.63	430.40
496.99	435.77
497.35	441.34
497.72	447.25
498.08	453.20
498.44	459.35
498.80	465.81
499.17	472.32
499.53	479.06
499.89	485.93
500.26	492.96
500.62	500.13
500.98	507.56
501.34	515.07
501.71	522.95
502.07	530.83
502.43	538.89
502.79	547.15
503.16	555.64
503.52	564.27
503.88	573.02
504.24	582.01
504.60	591.10
504.97	600.44
505.33	609.71
505.69	619.58
506.05	629.45
506.41	639.43
506.78	649.52
507.14	659.77
507.50	670.26
507.86	681.04
508.22	691.85
508.59	702.59
508.95	713.74
509.31	724.99
509.67	736.51
510.03	748.06
510.39	759.86
510.75	771.74
511.12	783.76
511.48	795.92
511.84	808.24
512.20	820.73
512.56	833.41
512.92	846.31
513.28	859.08
513.64	871.92
514.00	884.80
514.37	897.84
514.73	911.10
515.09	924.16
515.45	937.13
515.81	950.30
516.17	963.80
516.53	977.08
516.89	990.26
517.25	1003.48
517.61	1017.06
517.97	1030.41
518.33	1043.66
518.69	1057.30
519.05	1071.14
519.41	1084.99
519.77	1099.02
520.13	1112.35
520.49	1125.70
520.85	1139.21
521.21	1152.70
521.57	1166.56
521.93	1179.84
522.29	1193.59
522.65	1207.41
523.01	1221.24
523.37	1234.54
523.73	1248.02
524.09	1261.25
524.45	1274.87
524.81	1288.52
525.17	1302.00
525.53	1315.46
525.89	1328.94
526.25	1342.22
526.61	1355.20
526.97	1368.35
527.33	1381.37
527.68	1395.07
528.04	1408.65
528.40	1421.90
528.76	1435.43
529.12	1448.48
529.48	1461.91
529.84	1474.44
530.20	1487.35
530.56	1499.99
530.91	1513.42
531.27	1526.36
531.63	1539.33
531.99	1552.16
532.35	1564.43
532.71	1577.02
533.07	1590.03
533.42	1602.43
533.78	1614.77
534.14	1627.03
534.50	1638.44
534.86	1650.25
535.21	1661.16
535.57	1672.74
535.93	1684.10
536.29	1695.13
536.65	1706.61
537.00	1717.66
537.36	1729.17
537.72	1740.21
538.08	1751.65
538.44	1762.68
538.79	1773.90
539.15	1785.01
539.51	1795.91
539.87	1807.43
540.22	1818.20
540.58	1829.13
540.94	1840.03
541.29	1850.29
541.65	1860.04
542.01	1870.50
542.37	1880.58
542.72	1890.91
543.08	1900.85
543.44	1911.50
543.79	1921.13
544.15	1930.68
544.51	1940.85
544.87	1950.82
545.22	1960.13
545.58	1969.25
545.94	1978.20
546.29	1986.77
546.65	1995.07
547.01	2003.34
547.36	2011.12
547.72	2019.03
548.07	2026.90
548.43	2034.80
548.79	2042.71
549.14	2051.02
549.50	2059.66
549.86	2067.64
550.21	2075.09
550.57	2082.86
550.92	2089.65
551.28	2097.06
551.64	2104.39
551.99	2111.87
552.35	2119.08
552.70	2126.01
553.06	2132.76
553.41	2139.14
553.77	2145.73
554.13	2152.19
554.48	2159.39
554.84	2166.53
555.19	2173.05
555.55	2179.51
555.90	2185.74
556.26	2192.64
556.61	2198.72
556.97	2203.69
557.32	2209.54
557.68	2216.08
558.03	2221.76
558.39	2227.22
558.74	2233.27
559.10	2238.87
559.45	2244.40
559.81	2250.00
560.16	2255.61
560.52	2261.43
560.87	2267.83
561.23	2273.77
561.58	2280.42
561.94	2285.57
562.29	2290.25
562.64	2296.49
563.00	2302.09
563.35	2307.74
563.71	2313.44
564.06	2319.19
564.42	2325.20
564.77	2330.28
565.12	2335.64
565.48	2340.90
565.83	2346.51
566.19	2351.90
566.54	2357.25
566.89	2362.11
567.25	2366.68
567.60	2372.49
567.96	2377.59
568.31	2382.30
568.66	2386.69
569.02	2390.75
569.37	2394.62
569.72	2399.14
570.08	2402.74
570.43	2406.02
570.78	2409.20
571.14	2411.85
571.49	2415.02
571.84	2418.59
572.20	2421.57
572.55	2424.45
572.90	2426.81
573.26	2429.47
573.61	2432.15
573.96	2434.30
574.31	2436.12
574.67	2438.16
575.02	2438.85
575.37	2440.35
575.72	2440.88
576.08	2442.29
576.43	2442.37
576.78	2442.82
577.13	2444.39
577.49	2445.53
577.84	2446.43
578.19	2447.71
578.54	2448.26
578.90	2448.91
579.25	2448.76
579.60	2448.80
579.95	2448.13
580.30	2448.05
580.66	2447.30
581.01	2445.59
581.36	2443.28
581.71	2442.02
582.06	2440.75
582.42	2439.97
582.77	2437.77
583.12	2436.24
583.47	2434.78
583.82	2434.27
584.17	2433.03
584.53	2430.92
584.88	2428.77
585.23	2426.93
585.58	2424.58
585.93	2422.60
586.28	2420.34
586.63	2417.81
586.98	2415.39
587.34	2413.33
587.69	2410.80
588.04	2408.74
588.39	2407.22
588.74	2404.61
589.09	2401.77
589.44	2398.59
589.79	2395.99
590.14	2393.96
590.49	2391.12
590.84	2387.27
591.19	2384.07
591.54	2380.76
591.89	2376.72
592.25	2373.34
592.60	2369.13
592.95	2364.99
593.30	2360.79
593.65	2356.36
594.00	2351.77
594.35	2348.70
594.70	2343.93
595.05	2339.57
595.40	2334.12
595.75	2328.23
596.10	2324.66
596.45	2319.76
596.80	2315.18
597.15	2309.84
597.50	2304.06
597.85	2299.14
598.19	2293.96
598.54	2288.10
598.89	2282.78
599.24	2278.24
599.59	2271.99
599.94	2266.01
600.29	2260.07
600.64	2254.05
600.99	2247.29
601.34	2241.82
601.69	2234.91
602.04	2228.69
602.39	2221.90
602.74	2215.77
603.08	2210.31
603.43	2203.82
603.78	2197.03
604.13	2189.79
604.48	2182.45
604.83	2176.13
605.18	2169.76
605.53	2162.85
605.87	2155.74
606.22	2148.82
606.57	2140.69
606.92	2132.68
607.27	2125.80
607.62	2119.20
607.96	2112.25
608.31	2105.71
608.66	2098.02
609.01	2090.24
609.36	2083.01
609.70	2075.26
610.05	2067.49
610.40	2059.21
610.75	2050.70
611.10	2042.83
611.44	2033.86
611.79	2025.22
612.14	2015.15
612.49	2004.37
612.83	1994.88
613.18	1985.57
613.53	1976.39
613.88	1966.67
614.22	1958.13
614.57	1948.21
614.92	1937.46
615.27	1927.05
615.61	1916.89
615.96	1907.11
616.31	1897.53
616.65	1887.91
617.00	1878.17
617.35	1868.40
617.70	1858.50
618.04	1848.53
618.39	1838.49
618.74	1828.85
619.08	1819.17
619.43	1810.43
619.78	1802.28
620.12	1793.64
620.47	1784.00
620.82	1773.62
621.16	1763.80
621.51	1753.81
621.85	1743.81
622.20	1733.43
622.55	1722.82
622.89	1712.87
623.24	1703.07
623.59	1693.26
623.93	1683.13
624.28	1673.16
624.62	1662.89
624.97	1652.54
625.32	1642.59
625.66	1633.41
626.01	1624.60
626.35	1615.12
626.70	1605.00
627.04	1594.82
627.39	1584.69
627.73	1575.38
628.08	1566.26
628.43	1556.74
628.77	1547.42
629.12	1538.45
629.46	1530.54
629.81	1522.21
630.15	1512.64
630.50	1502.77
630.84	1492.08
631.19	1482.10
631.53	1472.88
631.88	1462.68
632.22	1452.60
632.57	1443.17
632.91	1433.07
633.26	1423.15
633.60	1413.56
633.95	1404.21
634.29	1394.58
634.64	1385.11
634.98	1375.05
635.32	1365.74
635.67	1357.08
636.01	1347.62
636.36	1337.77
636.70	1328.19
637.05	1318.71
637.39	1309.72
637.73	1301.04
638.08	1293.42
638.42	1285.23
638.77	1276.23
639.11	1268.02
639.45	1260.24
639.80	1251.65
640.14	1242.82
640.49	1233.84
640.83	1224.93
641.17	1216.63
641.52	1208.38
641.86	1199.73
642.20	1191.80
642.55	1183.05
642.89	1174.15
643.23	1165.52
643.58	1157.37
643.92	1148.17
644.26	1139.39
644.61	1130.84
644.95	1121.86
645.29	1112.58
645.64	1103.26
645.98	1094.70
646.32	1086.65
646.66	1077.99
647.01	1069.56
647.35	1061.34
647.69	1052.97
648.04	1044.67
648.38	1035.81
648.72	1026.93
649.06	1018.40
649.41	1009.96
649.75	1001.94
650.09	993.99
650.43	985.91
650.78	977.54
651.12	969.80
651.46	962.31
651.80	954.97
652.14	947.72
652.49	940.04
652.83	932.65
653.17	924.94
653.51	917.27
653.85	909.98
654.20	902.72
654.54	895.15
654.88	887.81
655.22	880.42
655.56	873.32
655.90	866.50
656.25	859.66
656.59	852.80
656.93	845.69
657.27	838.52
657.61	831.43
657.95	825.30
658.29	819.31
658.64	813.07
658.98	806.46
659.32	799.78
659.66	793.41
660.00	787.01
660.34	780.83
660.68	774.62
661.02	768.16
661.36	762.06
661.70	756.26
662.05	750.60
662.39	745.01
662.73	739.55
663.07	734.09
663.41	728.45
663.75	722.67
664.09	716.96
664.43	711.40
664.77	706.01
665.11	700.09
665.45	694.09
665.79	688.18
666.13	682.42
666.47	676.84
666.81	671.42
667.15	665.94
667.49	660.71
667.83	655.41
668.17	650.10
668.51	644.90
668.85	639.87
669.19	634.86
669.53	629.79
669.87	624.56
670.21	619.76
670.55	615.00
670.89	610.51
671.23	606.13
671.57	601.68
671.91	597.29
672.25	593.05
672.58	588.89
672.92	584.81
673.26	580.84
673.60	576.91
673.94	573.08
674.28	569.37
674.62	565.52
674.96	561.74
675.30	558.18
675.64	554.51
675.97	550.91
676.31	547.22
676.65	543.62
676.99	540.18
677.33	536.26
677.67	532.56
678.01	528.69
678.34	524.96
678.68	521.38
679.02	517.84
679.36	514.15
679.70	510.44
680.04	506.88
680.37	503.37
680.71	500.04
681.05	496.80
681.39	493.56
681.73	490.37
682.06	487.30
682.40	484.21
682.74	480.96
683.08	477.66
683.42	474.43
683.75	471.36
684.09	468.28
684.43	465.50
684.77	462.52
685.10	459.61
685.44	456.68
685.78	453.78
686.12	450.92
686.45	448.16
686.79	445.46
687.13	442.83
687.46	440.23
687.80	437.51
688.14	434.60
688.48	431.89
688.81	429.17
689.15	426.51
689.49	423.79
689.82	421.20
690.16	418.60
690.50	416.15
690.83	413.61
691.17	411.02
691.51	408.49
691.84	406.24
692.18	403.99
692.52	401.77
692.85	399.61
693.19	397.47
693.52	395.28
693.86	393.03
694.20	390.77
694.53	388.58
694.87	386.31
695.21	384.22
695.54	382.02
695.88	379.88
696.21	377.70
696.55	375.58
696.88	373.52
697.22	371.48
697.56	369.54
697.89	367.63
698.23	365.89
698.56	364.05
698.90	362.24
699.23	360.28
699.57	358.38
699.90	356.43
700.24	354.51
700.58	352.74
700.91	351.04
701.25	349.49
701.58	347.83
701.92	346.24
702.25	344.55
702.59	342.94
702.92	341.30
703.26	339.69
703.59	338.15
703.93	336.88
704.26	335.48
704.60	333.90
704.93	332.39
705.26	330.87
705.60	329.41
705.93	327.85
706.27	326.51
706.60	325.22
706.94	324.02
707.27	322.65
707.61	321.27
707.94	319.94
708.27	318.38
708.61	316.96
708.94	315.56
709.28	314.25
709.61	313.01
709.94	311.81
710.28	310.59
710.61	309.41
710.95	307.93
711.28	306.78
711.61	305.57
711.95	304.44
712.28	303.19
712.61	301.95
712.95	300.87
713.28	299.83
713.61	298.65
713.95	297.44
714.28	296.40
714.61	295.34
714.95	294.31
715.28	293.29
715.61	292.26
715.95	291.28
716.28	290.31
716.61	289.33
716.95	288.33
717.28	287.41
717.61	286.44
717.94	285.57
718.28	284.55
718.61	283.68
718.94	282.78
719.27	281.89
719.61	281.11
719.94	280.22
720.27	279.20
720.60	278.34
720.94	277.55
721.27	276.79
721.60	276.09
721.93	275.33
722.27	274.69
722.60	273.99
722.93	273.27
723.26	272.58
723.59	271.86
723.93	271.17
724.26	270.50
724.59	269.88
724.92	269.25
725.25	268.69
725.59	268.13
725.92	267.56
726.25	267.00
726.58	266.42
726.91	265.83
727.24	265.33
727.57	264.76
727.91	264.13
728.24	263.56
728.57	262.93
728.90	262.37
729.23	261.74
729.56	261.30
729.89	260.75
730.22	260.21
730.55	259.63
730.89	259.16
731.22	258.63
731.55	258.09
731.88	257.56
732.21	256.98
732.54	256.42
732.87	255.94
733.20	255.47
733.53	254.94
733.86	254.48
734.19	253.96
734.52	253.53
734.85	253.23
735.18	252.75
735.51	252.39
735.84	251.94
736.17	251.60
736.50	251.05
736.83	250.90
737.16	250.51
737.49	250.14
737.82	249.70
738.15	249.31
738.48	248.94
738.81	248.55
739.14	248.15
739.47	247.78
739.80	247.38
740.13	247.01
740.46	246.61
740.79	246.23
741.12	245.91
741.45	245.57
741.78	245.13
742.11	244.87
742.44	244.49
742.77	244.23
743.10	243.84
743.43	243.51
743.75	242.93
744.08	242.83
744.41	242.46
744.74	242.08
745.07	241.72
745.40	241.37
745.73	241.10
746.06	240.78
746.39	240.48
746.71	240.15
747.04	239.79
747.37	239.46
747.70	239.13
748.03	238.80
748.36	238.50
748.68	238.19
749.01	237.80
749.34	237.50
749.67	237.17
750.00	236.88
750.33	236.75
750.65	236.49
750.98	235.96
751.31	235.78
751.64	235.56
751.97	235.42
752.29	235.15
752.62	234.79
752.95	234.53
753.28	234.24
753.60	233.98
753.93	233.80
754.26	233.62
754.59	233.36
754.91	233.11
755.24	232.85
755.57	232.59
755.90	232.36
756.22	232.13
756.55	231.91
756.88	231.66
757.20	231.30
757.53	231.02
757.86	230.81
758.19	230.59
758.51	230.38
758.84	230.07
759.17	229.86
759.49	229.70
759.82	229.66
760.15	229.49
760.47	229.30
760.80	229.05
761.13	228.86
761.45	228.66
761.78	228.49
762.11	228.33
762.43	228.15
762.76	227.96
763.08	227.81
763.41	227.64
763.74	227.50
764.06	227.35
764.39	227.20
764.71	227.02
765.04	226.87
765.37	226.72
765.69	226.57
766.02	226.41
766.34	226.28
766.67	226.03
767.00	225.95
767.32	225.94
767.65	225.93
767.97	225.77
768.30	225.68
768.62	225.53
768.95	225.38
769.27	225.26
769.60	225.18
769.92	225.02
770.25	224.86
770.57	224.70
770.90	224.60
771.22	224.46
771.55	224.38
771.87	224.29
772.20	224.15
772.52	224.22
772.85	224.36
773.17	224.24
773.50	224.14
773.82	223.99
774.15	223.81
774.47	223.59
774.80	223.52
775.12	223.41
775.45	223.36
775.77	223.28
776.09	223.20
776.42	223.08
776.74	223.05
777.07	222.95
777.39	222.89
777.72	222.79
778.04	222.73
778.36	222.65
778.69	222.53
779.01	222.49
779.33	222.21
779.66	221.92
779.98	221.80
780.31	221.72
780.63	221.71
780.95	221.65
781.28	221.55
781.60	221.43
781.92	221.36
782.25	221.25
782.57	221.18
782.89	221.10
783.22	221.06
783.54	220.95
783.86	220.89
784.19	220.82
784.51	220.78
784.83	220.71
785.16	220.63
785.48	220.57
785.80	220.50
786.12	220.46
