SpectraSuite Data File
++++++++++++++++++++++++++++++++++++
Date: Tue Jan 29 16:31:48 EST 2013
User: group
Dark Spectrum Present: No
Reference Spectrum Present: No
Number of Sampled Component Spectra: 1
Spectrometers: USB2E7196
Integration Time (usec): 65000 (USB2E7196)
Spectra Averaged: 100 (USB2E7196)
Boxcar Smoothing: 10 (USB2E7196)
Correct for Electrical Dark: No (USB2E7196)
Strobe/Lamp Enabled: No (USB2E7196)
Correct for Detector Non-linearity: No (USB2E7196)
Correct for Stray Light: No (USB2E7196)
Number of Pixels in Processed Spectrum: 2048
>>>>>Begin Processed Spectral Data<<<<<
339.09	0.00
339.48	201.96
339.86	203.34
340.24	204.57
340.63	206.56
341.01	210.70
341.39	208.92
341.78	210.58
342.16	212.01
342.54	211.77
342.93	201.23
343.31	211.38
343.69	211.93
344.07	212.39
344.46	212.87
344.84	213.25
345.22	213.45
345.60	213.71
345.99	213.92
346.37	214.07
346.75	214.21
347.13	214.29
347.52	214.33
347.90	214.47
348.28	214.53
348.66	214.61
349.05	214.60
349.43	214.69
349.81	214.78
350.19	214.87
350.57	214.94
350.96	215.06
351.34	215.19
351.72	215.30
352.10	215.41
352.48	215.48
352.87	215.53
353.25	215.55
353.63	215.63
354.01	215.68
354.39	215.75
354.77	215.82
355.15	215.93
355.54	215.99
355.92	216.00
356.30	216.05
356.68	216.26
357.06	216.35
357.44	216.38
357.82	216.40
358.20	216.49
358.58	216.56
358.97	216.60
359.35	216.70
359.73	216.79
360.11	216.87
360.49	216.93
360.87	216.97
361.25	217.06
361.63	217.17
362.01	217.23
362.39	217.27
362.77	217.31
363.15	217.32
363.53	217.34
363.91	217.35
364.29	217.36
364.67	217.15
365.05	217.17
365.43	217.22
365.81	217.27
366.19	217.35
366.57	217.40
366.95	217.35
367.33	217.28
367.71	217.29
368.09	217.32
368.47	217.29
368.85	217.28
369.23	217.30
369.61	217.21
369.99	217.23
370.37	217.21
370.75	217.30
371.13	217.24
371.51	217.19
371.89	217.16
372.27	217.13
372.65	217.12
373.03	217.09
373.41	217.02
373.78	216.95
374.16	216.78
374.54	216.70
374.92	216.69
375.30	216.64
375.68	216.52
376.06	216.47
376.44	216.42
376.82	216.41
377.19	216.36
377.57	216.32
377.95	216.19
378.33	216.12
378.71	215.92
379.09	215.91
379.47	215.89
379.84	215.84
380.22	215.80
380.60	215.73
380.98	215.63
381.36	215.58
381.73	215.52
382.11	215.55
382.49	215.49
382.87	215.40
383.25	215.37
383.62	215.59
384.00	215.49
384.38	215.46
384.76	215.48
385.13	215.52
385.51	215.46
385.89	215.42
386.27	215.42
386.64	215.45
387.02	215.40
387.40	215.39
387.78	215.37
388.15	215.37
388.53	215.39
388.91	215.36
389.29	215.35
389.66	215.35
390.04	215.31
390.42	215.37
390.79	215.40
391.17	215.38
391.55	215.14
391.92	215.15
392.30	215.18
392.68	215.10
393.05	215.06
393.43	215.10
393.81	215.11
394.18	215.06
394.56	215.04
394.94	215.10
395.31	215.07
395.69	215.14
396.06	215.17
396.44	215.21
396.82	215.24
397.19	215.36
397.57	215.37
397.95	215.46
398.32	215.41
398.70	215.43
399.07	215.53
399.45	215.57
399.82	215.61
400.20	215.63
400.58	215.72
400.95	215.69
401.33	215.78
401.70	216.01
402.08	216.13
402.45	216.23
402.83	216.36
403.20	216.49
403.58	216.57
403.95	216.72
404.33	216.86
404.71	217.03
405.08	217.27
405.46	217.45
405.83	217.65
406.21	217.85
406.58	218.12
406.96	218.32
407.33	218.61
407.70	218.95
408.08	219.43
408.45	219.78
408.83	220.21
409.20	220.52
409.58	220.80
409.95	221.27
410.33	221.74
410.70	222.19
411.08	222.74
411.45	223.29
411.82	223.86
412.20	224.55
412.57	225.37
412.95	225.94
413.32	226.80
413.69	227.60
414.07	228.53
414.44	229.51
414.82	230.55
415.19	231.72
415.56	232.86
415.94	234.04
416.31	235.46
416.68	236.82
417.06	238.45
417.43	240.00
417.81	241.75
418.18	243.56
418.55	245.48
418.93	247.52
419.30	249.63
419.67	251.83
420.04	254.11
420.42	256.52
420.79	259.35
421.16	262.12
421.54	265.02
421.91	267.98
422.28	271.05
422.66	274.32
423.03	277.55
423.40	280.96
423.77	284.52
424.15	288.17
424.52	292.04
424.89	296.24
425.26	300.31
425.64	304.14
426.01	308.45
426.38	312.95
426.75	317.52
427.13	322.23
427.50	327.24
427.87	332.45
428.24	337.62
428.61	342.64
428.99	348.18
429.36	354.24
429.73	360.11
430.10	366.04
430.47	372.17
430.85	378.51
431.22	385.19
431.59	392.29
431.96	399.14
432.33	406.63
432.70	413.85
433.08	422.40
433.45	430.46
433.82	438.48
434.19	447.37
434.56	456.02
434.93	464.44
435.30	472.69
435.68	481.80
436.05	490.81
436.42	499.79
436.79	507.89
437.16	516.60
437.53	525.91
437.90	535.04
438.27	543.98
438.64	553.19
439.01	561.68
439.38	569.29
439.75	576.60
440.13	584.98
440.50	592.97
440.87	599.35
441.24	606.08
441.61	613.34
441.98	618.73
442.35	625.06
442.72	631.33
443.09	637.41
443.46	641.20
443.83	643.69
444.20	645.84
444.57	648.98
444.94	650.49
445.31	651.96
445.68	653.37
446.05	654.02
446.42	653.24
446.79	652.37
447.16	651.31
447.53	650.57
447.90	647.26
448.27	643.92
448.64	639.31
449.01	635.98
449.37	630.12
449.74	624.43
450.11	617.49
450.48	610.15
450.85	602.72
451.22	596.15
451.59	590.07
451.96	584.13
452.33	576.29
452.70	569.16
453.07	560.63
453.43	551.97
453.80	543.64
454.17	535.60
454.54	527.99
454.91	519.78
455.28	511.74
455.65	504.37
456.02	496.88
456.38	490.52
456.75	482.58
457.12	476.03
457.49	469.52
457.86	463.38
458.23	457.92
458.59	452.01
458.96	446.05
459.33	440.76
459.70	435.44
460.07	431.15
460.43	426.25
460.80	421.68
461.17	417.70
461.54	413.50
461.91	409.55
462.27	405.42
462.64	402.00
463.01	398.24
463.38	394.52
463.74	390.81
464.11	387.56
464.48	384.77
464.85	381.66
465.21	379.22
465.58	376.61
465.95	373.51
466.32	370.87
466.68	368.25
467.05	365.63
467.42	363.04
467.78	360.37
468.15	357.81
468.52	355.92
468.88	353.41
469.25	351.18
469.62	349.34
469.98	347.40
470.35	345.60
470.72	343.92
471.08	342.11
471.45	340.62
471.82	339.10
472.18	337.44
472.55	336.20
472.92	334.80
473.28	333.55
473.65	332.40
474.02	331.30
474.38	330.43
474.75	329.67
475.11	328.87
475.48	328.33
475.85	327.87
476.21	327.34
476.58	327.01
476.94	326.78
477.31	326.45
477.67	326.21
478.04	326.06
478.41	325.97
478.77	326.10
479.14	326.05
479.50	326.24
479.87	326.54
480.23	326.86
480.60	327.11
480.96	327.39
481.33	327.95
481.69	328.49
482.06	328.99
482.42	329.45
482.79	330.03
483.15	330.82
483.52	331.75
483.88	332.68
484.25	333.61
484.61	334.60
484.98	335.72
485.34	337.05
485.71	338.35
486.07	339.81
486.44	341.18
486.80	342.78
487.17	344.41
487.53	346.18
487.90	348.09
488.26	350.12
488.62	352.36
488.99	354.44
489.35	356.58
489.72	358.97
490.08	361.52
490.44	364.13
490.81	366.78
491.17	369.49
491.54	372.42
491.90	375.46
492.26	378.69
492.63	382.12
492.99	385.63
493.36	389.36
493.72	393.25
494.08	397.25
494.45	401.48
494.81	405.89
495.17	410.40
495.54	415.07
495.90	419.94
496.26	424.84
496.63	430.05
496.99	435.53
497.35	441.12
497.72	446.93
498.08	452.87
498.44	459.07
498.80	465.56
499.17	472.09
499.53	478.82
499.89	485.80
500.26	492.80
500.62	499.88
500.98	507.28
501.34	514.77
501.71	522.63
502.07	530.48
502.43	538.51
502.79	546.67
503.16	555.10
503.52	563.73
503.88	572.45
504.24	581.45
504.60	590.53
504.97	599.82
505.33	609.18
505.69	619.11
506.05	628.94
506.41	638.84
506.78	649.03
507.14	659.38
507.50	669.84
507.86	680.57
508.22	691.39
508.59	702.09
508.95	713.27
509.31	724.52
509.67	736.06
510.03	747.50
510.39	759.35
510.75	771.28
511.12	783.28
511.48	795.45
511.84	807.78
512.20	820.14
512.56	832.96
512.92	845.88
513.28	858.48
513.64	871.37
514.00	884.26
514.37	897.17
514.73	910.39
515.09	923.44
515.45	936.34
515.81	949.52
516.17	963.06
516.53	976.43
516.89	989.63
517.25	1002.92
517.61	1016.49
517.97	1029.90
518.33	1043.09
518.69	1056.75
519.05	1070.65
519.41	1084.50
519.77	1098.52
520.13	1111.78
520.49	1124.99
520.85	1138.55
521.21	1151.99
521.57	1165.76
521.93	1179.07
522.29	1192.77
522.65	1206.61
523.01	1220.40
523.37	1233.68
523.73	1247.05
524.09	1260.25
524.45	1273.78
524.81	1287.36
525.17	1300.92
525.53	1314.29
525.89	1327.72
526.25	1340.90
526.61	1353.85
526.97	1366.98
527.33	1380.06
527.68	1393.65
528.04	1407.28
528.40	1420.56
528.76	1434.05
529.12	1447.06
529.48	1460.47
529.84	1472.98
530.20	1485.80
530.56	1498.50
530.91	1511.89
531.27	1524.81
531.63	1537.70
531.99	1550.62
532.35	1562.96
532.71	1575.42
533.07	1588.38
533.42	1600.77
533.78	1612.99
534.14	1625.09
534.50	1636.48
534.86	1648.17
535.21	1659.10
535.57	1670.65
535.93	1681.99
536.29	1693.11
536.65	1704.66
537.00	1715.76
537.36	1727.32
537.72	1738.40
538.08	1750.04
538.44	1761.15
538.79	1772.44
539.15	1783.37
539.51	1794.23
539.87	1805.73
540.22	1816.71
540.58	1827.68
540.94	1838.61
541.29	1849.02
541.65	1858.99
542.01	1869.62
542.37	1879.80
542.72	1890.11
543.08	1900.03
543.44	1910.66
543.79	1920.10
544.15	1929.69
544.51	1939.75
544.87	1949.66
545.22	1959.06
545.58	1967.89
545.94	1976.91
546.29	1985.53
546.65	1994.04
547.01	2002.48
547.36	2010.16
547.72	2018.12
548.07	2025.97
548.43	2033.83
548.79	2041.76
549.14	2050.10
549.50	2058.58
549.86	2066.53
550.21	2074.06
550.57	2081.83
550.92	2088.73
551.28	2096.32
551.64	2103.62
551.99	2111.11
552.35	2118.31
552.70	2125.19
553.06	2131.97
553.41	2138.25
553.77	2144.80
554.13	2151.25
554.48	2158.16
554.84	2165.34
555.19	2171.89
555.55	2178.32
555.90	2184.76
556.26	2191.71
556.61	2197.65
556.97	2202.51
557.32	2208.25
557.68	2214.79
558.03	2220.80
558.39	2226.20
558.74	2232.22
559.10	2237.90
559.45	2243.58
559.81	2249.09
560.16	2254.67
560.52	2260.62
560.87	2267.05
561.23	2273.01
561.58	2279.76
561.94	2285.07
562.29	2289.79
562.64	2295.73
563.00	2301.38
563.35	2306.89
563.71	2312.58
564.06	2318.32
564.42	2324.42
564.77	2329.54
565.12	2334.83
565.48	2339.84
565.83	2345.24
566.19	2350.63
566.54	2355.98
566.89	2360.49
567.25	2365.17
567.60	2370.88
567.96	2376.05
568.31	2380.55
568.66	2384.74
569.02	2388.59
569.37	2392.19
569.72	2396.64
570.08	2400.34
570.43	2403.44
570.78	2406.60
571.14	2409.18
571.49	2412.30
571.84	2415.71
572.20	2418.64
572.55	2421.54
572.90	2423.90
573.26	2426.73
573.61	2429.39
573.96	2431.52
574.31	2433.65
574.67	2435.48
575.02	2436.20
575.37	2437.56
575.72	2438.24
576.08	2439.72
576.43	2439.92
576.78	2440.62
577.13	2442.12
577.49	2443.10
577.84	2444.07
578.19	2445.29
578.54	2445.78
578.90	2446.40
579.25	2446.19
579.60	2446.06
579.95	2445.33
580.30	2445.24
580.66	2444.49
581.01	2442.73
581.36	2440.28
581.71	2438.85
582.06	2437.68
582.42	2436.89
582.77	2434.54
583.12	2432.93
583.47	2431.52
583.82	2430.73
584.17	2429.33
584.53	2427.17
584.88	2425.07
585.23	2423.22
585.58	2420.86
585.93	2418.77
586.28	2416.59
586.63	2414.16
586.98	2412.02
587.34	2409.85
587.69	2407.41
588.04	2405.28
588.39	2403.77
588.74	2401.22
589.09	2398.45
589.44	2395.10
589.79	2392.46
590.14	2390.54
590.49	2387.62
590.84	2383.72
591.19	2380.56
591.54	2377.23
591.89	2373.05
592.25	2369.70
592.60	2365.36
592.95	2361.26
593.30	2357.02
593.65	2352.58
594.00	2348.00
594.35	2344.87
594.70	2340.21
595.05	2335.48
595.40	2329.97
595.75	2324.04
596.10	2320.44
596.45	2315.51
596.80	2311.09
597.15	2305.80
597.50	2299.83
597.85	2294.86
598.19	2289.61
598.54	2283.75
598.89	2278.55
599.24	2274.05
599.59	2267.81
599.94	2261.96
600.29	2256.06
600.64	2250.10
600.99	2243.24
601.34	2237.78
601.69	2230.78
602.04	2224.32
602.39	2217.75
602.74	2211.78
603.08	2206.28
603.43	2199.70
603.78	2192.71
604.13	2185.53
604.48	2178.30
604.83	2172.04
605.18	2165.82
605.53	2158.89
605.87	2151.84
606.22	2144.92
606.57	2136.86
606.92	2128.98
607.27	2122.10
607.62	2115.21
607.96	2108.12
608.31	2101.75
608.66	2093.91
609.01	2086.20
609.36	2079.07
609.70	2071.22
610.05	2063.25
610.40	2054.82
610.75	2046.41
611.10	2038.68
611.44	2029.86
611.79	2020.99
612.14	2011.03
612.49	2000.21
612.83	1990.82
613.18	1981.54
613.53	1972.22
613.88	1962.57
614.22	1953.87
614.57	1943.88
614.92	1933.32
615.27	1923.00
615.61	1912.64
615.96	1902.88
616.31	1893.19
616.65	1883.70
617.00	1874.00
617.35	1864.24
617.70	1854.47
618.04	1844.38
618.39	1834.18
618.74	1824.37
619.08	1814.88
619.43	1806.15
619.78	1797.82
620.12	1789.12
620.47	1779.59
620.82	1769.15
621.16	1759.35
621.51	1749.43
621.85	1739.51
622.20	1729.06
622.55	1718.55
622.89	1708.59
623.24	1699.03
623.59	1689.26
623.93	1679.08
624.28	1669.35
624.62	1659.27
624.97	1648.95
625.32	1639.13
625.66	1630.24
626.01	1621.44
626.35	1611.85
626.70	1601.69
627.04	1591.67
627.39	1581.49
627.73	1572.11
628.08	1563.19
628.43	1553.59
628.77	1544.30
629.12	1535.29
629.46	1527.51
629.81	1519.08
630.15	1509.58
630.50	1499.64
630.84	1489.08
631.19	1479.22
631.53	1469.70
631.88	1459.42
632.22	1449.40
632.57	1440.07
632.91	1429.80
633.26	1419.90
633.60	1410.39
633.95	1401.13
634.29	1391.59
634.64	1382.30
634.98	1372.31
635.32	1362.92
635.67	1354.50
636.01	1345.17
636.36	1335.40
636.70	1325.80
637.05	1316.44
637.39	1307.45
637.73	1298.76
638.08	1291.23
638.42	1283.02
638.77	1274.25
639.11	1266.02
639.45	1258.19
639.80	1249.53
640.14	1240.82
640.49	1231.92
640.83	1222.88
641.17	1214.56
641.52	1206.38
641.86	1197.69
642.20	1189.73
642.55	1181.03
642.89	1172.02
643.23	1163.33
643.58	1155.22
643.92	1146.19
644.26	1137.47
644.61	1129.02
644.95	1120.16
645.29	1110.76
645.64	1101.48
645.98	1092.94
646.32	1084.96
646.66	1076.38
647.01	1068.07
647.35	1059.89
647.69	1051.52
648.04	1043.23
648.38	1034.34
648.72	1025.49
649.06	1016.96
649.41	1008.73
649.75	1000.78
650.09	992.88
650.43	984.80
650.78	976.44
651.12	968.59
651.46	961.15
651.80	953.79
652.14	946.53
652.49	938.96
652.83	931.57
653.17	923.85
653.51	916.11
653.85	908.73
654.20	901.31
654.54	893.78
654.88	886.47
655.22	879.28
655.56	872.20
655.90	865.37
656.25	858.65
656.59	851.69
656.93	844.55
657.27	837.33
657.61	830.22
657.95	824.07
658.29	818.11
658.64	811.92
658.98	805.42
659.32	798.77
659.66	792.56
660.00	786.19
660.34	780.05
660.68	773.89
661.02	767.54
661.36	761.62
661.70	755.75
662.05	750.07
662.39	744.52
662.73	739.18
663.07	733.75
663.41	728.17
663.75	722.36
664.09	716.66
664.43	711.18
664.77	705.90
665.11	700.04
665.45	694.00
665.79	688.12
666.13	682.38
666.47	676.75
666.81	671.21
667.15	665.78
667.49	660.57
667.83	655.32
668.17	650.05
668.51	644.86
668.85	639.88
669.19	634.88
669.53	629.78
669.87	624.56
670.21	619.73
670.55	614.95
670.89	610.49
671.23	606.15
671.57	601.78
671.91	597.39
672.25	593.24
672.58	589.14
672.92	585.01
673.26	581.01
673.60	577.13
673.94	573.31
674.28	569.65
674.62	565.86
674.96	562.07
675.30	558.53
675.64	554.80
675.97	551.19
676.31	547.52
676.65	543.89
676.99	540.43
677.33	536.52
677.67	532.77
678.01	528.88
678.34	525.20
678.68	521.60
679.02	518.00
679.36	514.20
679.70	510.51
680.04	506.85
680.37	503.42
680.71	500.07
681.05	496.82
681.39	493.48
681.73	490.26
682.06	487.12
682.40	483.96
682.74	480.72
683.08	477.49
683.42	474.25
683.75	471.26
684.09	468.15
684.43	465.38
684.77	462.44
685.10	459.55
685.44	456.58
685.78	453.58
686.12	450.72
686.45	447.98
686.79	445.25
687.13	442.75
687.46	440.04
687.80	437.33
688.14	434.45
688.48	431.83
688.81	429.10
689.15	426.54
689.49	423.90
689.82	421.32
690.16	418.65
690.50	416.23
690.83	413.66
691.17	411.13
691.51	408.63
691.84	406.31
692.18	404.06
692.52	401.79
692.85	399.65
693.19	397.48
693.52	395.29
693.86	393.08
694.20	390.85
694.53	388.66
694.87	386.43
695.21	384.26
695.54	382.08
695.88	379.89
696.21	377.63
696.55	375.45
696.88	373.39
697.22	371.43
697.56	369.44
697.89	367.49
698.23	365.70
698.56	363.82
698.90	362.05
699.23	360.13
699.57	358.29
699.90	356.40
700.24	354.57
700.58	352.75
700.91	351.03
701.25	349.43
701.58	347.79
701.92	346.17
702.25	344.53
702.59	342.82
702.92	341.28
703.26	339.74
703.59	338.27
703.93	336.96
704.26	335.52
704.60	334.00
704.93	332.53
705.26	330.95
705.60	329.46
705.93	327.91
706.27	326.55
706.60	325.25
706.94	324.01
707.27	322.61
707.61	321.23
707.94	319.90
708.27	318.38
708.61	316.95
708.94	315.53
709.28	314.22
709.61	312.99
709.94	311.73
710.28	310.48
710.61	309.26
710.95	307.86
711.28	306.76
711.61	305.60
711.95	304.44
712.28	303.28
712.61	302.08
712.95	301.02
713.28	299.96
713.61	298.79
713.95	297.62
714.28	296.59
714.61	295.55
714.95	294.47
715.28	293.43
715.61	292.38
715.95	291.42
716.28	290.46
716.61	289.48
716.95	288.50
717.28	287.58
717.61	286.59
717.94	285.67
718.28	284.62
718.61	283.70
718.94	282.80
719.27	281.95
719.61	281.11
719.94	280.22
720.27	279.22
720.60	278.34
720.94	277.50
721.27	276.74
721.60	276.03
721.93	275.34
722.27	274.70
722.60	274.04
722.93	273.34
723.26	272.68
723.59	271.98
723.93	271.33
724.26	270.63
724.59	269.98
724.92	269.36
725.25	268.79
725.59	268.21
725.92	267.64
726.25	267.06
726.58	266.47
726.91	265.85
727.24	265.31
727.57	264.76
727.91	264.16
728.24	263.59
728.57	262.97
728.90	262.38
729.23	261.77
729.56	261.33
729.89	260.78
730.22	260.19
730.55	259.66
730.89	259.09
731.22	258.58
731.55	258.10
731.88	257.56
732.21	257.02
732.54	256.45
732.87	255.95
733.20	255.48
733.53	254.97
733.86	254.52
734.19	254.06
734.52	253.67
734.85	253.37
735.18	252.88
735.51	252.52
735.84	252.10
736.17	251.68
736.50	251.10
736.83	250.93
737.16	250.54
737.49	250.14
737.82	249.75
738.15	249.34
738.48	248.95
738.81	248.53
739.14	248.12
739.47	247.72
739.80	247.29
740.13	246.93
740.46	246.56
740.79	246.16
741.12	245.77
741.45	245.34
741.78	244.88
742.11	244.60
742.44	244.23
742.77	243.93
743.10	243.57
743.43	243.29
743.75	242.71
744.08	242.63
744.41	242.24
744.74	241.91
745.07	241.53
745.40	241.22
745.73	240.96
746.06	240.64
746.39	240.35
746.71	240.03
747.04	239.66
747.37	239.37
747.70	239.12
748.03	238.81
748.36	238.53
748.68	238.24
749.01	237.88
749.34	237.57
749.67	237.23
750.00	236.97
750.33	236.79
750.65	236.53
750.98	235.97
751.31	235.74
751.64	235.47
751.97	235.33
752.29	235.06
752.62	234.72
752.95	234.44
753.28	234.16
753.60	233.90
753.93	233.71
754.26	233.47
754.59	233.13
754.91	232.89
755.24	232.68
755.57	232.41
755.90	232.19
756.22	231.96
756.55	231.74
756.88	231.44
757.20	231.12
757.53	230.87
757.86	230.65
758.19	230.47
758.51	230.23
758.84	229.96
759.17	229.75
759.49	229.59
759.82	229.53
760.15	229.40
760.47	229.20
760.80	228.96
761.13	228.83
761.45	228.63
761.78	228.47
762.11	228.27
762.43	228.12
762.76	227.95
763.08	227.80
763.41	227.65
763.74	227.52
764.06	227.32
764.39	227.17
764.71	227.05
765.04	226.89
765.37	226.78
765.69	226.62
766.02	226.48
766.34	226.35
766.67	226.09
767.00	225.99
767.32	225.99
767.65	225.98
767.97	225.78
768.30	225.72
768.62	225.57
768.95	225.38
769.27	225.25
769.60	225.15
769.92	224.98
770.25	224.80
770.57	224.68
770.90	224.58
771.22	224.45
771.55	224.32
771.87	224.16
772.20	224.04
772.52	224.13
772.85	224.25
773.17	224.10
773.50	223.99
773.82	223.84
774.15	223.67
774.47	223.41
774.80	223.34
775.12	223.18
775.45	223.10
775.77	223.03
776.09	222.92
776.42	222.80
776.74	222.77
777.07	222.69
777.39	222.60
777.72	222.49
778.04	222.41
778.36	222.35
778.69	222.34
779.01	222.24
779.33	221.94
779.66	221.65
779.98	221.53
780.31	221.48
780.63	221.49
780.95	221.43
781.28	221.36
781.60	221.25
781.92	221.18
782.25	221.15
782.57	221.08
782.89	221.02
783.22	220.97
783.54	220.85
783.86	220.80
784.19	220.72
784.51	220.71
784.83	220.62
785.16	220.52
785.48	220.43
785.80	220.35
786.12	220.31
