SpectraSuite Data File
++++++++++++++++++++++++++++++++++++
Date: Tue Jan 29 16:32:41 EST 2013
User: group
Dark Spectrum Present: No
Reference Spectrum Present: No
Number of Sampled Component Spectra: 1
Spectrometers: USB2E7196
Integration Time (usec): 65000 (USB2E7196)
Spectra Averaged: 100 (USB2E7196)
Boxcar Smoothing: 10 (USB2E7196)
Correct for Electrical Dark: No (USB2E7196)
Strobe/Lamp Enabled: No (USB2E7196)
Correct for Detector Non-linearity: No (USB2E7196)
Correct for Stray Light: No (USB2E7196)
Number of Pixels in Processed Spectrum: 2048
>>>>>Begin Processed Spectral Data<<<<<
339.09	0.00
339.48	201.86
339.86	203.14
340.24	204.79
340.63	206.11
341.01	210.38
341.39	208.91
341.78	210.27
342.16	211.79
342.54	211.78
342.93	201.00
343.31	211.18
343.69	211.71
344.07	212.18
344.46	212.63
344.84	213.03
345.22	213.23
345.60	213.48
345.99	213.71
346.37	213.83
346.75	213.98
347.13	214.09
347.52	214.14
347.90	214.29
348.28	214.34
348.66	214.46
349.05	214.43
349.43	214.50
349.81	214.60
350.19	214.66
350.57	214.70
350.96	214.82
351.34	214.90
351.72	215.01
352.10	215.10
352.48	215.14
352.87	215.18
353.25	215.23
353.63	215.31
354.01	215.35
354.39	215.46
354.77	215.53
355.15	215.65
355.54	215.71
355.92	215.69
356.30	215.73
356.68	215.90
357.06	215.99
357.44	216.02
357.82	216.06
358.20	216.16
358.58	216.25
358.97	216.31
359.35	216.44
359.73	216.53
360.11	216.63
360.49	216.73
360.87	216.81
361.25	216.90
361.63	217.03
362.01	217.08
362.39	217.11
362.77	217.15
363.15	217.20
363.53	217.21
363.91	217.24
364.29	217.29
364.67	217.12
365.05	217.16
365.43	217.20
365.81	217.26
366.19	217.36
366.57	217.44
366.95	217.43
367.33	217.34
367.71	217.32
368.09	217.33
368.47	217.30
368.85	217.27
369.23	217.28
369.61	217.19
369.99	217.24
370.37	217.23
370.75	217.31
371.13	217.20
371.51	217.16
371.89	217.16
372.27	217.16
372.65	217.15
373.03	217.09
373.41	217.03
373.78	217.00
374.16	216.83
374.54	216.72
374.92	216.69
375.30	216.67
375.68	216.60
376.06	216.59
376.44	216.56
376.82	216.52
377.19	216.48
377.57	216.42
377.95	216.32
378.33	216.26
378.71	216.10
379.09	216.14
379.47	216.12
379.84	216.07
380.22	215.99
380.60	215.96
380.98	215.89
381.36	215.87
381.73	215.78
382.11	215.79
382.49	215.77
382.87	215.69
383.25	215.65
383.62	215.85
384.00	215.76
384.38	215.73
384.76	215.74
385.13	215.76
385.51	215.75
385.89	215.68
386.27	215.65
386.64	215.62
387.02	215.55
387.40	215.56
387.78	215.50
388.15	215.48
388.53	215.44
388.91	215.44
389.29	215.41
389.66	215.46
390.04	215.41
390.42	215.43
390.79	215.41
391.17	215.39
391.55	215.19
391.92	215.18
392.30	215.20
392.68	215.17
393.05	215.16
393.43	215.15
393.81	215.17
394.18	215.13
394.56	215.16
394.94	215.21
395.31	215.15
395.69	215.24
396.06	215.30
396.44	215.31
396.82	215.32
397.19	215.45
397.57	215.41
397.95	215.51
398.32	215.45
398.70	215.51
399.07	215.60
399.45	215.62
399.82	215.66
400.20	215.68
400.58	215.73
400.95	215.69
401.33	215.79
401.70	216.02
402.08	216.11
402.45	216.18
402.83	216.31
403.20	216.43
403.58	216.52
403.95	216.67
404.33	216.85
404.71	217.01
405.08	217.25
405.46	217.44
405.83	217.60
406.21	217.85
406.58	218.08
406.96	218.29
407.33	218.53
407.70	218.85
408.08	219.31
408.45	219.67
408.83	220.04
409.20	220.39
409.58	220.63
409.95	221.15
410.33	221.64
410.70	222.07
411.08	222.66
411.45	223.22
411.82	223.79
412.20	224.48
412.57	225.28
412.95	225.85
413.32	226.69
413.69	227.53
414.07	228.43
414.44	229.43
414.82	230.43
415.19	231.63
415.56	232.85
415.94	234.02
416.31	235.41
416.68	236.84
417.06	238.43
417.43	239.98
417.81	241.71
418.18	243.48
418.55	245.43
418.93	247.43
419.30	249.54
419.67	251.75
420.04	254.03
420.42	256.41
420.79	259.25
421.16	262.05
421.54	264.93
421.91	267.94
422.28	271.02
422.66	274.32
423.03	277.62
423.40	280.96
423.77	284.52
424.15	288.21
424.52	292.05
424.89	296.20
425.26	300.30
425.64	304.20
426.01	308.45
426.38	312.90
426.75	317.46
427.13	322.19
427.50	327.15
427.87	332.35
428.24	337.59
428.61	342.56
428.99	348.08
429.36	354.13
429.73	360.00
430.10	365.88
430.47	371.99
430.85	378.21
431.22	384.91
431.59	392.05
431.96	398.88
432.33	406.34
432.70	413.62
433.08	422.16
433.45	430.17
433.82	438.24
434.19	447.16
434.56	455.86
434.93	464.24
435.30	472.57
435.68	481.67
436.05	490.60
436.42	499.51
436.79	507.65
437.16	516.43
437.53	525.81
437.90	534.95
438.27	543.91
438.64	553.13
439.01	561.70
439.38	569.26
439.75	576.60
440.13	585.06
440.50	593.00
440.87	599.50
441.24	606.19
441.61	613.59
441.98	618.93
442.35	625.22
442.72	631.55
443.09	637.57
443.46	641.31
443.83	643.86
444.20	646.04
444.57	649.22
444.94	650.70
445.31	652.06
445.68	653.46
446.05	654.11
446.42	653.37
446.79	652.41
447.16	651.36
447.53	650.58
447.90	647.27
448.27	644.00
448.64	639.30
449.01	635.95
449.37	630.02
449.74	624.41
450.11	617.53
450.48	610.12
450.85	602.66
451.22	596.15
451.59	590.01
451.96	584.18
452.33	576.27
452.70	569.10
453.07	560.62
453.43	552.02
453.80	543.73
454.17	535.72
454.54	528.13
454.91	519.96
455.28	511.96
455.65	504.51
456.02	497.03
456.38	490.68
456.75	482.81
457.12	476.24
457.49	469.68
457.86	463.54
458.23	458.13
458.59	452.24
458.96	446.29
459.33	441.02
459.70	435.63
460.07	431.36
460.43	426.48
460.80	421.88
461.17	417.90
461.54	413.67
461.91	409.66
462.27	405.59
462.64	402.14
463.01	398.39
463.38	394.70
463.74	390.92
464.11	387.67
464.48	384.84
464.85	381.71
465.21	379.27
465.58	376.64
465.95	373.50
466.32	370.85
466.68	368.22
467.05	365.61
467.42	363.06
467.78	360.39
468.15	357.86
468.52	355.96
468.88	353.45
469.25	351.27
469.62	349.48
469.98	347.50
470.35	345.70
470.72	343.94
471.08	342.14
471.45	340.69
471.82	339.16
472.18	337.47
472.55	336.25
472.92	334.87
473.28	333.62
473.65	332.45
474.02	331.34
474.38	330.48
474.75	329.68
475.11	328.87
475.48	328.30
475.85	327.80
476.21	327.33
476.58	326.98
476.94	326.72
477.31	326.37
477.67	326.16
478.04	325.98
478.41	326.00
478.77	326.14
479.14	326.07
479.50	326.20
479.87	326.55
480.23	326.85
480.60	327.06
480.96	327.32
481.33	327.91
481.69	328.52
482.06	329.06
482.42	329.58
482.79	330.17
483.15	330.93
483.52	331.88
483.88	332.76
484.25	333.63
484.61	334.63
484.98	335.67
485.34	336.99
485.71	338.35
486.07	339.79
486.44	341.11
486.80	342.73
487.17	344.42
487.53	346.23
487.90	348.11
488.26	350.19
488.62	352.38
488.99	354.44
489.35	356.58
489.72	358.94
490.08	361.50
490.44	364.10
490.81	366.84
491.17	369.54
491.54	372.49
491.90	375.62
492.26	378.92
492.63	382.39
492.99	385.83
493.36	389.51
493.72	393.33
494.08	397.37
494.45	401.64
494.81	406.00
495.17	410.43
495.54	415.15
495.90	419.96
496.26	424.83
496.63	430.02
496.99	435.43
497.35	440.99
497.72	446.76
498.08	452.73
498.44	458.84
498.80	465.30
499.17	471.88
499.53	478.60
499.89	485.49
500.26	492.46
500.62	499.60
500.98	507.05
501.34	514.54
501.71	522.39
502.07	530.15
502.43	538.24
502.79	546.40
503.16	554.87
503.52	563.50
503.88	572.30
504.24	581.36
504.60	590.45
504.97	599.77
505.33	609.08
505.69	619.00
506.05	628.90
506.41	638.77
506.78	648.82
507.14	659.13
507.50	669.64
507.86	680.47
508.22	691.35
508.59	702.11
508.95	713.24
509.31	724.55
509.67	736.08
510.03	747.51
510.39	759.32
510.75	771.17
511.12	783.13
511.48	795.36
511.84	807.66
512.20	820.06
512.56	832.75
512.92	845.57
513.28	858.24
513.64	871.00
514.00	884.00
514.37	897.15
514.73	910.29
515.09	923.32
515.45	936.22
515.81	949.28
516.17	962.75
516.53	976.16
516.89	989.27
517.25	1002.54
517.61	1016.16
517.97	1029.63
518.33	1042.87
518.69	1056.54
519.05	1070.35
519.41	1084.12
519.77	1098.12
520.13	1111.42
520.49	1124.77
520.85	1138.37
521.21	1151.93
521.57	1165.62
521.93	1178.75
522.29	1192.59
522.65	1206.34
523.01	1220.06
523.37	1233.35
523.73	1246.77
524.09	1259.99
524.45	1273.61
524.81	1287.26
525.17	1300.73
525.53	1314.21
525.89	1327.72
526.25	1341.01
526.61	1353.94
526.97	1367.17
527.33	1380.18
527.68	1393.81
528.04	1407.42
528.40	1420.55
528.76	1434.06
529.12	1446.98
529.48	1460.39
529.84	1472.84
530.20	1485.73
530.56	1498.41
530.91	1511.74
531.27	1524.70
531.63	1537.41
531.99	1550.20
532.35	1562.53
532.71	1575.07
533.07	1587.84
533.42	1600.05
533.78	1612.27
534.14	1624.38
534.50	1635.65
534.86	1647.48
535.21	1658.44
535.57	1670.08
535.93	1681.56
536.29	1692.72
536.65	1704.37
537.00	1715.51
537.36	1726.92
537.72	1738.04
538.08	1749.65
538.44	1760.73
538.79	1771.97
539.15	1783.15
539.51	1793.96
539.87	1805.46
540.22	1816.36
540.58	1827.32
540.94	1838.34
541.29	1848.71
541.65	1858.65
542.01	1869.31
542.37	1879.43
542.72	1889.76
543.08	1899.72
543.44	1910.21
543.79	1919.56
544.15	1929.15
544.51	1939.21
544.87	1949.21
545.22	1958.54
545.58	1967.38
545.94	1976.46
546.29	1985.15
546.65	1993.64
547.01	2002.08
547.36	2009.77
547.72	2017.60
548.07	2025.39
548.43	2033.43
548.79	2041.46
549.14	2049.70
549.50	2058.22
549.86	2066.16
550.21	2073.76
550.57	2081.45
550.92	2088.25
551.28	2095.85
551.64	2103.19
551.99	2110.54
552.35	2117.77
552.70	2124.71
553.06	2131.62
553.41	2137.83
553.77	2144.24
554.13	2150.81
554.48	2157.89
554.84	2165.03
555.19	2171.65
555.55	2178.20
555.90	2184.31
556.26	2191.14
556.61	2197.13
556.97	2202.01
557.32	2207.86
557.68	2214.28
558.03	2220.04
558.39	2225.44
558.74	2231.37
559.10	2237.00
559.45	2242.86
559.81	2248.52
560.16	2254.04
560.52	2259.80
560.87	2266.31
561.23	2272.33
561.58	2278.75
561.94	2283.88
562.29	2288.73
562.64	2294.79
563.00	2300.54
563.35	2306.26
563.71	2312.00
564.06	2317.82
564.42	2323.89
564.77	2328.91
565.12	2334.24
565.48	2339.52
565.83	2345.14
566.19	2350.60
566.54	2355.91
566.89	2360.45
567.25	2365.02
567.60	2370.68
567.96	2375.92
568.31	2380.54
568.66	2384.78
569.02	2388.78
569.37	2392.56
569.72	2396.78
570.08	2400.29
570.43	2403.35
570.78	2406.41
571.14	2408.88
571.49	2411.93
571.84	2415.36
572.20	2418.32
572.55	2421.23
572.90	2423.36
573.26	2425.99
573.61	2428.48
573.96	2430.59
574.31	2432.62
574.67	2434.53
575.02	2435.35
575.37	2436.66
575.72	2437.39
576.08	2438.76
576.43	2439.10
576.78	2439.68
577.13	2441.34
577.49	2442.39
577.84	2443.40
578.19	2444.55
578.54	2445.21
578.90	2445.93
579.25	2445.92
579.60	2445.79
579.95	2444.92
580.30	2444.99
580.66	2444.21
581.01	2442.38
581.36	2440.02
581.71	2438.56
582.06	2437.27
582.42	2436.32
582.77	2434.05
583.12	2432.26
583.47	2430.88
583.82	2429.88
584.17	2428.58
584.53	2426.34
584.88	2424.33
585.23	2422.22
585.58	2419.99
585.93	2417.76
586.28	2415.45
586.63	2412.76
586.98	2410.40
587.34	2408.38
587.69	2405.87
588.04	2403.83
588.39	2402.51
588.74	2400.08
589.09	2397.18
589.44	2393.89
589.79	2391.53
590.14	2389.47
590.49	2386.59
590.84	2382.67
591.19	2379.59
591.54	2376.16
591.89	2372.03
592.25	2368.56
592.60	2364.34
592.95	2360.24
593.30	2356.05
593.65	2351.60
594.00	2347.21
594.35	2344.24
594.70	2339.56
595.05	2334.98
595.40	2329.53
595.75	2323.70
596.10	2319.88
596.45	2315.02
596.80	2310.47
597.15	2305.07
597.50	2299.21
597.85	2294.19
598.19	2288.95
598.54	2283.05
598.89	2277.82
599.24	2273.20
599.59	2267.03
599.94	2261.26
600.29	2255.11
600.64	2249.26
600.99	2242.39
601.34	2236.84
601.69	2229.75
602.04	2223.36
602.39	2216.59
602.74	2210.51
603.08	2204.92
603.43	2198.27
603.78	2191.48
604.13	2184.36
604.48	2177.04
604.83	2170.79
605.18	2164.53
605.53	2157.55
605.87	2150.53
606.22	2143.62
606.57	2135.63
606.92	2127.56
607.27	2120.53
607.62	2113.99
607.96	2106.75
608.31	2100.44
608.66	2092.57
609.01	2084.96
609.36	2077.69
609.70	2069.99
610.05	2062.15
610.40	2053.78
610.75	2045.49
611.10	2037.68
611.44	2028.72
611.79	2019.93
612.14	2009.95
612.49	1999.23
612.83	1989.91
613.18	1980.60
613.53	1971.32
613.88	1961.77
614.22	1953.30
614.57	1943.44
614.92	1932.69
615.27	1922.38
615.61	1912.05
615.96	1902.39
616.31	1892.65
616.65	1883.23
617.00	1873.50
617.35	1863.66
617.70	1853.94
618.04	1843.86
618.39	1833.66
618.74	1823.98
619.08	1814.22
619.43	1805.43
619.78	1797.13
620.12	1788.39
620.47	1778.77
620.82	1768.39
621.16	1758.43
621.51	1748.45
621.85	1738.46
622.20	1728.07
622.55	1717.57
622.89	1707.65
623.24	1697.83
623.59	1687.92
623.93	1677.82
624.28	1667.89
624.62	1657.71
624.97	1647.26
625.32	1637.36
625.66	1628.36
626.01	1619.51
626.35	1610.15
626.70	1600.14
627.04	1589.98
627.39	1579.80
627.73	1570.44
628.08	1561.44
628.43	1551.92
628.77	1542.59
629.12	1533.79
629.46	1525.97
629.81	1517.68
630.15	1508.10
630.50	1498.34
630.84	1487.98
631.19	1477.97
631.53	1468.72
631.88	1458.57
632.22	1448.67
632.57	1439.33
632.91	1429.17
633.26	1419.34
633.60	1409.77
633.95	1400.36
634.29	1390.88
634.64	1381.55
634.98	1371.61
635.32	1362.36
635.67	1353.92
636.01	1344.63
636.36	1334.74
636.70	1325.07
637.05	1315.66
637.39	1306.67
637.73	1298.02
638.08	1290.39
638.42	1282.22
638.77	1273.36
639.11	1265.15
639.45	1257.23
639.80	1248.70
640.14	1239.95
640.49	1231.03
640.83	1222.16
641.17	1213.96
641.52	1205.77
641.86	1197.18
642.20	1189.31
642.55	1180.53
642.89	1171.53
643.23	1162.88
643.58	1154.78
643.92	1145.84
644.26	1137.09
644.61	1128.66
644.95	1119.84
645.29	1110.57
645.64	1101.39
645.98	1092.87
646.32	1084.88
646.66	1076.28
647.01	1067.91
647.35	1059.84
647.69	1051.43
648.04	1043.10
648.38	1034.25
648.72	1025.46
649.06	1016.95
649.41	1008.69
649.75	1000.74
650.09	992.92
650.43	984.85
650.78	976.49
651.12	968.66
651.46	961.20
651.80	953.86
652.14	946.49
652.49	938.97
652.83	931.58
653.17	923.85
653.51	916.19
653.85	908.92
654.20	901.51
654.54	893.90
654.88	886.61
655.22	879.37
655.56	872.30
655.90	865.43
656.25	858.71
656.59	851.75
656.93	844.74
657.27	837.49
657.61	830.48
657.95	824.38
658.29	818.50
658.64	812.23
658.98	805.82
659.32	799.27
659.66	792.91
660.00	786.42
660.34	780.31
660.68	774.17
661.02	767.82
661.36	761.94
661.70	756.07
662.05	750.40
662.39	744.90
662.73	739.49
663.07	734.15
663.41	728.45
663.75	722.67
664.09	716.88
664.43	711.40
664.77	705.97
665.11	700.06
665.45	694.07
665.79	688.16
666.13	682.38
666.47	676.69
666.81	671.19
667.15	665.79
667.49	660.54
667.83	655.25
668.17	649.97
668.51	644.79
668.85	639.82
669.19	634.85
669.53	629.71
669.87	624.52
670.21	619.68
670.55	614.97
670.89	610.45
671.23	606.04
671.57	601.63
671.91	597.27
672.25	593.10
672.58	588.88
672.92	584.77
673.26	580.85
673.60	576.98
673.94	573.17
674.28	569.53
674.62	565.72
674.96	561.91
675.30	558.39
675.64	554.63
675.97	551.02
676.31	547.41
676.65	543.80
676.99	540.38
677.33	536.45
677.67	532.72
678.01	528.89
678.34	525.26
678.68	521.66
679.02	518.03
679.36	514.27
679.70	510.57
680.04	507.02
680.37	503.42
680.71	500.06
681.05	496.84
681.39	493.59
681.73	490.36
682.06	487.27
682.40	484.11
682.74	480.93
683.08	477.68
683.42	474.41
683.75	471.35
684.09	468.22
684.43	465.38
684.77	462.39
685.10	459.50
685.44	456.59
685.78	453.66
686.12	450.83
686.45	448.09
686.79	445.36
687.13	442.80
687.46	440.22
687.80	437.48
688.14	434.59
688.48	431.86
688.81	429.12
689.15	426.55
689.49	423.91
689.82	421.32
690.16	418.69
690.50	416.21
690.83	413.65
691.17	411.07
691.51	408.56
691.84	406.26
692.18	403.99
692.52	401.70
692.85	399.54
693.19	397.40
693.52	395.18
693.86	392.99
694.20	390.76
694.53	388.56
694.87	386.32
695.21	384.19
695.54	381.97
695.88	379.79
696.21	377.49
696.55	375.33
696.88	373.26
697.22	371.24
697.56	369.34
697.89	367.47
698.23	365.72
698.56	363.90
698.90	362.12
699.23	360.19
699.57	358.30
699.90	356.45
700.24	354.59
700.58	352.79
700.91	351.09
701.25	349.48
701.58	347.85
701.92	346.24
702.25	344.59
702.59	342.99
702.92	341.46
703.26	339.91
703.59	338.38
703.93	337.11
704.26	335.65
704.60	334.09
704.93	332.60
705.26	331.08
705.60	329.59
705.93	328.08
706.27	326.68
706.60	325.37
706.94	324.10
707.27	322.65
707.61	321.30
707.94	319.91
708.27	318.39
708.61	316.90
708.94	315.52
709.28	314.20
709.61	312.88
709.94	311.59
710.28	310.37
710.61	309.19
710.95	307.75
711.28	306.64
711.61	305.44
711.95	304.28
712.28	303.05
712.61	301.81
712.95	300.74
713.28	299.71
713.61	298.54
713.95	297.34
714.28	296.37
714.61	295.35
714.95	294.33
715.28	293.32
715.61	292.29
715.95	291.29
716.28	290.29
716.61	289.37
716.95	288.42
717.28	287.47
717.61	286.45
717.94	285.49
718.28	284.47
718.61	283.57
718.94	282.63
719.27	281.75
719.61	280.92
719.94	280.01
720.27	279.04
720.60	278.15
720.94	277.36
721.27	276.59
721.60	275.88
721.93	275.14
722.27	274.51
722.60	273.88
722.93	273.17
723.26	272.52
723.59	271.77
723.93	271.12
724.26	270.47
724.59	269.80
724.92	269.20
725.25	268.63
725.59	268.09
725.92	267.57
726.25	266.99
726.58	266.41
726.91	265.79
727.24	265.25
727.57	264.69
727.91	264.04
728.24	263.45
728.57	262.80
728.90	262.28
729.23	261.59
729.56	261.10
729.89	260.56
730.22	259.97
730.55	259.45
730.89	258.89
731.22	258.32
731.55	257.83
731.88	257.33
732.21	256.76
732.54	256.18
732.87	255.63
733.20	255.16
733.53	254.65
733.86	254.19
734.19	253.66
734.52	253.26
734.85	252.95
735.18	252.47
735.51	252.14
735.84	251.67
736.17	251.31
736.50	250.76
736.83	250.59
737.16	250.21
737.49	249.82
737.82	249.41
738.15	249.06
738.48	248.66
738.81	248.22
739.14	247.81
739.47	247.42
739.80	247.03
740.13	246.63
740.46	246.24
740.79	245.85
741.12	245.51
741.45	245.11
741.78	244.69
742.11	244.44
742.44	244.02
742.77	243.72
743.10	243.37
743.43	243.02
743.75	242.44
744.08	242.30
744.41	241.96
744.74	241.62
745.07	241.24
745.40	240.94
745.73	240.71
746.06	240.40
746.39	240.08
746.71	239.76
747.04	239.40
747.37	239.08
747.70	238.83
748.03	238.52
748.36	238.23
748.68	237.92
749.01	237.54
749.34	237.24
749.67	236.94
750.00	236.67
750.33	236.55
750.65	236.28
750.98	235.80
751.31	235.54
751.64	235.29
751.97	235.14
752.29	234.85
752.62	234.49
752.95	234.21
753.28	233.95
753.60	233.69
753.93	233.55
754.26	233.36
754.59	233.05
754.91	232.80
755.24	232.57
755.57	232.31
755.90	232.08
756.22	231.83
756.55	231.55
756.88	231.30
757.20	230.95
757.53	230.71
757.86	230.52
758.19	230.31
758.51	230.11
758.84	229.81
759.17	229.64
759.49	229.50
759.82	229.44
760.15	229.28
760.47	229.12
760.80	228.82
761.13	228.67
761.45	228.51
761.78	228.30
762.11	228.12
762.43	227.94
762.76	227.74
763.08	227.60
763.41	227.46
763.74	227.31
764.06	227.17
764.39	227.01
764.71	226.83
765.04	226.68
765.37	226.49
765.69	226.32
766.02	226.15
766.34	225.97
766.67	225.72
767.00	225.63
767.32	225.59
767.65	225.63
767.97	225.45
768.30	225.33
768.62	225.22
768.95	225.07
769.27	224.96
769.60	224.89
769.92	224.72
770.25	224.54
770.57	224.36
770.90	224.20
771.22	224.09
771.55	223.99
771.87	223.86
772.20	223.76
772.52	223.83
772.85	223.98
773.17	223.87
773.50	223.77
773.82	223.65
774.15	223.44
774.47	223.22
774.80	223.12
775.12	223.01
775.45	222.89
775.77	222.85
776.09	222.76
776.42	222.68
776.74	222.66
777.07	222.57
777.39	222.49
777.72	222.39
778.04	222.32
778.36	222.20
778.69	222.13
779.01	222.05
779.33	221.81
779.66	221.45
779.98	221.32
780.31	221.26
780.63	221.27
780.95	221.23
781.28	221.17
781.60	221.09
781.92	221.02
782.25	220.98
782.57	220.88
782.89	220.81
783.22	220.73
783.54	220.60
783.86	220.58
784.19	220.53
784.51	220.54
784.83	220.45
785.16	220.40
785.48	220.31
785.80	220.29
786.12	220.21
