SpectraSuite Data File
++++++++++++++++++++++++++++++++++++
Date: Tue Jan 29 16:26:27 EST 2013
User: group
Dark Spectrum Present: No
Reference Spectrum Present: No
Number of Sampled Component Spectra: 1
Spectrometers: USB2E7196
Integration Time (usec): 65000 (USB2E7196)
Spectra Averaged: 100 (USB2E7196)
Boxcar Smoothing: 10 (USB2E7196)
Correct for Electrical Dark: No (USB2E7196)
Strobe/Lamp Enabled: No (USB2E7196)
Correct for Detector Non-linearity: No (USB2E7196)
Correct for Stray Light: No (USB2E7196)
Number of Pixels in Processed Spectrum: 2048
>>>>>Begin Processed Spectral Data<<<<<
339.09	0.00
339.48	202.49
339.86	203.75
340.24	205.29
340.63	205.67
341.01	211.42
341.39	208.84
341.78	210.59
342.16	212.32
342.54	212.45
342.93	201.43
343.31	211.61
343.69	212.11
344.07	212.56
344.46	213.00
344.84	213.43
345.22	213.57
345.60	213.90
345.99	214.09
346.37	214.20
346.75	214.33
347.13	214.41
347.52	214.46
347.90	214.60
348.28	214.64
348.66	214.68
349.05	214.66
349.43	214.75
349.81	214.82
350.19	214.85
350.57	214.91
350.96	214.99
351.34	215.09
351.72	215.19
352.10	215.31
352.48	215.37
352.87	215.41
353.25	215.47
353.63	215.48
354.01	215.52
354.39	215.59
354.77	215.61
355.15	215.74
355.54	215.82
355.92	215.80
356.30	215.85
356.68	216.06
357.06	216.11
357.44	216.11
357.82	216.16
358.20	216.27
358.58	216.35
358.97	216.43
359.35	216.54
359.73	216.63
360.11	216.65
360.49	216.73
360.87	216.79
361.25	216.85
361.63	216.97
362.01	217.05
362.39	217.08
362.77	217.15
363.15	217.15
363.53	217.19
363.91	217.23
364.29	217.27
364.67	217.09
365.05	217.14
365.43	217.21
365.81	217.26
366.19	217.32
366.57	217.40
366.95	217.40
367.33	217.32
367.71	217.34
368.09	217.39
368.47	217.36
368.85	217.36
369.23	217.39
369.61	217.29
369.99	217.34
370.37	217.36
370.75	217.46
371.13	217.40
371.51	217.34
371.89	217.35
372.27	217.34
372.65	217.34
373.03	217.34
373.41	217.28
373.78	217.23
374.16	217.14
374.54	217.03
374.92	216.99
375.30	217.00
375.68	216.92
376.06	216.92
376.44	216.86
376.82	216.82
377.19	216.79
377.57	216.78
377.95	216.69
378.33	216.63
378.71	216.44
379.09	216.45
379.47	216.44
379.84	216.35
380.22	216.29
380.60	216.21
380.98	216.15
381.36	216.08
381.73	215.99
382.11	215.98
382.49	215.95
382.87	215.87
383.25	215.83
383.62	216.04
384.00	215.95
384.38	215.94
384.76	215.97
385.13	215.99
385.51	215.95
385.89	215.88
386.27	215.87
386.64	215.86
387.02	215.81
387.40	215.76
387.78	215.75
388.15	215.77
388.53	215.74
388.91	215.71
389.29	215.67
389.66	215.73
390.04	215.67
390.42	215.68
390.79	215.70
391.17	215.64
391.55	215.37
391.92	215.37
392.30	215.37
392.68	215.31
393.05	215.30
393.43	215.30
393.81	215.33
394.18	215.30
394.56	215.34
394.94	215.39
395.31	215.37
395.69	215.43
396.06	215.43
396.44	215.46
396.82	215.48
397.19	215.61
397.57	215.57
397.95	215.65
398.32	215.63
398.70	215.70
399.07	215.78
399.45	215.84
399.82	215.85
400.20	215.90
400.58	215.96
400.95	215.94
401.33	216.07
401.70	216.28
402.08	216.39
402.45	216.47
402.83	216.60
403.20	216.72
403.58	216.82
403.95	217.01
404.33	217.14
404.71	217.26
405.08	217.55
405.46	217.75
405.83	217.93
406.21	218.15
406.58	218.35
406.96	218.60
407.33	218.86
407.70	219.18
408.08	219.63
408.45	219.98
408.83	220.35
409.20	220.67
409.58	220.92
409.95	221.38
410.33	221.84
410.70	222.27
411.08	222.82
411.45	223.39
411.82	223.95
412.20	224.67
412.57	225.52
412.95	226.04
413.32	226.86
413.69	227.69
414.07	228.58
414.44	229.58
414.82	230.58
415.19	231.80
415.56	232.98
415.94	234.16
416.31	235.55
416.68	236.94
417.06	238.55
417.43	240.08
417.81	241.82
418.18	243.64
418.55	245.57
418.93	247.55
419.30	249.63
419.67	251.82
420.04	254.08
420.42	256.47
420.79	259.35
421.16	262.09
421.54	264.97
421.91	268.00
422.28	271.03
422.66	274.33
423.03	277.56
423.40	280.92
423.77	284.48
424.15	288.17
424.52	291.96
424.89	296.09
425.26	300.16
425.64	304.04
426.01	308.29
426.38	312.75
426.75	317.32
427.13	322.03
427.50	327.00
427.87	332.17
428.24	337.27
428.61	342.18
428.99	347.70
429.36	353.69
429.73	359.54
430.10	365.43
430.47	371.44
430.85	377.74
431.22	384.45
431.59	391.53
431.96	398.33
432.33	405.82
432.70	413.03
433.08	421.53
433.45	429.54
433.82	437.56
434.19	446.45
434.56	455.10
434.93	463.46
435.30	471.71
435.68	480.81
436.05	489.84
436.42	498.68
436.79	506.79
437.16	515.58
437.53	524.83
437.90	533.89
438.27	542.83
438.64	552.00
439.01	560.47
439.38	568.05
439.75	575.34
440.13	583.70
440.50	591.68
440.87	598.12
441.24	604.70
441.61	611.96
441.98	617.26
442.35	623.65
442.72	629.92
443.09	635.96
443.46	639.68
443.83	642.21
444.20	644.45
444.57	647.59
444.94	649.03
445.31	650.43
445.68	651.80
446.05	652.43
446.42	651.56
446.79	650.62
447.16	649.52
447.53	648.68
447.90	645.40
448.27	642.04
448.64	637.41
449.01	634.12
449.37	628.22
449.74	622.56
450.11	615.68
450.48	608.28
450.85	600.86
451.22	594.42
451.59	588.28
451.96	582.42
452.33	574.57
452.70	567.45
453.07	559.02
453.43	550.52
453.80	542.27
454.17	534.34
454.54	526.83
454.91	518.67
455.28	510.80
455.65	503.41
456.02	495.96
456.38	489.61
456.75	481.77
457.12	475.27
457.49	468.84
457.86	462.56
458.23	457.23
458.59	451.33
458.96	445.37
459.33	440.10
459.70	434.79
460.07	430.54
460.43	425.71
460.80	421.13
461.17	417.11
461.54	412.94
461.91	408.98
462.27	404.89
462.64	401.46
463.01	397.69
463.38	394.06
463.74	390.38
464.11	387.16
464.48	384.37
464.85	381.24
465.21	378.76
465.58	376.18
465.95	373.05
466.32	370.42
466.68	367.81
467.05	365.20
467.42	362.66
467.78	360.00
468.15	357.43
468.52	355.53
468.88	353.09
469.25	350.86
469.62	349.05
469.98	347.10
470.35	345.35
470.72	343.63
471.08	341.82
471.45	340.37
471.82	338.84
472.18	337.19
472.55	336.03
472.92	334.66
473.28	333.46
473.65	332.30
474.02	331.14
474.38	330.26
474.75	329.52
475.11	328.73
475.48	328.20
475.85	327.70
476.21	327.21
476.58	326.84
476.94	326.62
477.31	326.31
477.67	326.07
478.04	325.89
478.41	325.87
478.77	326.02
479.14	325.91
479.50	326.06
479.87	326.34
480.23	326.64
480.60	326.88
480.96	327.15
481.33	327.76
481.69	328.37
482.06	328.85
482.42	329.32
482.79	329.93
483.15	330.69
483.52	331.66
483.88	332.55
484.25	333.45
484.61	334.47
484.98	335.53
485.34	336.89
485.71	338.31
486.07	339.82
486.44	341.14
486.80	342.81
487.17	344.46
487.53	346.30
487.90	348.17
488.26	350.21
488.62	352.38
488.99	354.42
489.35	356.61
489.72	358.99
490.08	361.53
490.44	364.07
490.81	366.77
491.17	369.47
491.54	372.45
491.90	375.52
492.26	378.79
492.63	382.19
492.99	385.63
493.36	389.27
493.72	393.10
494.08	397.14
494.45	401.35
494.81	405.71
495.17	410.20
495.54	414.94
495.90	419.74
496.26	424.74
496.63	429.98
496.99	435.38
497.35	441.02
497.72	446.89
498.08	452.87
498.44	459.05
498.80	465.51
499.17	472.00
499.53	478.73
499.89	485.67
500.26	492.71
500.62	499.80
500.98	507.25
501.34	514.76
501.71	522.52
502.07	530.43
502.43	538.47
502.79	546.59
503.16	555.04
503.52	563.69
503.88	572.38
504.24	581.39
504.60	590.50
504.97	599.78
505.33	609.06
505.69	618.94
506.05	628.89
506.41	638.88
506.78	649.05
507.14	659.38
507.50	669.79
507.86	680.53
508.22	691.39
508.59	702.11
508.95	713.21
509.31	724.64
509.67	736.18
510.03	747.73
510.39	759.65
510.75	771.58
511.12	783.64
511.48	795.89
511.84	808.21
512.20	820.61
512.56	833.36
512.92	846.25
513.28	859.04
513.64	871.85
514.00	884.71
514.37	897.90
514.73	911.14
515.09	924.27
515.45	937.33
515.81	950.48
516.17	963.99
516.53	977.43
516.89	990.63
517.25	1003.96
517.61	1017.50
517.97	1030.96
518.33	1044.16
518.69	1057.80
519.05	1071.71
519.41	1085.58
519.77	1099.69
520.13	1113.07
520.49	1126.39
520.85	1139.88
521.21	1153.34
521.57	1167.24
521.93	1180.30
522.29	1194.22
522.65	1207.97
523.01	1221.67
523.37	1235.16
523.73	1248.59
524.09	1261.78
524.45	1275.36
524.81	1288.87
525.17	1302.42
525.53	1315.72
525.89	1329.28
526.25	1342.57
526.61	1355.47
526.97	1368.67
527.33	1381.64
527.68	1395.29
528.04	1408.90
528.40	1422.09
528.76	1435.59
529.12	1448.57
529.48	1462.09
529.84	1474.42
530.20	1487.34
530.56	1500.08
530.91	1513.34
531.27	1526.25
531.63	1539.15
531.99	1551.89
532.35	1564.28
532.71	1576.79
533.07	1589.78
533.42	1602.07
533.78	1614.32
534.14	1626.53
534.50	1637.85
534.86	1649.59
535.21	1660.58
535.57	1672.20
535.93	1683.68
536.29	1694.78
536.65	1706.31
537.00	1717.21
537.36	1728.66
537.72	1739.76
538.08	1751.23
538.44	1762.30
538.79	1773.49
539.15	1784.61
539.51	1795.52
539.87	1806.86
540.22	1817.76
540.58	1828.86
540.94	1839.93
541.29	1850.21
541.65	1860.05
542.01	1870.77
542.37	1880.94
542.72	1891.17
543.08	1901.08
543.44	1911.53
543.79	1920.97
544.15	1930.48
544.51	1940.55
544.87	1950.55
545.22	1960.01
545.58	1968.93
545.94	1977.94
546.29	1986.40
546.65	1994.61
547.01	2002.92
547.36	2010.67
547.72	2018.56
548.07	2026.06
548.43	2033.79
548.79	2041.84
549.14	2050.01
549.50	2058.40
549.86	2066.28
550.21	2073.77
550.57	2081.56
550.92	2088.49
551.28	2096.03
551.64	2103.36
551.99	2111.08
552.35	2118.33
552.70	2125.12
553.06	2131.87
553.41	2138.17
553.77	2144.92
554.13	2151.52
554.48	2158.59
554.84	2165.71
555.19	2172.36
555.55	2178.91
555.90	2185.25
556.26	2192.01
556.61	2198.13
556.97	2202.95
557.32	2208.81
557.68	2215.21
558.03	2221.04
558.39	2226.45
558.74	2232.49
559.10	2238.07
559.45	2243.66
559.81	2249.23
560.16	2254.90
560.52	2260.90
560.87	2267.27
561.23	2273.27
561.58	2279.93
561.94	2285.20
562.29	2290.04
562.64	2296.08
563.00	2301.74
563.35	2307.32
563.71	2313.13
564.06	2318.85
564.42	2325.01
564.77	2330.06
565.12	2335.49
565.48	2340.65
565.83	2346.16
566.19	2351.68
566.54	2357.19
566.89	2361.88
567.25	2366.47
567.60	2372.12
567.96	2377.36
568.31	2382.10
568.66	2386.45
569.02	2390.42
569.37	2394.24
569.72	2398.84
570.08	2402.51
570.43	2405.76
570.78	2409.00
571.14	2411.61
571.49	2414.88
571.84	2418.47
572.20	2421.47
572.55	2424.45
572.90	2426.72
573.26	2429.57
573.61	2432.31
573.96	2434.44
574.31	2436.42
574.67	2438.29
575.02	2439.15
575.37	2440.50
575.72	2441.07
576.08	2442.35
576.43	2442.48
576.78	2443.06
577.13	2444.40
577.49	2445.54
577.84	2446.67
578.19	2447.95
578.54	2448.60
578.90	2449.37
579.25	2449.36
579.60	2449.37
579.95	2448.60
580.30	2448.76
580.66	2448.11
581.01	2446.18
581.36	2443.91
581.71	2442.53
582.06	2441.47
582.42	2440.58
582.77	2438.29
583.12	2436.84
583.47	2435.79
583.82	2435.21
584.17	2433.95
584.53	2431.90
584.88	2429.83
585.23	2427.89
585.58	2425.71
585.93	2423.64
586.28	2421.42
586.63	2418.84
586.98	2416.66
587.34	2414.79
587.69	2412.32
588.04	2410.30
588.39	2408.96
588.74	2406.48
589.09	2403.61
589.44	2400.44
589.79	2397.97
590.14	2396.07
590.49	2393.17
590.84	2389.10
591.19	2386.07
591.54	2382.83
591.89	2378.81
592.25	2375.43
592.60	2371.28
592.95	2366.88
593.30	2362.71
593.65	2358.29
594.00	2353.84
594.35	2350.80
594.70	2346.12
595.05	2341.48
595.40	2336.02
595.75	2330.21
596.10	2326.59
596.45	2321.99
596.80	2317.34
597.15	2312.17
597.50	2306.28
597.85	2301.23
598.19	2296.01
598.54	2290.13
598.89	2284.75
599.24	2280.29
599.59	2274.15
599.94	2268.28
600.29	2262.47
600.64	2256.50
600.99	2249.53
601.34	2244.03
601.69	2236.95
602.04	2230.47
602.39	2223.79
602.74	2217.63
603.08	2212.09
603.43	2205.48
603.78	2198.52
604.13	2191.52
604.48	2184.05
604.83	2178.01
605.18	2171.79
605.53	2164.84
605.87	2157.80
606.22	2151.07
606.57	2142.95
606.92	2134.94
607.27	2127.85
607.62	2121.33
607.96	2114.38
608.31	2108.15
608.66	2100.22
609.01	2092.54
609.36	2085.31
609.70	2077.59
610.05	2069.72
610.40	2061.25
610.75	2052.90
611.10	2045.26
611.44	2036.25
611.79	2027.54
612.14	2017.40
612.49	2006.68
612.83	1997.30
613.18	1988.00
613.53	1978.59
613.88	1968.94
614.22	1960.20
614.57	1950.31
614.92	1939.37
615.27	1928.97
615.61	1918.67
615.96	1908.98
616.31	1899.27
616.65	1889.80
617.00	1880.10
617.35	1870.33
617.70	1860.54
618.04	1850.35
618.39	1840.00
618.74	1830.24
619.08	1820.56
619.43	1811.67
619.78	1803.35
620.12	1794.67
620.47	1784.93
620.82	1774.36
621.16	1764.58
621.51	1754.66
621.85	1744.75
622.20	1734.43
622.55	1723.77
622.89	1713.72
623.24	1703.79
623.59	1694.06
623.93	1683.88
624.28	1673.97
624.62	1663.83
624.97	1653.51
625.32	1643.57
625.66	1634.62
626.01	1625.77
626.35	1616.26
626.70	1606.14
627.04	1595.97
627.39	1585.78
627.73	1576.35
628.08	1567.57
628.43	1557.93
628.77	1548.59
629.12	1539.60
629.46	1531.67
629.81	1523.21
630.15	1513.59
630.50	1503.83
630.84	1493.22
631.19	1483.16
631.53	1473.79
631.88	1463.50
632.22	1453.34
632.57	1443.92
632.91	1433.64
633.26	1423.75
633.60	1414.12
633.95	1404.86
634.29	1395.32
634.64	1385.84
634.98	1375.80
635.32	1366.27
635.67	1357.73
636.01	1348.40
636.36	1338.55
636.70	1328.87
637.05	1319.37
637.39	1310.41
637.73	1301.67
638.08	1293.88
638.42	1285.69
638.77	1276.79
639.11	1268.48
639.45	1260.66
639.80	1252.03
640.14	1243.24
640.49	1234.21
640.83	1225.33
641.17	1217.03
641.52	1208.74
641.86	1200.17
642.20	1192.29
642.55	1183.62
642.89	1174.59
643.23	1165.88
643.58	1157.72
643.92	1148.63
644.26	1139.94
644.61	1131.27
644.95	1122.37
645.29	1113.14
645.64	1103.79
645.98	1095.10
646.32	1087.09
646.66	1078.41
647.01	1070.04
647.35	1061.85
647.69	1053.43
648.04	1045.06
648.38	1036.10
648.72	1027.27
649.06	1018.64
649.41	1010.32
649.75	1002.22
650.09	994.22
650.43	986.02
650.78	977.60
651.12	969.83
651.46	962.31
651.80	955.03
652.14	947.63
652.49	939.95
652.83	932.55
653.17	924.85
653.51	917.11
653.85	909.79
654.20	902.37
654.54	894.74
654.88	887.45
655.22	880.04
655.56	872.87
655.90	865.97
656.25	859.20
656.59	852.24
656.93	845.18
657.27	837.95
657.61	830.83
657.95	824.68
658.29	818.65
658.64	812.49
658.98	805.99
659.32	799.35
659.66	793.13
660.00	786.70
660.34	780.52
660.68	774.32
661.02	767.93
661.36	761.98
661.70	756.14
662.05	750.46
662.39	744.94
662.73	739.49
663.07	734.00
663.41	728.37
663.75	722.62
664.09	716.85
664.43	711.34
664.77	706.04
665.11	700.08
665.45	694.11
665.79	688.17
666.13	682.42
666.47	676.90
666.81	671.41
667.15	666.00
667.49	660.76
667.83	655.54
668.17	650.20
668.51	644.98
668.85	639.92
669.19	634.93
669.53	629.93
669.87	624.75
670.21	619.92
670.55	615.13
670.89	610.54
671.23	606.22
671.57	601.79
671.91	597.43
672.25	593.29
672.58	589.12
672.92	585.01
673.26	581.07
673.60	577.10
673.94	573.21
674.28	569.55
674.62	565.77
674.96	561.94
675.30	558.41
675.64	554.73
675.97	551.09
676.31	547.45
676.65	543.73
676.99	540.25
677.33	536.36
677.67	532.65
678.01	528.81
678.34	525.10
678.68	521.52
679.02	517.86
679.36	514.11
679.70	510.42
680.04	506.80
680.37	503.21
680.71	499.87
681.05	496.65
681.39	493.32
681.73	490.04
682.06	486.96
682.40	483.82
682.74	480.56
683.08	477.32
683.42	474.06
683.75	471.05
684.09	467.99
684.43	465.19
684.77	462.25
685.10	459.30
685.44	456.35
685.78	453.39
686.12	450.59
686.45	447.83
686.79	445.08
687.13	442.51
687.46	439.90
687.80	437.19
688.14	434.26
688.48	431.55
688.81	428.81
689.15	426.14
689.49	423.47
689.82	420.93
690.16	418.31
690.50	415.84
690.83	413.27
691.17	410.68
691.51	408.20
691.84	405.86
692.18	403.65
692.52	401.41
692.85	399.28
693.19	397.12
693.52	394.93
693.86	392.69
694.20	390.45
694.53	388.26
694.87	386.01
695.21	383.90
695.54	381.74
695.88	379.59
696.21	377.43
696.55	375.30
696.88	373.21
697.22	371.19
697.56	369.24
697.89	367.32
698.23	365.55
698.56	363.71
698.90	361.95
699.23	359.99
699.57	358.09
699.90	356.15
700.24	354.28
700.58	352.44
700.91	350.73
701.25	349.15
701.58	347.52
701.92	345.91
702.25	344.28
702.59	342.65
702.92	341.10
703.26	339.51
703.59	338.00
703.93	336.73
704.26	335.28
704.60	333.77
704.93	332.29
705.26	330.78
705.60	329.31
705.93	327.77
706.27	326.43
706.60	325.19
706.94	323.96
707.27	322.53
707.61	321.17
707.94	319.83
708.27	318.30
708.61	316.82
708.94	315.46
709.28	314.18
709.61	312.91
709.94	311.69
710.28	310.47
710.61	309.28
710.95	307.81
711.28	306.71
711.61	305.52
711.95	304.38
712.28	303.18
712.61	301.95
712.95	300.92
713.28	299.87
713.61	298.67
713.95	297.53
714.28	296.54
714.61	295.48
714.95	294.46
715.28	293.43
715.61	292.39
715.95	291.39
716.28	290.37
716.61	289.40
716.95	288.38
717.28	287.40
717.61	286.42
717.94	285.51
718.28	284.49
718.61	283.60
718.94	282.69
719.27	281.82
719.61	280.98
719.94	280.05
720.27	279.08
720.60	278.17
720.94	277.34
721.27	276.54
721.60	275.87
721.93	275.16
722.27	274.53
722.60	273.86
722.93	273.14
723.26	272.49
723.59	271.76
723.93	271.09
724.26	270.44
724.59	269.80
724.92	269.21
725.25	268.67
725.59	268.07
725.92	267.53
726.25	266.96
726.58	266.41
726.91	265.81
727.24	265.28
727.57	264.76
727.91	264.14
728.24	263.62
728.57	263.02
728.90	262.48
729.23	261.85
729.56	261.41
729.89	260.84
730.22	260.28
730.55	259.74
730.89	259.20
731.22	258.66
731.55	258.12
731.88	257.58
732.21	257.00
732.54	256.45
732.87	255.91
733.20	255.43
733.53	254.94
733.86	254.47
734.19	253.96
734.52	253.54
734.85	253.25
735.18	252.70
735.51	252.33
735.84	251.87
736.17	251.46
736.50	250.90
736.83	250.74
737.16	250.35
737.49	249.97
737.82	249.55
738.15	249.17
738.48	248.81
738.81	248.43
739.14	248.03
739.47	247.66
739.80	247.29
740.13	246.92
740.46	246.51
740.79	246.09
741.12	245.73
741.45	245.33
741.78	244.88
742.11	244.63
742.44	244.27
742.77	243.94
743.10	243.57
743.43	243.20
743.75	242.65
744.08	242.57
744.41	242.20
744.74	241.91
745.07	241.55
745.40	241.22
745.73	240.93
746.06	240.58
746.39	240.32
746.71	239.97
747.04	239.60
747.37	239.27
747.70	238.97
748.03	238.64
748.36	238.37
748.68	238.07
749.01	237.71
749.34	237.36
749.67	237.06
750.00	236.83
750.33	236.71
750.65	236.44
750.98	235.89
751.31	235.63
751.64	235.38
751.97	235.24
752.29	234.97
752.62	234.65
752.95	234.45
753.28	234.16
753.60	233.93
753.93	233.73
754.26	233.50
754.59	233.27
754.91	233.05
755.24	232.81
755.57	232.53
755.90	232.30
756.22	232.08
756.55	231.82
756.88	231.54
757.20	231.20
757.53	230.97
757.86	230.76
758.19	230.57
758.51	230.36
758.84	230.05
759.17	229.82
759.49	229.68
759.82	229.55
760.15	229.38
760.47	229.16
760.80	228.93
761.13	228.78
761.45	228.58
761.78	228.38
762.11	228.19
762.43	228.05
762.76	227.84
763.08	227.70
763.41	227.56
763.74	227.42
764.06	227.25
764.39	227.10
764.71	226.94
765.04	226.76
765.37	226.59
765.69	226.46
766.02	226.30
766.34	226.11
766.67	225.89
767.00	225.79
767.32	225.74
767.65	225.73
767.97	225.60
768.30	225.51
768.62	225.37
768.95	225.23
769.27	225.14
769.60	225.07
769.92	224.89
770.25	224.71
770.57	224.57
770.90	224.44
771.22	224.30
771.55	224.20
771.87	224.13
772.20	223.99
772.52	224.03
772.85	224.19
773.17	224.08
773.50	223.97
773.82	223.83
774.15	223.68
774.47	223.42
774.80	223.30
775.12	223.20
775.45	223.13
775.77	223.09
776.09	222.98
776.42	222.89
776.74	222.87
777.07	222.81
777.39	222.72
777.72	222.64
778.04	222.59
778.36	222.48
778.69	222.40
779.01	222.35
779.33	222.10
779.66	221.78
779.98	221.69
780.31	221.60
780.63	221.60
780.95	221.56
781.28	221.50
781.60	221.42
781.92	221.34
782.25	221.24
782.57	221.10
782.89	221.05
783.22	220.96
783.54	220.86
783.86	220.78
784.19	220.70
784.51	220.69
784.83	220.60
785.16	220.55
785.48	220.48
785.80	220.41
786.12	220.37
