SpectraSuite Data File
++++++++++++++++++++++++++++++++++++
Date: Tue Jan 29 16:23:06 EST 2013
User: group
Dark Spectrum Present: No
Reference Spectrum Present: No
Number of Sampled Component Spectra: 1
Spectrometers: USB2E7196
Integration Time (usec): 65000 (USB2E7196)
Spectra Averaged: 100 (USB2E7196)
Boxcar Smoothing: 10 (USB2E7196)
Correct for Electrical Dark: No (USB2E7196)
Strobe/Lamp Enabled: No (USB2E7196)
Correct for Detector Non-linearity: No (USB2E7196)
Correct for Stray Light: No (USB2E7196)
Number of Pixels in Processed Spectrum: 2048
>>>>>Begin Processed Spectral Data<<<<<
339.09	0.00
339.48	202.32
339.86	204.07
340.24	204.68
340.63	206.09
341.01	210.66
341.39	208.94
341.78	210.38
342.16	212.23
342.54	212.48
342.93	201.41
343.31	211.58
343.69	212.13
344.07	212.59
344.46	213.05
344.84	213.51
345.22	213.68
345.60	213.97
345.99	214.17
346.37	214.29
346.75	214.40
347.13	214.49
347.52	214.55
347.90	214.69
348.28	214.72
348.66	214.83
349.05	214.84
349.43	214.91
349.81	214.97
350.19	215.05
350.57	215.17
350.96	215.25
351.34	215.37
351.72	215.47
352.10	215.59
352.48	215.68
352.87	215.71
353.25	215.78
353.63	215.86
354.01	215.93
354.39	216.05
354.77	216.14
355.15	216.26
355.54	216.33
355.92	216.32
356.30	216.39
356.68	216.61
357.06	216.67
357.44	216.71
357.82	216.80
358.20	216.86
358.58	216.88
358.97	216.94
359.35	217.05
359.73	217.15
360.11	217.20
360.49	217.25
360.87	217.29
361.25	217.37
361.63	217.46
362.01	217.51
362.39	217.51
362.77	217.55
363.15	217.57
363.53	217.60
363.91	217.64
364.29	217.69
364.67	217.49
365.05	217.52
365.43	217.61
365.81	217.60
366.19	217.69
366.57	217.77
366.95	217.77
367.33	217.68
367.71	217.65
368.09	217.65
368.47	217.64
368.85	217.61
369.23	217.66
369.61	217.56
369.99	217.64
370.37	217.67
370.75	217.76
371.13	217.68
371.51	217.61
371.89	217.60
372.27	217.57
372.65	217.57
373.03	217.51
373.41	217.41
373.78	217.37
374.16	217.21
374.54	217.13
374.92	217.08
375.30	217.08
375.68	217.01
376.06	217.00
376.44	216.94
376.82	216.93
377.19	216.86
377.57	216.83
377.95	216.68
378.33	216.59
378.71	216.42
379.09	216.42
379.47	216.40
379.84	216.30
380.22	216.22
380.60	216.13
380.98	216.09
381.36	216.05
381.73	215.98
382.11	215.98
382.49	215.94
382.87	215.89
383.25	215.86
383.62	216.04
384.00	215.95
384.38	215.91
384.76	215.91
385.13	215.98
385.51	215.96
385.89	215.94
386.27	215.90
386.64	215.87
387.02	215.83
387.40	215.82
387.78	215.83
388.15	215.82
388.53	215.82
388.91	215.81
389.29	215.77
389.66	215.77
390.04	215.75
390.42	215.77
390.79	215.75
391.17	215.70
391.55	215.45
391.92	215.45
392.30	215.48
392.68	215.41
393.05	215.37
393.43	215.37
393.81	215.37
394.18	215.39
394.56	215.40
394.94	215.46
395.31	215.43
395.69	215.49
396.06	215.53
396.44	215.55
396.82	215.58
397.19	215.70
397.57	215.74
397.95	215.79
398.32	215.77
398.70	215.81
399.07	215.92
399.45	216.01
399.82	216.05
400.20	216.09
400.58	216.17
400.95	216.15
401.33	216.29
401.70	216.52
402.08	216.59
402.45	216.66
402.83	216.77
403.20	216.90
403.58	217.00
403.95	217.15
404.33	217.29
404.71	217.43
405.08	217.68
405.46	217.85
405.83	218.01
406.21	218.21
406.58	218.46
406.96	218.65
407.33	218.90
407.70	219.19
408.08	219.63
408.45	219.99
408.83	220.36
409.20	220.67
409.58	220.91
409.95	221.34
410.33	221.83
410.70	222.25
411.08	222.78
411.45	223.36
411.82	223.92
412.20	224.64
412.57	225.48
412.95	226.02
413.32	226.87
413.69	227.72
414.07	228.62
414.44	229.60
414.82	230.69
415.19	231.86
415.56	233.06
415.94	234.24
416.31	235.63
416.68	237.06
417.06	238.65
417.43	240.19
417.81	241.89
418.18	243.69
418.55	245.63
418.93	247.70
419.30	249.77
419.67	251.99
420.04	254.24
420.42	256.57
420.79	259.42
421.16	262.14
421.54	265.01
421.91	267.99
422.28	271.07
422.66	274.29
423.03	277.52
423.40	280.86
423.77	284.42
424.15	288.06
424.52	291.86
424.89	296.03
425.26	300.12
425.64	304.02
426.01	308.22
426.38	312.67
426.75	317.15
427.13	321.83
427.50	326.78
427.87	331.92
428.24	337.10
428.61	342.03
428.99	347.50
429.36	353.48
429.73	359.33
430.10	365.14
430.47	371.19
430.85	377.45
431.22	384.07
431.59	391.15
431.96	397.90
432.33	405.34
432.70	412.47
433.08	420.89
433.45	428.92
433.82	436.96
434.19	445.78
434.56	454.41
434.93	462.75
435.30	470.92
435.68	480.03
436.05	488.95
436.42	497.84
436.79	505.92
437.16	514.66
437.53	523.88
437.90	532.98
438.27	541.87
438.64	551.02
439.01	559.50
439.38	566.99
439.75	574.35
440.13	582.75
440.50	590.67
440.87	597.06
441.24	603.62
441.61	610.88
441.98	616.25
442.35	622.56
442.72	628.78
443.09	634.82
443.46	638.51
443.83	641.03
444.20	643.21
444.57	646.33
444.94	647.73
445.31	649.14
445.68	650.50
446.05	651.08
446.42	650.28
446.79	649.31
447.16	648.19
447.53	647.32
447.90	643.95
448.27	640.73
448.64	636.15
449.01	632.84
449.37	626.91
449.74	621.21
450.11	614.29
450.48	606.97
450.85	599.56
451.22	593.08
451.59	586.92
451.96	581.07
452.33	573.28
452.70	566.17
453.07	557.73
453.43	549.18
453.80	540.98
454.17	533.04
454.54	525.53
454.91	517.43
455.28	509.50
455.65	502.19
456.02	494.69
456.38	488.35
456.75	480.55
457.12	474.04
457.49	467.59
457.86	461.45
458.23	456.07
458.59	450.21
458.96	444.32
459.33	439.04
459.70	433.75
460.07	429.51
460.43	424.67
460.80	420.11
461.17	416.19
461.54	412.02
461.91	408.04
462.27	404.01
462.64	400.64
463.01	396.92
463.38	393.20
463.74	389.54
464.11	386.33
464.48	383.52
464.85	380.47
465.21	378.04
465.58	375.46
465.95	372.33
466.32	369.70
466.68	367.09
467.05	364.58
467.42	362.05
467.78	359.40
468.15	356.91
468.52	355.08
468.88	352.54
469.25	350.32
469.62	348.54
469.98	346.60
470.35	344.77
470.72	343.12
471.08	341.36
471.45	339.86
471.82	338.34
472.18	336.70
472.55	335.50
472.92	334.20
473.28	332.99
473.65	331.87
474.02	330.81
474.38	329.93
474.75	329.13
475.11	328.30
475.48	327.77
475.85	327.28
476.21	326.78
476.58	326.45
476.94	326.25
477.31	325.93
477.67	325.68
478.04	325.57
478.41	325.53
478.77	325.68
479.14	325.65
479.50	325.78
479.87	326.11
480.23	326.42
480.60	326.64
480.96	326.93
481.33	327.55
481.69	328.13
482.06	328.62
482.42	329.11
482.79	329.74
483.15	330.52
483.52	331.48
483.88	332.37
484.25	333.38
484.61	334.35
484.98	335.42
485.34	336.76
485.71	338.15
486.07	339.60
486.44	340.93
486.80	342.59
487.17	344.29
487.53	346.10
487.90	348.00
488.26	350.01
488.62	352.18
488.99	354.26
489.35	356.38
489.72	358.80
490.08	361.34
490.44	363.90
490.81	366.62
491.17	369.32
491.54	372.28
491.90	375.29
492.26	378.59
492.63	382.05
492.99	385.51
493.36	389.19
493.72	393.11
494.08	397.16
494.45	401.37
494.81	405.75
495.17	410.23
495.54	414.93
495.90	419.77
496.26	424.74
496.63	429.98
496.99	435.43
497.35	441.05
497.72	446.90
498.08	452.87
498.44	458.98
498.80	465.47
499.17	471.96
499.53	478.70
499.89	485.66
500.26	492.66
500.62	499.80
500.98	507.27
501.34	514.71
501.71	522.52
502.07	530.39
502.43	538.48
502.79	546.63
503.16	555.07
503.52	563.74
503.88	572.50
504.24	581.53
504.60	590.70
504.97	599.97
505.33	609.26
505.69	619.17
506.05	629.05
506.41	638.96
506.78	649.17
507.14	659.55
507.50	670.04
507.86	680.83
508.22	691.74
508.59	702.45
508.95	713.60
509.31	724.92
509.67	736.46
510.03	747.90
510.39	759.76
510.75	771.69
511.12	783.70
511.48	795.86
511.84	808.15
512.20	820.47
512.56	833.25
512.92	846.22
513.28	858.98
513.64	871.92
514.00	884.85
514.37	897.93
514.73	910.98
515.09	924.04
515.45	937.04
515.81	950.14
516.17	963.70
516.53	977.05
516.89	990.26
517.25	1003.43
517.61	1017.16
517.97	1030.72
518.33	1043.97
518.69	1057.57
519.05	1071.44
519.41	1085.31
519.77	1099.39
520.13	1112.76
520.49	1126.13
520.85	1139.74
521.21	1153.21
521.57	1167.03
521.93	1180.20
522.29	1194.22
522.65	1208.00
523.01	1221.80
523.37	1235.17
523.73	1248.55
524.09	1261.91
524.45	1275.46
524.81	1289.16
525.17	1302.47
525.53	1315.65
525.89	1329.09
526.25	1342.35
526.61	1355.24
526.97	1368.39
527.33	1381.48
527.68	1395.07
528.04	1408.49
528.40	1421.61
528.76	1435.05
529.12	1448.02
529.48	1461.51
529.84	1473.81
530.20	1486.66
530.56	1499.34
530.91	1512.58
531.27	1525.43
531.63	1538.17
531.99	1550.99
532.35	1563.32
532.71	1575.93
533.07	1589.00
533.42	1601.38
533.78	1613.64
534.14	1625.76
534.50	1637.04
534.86	1648.64
535.21	1659.52
535.57	1671.29
535.93	1682.61
536.29	1693.88
536.65	1705.39
537.00	1716.40
537.36	1727.86
537.72	1739.04
538.08	1750.47
538.44	1761.53
538.79	1772.83
539.15	1783.93
539.51	1794.84
539.87	1806.09
540.22	1816.95
540.58	1827.86
540.94	1838.66
541.29	1849.00
541.65	1858.85
542.01	1869.47
542.37	1879.67
542.72	1889.82
543.08	1899.59
543.44	1910.16
543.79	1919.44
544.15	1928.93
544.51	1938.94
544.87	1948.91
545.22	1957.98
545.58	1966.85
545.94	1975.83
546.29	1984.28
546.65	1992.56
547.01	2000.81
547.36	2008.69
547.72	2016.48
548.07	2024.08
548.43	2031.93
548.79	2039.89
549.14	2048.16
549.50	2056.60
549.86	2064.45
550.21	2072.12
550.57	2079.77
550.92	2086.56
551.28	2094.00
551.64	2101.34
551.99	2108.83
552.35	2115.91
552.70	2122.83
553.06	2129.41
553.41	2135.86
553.77	2142.48
554.13	2148.94
554.48	2155.99
554.84	2163.03
555.19	2169.73
555.55	2176.27
555.90	2182.68
556.26	2189.37
556.61	2195.51
556.97	2200.35
557.32	2206.10
557.68	2212.55
558.03	2218.38
558.39	2223.79
558.74	2229.84
559.10	2235.46
559.45	2240.93
559.81	2246.65
560.16	2252.36
560.52	2258.45
560.87	2264.72
561.23	2270.63
561.58	2277.44
561.94	2282.80
562.29	2287.57
562.64	2293.60
563.00	2299.26
563.35	2304.91
563.71	2310.84
564.06	2316.54
564.42	2322.64
564.77	2327.96
565.12	2333.28
565.48	2338.64
565.83	2344.18
566.19	2349.52
566.54	2354.96
566.89	2359.81
567.25	2364.49
567.60	2370.29
567.96	2375.54
568.31	2380.20
568.66	2384.64
569.02	2388.53
569.37	2392.25
569.72	2396.77
570.08	2400.32
570.43	2403.62
570.78	2406.80
571.14	2409.33
571.49	2412.55
571.84	2416.26
572.20	2419.28
572.55	2422.29
572.90	2424.50
573.26	2427.45
573.61	2430.29
573.96	2432.59
574.31	2434.61
574.67	2436.64
575.02	2437.41
575.37	2438.98
575.72	2439.83
576.08	2441.37
576.43	2441.55
576.78	2442.15
577.13	2443.85
577.49	2445.18
577.84	2446.25
578.19	2447.61
578.54	2448.32
578.90	2449.13
579.25	2448.97
579.60	2448.85
579.95	2448.06
580.30	2448.29
580.66	2447.66
581.01	2446.11
581.36	2443.80
581.71	2442.42
582.06	2441.18
582.42	2440.39
582.77	2438.18
583.12	2436.54
583.47	2435.21
583.82	2434.85
584.17	2433.74
584.53	2431.68
584.88	2429.56
585.23	2427.78
585.58	2425.60
585.93	2423.55
586.28	2421.46
586.63	2418.98
586.98	2416.83
587.34	2414.95
587.69	2412.53
588.04	2410.54
588.39	2409.04
588.74	2406.66
589.09	2404.02
589.44	2400.95
589.79	2398.56
590.14	2396.62
590.49	2393.94
590.84	2390.11
591.19	2387.05
591.54	2383.77
591.89	2379.83
592.25	2376.67
592.60	2372.51
592.95	2368.35
593.30	2364.18
593.65	2359.71
594.00	2355.20
594.35	2352.22
594.70	2347.71
595.05	2343.19
595.40	2337.70
595.75	2331.96
596.10	2328.36
596.45	2323.58
596.80	2319.00
597.15	2313.83
597.50	2307.82
597.85	2302.74
598.19	2297.55
598.54	2291.58
598.89	2286.33
599.24	2281.67
599.59	2275.47
599.94	2269.61
600.29	2263.53
600.64	2257.74
600.99	2250.99
601.34	2245.64
601.69	2238.64
602.04	2232.12
602.39	2225.41
602.74	2219.23
603.08	2213.74
603.43	2207.03
603.78	2200.27
604.13	2193.13
604.48	2185.67
604.83	2179.58
605.18	2173.52
605.53	2166.55
605.87	2159.55
606.22	2152.77
606.57	2144.86
606.92	2136.86
607.27	2129.86
607.62	2123.40
607.96	2116.31
608.31	2109.82
608.66	2101.97
609.01	2094.44
609.36	2087.33
609.70	2079.59
610.05	2071.75
610.40	2063.40
610.75	2055.00
611.10	2047.03
611.44	2038.15
611.79	2029.43
612.14	2019.36
612.49	2008.51
612.83	1999.06
613.18	1989.64
613.53	1980.29
613.88	1970.55
614.22	1961.92
614.57	1951.92
614.92	1941.12
615.27	1930.82
615.61	1920.60
615.96	1910.77
616.31	1900.96
616.65	1891.39
617.00	1881.46
617.35	1871.86
617.70	1861.98
618.04	1851.91
618.39	1841.78
618.74	1831.97
619.08	1822.28
619.43	1813.53
619.78	1805.13
620.12	1796.44
620.47	1786.74
620.82	1776.25
621.16	1766.41
621.51	1756.31
621.85	1746.36
622.20	1735.93
622.55	1725.20
622.89	1715.26
623.24	1705.52
623.59	1695.55
623.93	1685.36
624.28	1675.62
624.62	1665.36
624.97	1654.88
625.32	1645.02
625.66	1635.97
626.01	1627.10
626.35	1617.76
626.70	1607.58
627.04	1597.31
627.39	1587.06
627.73	1577.72
628.08	1568.72
628.43	1559.09
628.77	1549.80
629.12	1540.78
629.46	1532.89
629.81	1524.52
630.15	1514.85
630.50	1504.98
630.84	1494.35
631.19	1484.30
631.53	1474.91
631.88	1464.55
632.22	1454.46
632.57	1444.91
632.91	1434.70
633.26	1424.71
633.60	1414.83
633.95	1405.42
634.29	1395.91
634.64	1386.43
634.98	1376.37
635.32	1366.88
635.67	1358.20
636.01	1348.76
636.36	1338.96
636.70	1329.23
637.05	1319.70
637.39	1310.62
637.73	1301.91
638.08	1294.34
638.42	1286.09
638.77	1277.10
639.11	1268.72
639.45	1260.88
639.80	1252.28
640.14	1243.36
640.49	1234.45
640.83	1225.57
641.17	1217.30
641.52	1209.06
641.86	1200.41
642.20	1192.33
642.55	1183.57
642.89	1174.58
643.23	1165.82
643.58	1157.58
643.92	1148.43
644.26	1139.56
644.61	1130.94
644.95	1121.98
645.29	1112.63
645.64	1103.23
645.98	1094.65
646.32	1086.59
646.66	1077.95
647.01	1069.49
647.35	1061.26
647.69	1052.76
648.04	1044.32
648.38	1035.25
648.72	1026.38
649.06	1017.75
649.41	1009.50
649.75	1001.42
650.09	993.46
650.43	985.31
650.78	976.87
651.12	969.05
651.46	961.56
651.80	954.29
652.14	946.92
652.49	939.30
652.83	931.92
653.17	924.08
653.51	916.35
653.85	908.91
654.20	901.58
654.54	894.03
654.88	886.77
655.22	879.47
655.56	872.47
655.90	865.60
656.25	858.87
656.59	851.95
656.93	844.91
657.27	837.66
657.61	830.56
657.95	824.36
658.29	818.40
658.64	812.16
658.98	805.57
659.32	798.92
659.66	792.63
660.00	786.28
660.34	780.20
660.68	774.06
661.02	767.64
661.36	761.55
661.70	755.73
662.05	750.00
662.39	744.45
662.73	738.93
663.07	733.38
663.41	727.70
663.75	721.76
664.09	715.94
664.43	710.46
664.77	705.14
665.11	699.25
665.45	693.25
665.79	687.40
666.13	681.67
666.47	676.07
666.81	670.51
667.15	664.96
667.49	659.62
667.83	654.32
668.17	649.08
668.51	643.92
668.85	638.89
669.19	633.87
669.53	628.80
669.87	623.65
670.21	618.88
670.55	614.09
670.89	609.66
671.23	605.33
671.57	600.84
671.91	596.39
672.25	592.25
672.58	588.10
672.92	583.96
673.26	579.88
673.60	575.96
673.94	572.08
674.28	568.41
674.62	564.67
674.96	560.86
675.30	557.32
675.64	553.62
675.97	550.00
676.31	546.36
676.65	542.67
676.99	539.19
677.33	535.36
677.67	531.73
678.01	527.83
678.34	524.21
678.68	520.70
679.02	517.11
679.36	513.38
679.70	509.68
680.04	506.08
680.37	502.65
680.71	499.32
681.05	496.12
681.39	492.85
681.73	489.63
682.06	486.62
682.40	483.43
682.74	480.19
683.08	476.94
683.42	473.68
683.75	470.65
684.09	467.56
684.43	464.69
684.77	461.69
685.10	458.86
685.44	455.87
685.78	452.91
686.12	450.08
686.45	447.31
686.79	444.64
687.13	442.11
687.46	439.45
687.80	436.69
688.14	433.74
688.48	431.10
688.81	428.36
689.15	425.70
689.49	423.05
689.82	420.50
690.16	417.88
690.50	415.41
690.83	412.88
691.17	410.36
691.51	407.82
691.84	405.51
692.18	403.23
692.52	400.96
692.85	398.81
693.19	396.66
693.52	394.40
693.86	392.13
694.20	389.89
694.53	387.70
694.87	385.51
695.21	383.44
695.54	381.20
695.88	379.00
696.21	376.74
696.55	374.59
696.88	372.53
697.22	370.52
697.56	368.61
697.89	366.69
698.23	364.90
698.56	363.11
698.90	361.36
699.23	359.40
699.57	357.54
699.90	355.60
700.24	353.77
700.58	352.02
700.91	350.32
701.25	348.71
701.58	347.11
701.92	345.52
702.25	343.87
702.59	342.29
702.92	340.77
703.26	339.26
703.59	337.78
703.93	336.45
704.26	334.98
704.60	333.42
704.93	331.92
705.26	330.37
705.60	328.87
705.93	327.32
706.27	326.01
706.60	324.72
706.94	323.49
707.27	322.06
707.61	320.72
707.94	319.37
708.27	317.87
708.61	316.41
708.94	315.03
709.28	313.77
709.61	312.51
709.94	311.27
710.28	310.04
710.61	308.83
710.95	307.41
711.28	306.36
711.61	305.19
711.95	304.06
712.28	302.87
712.61	301.64
712.95	300.59
713.28	299.55
713.61	298.36
713.95	297.20
714.28	296.16
714.61	295.08
714.95	294.10
715.28	293.06
715.61	292.07
715.95	291.06
716.28	290.05
716.61	289.09
716.95	288.13
717.28	287.16
717.61	286.22
717.94	285.29
718.28	284.24
718.61	283.33
718.94	282.43
719.27	281.58
719.61	280.83
719.94	279.97
720.27	279.00
720.60	278.16
720.94	277.36
721.27	276.60
721.60	275.88
721.93	275.13
722.27	274.46
722.60	273.80
722.93	273.15
723.26	272.52
723.59	271.77
723.93	271.13
724.26	270.48
724.59	269.82
724.92	269.24
725.25	268.70
725.59	268.15
725.92	267.61
726.25	267.03
726.58	266.40
726.91	265.78
727.24	265.22
727.57	264.67
727.91	264.06
728.24	263.50
728.57	262.97
728.90	262.42
729.23	261.79
729.56	261.34
729.89	260.75
730.22	260.13
730.55	259.61
730.89	259.02
731.22	258.48
731.55	257.95
731.88	257.40
732.21	256.86
732.54	256.27
732.87	255.73
733.20	255.23
733.53	254.72
733.86	254.24
734.19	253.76
734.52	253.31
734.85	253.03
735.18	252.55
735.51	252.15
735.84	251.70
736.17	251.35
736.50	250.79
736.83	250.62
737.16	250.27
737.49	249.90
737.82	249.52
738.15	249.17
738.48	248.81
738.81	248.43
739.14	247.97
739.47	247.64
739.80	247.29
740.13	246.94
740.46	246.59
740.79	246.19
741.12	245.83
741.45	245.46
741.78	245.02
742.11	244.76
742.44	244.37
742.77	244.06
743.10	243.71
743.43	243.33
743.75	242.80
744.08	242.72
744.41	242.36
744.74	242.00
745.07	241.61
745.40	241.31
745.73	241.08
746.06	240.79
746.39	240.47
746.71	240.08
747.04	239.70
747.37	239.38
747.70	239.10
748.03	238.78
748.36	238.49
748.68	238.18
749.01	237.80
749.34	237.51
749.67	237.23
750.00	236.94
750.33	236.83
750.65	236.53
750.98	235.99
751.31	235.73
751.64	235.47
751.97	235.38
752.29	235.09
752.62	234.72
752.95	234.46
753.28	234.22
753.60	234.02
753.93	233.89
754.26	233.67
754.59	233.39
754.91	233.17
755.24	232.94
755.57	232.70
755.90	232.47
756.22	232.20
756.55	231.96
756.88	231.70
757.20	231.36
757.53	231.09
757.86	230.89
758.19	230.69
758.51	230.49
758.84	230.14
759.17	229.98
759.49	229.79
759.82	229.70
760.15	229.51
760.47	229.30
760.80	229.03
761.13	228.90
761.45	228.73
761.78	228.49
762.11	228.30
762.43	228.10
762.76	227.96
763.08	227.83
763.41	227.68
763.74	227.56
764.06	227.40
764.39	227.27
764.71	227.12
765.04	226.92
765.37	226.77
765.69	226.63
766.02	226.42
766.34	226.27
766.67	226.08
767.00	225.94
767.32	225.93
767.65	225.93
767.97	225.73
768.30	225.61
768.62	225.56
768.95	225.43
769.27	225.31
769.60	225.16
769.92	225.01
770.25	224.84
770.57	224.67
770.90	224.55
771.22	224.43
771.55	224.29
771.87	224.21
772.20	224.09
772.52	224.12
772.85	224.27
773.17	224.18
773.50	224.03
773.82	223.92
774.15	223.72
774.47	223.45
774.80	223.37
775.12	223.26
775.45	223.14
775.77	223.08
776.09	223.01
776.42	222.93
776.74	222.88
777.07	222.77
777.39	222.70
777.72	222.59
778.04	222.50
778.36	222.41
778.69	222.34
779.01	222.26
779.33	222.02
779.66	221.70
779.98	221.59
780.31	221.53
780.63	221.53
780.95	221.47
781.28	221.43
781.60	221.33
781.92	221.27
782.25	221.21
782.57	221.12
782.89	221.03
783.22	220.95
783.54	220.87
783.86	220.83
784.19	220.76
784.51	220.74
784.83	220.66
785.16	220.58
785.48	220.51
785.80	220.46
786.12	220.40
