SpectraSuite Data File
++++++++++++++++++++++++++++++++++++
Date: Tue Jan 29 16:31:15 EST 2013
User: group
Dark Spectrum Present: No
Reference Spectrum Present: No
Number of Sampled Component Spectra: 1
Spectrometers: USB2E7196
Integration Time (usec): 65000 (USB2E7196)
Spectra Averaged: 100 (USB2E7196)
Boxcar Smoothing: 10 (USB2E7196)
Correct for Electrical Dark: No (USB2E7196)
Strobe/Lamp Enabled: No (USB2E7196)
Correct for Detector Non-linearity: No (USB2E7196)
Correct for Stray Light: No (USB2E7196)
Number of Pixels in Processed Spectrum: 2048
>>>>>Begin Processed Spectral Data<<<<<
339.09	0.00
339.48	201.67
339.86	203.13
340.24	204.43
340.63	206.15
341.01	210.80
341.39	209.15
341.78	210.37
342.16	211.66
342.54	211.47
342.93	201.20
343.31	211.37
343.69	211.97
344.07	212.47
344.46	212.96
344.84	213.36
345.22	213.53
345.60	213.81
345.99	214.03
346.37	214.20
346.75	214.33
347.13	214.39
347.52	214.46
347.90	214.55
348.28	214.59
348.66	214.69
349.05	214.66
349.43	214.74
349.81	214.84
350.19	214.87
350.57	214.96
350.96	215.02
351.34	215.14
351.72	215.21
352.10	215.29
352.48	215.34
352.87	215.39
353.25	215.46
353.63	215.48
354.01	215.52
354.39	215.62
354.77	215.73
355.15	215.88
355.54	215.95
355.92	215.96
356.30	216.05
356.68	216.22
357.06	216.33
357.44	216.34
357.82	216.35
358.20	216.45
358.58	216.50
358.97	216.59
359.35	216.68
359.73	216.77
360.11	216.84
360.49	216.89
360.87	216.98
361.25	217.07
361.63	217.22
362.01	217.29
362.39	217.28
362.77	217.37
363.15	217.40
363.53	217.42
363.91	217.50
364.29	217.54
364.67	217.35
365.05	217.36
365.43	217.44
365.81	217.49
366.19	217.58
366.57	217.67
366.95	217.65
367.33	217.61
367.71	217.58
368.09	217.60
368.47	217.59
368.85	217.55
369.23	217.55
369.61	217.44
369.99	217.47
370.37	217.49
370.75	217.50
371.13	217.42
371.51	217.39
371.89	217.36
372.27	217.32
372.65	217.33
373.03	217.29
373.41	217.25
373.78	217.15
374.16	217.03
374.54	216.91
374.92	216.90
375.30	216.88
375.68	216.81
376.06	216.76
376.44	216.71
376.82	216.68
377.19	216.60
377.57	216.58
377.95	216.49
378.33	216.39
378.71	216.23
379.09	216.23
379.47	216.19
379.84	216.10
380.22	216.03
380.60	215.94
380.98	215.88
381.36	215.80
381.73	215.76
382.11	215.72
382.49	215.67
382.87	215.58
383.25	215.51
383.62	215.71
384.00	215.64
384.38	215.61
384.76	215.62
385.13	215.69
385.51	215.63
385.89	215.54
386.27	215.55
386.64	215.55
387.02	215.52
387.40	215.46
387.78	215.46
388.15	215.44
388.53	215.45
388.91	215.42
389.29	215.37
389.66	215.40
390.04	215.38
390.42	215.44
390.79	215.45
391.17	215.42
391.55	215.15
391.92	215.16
392.30	215.19
392.68	215.15
393.05	215.12
393.43	215.13
393.81	215.16
394.18	215.13
394.56	215.14
394.94	215.19
395.31	215.19
395.69	215.26
396.06	215.30
396.44	215.32
396.82	215.34
397.19	215.45
397.57	215.45
397.95	215.48
398.32	215.41
398.70	215.45
399.07	215.54
399.45	215.61
399.82	215.67
400.20	215.69
400.58	215.77
400.95	215.75
401.33	215.85
401.70	216.09
402.08	216.18
402.45	216.26
402.83	216.40
403.20	216.55
403.58	216.62
403.95	216.77
404.33	216.91
404.71	217.03
405.08	217.31
405.46	217.53
405.83	217.76
406.21	217.95
406.58	218.20
406.96	218.41
407.33	218.67
407.70	218.97
408.08	219.47
408.45	219.80
408.83	220.21
409.20	220.56
409.58	220.81
409.95	221.30
410.33	221.80
410.70	222.21
411.08	222.72
411.45	223.30
411.82	223.87
412.20	224.57
412.57	225.40
412.95	225.97
413.32	226.80
413.69	227.64
414.07	228.59
414.44	229.56
414.82	230.62
415.19	231.79
415.56	232.99
415.94	234.12
416.31	235.53
416.68	236.92
417.06	238.52
417.43	240.07
417.81	241.81
418.18	243.60
418.55	245.54
418.93	247.60
419.30	249.76
419.67	252.03
420.04	254.32
420.42	256.68
420.79	259.52
421.16	262.31
421.54	265.21
421.91	268.15
422.28	271.25
422.66	274.50
423.03	277.76
423.40	281.10
423.77	284.69
424.15	288.33
424.52	292.18
424.89	296.35
425.26	300.41
425.64	304.25
426.01	308.44
426.38	312.93
426.75	317.48
427.13	322.14
427.50	327.08
427.87	332.27
428.24	337.46
428.61	342.48
428.99	347.96
429.36	353.94
429.73	359.85
430.10	365.72
430.47	371.82
430.85	378.15
431.22	384.83
431.59	391.95
431.96	398.81
432.33	406.30
432.70	413.56
433.08	422.07
433.45	430.16
433.82	438.19
434.19	447.09
434.56	455.78
434.93	464.10
435.30	472.40
435.68	481.52
436.05	490.50
436.42	499.39
436.79	507.57
437.16	516.32
437.53	525.63
437.90	534.81
438.27	543.79
438.64	552.96
439.01	561.51
439.38	569.07
439.75	576.36
440.13	584.79
440.50	592.74
440.87	599.20
441.24	605.85
441.61	613.23
441.98	618.57
442.35	624.88
442.72	631.31
443.09	637.36
443.46	641.07
443.83	643.63
444.20	645.83
444.57	648.96
444.94	650.42
445.31	651.82
445.68	653.17
446.05	653.80
446.42	653.09
446.79	652.20
447.16	651.16
447.53	650.42
447.90	647.07
448.27	643.77
448.64	639.19
449.01	635.85
449.37	630.00
449.74	624.32
450.11	617.41
450.48	609.94
450.85	602.49
451.22	596.00
451.59	589.87
451.96	584.02
452.33	576.14
452.70	569.01
453.07	560.58
453.43	551.99
453.80	543.64
454.17	535.58
454.54	527.98
454.91	519.80
455.28	511.77
455.65	504.39
456.02	496.88
456.38	490.44
456.75	482.62
457.12	475.99
457.49	469.57
457.86	463.39
458.23	457.98
458.59	452.04
458.96	446.12
459.33	440.78
459.70	435.40
460.07	431.15
460.43	426.36
460.80	421.78
461.17	417.77
461.54	413.60
461.91	409.63
462.27	405.50
462.64	402.03
463.01	398.28
463.38	394.56
463.74	390.90
464.11	387.73
464.48	384.87
464.85	381.77
465.21	379.29
465.58	376.62
465.95	373.45
466.32	370.84
466.68	368.23
467.05	365.64
467.42	363.09
467.78	360.42
468.15	357.83
468.52	355.85
468.88	353.38
469.25	351.18
469.62	349.36
469.98	347.43
470.35	345.64
470.72	343.96
471.08	342.15
471.45	340.59
471.82	339.02
472.18	337.33
472.55	336.14
472.92	334.74
473.28	333.57
473.65	332.47
474.02	331.39
474.38	330.48
474.75	329.70
475.11	328.87
475.48	328.28
475.85	327.78
476.21	327.33
476.58	326.98
476.94	326.70
477.31	326.37
477.67	326.06
478.04	325.89
478.41	325.85
478.77	326.01
479.14	325.98
479.50	326.14
479.87	326.44
480.23	326.76
480.60	326.97
480.96	327.25
481.33	327.87
481.69	328.42
482.06	328.95
482.42	329.45
482.79	330.10
483.15	330.87
483.52	331.82
483.88	332.68
484.25	333.62
484.61	334.64
484.98	335.69
485.34	337.01
485.71	338.37
486.07	339.81
486.44	341.16
486.80	342.78
487.17	344.42
487.53	346.27
487.90	348.18
488.26	350.29
488.62	352.44
488.99	354.50
489.35	356.68
489.72	359.07
490.08	361.61
490.44	364.14
490.81	366.90
491.17	369.62
491.54	372.66
491.90	375.70
492.26	378.98
492.63	382.44
492.99	385.94
493.36	389.65
493.72	393.55
494.08	397.57
494.45	401.83
494.81	406.23
495.17	410.66
495.54	415.32
495.90	420.07
496.26	425.05
496.63	430.25
496.99	435.58
497.35	441.20
497.72	447.01
498.08	452.96
498.44	459.07
498.80	465.52
499.17	472.04
499.53	478.82
499.89	485.76
500.26	492.72
500.62	499.87
500.98	507.27
501.34	514.75
501.71	522.51
502.07	530.30
502.43	538.36
502.79	546.54
503.16	554.98
503.52	563.63
503.88	572.41
504.24	581.38
504.60	590.55
504.97	599.78
505.33	609.20
505.69	619.23
506.05	629.13
506.41	639.04
506.78	649.15
507.14	659.46
507.50	669.99
507.86	680.75
508.22	691.49
508.59	702.28
508.95	713.47
509.31	724.85
509.67	736.35
510.03	747.81
510.39	759.64
510.75	771.57
511.12	783.60
511.48	795.71
511.84	808.13
512.20	820.63
512.56	833.35
512.92	846.09
513.28	858.66
513.64	871.56
514.00	884.57
514.37	897.63
514.73	910.78
515.09	923.85
515.45	936.84
515.81	949.96
516.17	963.40
516.53	976.72
516.89	989.89
517.25	1003.18
517.61	1016.80
517.97	1030.30
518.33	1043.51
518.69	1057.09
519.05	1070.88
519.41	1084.67
519.77	1098.57
520.13	1112.09
520.49	1125.42
520.85	1138.89
521.21	1152.41
521.57	1166.10
521.93	1179.28
522.29	1193.13
522.65	1206.82
523.01	1220.59
523.37	1234.01
523.73	1247.45
524.09	1260.64
524.45	1274.24
524.81	1287.82
525.17	1301.30
525.53	1314.57
525.89	1328.02
526.25	1341.32
526.61	1354.31
526.97	1367.32
527.33	1380.38
527.68	1393.78
528.04	1407.51
528.40	1420.80
528.76	1434.21
529.12	1447.22
529.48	1460.65
529.84	1472.99
530.20	1485.83
530.56	1498.62
530.91	1511.88
531.27	1524.88
531.63	1537.88
531.99	1550.70
532.35	1563.11
532.71	1575.63
533.07	1588.70
533.42	1601.08
533.78	1613.39
534.14	1625.57
534.50	1637.02
534.86	1648.74
535.21	1659.88
535.57	1671.33
535.93	1682.76
536.29	1693.93
536.65	1705.49
537.00	1716.72
537.36	1728.19
537.72	1739.39
538.08	1750.87
538.44	1762.21
538.79	1773.33
539.15	1784.28
539.51	1795.17
539.87	1806.65
540.22	1817.56
540.58	1828.59
540.94	1839.59
541.29	1849.92
541.65	1859.88
542.01	1870.57
542.37	1880.68
542.72	1890.85
543.08	1900.94
543.44	1911.47
543.79	1920.80
544.15	1930.28
544.51	1940.21
544.87	1950.25
545.22	1959.55
545.58	1968.45
545.94	1977.27
546.29	1985.95
546.65	1994.49
547.01	2002.86
547.36	2010.48
547.72	2018.47
548.07	2026.12
548.43	2033.97
548.79	2041.85
549.14	2049.99
549.50	2058.51
549.86	2066.59
550.21	2074.14
550.57	2081.75
550.92	2088.57
551.28	2096.19
551.64	2103.64
551.99	2111.23
552.35	2118.45
552.70	2125.31
553.06	2132.06
553.41	2138.35
553.77	2144.95
554.13	2151.29
554.48	2158.46
554.84	2165.92
555.19	2172.42
555.55	2178.88
555.90	2185.30
556.26	2192.09
556.61	2198.29
556.97	2203.08
557.32	2208.73
557.68	2215.19
558.03	2220.98
558.39	2226.46
558.74	2232.48
559.10	2238.02
559.45	2243.58
559.81	2249.12
560.16	2254.74
560.52	2260.68
560.87	2267.10
561.23	2273.05
561.58	2279.72
561.94	2284.76
562.29	2289.19
562.64	2295.16
563.00	2300.77
563.35	2306.26
563.71	2312.20
564.06	2317.96
564.42	2324.02
564.77	2329.16
565.12	2334.28
565.48	2339.40
565.83	2344.94
566.19	2350.31
566.54	2355.69
566.89	2360.31
567.25	2365.03
567.60	2370.79
567.96	2375.93
568.31	2380.58
568.66	2384.86
569.02	2388.77
569.37	2392.62
569.72	2397.24
570.08	2400.86
570.43	2404.11
570.78	2407.17
571.14	2409.64
571.49	2412.62
571.84	2416.10
572.20	2419.15
572.55	2422.20
572.90	2424.57
573.26	2427.34
573.61	2429.84
573.96	2431.83
574.31	2433.74
574.67	2435.49
575.02	2436.21
575.37	2437.54
575.72	2438.18
576.08	2439.58
576.43	2439.72
576.78	2440.20
577.13	2441.70
577.49	2442.73
577.84	2443.63
578.19	2444.96
578.54	2445.55
578.90	2446.28
579.25	2446.18
579.60	2446.00
579.95	2445.21
580.30	2445.21
580.66	2444.37
581.01	2442.78
581.36	2440.53
581.71	2439.14
582.06	2438.07
582.42	2437.12
582.77	2434.78
583.12	2433.19
583.47	2431.75
583.82	2431.20
584.17	2429.88
584.53	2427.60
584.88	2425.45
585.23	2423.66
585.58	2421.49
585.93	2419.51
586.28	2417.28
586.63	2414.70
586.98	2412.44
587.34	2410.44
587.69	2408.04
588.04	2406.01
588.39	2404.48
588.74	2401.85
589.09	2399.12
589.44	2395.83
589.79	2393.36
590.14	2391.40
590.49	2388.52
590.84	2384.57
591.19	2381.37
591.54	2378.06
591.89	2373.99
592.25	2370.74
592.60	2366.40
592.95	2361.93
593.30	2357.60
593.65	2353.30
594.00	2348.81
594.35	2345.71
594.70	2341.14
595.05	2336.40
595.40	2330.93
595.75	2325.08
596.10	2321.56
596.45	2316.72
596.80	2312.14
597.15	2306.82
597.50	2300.94
597.85	2295.97
598.19	2290.73
598.54	2284.85
598.89	2279.63
599.24	2275.02
599.59	2268.77
599.94	2262.84
600.29	2257.04
600.64	2251.09
600.99	2243.99
601.34	2238.55
601.69	2231.49
602.04	2224.97
602.39	2218.32
602.74	2212.15
603.08	2206.55
603.43	2199.82
603.78	2192.93
604.13	2185.89
604.48	2178.53
604.83	2172.27
605.18	2165.91
605.53	2158.84
605.87	2151.69
606.22	2144.84
606.57	2136.93
606.92	2128.99
607.27	2122.10
607.62	2115.42
607.96	2108.46
608.31	2102.23
608.66	2094.40
609.01	2086.70
609.36	2079.51
609.70	2071.75
610.05	2063.81
610.40	2055.51
610.75	2047.18
611.10	2039.34
611.44	2030.28
611.79	2021.64
612.14	2011.73
612.49	2001.02
612.83	1991.75
613.18	1982.58
613.53	1973.15
613.88	1963.54
614.22	1954.73
614.57	1944.81
614.92	1934.09
615.27	1923.73
615.61	1913.27
615.96	1903.57
616.31	1893.95
616.65	1884.51
617.00	1874.61
617.35	1865.08
617.70	1855.29
618.04	1845.32
618.39	1835.10
618.74	1825.37
619.08	1815.71
619.43	1806.89
619.78	1798.62
620.12	1789.95
620.47	1780.18
620.82	1769.81
621.16	1759.93
621.51	1750.12
621.85	1740.23
622.20	1729.71
622.55	1719.12
622.89	1709.31
623.24	1699.49
623.59	1689.62
623.93	1679.43
624.28	1669.70
624.62	1659.53
624.97	1649.14
625.32	1639.18
625.66	1630.30
626.01	1621.52
626.35	1612.08
626.70	1601.94
627.04	1591.73
627.39	1581.57
627.73	1572.30
628.08	1563.43
628.43	1553.71
628.77	1544.37
629.12	1535.44
629.46	1527.63
629.81	1519.17
630.15	1509.54
630.50	1499.65
630.84	1489.22
631.19	1479.28
631.53	1470.08
631.88	1459.83
632.22	1449.91
632.57	1440.50
632.91	1430.36
633.26	1420.33
633.60	1410.75
633.95	1401.48
634.29	1392.10
634.64	1382.68
634.98	1372.67
635.32	1363.21
635.67	1354.86
636.01	1345.63
636.36	1335.77
636.70	1326.25
637.05	1316.83
637.39	1307.79
637.73	1299.14
638.08	1291.60
638.42	1283.31
638.77	1274.34
639.11	1266.01
639.45	1258.22
639.80	1249.63
640.14	1240.81
640.49	1232.05
640.83	1223.11
641.17	1214.89
641.52	1206.66
641.86	1198.07
642.20	1190.19
642.55	1181.45
642.89	1172.45
643.23	1163.76
643.58	1155.60
643.92	1146.42
644.26	1137.71
644.61	1129.41
644.95	1120.57
645.29	1111.18
645.64	1102.00
645.98	1093.51
646.32	1085.57
646.66	1076.85
647.01	1068.54
647.35	1060.37
647.69	1052.02
648.04	1043.68
648.38	1034.74
648.72	1025.91
649.06	1017.37
649.41	1009.08
649.75	1001.07
650.09	993.07
650.43	984.96
650.78	976.57
651.12	968.91
651.46	961.41
651.80	954.01
652.14	946.64
652.49	939.11
652.83	931.67
653.17	923.89
653.51	916.22
653.85	908.95
654.20	901.62
654.54	894.10
654.88	886.72
655.22	879.41
655.56	872.35
655.90	865.47
656.25	858.80
656.59	851.85
656.93	844.86
657.27	837.69
657.61	830.68
657.95	824.58
658.29	818.60
658.64	812.36
658.98	805.89
659.32	799.35
659.66	793.08
660.00	786.70
660.34	780.61
660.68	774.40
661.02	768.00
661.36	761.93
661.70	756.08
662.05	750.43
662.39	744.82
662.73	739.39
663.07	733.97
663.41	728.27
663.75	722.46
664.09	716.74
664.43	711.27
664.77	705.84
665.11	699.97
665.45	693.99
665.79	688.16
666.13	682.38
666.47	676.83
666.81	671.23
667.15	665.84
667.49	660.53
667.83	655.29
668.17	650.02
668.51	644.90
668.85	639.95
669.19	635.02
669.53	630.00
669.87	624.78
670.21	619.95
670.55	615.22
670.89	610.68
671.23	606.34
671.57	601.95
671.91	597.62
672.25	593.38
672.58	589.25
672.92	585.16
673.26	581.23
673.60	577.33
673.94	573.61
674.28	570.00
674.62	566.19
674.96	562.35
675.30	558.75
675.64	555.02
675.97	551.35
676.31	547.69
676.65	544.08
676.99	540.61
677.33	536.72
677.67	533.00
678.01	529.14
678.34	525.44
678.68	521.83
679.02	518.18
679.36	514.50
679.70	510.72
680.04	507.12
680.37	503.59
680.71	500.17
681.05	496.78
681.39	493.41
681.73	490.19
682.06	487.15
682.40	483.97
682.74	480.75
683.08	477.49
683.42	474.27
683.75	471.21
684.09	468.18
684.43	465.33
684.77	462.42
685.10	459.58
685.44	456.57
685.78	453.61
686.12	450.82
686.45	447.99
686.79	445.32
687.13	442.77
687.46	440.11
687.80	437.44
688.14	434.66
688.48	432.00
688.81	429.31
689.15	426.68
689.49	424.07
689.82	421.49
690.16	418.89
690.50	416.36
690.83	413.81
691.17	411.19
691.51	408.66
691.84	406.37
692.18	404.10
692.52	401.88
692.85	399.72
693.19	397.54
693.52	395.38
693.86	393.10
694.20	390.85
694.53	388.66
694.87	386.37
695.21	384.22
695.54	382.03
695.88	379.87
696.21	377.66
696.55	375.54
696.88	373.44
697.22	371.38
697.56	369.47
697.89	367.57
698.23	365.81
698.56	363.99
698.90	362.21
699.23	360.25
699.57	358.39
699.90	356.46
700.24	354.61
700.58	352.80
700.91	351.15
701.25	349.58
701.58	347.96
701.92	346.39
702.25	344.70
702.59	343.05
702.92	341.48
703.26	339.88
703.59	338.35
703.93	337.09
704.26	335.67
704.60	334.15
704.93	332.68
705.26	331.18
705.60	329.71
705.93	328.11
706.27	326.76
706.60	325.49
706.94	324.28
707.27	322.87
707.61	321.51
707.94	320.12
708.27	318.53
708.61	317.08
708.94	315.68
709.28	314.39
709.61	313.12
709.94	311.84
710.28	310.60
710.61	309.42
710.95	307.96
711.28	306.83
711.61	305.61
711.95	304.43
712.28	303.20
712.61	301.95
712.95	300.89
713.28	299.86
713.61	298.65
713.95	297.46
714.28	296.38
714.61	295.32
714.95	294.27
715.28	293.29
715.61	292.26
715.95	291.27
716.28	290.28
716.61	289.32
716.95	288.36
717.28	287.42
717.61	286.40
717.94	285.50
718.28	284.51
718.61	283.65
718.94	282.72
719.27	281.86
719.61	281.06
719.94	280.17
720.27	279.17
720.60	278.31
720.94	277.53
721.27	276.80
721.60	276.11
721.93	275.39
722.27	274.72
722.60	274.00
722.93	273.28
723.26	272.65
723.59	271.95
723.93	271.29
724.26	270.62
724.59	269.96
724.92	269.33
725.25	268.74
725.59	268.13
725.92	267.63
726.25	267.09
726.58	266.51
726.91	265.90
727.24	265.35
727.57	264.76
727.91	264.10
728.24	263.53
728.57	262.93
728.90	262.33
729.23	261.70
729.56	261.29
729.89	260.75
730.22	260.14
730.55	259.60
730.89	259.04
731.22	258.51
731.55	258.03
731.88	257.47
732.21	256.91
732.54	256.35
732.87	255.78
733.20	255.26
733.53	254.76
733.86	254.30
734.19	253.82
734.52	253.41
734.85	253.13
735.18	252.67
735.51	252.30
735.84	251.89
736.17	251.49
736.50	250.88
736.83	250.69
737.16	250.32
737.49	249.93
737.82	249.50
738.15	249.11
738.48	248.73
738.81	248.35
739.14	247.92
739.47	247.53
739.80	247.16
740.13	246.78
740.46	246.38
740.79	246.00
741.12	245.64
741.45	245.28
741.78	244.86
742.11	244.57
742.44	244.14
742.77	243.84
743.10	243.49
743.43	243.20
743.75	242.62
744.08	242.50
744.41	242.11
744.74	241.80
745.07	241.45
745.40	241.13
745.73	240.89
746.06	240.58
746.39	240.29
746.71	239.94
747.04	239.60
747.37	239.27
747.70	238.96
748.03	238.64
748.36	238.33
748.68	237.99
749.01	237.64
749.34	237.37
749.67	237.08
750.00	236.82
750.33	236.67
750.65	236.44
750.98	235.95
751.31	235.70
751.64	235.48
751.97	235.34
752.29	235.09
752.62	234.75
752.95	234.51
753.28	234.21
753.60	234.00
753.93	233.84
754.26	233.62
754.59	233.36
754.91	233.11
755.24	232.88
755.57	232.64
755.90	232.42
756.22	232.18
756.55	231.93
756.88	231.64
757.20	231.30
757.53	231.04
757.86	230.80
758.19	230.63
758.51	230.40
758.84	230.06
759.17	229.80
759.49	229.59
759.82	229.52
760.15	229.38
760.47	229.16
760.80	228.89
761.13	228.73
761.45	228.52
761.78	228.32
762.11	228.14
762.43	227.93
762.76	227.75
763.08	227.60
763.41	227.43
763.74	227.31
764.06	227.15
764.39	226.98
764.71	226.87
765.04	226.69
765.37	226.54
765.69	226.46
766.02	226.37
766.34	226.26
766.67	226.04
767.00	225.93
767.32	225.92
767.65	225.92
767.97	225.78
768.30	225.70
768.62	225.58
768.95	225.45
769.27	225.35
769.60	225.26
769.92	225.10
770.25	224.96
770.57	224.81
770.90	224.71
771.22	224.58
771.55	224.45
771.87	224.38
772.20	224.23
772.52	224.27
772.85	224.40
773.17	224.27
773.50	224.12
773.82	224.01
774.15	223.80
774.47	223.57
774.80	223.49
775.12	223.38
775.45	223.27
775.77	223.19
776.09	223.11
776.42	223.00
776.74	222.96
777.07	222.86
777.39	222.79
777.72	222.71
778.04	222.66
778.36	222.55
778.69	222.46
779.01	222.42
779.33	222.14
779.66	221.80
779.98	221.73
780.31	221.67
780.63	221.65
780.95	221.61
781.28	221.51
781.60	221.37
781.92	221.30
782.25	221.23
782.57	221.17
782.89	221.07
783.22	221.00
783.54	220.91
783.86	220.86
784.19	220.76
784.51	220.73
784.83	220.61
785.16	220.57
785.48	220.48
785.80	220.41
786.12	220.38
