SpectraSuite Data File
++++++++++++++++++++++++++++++++++++
Date: Tue Jan 29 15:59:05 EST 2013
User: group
Dark Spectrum Present: No
Reference Spectrum Present: No
Number of Sampled Component Spectra: 1
Spectrometers: USB2E7196
Integration Time (usec): 65000 (USB2E7196)
Spectra Averaged: 100 (USB2E7196)
Boxcar Smoothing: 10 (USB2E7196)
Correct for Electrical Dark: No (USB2E7196)
Strobe/Lamp Enabled: No (USB2E7196)
Correct for Detector Non-linearity: No (USB2E7196)
Correct for Stray Light: No (USB2E7196)
Number of Pixels in Processed Spectrum: 2048
>>>>>Begin Processed Spectral Data<<<<<
339.09	0.00
339.48	202.43
339.86	204.27
340.24	205.58
340.63	207.24
341.01	211.83
341.39	209.67
341.78	211.16
342.16	212.56
342.54	213.62
342.93	202.02
343.31	212.21
343.69	212.76
344.07	213.23
344.46	213.69
344.84	214.09
345.22	214.26
345.60	214.54
345.99	214.75
346.37	214.89
346.75	214.98
347.13	215.04
347.52	215.12
347.90	215.23
348.28	215.27
348.66	215.36
349.05	215.34
349.43	215.45
349.81	215.53
350.19	215.55
350.57	215.64
350.96	215.76
351.34	215.89
351.72	216.01
352.10	216.13
352.48	216.20
352.87	216.21
353.25	216.28
353.63	216.32
354.01	216.39
354.39	216.47
354.77	216.53
355.15	216.66
355.54	216.70
355.92	216.70
356.30	216.78
356.68	216.98
357.06	217.08
357.44	217.09
357.82	217.14
358.20	217.25
358.58	217.31
358.97	217.37
359.35	217.48
359.73	217.58
360.11	217.65
360.49	217.70
360.87	217.76
361.25	217.83
361.63	217.94
362.01	217.96
362.39	218.00
362.77	218.06
363.15	218.08
363.53	218.12
363.91	218.18
364.29	218.18
364.67	217.99
365.05	217.99
365.43	218.07
365.81	218.09
366.19	218.14
366.57	218.20
366.95	218.18
367.33	218.15
367.71	218.10
368.09	218.12
368.47	218.12
368.85	218.14
369.23	218.14
369.61	218.08
369.99	218.15
370.37	218.16
370.75	218.24
371.13	218.20
371.51	218.14
371.89	218.11
372.27	218.11
372.65	218.10
373.03	218.08
373.41	218.03
373.78	217.98
374.16	217.86
374.54	217.79
374.92	217.75
375.30	217.72
375.68	217.67
376.06	217.65
376.44	217.59
376.82	217.54
377.19	217.51
377.57	217.47
377.95	217.38
378.33	217.29
378.71	217.10
379.09	217.06
379.47	217.05
379.84	217.00
380.22	216.97
380.60	216.88
380.98	216.80
381.36	216.74
381.73	216.70
382.11	216.73
382.49	216.68
382.87	216.60
383.25	216.53
383.62	216.69
384.00	216.61
384.38	216.60
384.76	216.60
385.13	216.63
385.51	216.59
385.89	216.54
386.27	216.52
386.64	216.54
387.02	216.48
387.40	216.42
387.78	216.41
388.15	216.36
388.53	216.34
388.91	216.32
389.29	216.29
389.66	216.30
390.04	216.23
390.42	216.25
390.79	216.24
391.17	216.22
391.55	216.01
391.92	215.98
392.30	215.98
392.68	215.93
393.05	215.89
393.43	215.90
393.81	215.86
394.18	215.84
394.56	215.82
394.94	215.87
395.31	215.85
395.69	215.91
396.06	215.93
396.44	215.96
396.82	215.98
397.19	216.11
397.57	216.07
397.95	216.13
398.32	216.12
398.70	216.17
399.07	216.26
399.45	216.29
399.82	216.36
400.20	216.39
400.58	216.45
400.95	216.43
401.33	216.51
401.70	216.75
402.08	216.85
402.45	216.95
402.83	217.08
403.20	217.24
403.58	217.33
403.95	217.48
404.33	217.63
404.71	217.79
405.08	218.03
405.46	218.19
405.83	218.35
406.21	218.53
406.58	218.76
406.96	218.98
407.33	219.23
407.70	219.51
408.08	219.95
408.45	220.29
408.83	220.69
409.20	221.03
409.58	221.27
409.95	221.73
410.33	222.19
410.70	222.57
411.08	223.07
411.45	223.62
411.82	224.18
412.20	224.78
412.57	225.60
412.95	226.16
413.32	226.97
413.69	227.79
414.07	228.67
414.44	229.63
414.82	230.60
415.19	231.72
415.56	232.86
415.94	233.99
416.31	235.33
416.68	236.67
417.06	238.22
417.43	239.72
417.81	241.37
418.18	243.09
418.55	244.97
418.93	246.96
419.30	248.96
419.67	251.10
420.04	253.34
420.42	255.59
420.79	258.31
421.16	261.00
421.54	263.78
421.91	266.63
422.28	269.59
422.66	272.73
423.03	275.85
423.40	279.07
423.77	282.53
424.15	286.05
424.52	289.72
424.89	293.75
425.26	297.66
425.64	301.39
426.01	305.56
426.38	309.87
426.75	314.21
427.13	318.77
427.50	323.55
427.87	328.57
428.24	333.61
428.61	338.40
428.99	343.68
429.36	349.48
429.73	355.17
430.10	360.82
430.47	366.70
430.85	372.79
431.22	379.26
431.59	386.10
431.96	392.69
432.33	399.92
432.70	406.85
433.08	415.09
433.45	422.88
433.82	430.57
434.19	439.17
434.56	447.57
434.93	455.60
435.30	463.61
435.68	472.38
436.05	480.95
436.42	489.51
436.79	497.36
437.16	505.74
437.53	514.66
437.90	523.47
438.27	532.09
438.64	540.93
439.01	549.19
439.38	556.50
439.75	563.58
440.13	571.70
440.50	579.42
440.87	585.54
441.24	591.89
441.61	598.92
441.98	603.98
442.35	610.03
442.72	616.06
443.09	621.80
443.46	625.31
443.83	627.73
444.20	629.79
444.57	632.82
444.94	634.15
445.31	635.51
445.68	636.84
446.05	637.41
446.42	636.64
446.79	635.64
447.16	634.56
447.53	633.74
447.90	630.51
448.27	627.18
448.64	622.69
449.01	619.46
449.37	613.77
449.74	608.32
450.11	601.62
450.48	594.55
450.85	587.39
451.22	581.21
451.59	575.30
451.96	569.77
452.33	562.19
452.70	555.40
453.07	547.26
453.43	538.95
453.80	531.02
454.17	523.33
454.54	516.07
454.91	508.23
455.28	500.61
455.65	493.55
456.02	486.50
456.38	480.50
456.75	473.04
457.12	466.79
457.49	460.62
457.86	454.74
458.23	449.60
458.59	443.95
458.96	438.22
459.33	433.19
459.70	428.01
460.07	423.96
460.43	419.33
460.80	414.92
461.17	411.10
461.54	407.00
461.91	403.18
462.27	399.22
462.64	395.92
463.01	392.24
463.38	388.64
463.74	385.02
464.11	381.87
464.48	379.08
464.85	376.09
465.21	373.73
465.58	371.21
465.95	368.18
466.32	365.67
466.68	363.17
467.05	360.68
467.42	358.26
467.78	355.74
468.15	353.28
468.52	351.51
468.88	349.15
469.25	347.07
469.62	345.38
469.98	343.60
470.35	341.94
470.72	340.37
471.08	338.66
471.45	337.30
471.82	335.86
472.18	334.30
472.55	333.16
472.92	331.84
473.28	330.69
473.65	329.63
474.02	328.61
474.38	327.80
474.75	327.11
475.11	326.36
475.48	325.80
475.85	325.37
476.21	324.93
476.58	324.61
476.94	324.44
477.31	324.19
477.67	323.94
478.04	323.78
478.41	323.75
478.77	323.97
479.14	323.91
479.50	324.08
479.87	324.40
480.23	324.75
480.60	324.99
480.96	325.34
481.33	325.94
481.69	326.54
482.06	327.06
482.42	327.59
482.79	328.18
483.15	329.00
483.52	329.94
483.88	330.82
484.25	331.81
484.61	332.85
484.98	333.88
485.34	335.19
485.71	336.53
486.07	338.00
486.44	339.28
486.80	340.89
487.17	342.56
487.53	344.33
487.90	346.19
488.26	348.29
488.62	350.38
488.99	352.43
489.35	354.55
489.72	356.91
490.08	359.41
490.44	361.99
490.81	364.68
491.17	367.37
491.54	370.32
491.90	373.33
492.26	376.54
492.63	380.01
492.99	383.57
493.36	387.30
493.72	391.10
494.08	395.14
494.45	399.34
494.81	403.70
495.17	408.20
495.54	412.90
495.90	417.64
496.26	422.60
496.63	427.77
496.99	433.12
497.35	438.64
497.72	444.44
498.08	450.31
498.44	456.34
498.80	462.75
499.17	469.24
499.53	475.90
499.89	482.80
500.26	489.69
500.62	496.74
500.98	504.09
501.34	511.57
501.71	519.28
502.07	527.10
502.43	535.14
502.79	543.17
503.16	551.55
503.52	560.17
503.88	568.86
504.24	577.90
504.60	586.98
504.97	596.22
505.33	605.49
505.69	615.31
506.05	625.21
506.41	635.04
506.78	645.09
507.14	655.30
507.50	665.63
507.86	676.35
508.22	687.06
508.59	697.67
508.95	708.68
509.31	719.96
509.67	731.39
510.03	742.73
510.39	754.54
510.75	766.26
511.12	778.10
511.48	790.17
511.84	802.24
512.20	814.50
512.56	827.11
512.92	839.87
513.28	852.45
513.64	865.16
514.00	877.84
514.37	890.74
514.73	903.75
515.09	916.61
515.45	929.25
515.81	942.10
516.17	955.28
516.53	968.34
516.89	981.25
517.25	994.21
517.61	1007.48
517.97	1020.57
518.33	1033.53
518.69	1046.83
519.05	1060.35
519.41	1073.87
519.77	1087.53
520.13	1100.57
520.49	1113.44
520.85	1126.69
521.21	1139.66
521.57	1153.18
521.93	1166.07
522.29	1179.67
522.65	1193.15
523.01	1206.55
523.37	1219.59
523.73	1232.74
524.09	1245.65
524.45	1258.86
524.81	1272.18
525.17	1285.32
525.53	1298.33
525.89	1311.35
526.25	1324.21
526.61	1336.68
526.97	1349.42
527.33	1362.03
527.68	1375.24
528.04	1388.44
528.40	1401.25
528.76	1414.37
529.12	1426.95
529.48	1439.96
529.84	1451.83
530.20	1464.30
530.56	1476.70
530.91	1489.60
531.27	1502.19
531.63	1514.72
531.99	1527.16
532.35	1538.99
532.71	1551.07
533.07	1563.44
533.42	1575.31
533.78	1587.03
534.14	1598.81
534.50	1609.79
534.86	1621.07
535.21	1631.56
535.57	1642.65
535.93	1653.69
536.29	1664.48
536.65	1675.54
537.00	1686.18
537.36	1697.23
537.72	1707.79
538.08	1718.71
538.44	1729.43
538.79	1740.11
539.15	1750.59
539.51	1760.85
539.87	1772.03
540.22	1782.56
540.58	1793.29
540.94	1803.81
541.29	1813.81
541.65	1823.35
542.01	1833.48
542.37	1843.13
542.72	1853.07
543.08	1862.66
543.44	1872.65
543.79	1881.63
544.15	1890.83
544.51	1900.56
544.87	1910.17
545.22	1919.06
545.58	1927.67
545.94	1936.02
546.29	1944.32
546.65	1952.42
547.01	1960.55
547.36	1967.81
547.72	1975.17
548.07	1982.47
548.43	1990.10
548.79	1997.73
549.14	2005.68
549.50	2013.69
549.86	2021.39
550.21	2028.58
550.57	2035.91
550.92	2042.49
551.28	2049.74
551.64	2056.80
551.99	2063.93
552.35	2070.87
552.70	2077.48
553.06	2083.85
553.41	2090.07
553.77	2096.42
554.13	2102.72
554.48	2109.47
554.84	2116.42
555.19	2122.76
555.55	2129.23
555.90	2135.34
556.26	2141.91
556.61	2147.66
556.97	2152.61
557.32	2158.47
557.68	2164.69
558.03	2170.21
558.39	2175.38
558.74	2181.31
559.10	2186.86
559.45	2192.36
559.81	2197.92
560.16	2203.48
560.52	2209.65
560.87	2215.94
561.23	2221.86
561.58	2228.39
561.94	2233.62
562.29	2238.40
562.64	2244.58
563.00	2249.97
563.35	2255.75
563.71	2261.77
564.06	2267.37
564.42	2273.25
564.77	2278.38
565.12	2283.42
565.48	2288.92
565.83	2294.51
566.19	2299.95
566.54	2305.39
566.89	2310.03
567.25	2314.62
567.60	2320.45
567.96	2325.54
568.31	2330.08
568.66	2334.31
569.02	2338.13
569.37	2342.07
569.72	2346.41
570.08	2350.08
570.43	2353.39
570.78	2356.37
571.14	2359.06
571.49	2362.27
571.84	2365.97
572.20	2368.86
572.55	2372.23
572.90	2374.47
573.26	2377.63
573.61	2380.29
573.96	2382.51
574.31	2384.64
574.67	2386.54
575.02	2387.50
575.37	2388.91
575.72	2389.95
576.08	2391.51
576.43	2392.06
576.78	2392.82
577.13	2394.79
577.49	2395.94
577.84	2397.53
578.19	2399.10
578.54	2399.81
578.90	2401.06
579.25	2401.23
579.60	2401.52
579.95	2400.95
580.30	2401.67
580.66	2401.10
581.01	2399.61
581.36	2397.69
581.71	2396.65
582.06	2395.92
582.42	2395.42
582.77	2393.65
583.12	2392.39
583.47	2391.43
583.82	2391.09
584.17	2390.04
584.53	2387.97
584.88	2386.37
585.23	2384.54
585.58	2382.53
585.93	2380.66
586.28	2378.78
586.63	2376.67
586.98	2374.62
587.34	2373.08
587.69	2370.78
588.04	2368.99
588.39	2367.85
588.74	2365.53
589.09	2363.18
589.44	2360.44
589.79	2358.04
590.14	2356.33
590.49	2353.67
590.84	2350.26
591.19	2347.51
591.54	2344.42
591.89	2340.64
592.25	2337.53
592.60	2333.53
592.95	2329.62
593.30	2325.65
593.65	2321.24
594.00	2317.01
594.35	2314.07
594.70	2309.44
595.05	2304.99
595.40	2299.82
595.75	2294.51
596.10	2291.13
596.45	2286.37
596.80	2281.85
597.15	2276.69
597.50	2270.97
597.85	2266.16
598.19	2260.84
598.54	2255.07
598.89	2250.03
599.24	2245.58
599.59	2239.75
599.94	2234.20
600.29	2228.51
600.64	2222.66
600.99	2216.21
601.34	2210.78
601.69	2203.97
602.04	2197.70
602.39	2191.14
602.74	2185.15
603.08	2179.51
603.43	2173.01
603.78	2166.31
604.13	2159.25
604.48	2152.20
604.83	2146.17
605.18	2139.83
605.53	2133.01
605.87	2126.11
606.22	2119.44
606.57	2111.72
606.92	2103.77
607.27	2096.80
607.62	2090.21
607.96	2083.31
608.31	2076.79
608.66	2069.05
609.01	2061.46
609.36	2054.58
609.70	2046.95
610.05	2039.23
610.40	2031.07
610.75	2022.89
611.10	2015.33
611.44	2006.67
611.79	1998.11
612.14	1988.13
612.49	1977.78
612.83	1968.72
613.18	1959.67
613.53	1950.36
613.88	1940.76
614.22	1932.20
614.57	1922.39
614.92	1911.89
615.27	1901.79
615.61	1891.87
615.96	1882.16
616.31	1872.62
616.65	1863.25
617.00	1853.51
617.35	1843.95
617.70	1834.17
618.04	1824.05
618.39	1813.74
618.74	1804.14
619.08	1794.54
619.43	1785.88
619.78	1777.67
620.12	1768.80
620.47	1758.79
620.82	1748.53
621.16	1738.86
621.51	1728.85
621.85	1718.87
622.20	1708.38
622.55	1697.79
622.89	1687.95
623.24	1678.36
623.59	1668.69
623.93	1658.53
624.28	1648.66
624.62	1638.36
624.97	1628.04
625.32	1618.40
625.66	1609.55
626.01	1600.57
626.35	1591.06
626.70	1580.81
627.04	1570.59
627.39	1560.56
627.73	1551.48
628.08	1542.32
628.43	1532.73
628.77	1523.50
629.12	1514.72
629.46	1506.86
629.81	1498.42
630.15	1488.71
630.50	1478.83
630.84	1468.21
631.19	1458.19
631.53	1448.71
631.88	1438.56
632.22	1428.57
632.57	1419.00
632.91	1408.69
633.26	1398.80
633.60	1389.28
633.95	1379.99
634.29	1370.59
634.64	1361.17
634.98	1351.16
635.32	1341.88
635.67	1333.22
636.01	1323.99
636.36	1314.09
636.70	1304.59
637.05	1295.28
637.39	1286.32
637.73	1277.62
638.08	1270.17
638.42	1261.88
638.77	1253.23
639.11	1244.97
639.45	1237.13
639.80	1228.46
640.14	1219.83
640.49	1210.88
640.83	1202.04
641.17	1193.93
641.52	1185.59
641.86	1177.00
642.20	1169.10
642.55	1160.38
642.89	1151.58
643.23	1142.73
643.58	1134.60
643.92	1125.47
644.26	1116.73
644.61	1108.24
644.95	1099.42
645.29	1090.08
645.64	1080.96
645.98	1072.58
646.32	1064.60
646.66	1055.97
647.01	1047.67
647.35	1039.58
647.69	1031.23
648.04	1022.87
648.38	1013.96
648.72	1005.31
649.06	996.84
649.41	988.71
649.75	980.74
650.09	972.88
650.43	964.89
650.78	956.70
651.12	949.05
651.46	941.66
651.80	934.44
652.14	927.11
652.49	919.59
652.83	912.22
653.17	904.42
653.51	896.81
653.85	889.60
654.20	882.32
654.54	874.70
654.88	867.58
655.22	860.39
655.56	853.39
655.90	846.62
656.25	840.02
656.59	833.04
656.93	826.09
657.27	818.92
657.61	812.07
657.95	805.98
658.29	800.12
658.64	793.96
658.98	787.56
659.32	781.00
659.66	774.71
660.00	768.45
660.34	762.45
660.68	756.37
661.02	750.12
661.36	744.32
661.70	738.66
662.05	733.02
662.39	727.64
662.73	722.36
663.07	717.02
663.41	711.40
663.75	705.81
664.09	700.33
664.43	694.97
664.77	689.65
665.11	683.87
665.45	678.00
665.79	672.26
666.13	666.60
666.47	661.29
666.81	656.03
667.15	650.72
667.49	645.60
667.83	640.38
668.17	635.23
668.51	630.15
668.85	625.29
669.19	620.41
669.53	615.46
669.87	610.39
670.21	605.69
670.55	601.06
670.89	596.76
671.23	592.44
671.57	588.15
671.91	583.89
672.25	579.85
672.58	575.76
672.92	571.81
673.26	567.89
673.60	564.10
673.94	560.30
674.28	556.78
674.62	553.03
674.96	549.33
675.30	545.85
675.64	542.23
675.97	538.71
676.31	535.20
676.65	531.58
676.99	528.19
677.33	524.42
677.67	520.80
678.01	516.91
678.34	513.35
678.68	509.85
679.02	506.27
679.36	502.53
679.70	499.01
680.04	495.53
680.37	492.18
680.71	488.91
681.05	485.78
681.39	482.57
681.73	479.49
682.06	476.54
682.40	473.46
682.74	470.30
683.08	467.11
683.42	464.00
683.75	461.08
684.09	458.12
684.43	455.32
684.77	452.44
685.10	449.70
685.44	446.78
685.78	443.93
686.12	441.27
686.45	438.59
686.79	435.94
687.13	433.37
687.46	430.75
687.80	428.09
688.14	425.35
688.48	422.76
688.81	420.15
689.15	417.62
689.49	415.09
689.82	412.62
690.16	410.15
690.50	407.73
690.83	405.28
691.17	402.79
691.51	400.40
691.84	398.25
692.18	396.04
692.52	393.90
692.85	391.81
693.19	389.71
693.52	387.62
693.86	385.50
694.20	383.42
694.53	381.38
694.87	379.24
695.21	377.18
695.54	375.06
695.88	372.97
696.21	370.81
696.55	368.69
696.88	366.70
697.22	364.71
697.56	362.87
697.89	361.08
698.23	359.41
698.56	357.68
698.90	355.96
699.23	354.08
699.57	352.30
699.90	350.49
700.24	348.72
700.58	346.98
700.91	345.33
701.25	343.83
701.58	342.21
701.92	340.65
702.25	339.09
702.59	337.55
702.92	336.03
703.26	334.55
703.59	333.17
703.93	331.93
704.26	330.55
704.60	329.09
704.93	327.66
705.26	326.20
705.60	324.78
705.93	323.26
706.27	321.99
706.60	320.71
706.94	319.47
707.27	318.10
707.61	316.84
707.94	315.54
708.27	314.06
708.61	312.67
708.94	311.36
709.28	310.14
709.61	308.92
709.94	307.73
710.28	306.54
710.61	305.41
710.95	304.02
711.28	302.97
711.61	301.81
711.95	300.70
712.28	299.46
712.61	298.31
712.95	297.34
713.28	296.40
713.61	295.31
713.95	294.19
714.28	293.26
714.61	292.20
714.95	291.19
715.28	290.19
715.61	289.19
715.95	288.26
716.28	287.27
716.61	286.34
716.95	285.40
717.28	284.51
717.61	283.55
717.94	282.73
718.28	281.72
718.61	280.85
718.94	279.94
719.27	279.16
719.61	278.33
719.94	277.48
720.27	276.51
720.60	275.67
720.94	274.95
721.27	274.18
721.60	273.54
721.93	272.81
722.27	272.20
722.60	271.56
722.93	270.86
723.26	270.25
723.59	269.59
723.93	268.98
724.26	268.33
724.59	267.72
724.92	267.10
725.25	266.59
725.59	266.07
725.92	265.59
726.25	265.04
726.58	264.52
726.91	263.94
727.24	263.41
727.57	262.89
727.91	262.29
728.24	261.80
728.57	261.21
728.90	260.67
729.23	260.06
729.56	259.65
729.89	259.17
730.22	258.64
730.55	258.12
730.89	257.60
731.22	257.12
731.55	256.61
731.88	256.14
732.21	255.61
732.54	255.10
732.87	254.58
733.20	254.13
733.53	253.66
733.86	253.23
734.19	252.76
734.52	252.38
734.85	252.10
735.18	251.63
735.51	251.26
735.84	250.88
736.17	250.52
736.50	249.98
736.83	249.81
737.16	249.38
737.49	248.99
737.82	248.63
738.15	248.28
738.48	247.91
738.81	247.52
739.14	247.13
739.47	246.74
739.80	246.37
740.13	246.01
740.46	245.62
740.79	245.21
741.12	244.91
741.45	244.53
741.78	244.08
742.11	243.81
742.44	243.48
742.77	243.18
743.10	242.87
743.43	242.54
743.75	241.97
744.08	241.96
744.41	241.62
744.74	241.25
745.07	240.85
745.40	240.59
745.73	240.35
746.06	240.07
746.39	239.82
746.71	239.52
747.04	239.18
747.37	238.86
747.70	238.62
748.03	238.30
748.36	238.02
748.68	237.73
749.01	237.38
749.34	237.07
749.67	236.78
750.00	236.51
750.33	236.41
750.65	236.20
750.98	235.68
751.31	235.44
751.64	235.25
751.97	235.18
752.29	234.88
752.62	234.55
752.95	234.29
753.28	234.00
753.60	233.75
753.93	233.59
754.26	233.41
754.59	233.16
754.91	232.95
755.24	232.73
755.57	232.51
755.90	232.30
756.22	232.08
756.55	231.85
756.88	231.63
757.20	231.30
757.53	231.05
757.86	230.82
758.19	230.67
758.51	230.47
758.84	230.17
759.17	229.99
759.49	229.86
759.82	229.80
760.15	229.65
760.47	229.47
760.80	229.20
761.13	229.02
761.45	228.82
761.78	228.61
762.11	228.44
762.43	228.27
762.76	228.08
763.08	227.93
763.41	227.82
763.74	227.68
764.06	227.52
764.39	227.37
764.71	227.22
765.04	227.04
765.37	226.88
765.69	226.71
766.02	226.58
766.34	226.38
766.67	226.14
767.00	226.06
767.32	226.05
767.65	226.07
767.97	225.94
768.30	225.84
768.62	225.78
768.95	225.66
769.27	225.48
769.60	225.43
769.92	225.28
770.25	225.10
770.57	224.92
770.90	224.81
771.22	224.67
771.55	224.60
771.87	224.47
772.20	224.35
772.52	224.39
772.85	224.54
773.17	224.49
773.50	224.38
773.82	224.22
774.15	224.02
774.47	223.77
774.80	223.66
775.12	223.55
775.45	223.44
775.77	223.35
776.09	223.29
776.42	223.18
776.74	223.16
777.07	223.07
777.39	223.00
777.72	222.90
778.04	222.89
778.36	222.78
778.69	222.72
779.01	222.65
779.33	222.40
779.66	222.09
779.98	221.97
780.31	221.91
780.63	221.95
780.95	221.91
781.28	221.84
781.60	221.73
781.92	221.67
782.25	221.60
782.57	221.55
782.89	221.53
783.22	221.43
783.54	221.33
783.86	221.28
784.19	221.21
784.51	221.22
784.83	221.05
785.16	220.95
785.48	220.90
785.80	220.83
786.12	220.80
