SpectraSuite Data File
++++++++++++++++++++++++++++++++++++
Date: Tue Jan 29 15:54:10 EST 2013
User: group
Dark Spectrum Present: No
Reference Spectrum Present: No
Number of Sampled Component Spectra: 1
Spectrometers: USB2E7196
Integration Time (usec): 65000 (USB2E7196)
Spectra Averaged: 100 (USB2E7196)
Boxcar Smoothing: 10 (USB2E7196)
Correct for Electrical Dark: No (USB2E7196)
Strobe/Lamp Enabled: No (USB2E7196)
Correct for Detector Non-linearity: No (USB2E7196)
Correct for Stray Light: No (USB2E7196)
Number of Pixels in Processed Spectrum: 2048
>>>>>Begin Processed Spectral Data<<<<<
339.09	0.00
339.48	203.46
339.86	204.88
340.24	205.80
340.63	207.17
341.01	211.75
341.39	209.78
341.78	211.78
342.16	213.49
342.54	212.87
342.93	202.21
343.31	212.42
343.69	212.95
344.07	213.39
344.46	213.83
344.84	214.21
345.22	214.38
345.60	214.64
345.99	214.82
346.37	214.90
346.75	215.00
347.13	215.03
347.52	215.10
347.90	215.21
348.28	215.27
348.66	215.34
349.05	215.31
349.43	215.38
349.81	215.44
350.19	215.49
350.57	215.52
350.96	215.57
351.34	215.69
351.72	215.77
352.10	215.85
352.48	215.91
352.87	215.95
353.25	216.03
353.63	216.07
354.01	216.11
354.39	216.16
354.77	216.24
355.15	216.40
355.54	216.43
355.92	216.40
356.30	216.43
356.68	216.59
357.06	216.68
357.44	216.68
357.82	216.73
358.20	216.80
358.58	216.85
358.97	216.92
359.35	216.97
359.73	217.09
360.11	217.16
360.49	217.20
360.87	217.26
361.25	217.29
361.63	217.43
362.01	217.51
362.39	217.53
362.77	217.60
363.15	217.59
363.53	217.65
363.91	217.72
364.29	217.76
364.67	217.61
365.05	217.65
365.43	217.73
365.81	217.76
366.19	217.87
366.57	218.00
366.95	218.04
367.33	218.04
367.71	218.05
368.09	218.10
368.47	218.12
368.85	218.13
369.23	218.19
369.61	218.15
369.99	218.21
370.37	218.26
370.75	218.32
371.13	218.24
371.51	218.21
371.89	218.20
372.27	218.18
372.65	218.19
373.03	218.14
373.41	218.12
373.78	218.09
374.16	217.95
374.54	217.85
374.92	217.81
375.30	217.81
375.68	217.70
376.06	217.66
376.44	217.63
376.82	217.62
377.19	217.56
377.57	217.50
377.95	217.34
378.33	217.30
378.71	217.17
379.09	217.22
379.47	217.19
379.84	217.13
380.22	217.10
380.60	217.02
380.98	216.97
381.36	216.92
381.73	216.88
382.11	216.90
382.49	216.86
382.87	216.79
383.25	216.73
383.62	216.94
384.00	216.90
384.38	216.84
384.76	216.81
385.13	216.85
385.51	216.82
385.89	216.81
386.27	216.74
386.64	216.75
387.02	216.69
387.40	216.63
387.78	216.61
388.15	216.58
388.53	216.53
388.91	216.54
389.29	216.48
389.66	216.50
390.04	216.42
390.42	216.42
390.79	216.41
391.17	216.36
391.55	216.10
391.92	216.10
392.30	216.12
392.68	216.05
393.05	216.06
393.43	216.03
393.81	216.03
394.18	215.99
394.56	215.96
394.94	216.01
395.31	216.02
395.69	216.10
396.06	216.13
396.44	216.19
396.82	216.19
397.19	216.35
397.57	216.32
397.95	216.37
398.32	216.33
398.70	216.35
399.07	216.44
399.45	216.50
399.82	216.53
400.20	216.57
400.58	216.63
400.95	216.61
401.33	216.69
401.70	216.92
402.08	217.05
402.45	217.16
402.83	217.29
403.20	217.41
403.58	217.47
403.95	217.62
404.33	217.78
404.71	217.91
405.08	218.16
405.46	218.36
405.83	218.59
406.21	218.81
406.58	219.07
406.96	219.34
407.33	219.60
407.70	219.88
408.08	220.35
408.45	220.72
408.83	221.09
409.20	221.49
409.58	221.73
409.95	222.17
410.33	222.65
410.70	223.07
411.08	223.60
411.45	224.20
411.82	224.74
412.20	225.40
412.57	226.23
412.95	226.72
413.32	227.48
413.69	228.26
414.07	229.11
414.44	230.02
414.82	230.93
415.19	232.05
415.56	233.18
415.94	234.26
416.31	235.62
416.68	236.96
417.06	238.47
417.43	239.98
417.81	241.65
418.18	243.36
418.55	245.18
418.93	247.09
419.30	249.07
419.67	251.20
420.04	253.36
420.42	255.60
420.79	258.33
421.16	261.02
421.54	263.81
421.91	266.64
422.28	269.61
422.66	272.78
423.03	275.87
423.40	279.12
423.77	282.58
424.15	286.03
424.52	289.70
424.89	293.68
425.26	297.56
425.64	301.28
426.01	305.33
426.38	309.62
426.75	313.99
427.13	318.52
427.50	323.32
427.87	328.29
428.24	333.29
428.61	338.05
428.99	343.34
429.36	349.08
429.73	354.70
430.10	360.37
430.47	366.16
430.85	372.24
431.22	378.64
431.59	385.48
431.96	392.05
432.33	399.27
432.70	406.21
433.08	414.40
433.45	422.06
433.82	429.76
434.19	438.23
434.56	446.60
434.93	454.58
435.30	462.44
435.68	471.18
436.05	479.71
436.42	488.22
436.79	495.97
437.16	504.37
437.53	513.30
437.90	522.00
438.27	530.61
438.64	539.41
439.01	547.60
439.38	554.79
439.75	561.75
440.13	569.76
440.50	577.35
440.87	583.48
441.24	589.93
441.61	596.88
441.98	602.05
442.35	608.02
442.72	614.04
443.09	619.83
443.46	623.34
443.83	625.78
444.20	627.80
444.57	630.78
444.94	632.20
445.31	633.55
445.68	634.81
446.05	635.33
446.42	634.51
446.79	633.52
447.16	632.45
447.53	631.70
447.90	628.44
448.27	625.22
448.64	620.70
449.01	617.38
449.37	611.72
449.74	606.26
450.11	599.67
450.48	592.58
450.85	585.36
451.22	579.16
451.59	573.27
451.96	567.74
452.33	560.24
452.70	553.40
453.07	545.29
453.43	537.13
453.80	529.23
454.17	521.63
454.54	514.47
454.91	506.71
455.28	499.13
455.65	492.06
456.02	485.03
456.38	479.00
456.75	471.60
457.12	465.40
457.49	459.23
457.86	453.41
458.23	448.31
458.59	442.75
458.96	437.09
459.33	432.07
459.70	426.96
460.07	422.94
460.43	418.31
460.80	413.93
461.17	410.13
461.54	406.14
461.91	402.35
462.27	398.41
462.64	395.12
463.01	391.51
463.38	388.04
463.74	384.46
464.11	381.38
464.48	378.66
464.85	375.69
465.21	373.38
465.58	370.80
465.95	367.81
466.32	365.33
466.68	362.84
467.05	360.36
467.42	357.94
467.78	355.39
468.15	352.97
468.52	351.19
468.88	348.80
469.25	346.71
469.62	344.97
469.98	343.14
470.35	341.44
470.72	339.83
471.08	338.12
471.45	336.70
471.82	335.27
472.18	333.68
472.55	332.58
472.92	331.25
473.28	330.11
473.65	329.09
474.02	328.09
474.38	327.29
474.75	326.62
475.11	325.87
475.48	325.30
475.85	324.86
476.21	324.40
476.58	324.09
476.94	323.91
477.31	323.64
477.67	323.42
478.04	323.27
478.41	323.24
478.77	323.45
479.14	323.46
479.50	323.58
479.87	323.92
480.23	324.26
480.60	324.54
480.96	324.87
481.33	325.45
481.69	326.00
482.06	326.55
482.42	327.02
482.79	327.64
483.15	328.51
483.52	329.49
483.88	330.40
484.25	331.32
484.61	332.29
484.98	333.36
485.34	334.66
485.71	336.06
486.07	337.53
486.44	338.83
486.80	340.46
487.17	342.17
487.53	343.98
487.90	345.80
488.26	347.81
488.62	349.98
488.99	352.03
489.35	354.17
489.72	356.55
490.08	359.07
490.44	361.61
490.81	364.28
491.17	366.93
491.54	369.91
491.90	372.96
492.26	376.20
492.63	379.60
492.99	383.10
493.36	386.77
493.72	390.65
494.08	394.61
494.45	398.83
494.81	403.21
495.17	407.67
495.54	412.38
495.90	417.25
496.26	422.10
496.63	427.28
496.99	432.66
497.35	438.16
497.72	443.89
498.08	449.84
498.44	455.97
498.80	462.37
499.17	468.88
499.53	475.56
499.89	482.43
500.26	489.40
500.62	496.41
500.98	503.82
501.34	511.25
501.71	519.06
502.07	526.85
502.43	534.78
502.79	542.79
503.16	551.14
503.52	559.65
503.88	568.32
504.24	577.23
504.60	586.25
504.97	595.45
505.33	604.80
505.69	614.57
506.05	624.32
506.41	634.12
506.78	644.08
507.14	654.35
507.50	664.78
507.86	675.35
508.22	686.18
508.59	696.68
508.95	707.61
509.31	718.71
509.67	730.11
510.03	741.42
510.39	753.16
510.75	764.90
511.12	776.77
511.48	788.81
511.84	801.01
512.20	813.22
512.56	825.73
512.92	838.38
513.28	850.86
513.64	863.52
514.00	876.25
514.37	889.06
514.73	901.91
515.09	914.68
515.45	927.40
515.81	940.13
516.17	953.33
516.53	966.45
516.89	979.33
517.25	992.15
517.61	1005.46
517.97	1018.58
518.33	1031.49
518.69	1044.76
519.05	1058.25
519.41	1071.58
519.77	1085.27
520.13	1098.37
520.49	1111.27
520.85	1124.43
521.21	1137.55
521.57	1150.95
521.93	1163.84
522.29	1177.40
522.65	1190.81
523.01	1204.15
523.37	1217.05
523.73	1230.06
524.09	1242.92
524.45	1256.00
524.81	1269.19
525.17	1282.18
525.53	1295.00
525.89	1307.96
526.25	1320.71
526.61	1333.08
526.97	1345.82
527.33	1358.38
527.68	1371.38
528.04	1384.50
528.40	1397.24
528.76	1410.14
529.12	1422.59
529.48	1435.34
529.84	1447.21
530.20	1459.47
530.56	1471.79
530.91	1484.66
531.27	1497.07
531.63	1509.48
531.99	1521.87
532.35	1533.66
532.71	1545.62
533.07	1558.06
533.42	1569.80
533.78	1581.52
534.14	1593.14
534.50	1603.97
534.86	1615.19
535.21	1625.56
535.57	1636.55
535.93	1647.45
536.29	1658.01
536.65	1669.05
537.00	1679.66
537.36	1690.46
537.72	1701.18
538.08	1711.91
538.44	1722.31
538.79	1732.97
539.15	1743.40
539.51	1753.58
539.87	1764.47
540.22	1774.89
540.58	1785.42
540.94	1795.99
541.29	1805.78
541.65	1815.19
542.01	1825.27
542.37	1834.81
542.72	1844.75
543.08	1854.11
543.44	1864.09
543.79	1873.17
544.15	1882.29
544.51	1891.95
544.87	1901.46
545.22	1910.12
545.58	1918.61
545.94	1927.14
546.29	1935.33
546.65	1943.17
547.01	1951.12
547.36	1958.44
547.72	1965.80
548.07	1972.95
548.43	1980.24
548.79	1987.82
549.14	1995.58
549.50	2003.51
549.86	2010.94
550.21	2018.04
550.57	2025.36
550.92	2031.73
551.28	2038.68
551.64	2045.49
551.99	2052.58
552.35	2059.27
552.70	2065.72
553.06	2072.20
553.41	2078.30
553.77	2084.50
554.13	2090.61
554.48	2097.48
554.84	2104.38
555.19	2110.72
555.55	2117.11
555.90	2123.14
556.26	2129.68
556.61	2135.59
556.97	2140.36
557.32	2146.24
557.68	2152.48
558.03	2158.06
558.39	2163.13
558.74	2169.09
559.10	2174.45
559.45	2179.76
559.81	2185.30
560.16	2191.08
560.52	2196.93
560.87	2203.13
561.23	2209.05
561.58	2215.76
561.94	2220.88
562.29	2225.71
562.64	2232.06
563.00	2237.66
563.35	2243.47
563.71	2249.15
564.06	2254.68
564.42	2260.71
564.77	2265.61
565.12	2270.84
565.48	2276.06
565.83	2281.83
566.19	2287.34
566.54	2292.97
566.89	2297.68
567.25	2302.38
567.60	2307.91
567.96	2313.03
568.31	2317.70
568.66	2322.15
569.02	2326.06
569.37	2329.87
569.72	2334.19
570.08	2337.33
570.43	2340.48
570.78	2343.38
571.14	2346.07
571.49	2349.46
571.84	2353.09
572.20	2356.08
572.55	2359.24
572.90	2361.60
573.26	2364.62
573.61	2367.33
573.96	2369.67
574.31	2371.76
574.67	2373.75
575.02	2374.85
575.37	2376.58
575.72	2377.59
576.08	2378.96
576.43	2379.16
576.78	2380.02
577.13	2381.93
577.49	2383.35
577.84	2384.64
578.19	2386.45
578.54	2387.49
578.90	2388.63
579.25	2388.86
579.60	2389.27
579.95	2388.78
580.30	2389.35
580.66	2389.01
581.01	2387.56
581.36	2385.53
581.71	2384.58
582.06	2383.89
582.42	2383.22
582.77	2381.35
583.12	2380.22
583.47	2379.44
583.82	2379.38
584.17	2378.30
584.53	2376.33
584.88	2374.82
585.23	2373.21
585.58	2371.13
585.93	2369.22
586.28	2367.14
586.63	2364.99
586.98	2363.05
587.34	2361.45
587.69	2359.39
588.04	2357.49
588.39	2356.28
588.74	2354.16
589.09	2351.87
589.44	2348.97
589.79	2346.83
590.14	2345.23
590.49	2342.54
590.84	2338.81
591.19	2336.05
591.54	2333.18
591.89	2329.62
592.25	2326.57
592.60	2322.66
592.95	2318.92
593.30	2315.14
593.65	2311.01
594.00	2306.78
594.35	2303.95
594.70	2299.34
595.05	2294.88
595.40	2289.70
595.75	2284.37
596.10	2280.80
596.45	2276.15
596.80	2271.75
597.15	2266.77
597.50	2260.93
597.85	2256.14
598.19	2251.20
598.54	2245.50
598.89	2240.53
599.24	2236.00
599.59	2230.09
599.94	2224.59
600.29	2218.76
600.64	2212.90
600.99	2206.45
601.34	2201.23
601.69	2194.33
602.04	2188.21
602.39	2181.74
602.74	2175.77
603.08	2170.29
603.43	2163.91
603.78	2157.12
604.13	2150.22
604.48	2143.00
604.83	2137.04
605.18	2130.89
605.53	2124.06
605.87	2117.19
606.22	2110.49
606.57	2102.70
606.92	2094.80
607.27	2088.01
607.62	2081.47
607.96	2074.63
608.31	2068.26
608.66	2060.60
609.01	2053.20
609.36	2046.11
609.70	2038.58
610.05	2030.98
610.40	2022.73
610.75	2014.58
611.10	2006.96
611.44	1998.15
611.79	1989.58
612.14	1979.61
612.49	1969.16
612.83	1959.98
613.18	1950.91
613.53	1941.63
613.88	1932.24
614.22	1923.69
614.57	1913.79
614.92	1903.18
615.27	1893.13
615.61	1882.95
615.96	1873.20
616.31	1863.65
616.65	1854.36
617.00	1844.40
617.35	1834.77
617.70	1825.14
618.04	1815.06
618.39	1804.94
618.74	1795.40
619.08	1785.81
619.43	1777.21
619.78	1768.97
620.12	1760.26
620.47	1750.61
620.82	1740.37
621.16	1730.50
621.51	1720.59
621.85	1710.72
622.20	1700.45
622.55	1689.75
622.89	1680.16
623.24	1670.58
623.59	1660.87
623.93	1650.71
624.28	1641.07
624.62	1630.91
624.97	1620.61
625.32	1610.89
625.66	1602.00
626.01	1593.20
626.35	1583.84
626.70	1573.81
627.04	1563.63
627.39	1553.55
627.73	1544.26
628.08	1535.14
628.43	1525.64
628.77	1516.47
629.12	1507.60
629.46	1499.71
629.81	1491.30
630.15	1481.58
630.50	1471.67
630.84	1461.08
631.19	1451.29
631.53	1441.94
631.88	1431.79
632.22	1421.88
632.57	1412.57
632.91	1402.44
633.26	1392.55
633.60	1382.94
633.95	1373.58
634.29	1364.17
634.64	1354.91
634.98	1345.01
635.32	1335.86
635.67	1327.35
636.01	1318.04
636.36	1308.29
636.70	1298.83
637.05	1289.47
637.39	1280.51
637.73	1271.93
638.08	1264.38
638.42	1256.08
638.77	1247.37
639.11	1239.09
639.45	1231.23
639.80	1222.65
640.14	1213.94
640.49	1205.05
640.83	1196.36
641.17	1188.21
641.52	1180.07
641.86	1171.44
642.20	1163.44
642.55	1154.66
642.89	1145.84
643.23	1137.12
643.58	1128.98
643.92	1119.94
644.26	1111.33
644.61	1102.95
644.95	1094.11
645.29	1084.86
645.64	1075.74
645.98	1067.23
646.32	1059.36
646.66	1050.73
647.01	1042.31
647.35	1034.17
647.69	1025.84
648.04	1017.47
648.38	1008.58
648.72	999.80
649.06	991.40
649.41	983.34
649.75	975.50
650.09	967.63
650.43	959.58
650.78	951.40
651.12	943.84
651.46	936.47
651.80	929.25
652.14	921.99
652.49	914.58
652.83	907.22
653.17	899.65
653.51	892.09
653.85	884.97
654.20	877.76
654.54	870.31
654.88	863.21
655.22	856.17
655.56	849.27
655.90	842.61
656.25	836.03
656.59	829.14
656.93	822.17
657.27	815.16
657.61	808.39
657.95	802.34
658.29	796.36
658.64	790.22
658.98	783.78
659.32	777.26
659.66	771.07
660.00	764.84
660.34	758.88
660.68	752.84
661.02	746.55
661.36	740.78
661.70	735.21
662.05	729.57
662.39	724.07
662.73	718.78
663.07	713.37
663.41	707.78
663.75	702.24
664.09	696.69
664.43	691.28
664.77	685.96
665.11	680.14
665.45	674.35
665.79	668.71
666.13	663.11
666.47	657.78
666.81	652.49
667.15	647.21
667.49	642.06
667.83	636.84
668.17	631.67
668.51	626.57
668.85	621.70
669.19	616.89
669.53	611.97
669.87	606.93
670.21	602.34
670.55	597.66
670.89	593.23
671.23	588.96
671.57	584.61
671.91	580.45
672.25	576.43
672.58	572.44
672.92	568.45
673.26	564.63
673.60	560.90
673.94	557.11
674.28	553.59
674.62	549.84
674.96	546.18
675.30	542.82
675.64	539.26
675.97	535.70
676.31	532.17
676.65	528.63
676.99	525.28
677.33	521.52
677.67	517.95
678.01	514.14
678.34	510.57
678.68	507.15
679.02	503.59
679.36	499.94
679.70	496.36
680.04	492.91
680.37	489.52
680.71	486.24
681.05	483.12
681.39	479.95
681.73	476.95
682.06	473.94
682.40	470.90
682.74	467.81
683.08	464.70
683.42	461.66
683.75	458.75
684.09	455.75
684.43	452.96
684.77	450.13
685.10	447.40
685.44	444.55
685.78	441.75
686.12	439.08
686.45	436.49
686.79	433.83
687.13	431.33
687.46	428.78
687.80	426.15
688.14	423.40
688.48	420.81
688.81	418.14
689.15	415.68
689.49	413.15
689.82	410.71
690.16	408.19
690.50	405.78
690.83	403.35
691.17	400.95
691.51	398.66
691.84	396.50
692.18	394.42
692.52	392.27
692.85	390.20
693.19	388.13
693.52	386.02
693.86	383.94
694.20	381.87
694.53	379.80
694.87	377.67
695.21	375.62
695.54	373.56
695.88	371.50
696.21	369.40
696.55	367.30
696.88	365.31
697.22	363.41
697.56	361.57
697.89	359.74
698.23	358.05
698.56	356.29
698.90	354.56
699.23	352.66
699.57	350.87
699.90	349.10
700.24	347.33
700.58	345.61
700.91	344.01
701.25	342.50
701.58	340.97
701.92	339.41
702.25	337.92
702.59	336.37
702.92	334.90
703.26	333.41
703.59	332.05
703.93	330.81
704.26	329.44
704.60	328.01
704.93	326.59
705.26	325.11
705.60	323.64
705.93	322.20
706.27	320.95
706.60	319.75
706.94	318.56
707.27	317.27
707.61	315.97
707.94	314.65
708.27	313.17
708.61	311.77
708.94	310.49
709.28	309.21
709.61	308.00
709.94	306.86
710.28	305.68
710.61	304.53
710.95	303.20
711.28	302.17
711.61	301.03
711.95	299.97
712.28	298.87
712.61	297.77
712.95	296.78
713.28	295.78
713.61	294.68
713.95	293.52
714.28	292.53
714.61	291.54
714.95	290.60
715.28	289.66
715.61	288.69
715.95	287.79
716.28	286.92
716.61	286.05
716.95	285.11
717.28	284.24
717.61	283.29
717.94	282.45
718.28	281.41
718.61	280.58
718.94	279.73
719.27	278.91
719.61	278.11
719.94	277.28
720.27	276.36
720.60	275.56
720.94	274.85
721.27	274.12
721.60	273.44
721.93	272.74
722.27	272.12
722.60	271.47
722.93	270.80
723.26	270.13
723.59	269.38
723.93	268.76
724.26	268.13
724.59	267.53
724.92	266.94
725.25	266.41
725.59	265.87
725.92	265.33
726.25	264.79
726.58	264.24
726.91	263.64
727.24	263.13
727.57	262.57
727.91	261.96
728.24	261.43
728.57	260.87
728.90	260.32
729.23	259.70
729.56	259.31
729.89	258.79
730.22	258.24
730.55	257.75
730.89	257.24
731.22	256.74
731.55	256.27
731.88	255.77
732.21	255.28
732.54	254.76
732.87	254.26
733.20	253.74
733.53	253.31
733.86	252.90
734.19	252.39
734.52	251.99
734.85	251.75
735.18	251.30
735.51	250.94
735.84	250.53
736.17	250.18
736.50	249.67
736.83	249.51
737.16	249.12
737.49	248.75
737.82	248.34
738.15	248.01
738.48	247.64
738.81	247.25
739.14	246.85
739.47	246.47
739.80	246.11
740.13	245.81
740.46	245.42
740.79	245.06
741.12	244.73
741.45	244.38
741.78	243.93
742.11	243.65
742.44	243.28
742.77	242.99
743.10	242.64
743.43	242.32
743.75	241.76
744.08	241.70
744.41	241.38
744.74	241.06
745.07	240.66
745.40	240.37
745.73	240.14
746.06	239.83
746.39	239.55
746.71	239.26
747.04	238.91
747.37	238.62
747.70	238.35
748.03	238.09
748.36	237.83
748.68	237.58
749.01	237.24
749.34	236.96
749.67	236.69
750.00	236.45
750.33	236.29
750.65	236.08
750.98	235.60
751.31	235.36
751.64	235.15
751.97	235.05
752.29	234.79
752.62	234.48
752.95	234.24
753.28	233.99
753.60	233.75
753.93	233.61
754.26	233.41
754.59	233.15
754.91	232.91
755.24	232.70
755.57	232.44
755.90	232.24
756.22	232.01
756.55	231.79
756.88	231.51
757.20	231.20
757.53	230.91
757.86	230.69
758.19	230.48
758.51	230.30
758.84	230.01
759.17	229.81
759.49	229.62
759.82	229.56
760.15	229.42
760.47	229.24
760.80	229.00
761.13	228.83
761.45	228.62
761.78	228.44
762.11	228.26
762.43	228.08
762.76	227.89
763.08	227.76
763.41	227.61
763.74	227.46
764.06	227.33
764.39	227.22
764.71	227.07
765.04	226.93
765.37	226.76
765.69	226.63
766.02	226.47
766.34	226.33
766.67	226.11
767.00	226.00
767.32	225.98
767.65	225.98
767.97	225.84
768.30	225.79
768.62	225.68
768.95	225.54
769.27	225.45
769.60	225.37
769.92	225.25
770.25	225.08
770.57	224.97
770.90	224.87
771.22	224.75
771.55	224.66
771.87	224.57
772.20	224.47
772.52	224.51
772.85	224.66
773.17	224.57
773.50	224.45
773.82	224.33
774.15	224.13
774.47	223.93
774.80	223.82
775.12	223.70
775.45	223.59
775.77	223.48
776.09	223.36
776.42	223.29
776.74	223.26
777.07	223.20
777.39	223.11
777.72	222.99
778.04	222.91
778.36	222.80
778.69	222.75
779.01	222.67
779.33	222.44
779.66	222.13
779.98	222.00
780.31	221.94
780.63	221.94
780.95	221.89
781.28	221.79
781.60	221.70
781.92	221.62
782.25	221.57
782.57	221.54
782.89	221.50
783.22	221.40
783.54	221.27
783.86	221.22
784.19	221.15
784.51	221.14
784.83	221.09
785.16	221.04
785.48	220.96
785.80	220.90
786.12	220.86
