SpectraSuite Data File
++++++++++++++++++++++++++++++++++++
Date: Tue Jan 29 16:02:54 EST 2013
User: group
Dark Spectrum Present: No
Reference Spectrum Present: No
Number of Sampled Component Spectra: 1
Spectrometers: USB2E7196
Integration Time (usec): 65000 (USB2E7196)
Spectra Averaged: 100 (USB2E7196)
Boxcar Smoothing: 10 (USB2E7196)
Correct for Electrical Dark: No (USB2E7196)
Strobe/Lamp Enabled: No (USB2E7196)
Correct for Detector Non-linearity: No (USB2E7196)
Correct for Stray Light: No (USB2E7196)
Number of Pixels in Processed Spectrum: 2048
>>>>>Begin Processed Spectral Data<<<<<
339.09	0.00
339.48	202.73
339.86	203.70
340.24	205.95
340.63	206.97
341.01	211.73
341.39	209.59
341.78	211.28
342.16	212.60
342.54	212.97
342.93	202.06
343.31	212.26
343.69	212.76
344.07	213.25
344.46	213.69
344.84	214.06
345.22	214.19
345.60	214.45
345.99	214.65
346.37	214.76
346.75	214.85
347.13	214.93
347.52	215.00
347.90	215.11
348.28	215.12
348.66	215.19
349.05	215.15
349.43	215.21
349.81	215.23
350.19	215.27
350.57	215.33
350.96	215.42
351.34	215.53
351.72	215.69
352.10	215.82
352.48	215.86
352.87	215.94
353.25	216.01
353.63	216.08
354.01	216.11
354.39	216.21
354.77	216.31
355.15	216.43
355.54	216.45
355.92	216.44
356.30	216.50
356.68	216.71
357.06	216.79
357.44	216.81
357.82	216.90
358.20	216.98
358.58	217.04
358.97	217.10
359.35	217.20
359.73	217.28
360.11	217.29
360.49	217.36
360.87	217.41
361.25	217.49
361.63	217.61
362.01	217.69
362.39	217.71
362.77	217.75
363.15	217.77
363.53	217.78
363.91	217.85
364.29	217.89
364.67	217.69
365.05	217.70
365.43	217.74
365.81	217.76
366.19	217.86
366.57	217.96
366.95	217.95
367.33	217.92
367.71	217.90
368.09	217.96
368.47	217.97
368.85	217.95
369.23	218.00
369.61	217.94
369.99	218.00
370.37	218.00
370.75	218.08
371.13	218.02
371.51	218.00
371.89	217.96
372.27	217.96
372.65	218.00
373.03	217.95
373.41	217.92
373.78	217.86
374.16	217.72
374.54	217.64
374.92	217.58
375.30	217.52
375.68	217.45
376.06	217.39
376.44	217.33
376.82	217.32
377.19	217.25
377.57	217.20
377.95	217.09
378.33	217.06
378.71	216.89
379.09	216.86
379.47	216.87
379.84	216.81
380.22	216.74
380.60	216.64
380.98	216.61
381.36	216.57
381.73	216.50
382.11	216.48
382.49	216.41
382.87	216.35
383.25	216.34
383.62	216.55
384.00	216.49
384.38	216.46
384.76	216.47
385.13	216.49
385.51	216.44
385.89	216.40
386.27	216.36
386.64	216.37
387.02	216.33
387.40	216.27
387.78	216.28
388.15	216.28
388.53	216.25
388.91	216.20
389.29	216.15
389.66	216.17
390.04	216.11
390.42	216.19
390.79	216.21
391.17	216.20
391.55	215.95
391.92	215.94
392.30	215.97
392.68	215.93
393.05	215.90
393.43	215.92
393.81	215.92
394.18	215.92
394.56	215.92
394.94	215.98
395.31	215.97
395.69	216.04
396.06	216.07
396.44	216.11
396.82	216.17
397.19	216.30
397.57	216.30
397.95	216.39
398.32	216.33
398.70	216.37
399.07	216.42
399.45	216.46
399.82	216.51
400.20	216.51
400.58	216.54
400.95	216.53
401.33	216.61
401.70	216.79
402.08	216.85
402.45	216.94
402.83	217.05
403.20	217.19
403.58	217.22
403.95	217.37
404.33	217.53
404.71	217.68
405.08	217.90
405.46	218.08
405.83	218.25
406.21	218.47
406.58	218.68
406.96	218.91
407.33	219.18
407.70	219.45
408.08	219.90
408.45	220.26
408.83	220.66
409.20	221.01
409.58	221.29
409.95	221.76
410.33	222.23
410.70	222.68
411.08	223.20
411.45	223.78
411.82	224.32
412.20	224.94
412.57	225.75
412.95	226.31
413.32	227.11
413.69	227.94
414.07	228.81
414.44	229.74
414.82	230.74
415.19	231.85
415.56	232.99
415.94	234.17
416.31	235.53
416.68	236.84
417.06	238.37
417.43	239.89
417.81	241.56
418.18	243.25
418.55	245.03
418.93	246.96
419.30	248.98
419.67	251.15
420.04	253.38
420.42	255.66
420.79	258.42
421.16	261.09
421.54	263.91
421.91	266.78
422.28	269.80
422.66	272.96
423.03	276.13
423.40	279.35
423.77	282.79
424.15	286.31
424.52	290.03
424.89	294.06
425.26	297.99
425.64	301.74
426.01	305.89
426.38	310.22
426.75	314.62
427.13	319.17
427.50	323.97
427.87	328.98
428.24	334.02
428.61	338.82
428.99	344.18
429.36	349.92
429.73	355.62
430.10	361.27
430.47	367.15
430.85	373.24
431.22	379.74
431.59	386.61
431.96	393.16
432.33	400.40
432.70	407.38
433.08	415.60
433.45	423.38
433.82	431.13
434.19	439.71
434.56	448.11
434.93	456.21
435.30	464.21
435.68	473.05
436.05	481.66
436.42	490.25
436.79	498.09
437.16	506.58
437.53	515.48
437.90	524.37
438.27	532.94
438.64	541.80
439.01	550.07
439.38	557.33
439.75	564.45
440.13	572.59
440.50	580.24
440.87	586.42
441.24	592.80
441.61	599.82
441.98	605.04
442.35	611.17
442.72	617.18
443.09	622.98
443.46	626.52
443.83	628.89
444.20	630.98
444.57	633.98
444.94	635.31
445.31	636.68
445.68	637.98
446.05	638.53
446.42	637.70
446.79	636.71
447.16	635.71
447.53	634.92
447.90	631.63
448.27	628.52
448.64	624.03
449.01	620.83
449.37	615.11
449.74	609.59
450.11	602.84
450.48	595.72
450.85	588.49
451.22	582.28
451.59	576.42
451.96	570.80
452.33	563.21
452.70	556.41
453.07	548.26
453.43	539.96
453.80	532.00
454.17	524.40
454.54	517.08
454.91	509.22
455.28	501.56
455.65	494.47
456.02	487.21
456.38	481.13
456.75	473.57
457.12	467.32
457.49	461.09
457.86	455.22
458.23	450.10
458.59	444.45
458.96	438.67
459.33	433.59
459.70	428.44
460.07	424.34
460.43	419.62
460.80	415.22
461.17	411.38
461.54	407.35
461.91	403.50
462.27	399.60
462.64	396.31
463.01	392.65
463.38	389.12
463.74	385.55
464.11	382.40
464.48	379.70
464.85	376.70
465.21	374.39
465.58	371.84
465.95	368.79
466.32	366.24
466.68	363.74
467.05	361.25
467.42	358.79
467.78	356.26
468.15	353.86
468.52	352.08
468.88	349.67
469.25	347.61
469.62	345.84
469.98	343.98
470.35	342.27
470.72	340.65
471.08	338.95
471.45	337.53
471.82	336.08
472.18	334.51
472.55	333.34
472.92	331.99
473.28	330.86
473.65	329.80
474.02	328.77
474.38	327.97
474.75	327.27
475.11	326.49
475.48	325.96
475.85	325.52
476.21	325.05
476.58	324.74
476.94	324.52
477.31	324.29
477.67	324.07
478.04	323.93
478.41	323.91
478.77	324.07
479.14	324.03
479.50	324.19
479.87	324.48
480.23	324.83
480.60	325.14
480.96	325.44
481.33	326.08
481.69	326.68
482.06	327.18
482.42	327.65
482.79	328.32
483.15	329.08
483.52	330.02
483.88	330.90
484.25	331.84
484.61	332.83
484.98	333.87
485.34	335.16
485.71	336.50
486.07	337.96
486.44	339.29
486.80	340.95
487.17	342.64
487.53	344.46
487.90	346.30
488.26	348.31
488.62	350.43
488.99	352.42
489.35	354.58
489.72	356.97
490.08	359.53
490.44	362.04
490.81	364.79
491.17	367.48
491.54	370.47
491.90	373.53
492.26	376.77
492.63	380.18
492.99	383.66
493.36	387.31
493.72	391.17
494.08	395.17
494.45	399.33
494.81	403.68
495.17	408.13
495.54	412.82
495.90	417.58
496.26	422.51
496.63	427.70
496.99	433.11
497.35	438.63
497.72	444.37
498.08	450.31
498.44	456.34
498.80	462.75
499.17	469.25
499.53	475.90
499.89	482.77
500.26	489.73
500.62	496.81
500.98	504.28
501.34	511.68
501.71	519.44
502.07	527.24
502.43	535.16
502.79	543.22
503.16	551.58
503.52	560.18
503.88	568.90
504.24	577.88
504.60	586.86
504.97	596.11
505.33	605.40
505.69	615.22
506.05	625.06
506.41	634.88
506.78	644.92
507.14	655.16
507.50	665.57
507.86	676.22
508.22	686.99
508.59	697.54
508.95	708.57
509.31	719.77
509.67	731.27
510.03	742.67
510.39	754.46
510.75	766.31
511.12	778.18
511.48	790.18
511.84	802.34
512.20	814.61
512.56	827.18
512.92	839.87
513.28	852.39
513.64	865.03
514.00	877.62
514.37	890.47
514.73	903.46
515.09	916.39
515.45	929.14
515.81	942.03
516.17	955.34
516.53	968.45
516.89	981.38
517.25	994.37
517.61	1007.71
517.97	1020.93
518.33	1033.87
518.69	1047.31
519.05	1060.90
519.41	1074.29
519.77	1087.94
520.13	1101.04
520.49	1114.04
520.85	1127.24
521.21	1140.46
521.57	1154.16
521.93	1167.05
522.29	1180.59
522.65	1193.96
523.01	1207.41
523.37	1220.36
523.73	1233.33
524.09	1246.36
524.45	1259.55
524.81	1272.77
525.17	1285.94
525.53	1298.86
525.89	1311.89
526.25	1324.59
526.61	1337.14
526.97	1350.14
527.33	1362.96
527.68	1376.15
528.04	1389.43
528.40	1402.34
528.76	1415.38
529.12	1427.99
529.48	1441.02
529.84	1453.05
530.20	1465.48
530.56	1477.80
530.91	1490.89
531.27	1503.60
531.63	1515.99
531.99	1528.53
532.35	1540.44
532.71	1552.68
533.07	1565.19
533.42	1577.15
533.78	1589.06
534.14	1600.89
534.50	1611.66
534.86	1622.75
535.21	1633.40
535.57	1644.47
535.93	1655.55
536.29	1666.46
536.65	1677.55
537.00	1688.24
537.36	1699.31
537.72	1710.07
538.08	1721.13
538.44	1731.59
538.79	1742.26
539.15	1752.83
539.51	1763.14
539.87	1774.34
540.22	1784.64
540.58	1795.29
540.94	1805.77
541.29	1815.66
541.65	1825.06
542.01	1835.55
542.37	1845.39
542.72	1855.16
543.08	1864.70
543.44	1874.69
543.79	1883.65
544.15	1892.85
544.51	1902.58
544.87	1912.10
545.22	1920.93
545.58	1929.39
545.94	1938.09
546.29	1946.32
546.65	1954.45
547.01	1962.42
547.36	1969.74
547.72	1977.27
548.07	1984.70
548.43	1992.26
548.79	1999.90
549.14	2007.99
549.50	2016.04
549.86	2023.58
550.21	2030.74
550.57	2037.94
550.92	2044.57
551.28	2051.76
551.64	2058.89
551.99	2066.20
552.35	2073.19
552.70	2079.85
553.06	2086.54
553.41	2092.66
553.77	2099.08
554.13	2105.23
554.48	2112.32
554.84	2119.17
555.19	2125.51
555.55	2131.95
555.90	2138.20
556.26	2144.85
556.61	2150.61
556.97	2155.25
557.32	2161.16
557.68	2167.56
558.03	2173.35
558.39	2178.55
558.74	2184.46
559.10	2190.05
559.45	2195.52
559.81	2201.06
560.16	2206.87
560.52	2212.83
560.87	2219.12
561.23	2225.08
561.58	2231.79
561.94	2236.78
562.29	2241.64
562.64	2247.90
563.00	2253.28
563.35	2258.88
563.71	2264.92
564.06	2270.58
564.42	2276.57
564.77	2281.71
565.12	2286.92
565.48	2292.23
565.83	2297.93
566.19	2303.49
566.54	2308.82
566.89	2313.43
567.25	2318.10
567.60	2323.61
567.96	2328.61
568.31	2333.35
568.66	2337.59
569.02	2341.48
569.37	2345.29
569.72	2349.66
570.08	2352.99
570.43	2356.19
570.78	2359.23
571.14	2361.76
571.49	2364.83
571.84	2368.55
572.20	2371.45
572.55	2374.61
572.90	2376.98
573.26	2380.09
573.61	2382.59
573.96	2384.76
574.31	2387.03
574.67	2389.05
575.02	2390.18
575.37	2391.70
575.72	2392.60
576.08	2394.26
576.43	2394.80
576.78	2395.85
577.13	2397.83
577.49	2399.27
577.84	2400.77
578.19	2402.47
578.54	2403.37
578.90	2404.76
579.25	2404.82
579.60	2405.14
579.95	2404.67
580.30	2405.22
580.66	2404.59
581.01	2403.17
581.36	2401.28
581.71	2399.96
582.06	2399.18
582.42	2398.47
582.77	2396.68
583.12	2395.42
583.47	2394.39
583.82	2393.90
584.17	2392.71
584.53	2390.57
584.88	2388.79
585.23	2386.95
585.58	2384.83
585.93	2382.74
586.28	2380.65
586.63	2378.54
586.98	2376.48
587.34	2374.73
587.69	2372.44
588.04	2370.51
588.39	2369.23
588.74	2366.91
589.09	2364.59
589.44	2361.57
589.79	2359.39
590.14	2357.71
590.49	2354.90
590.84	2351.42
591.19	2348.68
591.54	2345.37
591.89	2341.57
592.25	2338.53
592.60	2334.48
592.95	2330.53
593.30	2326.51
593.65	2322.24
594.00	2317.89
594.35	2314.89
594.70	2310.41
595.05	2305.89
595.40	2300.66
595.75	2295.31
596.10	2291.63
596.45	2286.82
596.80	2282.38
597.15	2277.31
597.50	2271.49
597.85	2266.76
598.19	2261.44
598.54	2255.72
598.89	2250.92
599.24	2246.61
599.59	2240.63
599.94	2235.18
600.29	2229.42
600.64	2223.72
600.99	2217.26
601.34	2211.93
601.69	2205.08
602.04	2198.77
602.39	2192.31
602.74	2186.41
603.08	2180.85
603.43	2174.51
603.78	2167.71
604.13	2160.62
604.48	2153.40
604.83	2147.28
605.18	2140.94
605.53	2134.04
605.87	2126.95
606.22	2120.22
606.57	2112.35
606.92	2104.47
607.27	2097.51
607.62	2090.97
607.96	2083.95
608.31	2077.23
608.66	2069.64
609.01	2062.05
609.36	2054.95
609.70	2047.26
610.05	2039.48
610.40	2031.35
610.75	2023.29
611.10	2015.89
611.44	2007.32
611.79	1998.55
612.14	1988.59
612.49	1978.16
612.83	1969.11
613.18	1960.02
613.53	1950.62
613.88	1941.09
614.22	1932.60
614.57	1922.70
614.92	1912.18
615.27	1902.16
615.61	1892.31
615.96	1882.54
616.31	1873.19
616.65	1863.91
617.00	1854.10
617.35	1844.60
617.70	1834.83
618.04	1824.61
618.39	1814.21
618.74	1804.48
619.08	1795.07
619.43	1786.43
619.78	1778.28
620.12	1769.48
620.47	1759.69
620.82	1749.55
621.16	1739.70
621.51	1729.60
621.85	1719.85
622.20	1709.44
622.55	1698.88
622.89	1689.00
623.24	1679.30
623.59	1669.34
623.93	1659.11
624.28	1649.54
624.62	1639.27
624.97	1628.91
625.32	1619.25
625.66	1610.46
626.01	1601.46
626.35	1591.97
626.70	1581.72
627.04	1571.47
627.39	1561.41
627.73	1552.20
628.08	1543.06
628.43	1533.45
628.77	1524.22
629.12	1515.17
629.46	1507.32
629.81	1498.83
630.15	1489.28
630.50	1479.36
630.84	1468.87
631.19	1459.02
631.53	1449.42
631.88	1439.20
632.22	1429.16
632.57	1419.63
632.91	1409.37
633.26	1399.58
633.60	1390.00
633.95	1380.80
634.29	1371.40
634.64	1362.01
634.98	1352.03
635.32	1342.70
635.67	1334.20
636.01	1324.95
636.36	1315.14
636.70	1305.60
637.05	1296.29
637.39	1287.31
637.73	1278.75
638.08	1271.22
638.42	1262.85
638.77	1254.13
639.11	1245.92
639.45	1238.07
639.80	1229.48
640.14	1220.84
640.49	1211.92
640.83	1203.06
641.17	1195.01
641.52	1186.72
641.86	1177.99
642.20	1170.09
642.55	1161.44
642.89	1152.44
643.23	1143.66
643.58	1135.55
643.92	1126.37
644.26	1117.65
644.61	1109.20
644.95	1100.40
645.29	1091.11
645.64	1081.98
645.98	1073.62
646.32	1065.63
646.66	1057.17
647.01	1048.81
647.35	1040.63
647.69	1032.34
648.04	1023.89
648.38	1014.81
648.72	1006.07
649.06	997.71
649.41	989.59
649.75	981.61
650.09	973.83
650.43	965.87
650.78	957.70
651.12	950.09
651.46	942.68
651.80	935.34
652.14	927.96
652.49	920.48
652.83	913.19
653.17	905.45
653.51	897.83
653.85	890.51
654.20	883.19
654.54	875.65
654.88	868.46
655.22	861.40
655.56	854.53
655.90	847.78
656.25	841.16
656.59	834.17
656.93	827.19
657.27	820.12
657.61	813.30
657.95	807.21
658.29	801.36
658.64	795.30
658.98	788.94
659.32	782.43
659.66	776.14
660.00	769.79
660.34	763.75
660.68	757.71
661.02	751.51
661.36	745.72
661.70	740.01
662.05	734.37
662.39	728.93
662.73	723.54
663.07	718.24
663.41	712.66
663.75	707.12
664.09	701.51
664.43	696.15
664.77	690.72
665.11	684.88
665.45	678.97
665.79	673.15
666.13	667.46
666.47	662.04
666.81	656.72
667.15	651.49
667.49	646.32
667.83	641.10
668.17	635.93
668.51	630.86
668.85	625.97
669.19	621.09
669.53	616.12
669.87	611.07
670.21	606.32
670.55	601.62
670.89	597.28
671.23	593.07
671.57	588.74
671.91	584.56
672.25	580.56
672.58	576.47
672.92	572.51
673.26	568.63
673.60	564.82
673.94	561.08
674.28	557.46
674.62	553.76
674.96	550.04
675.30	546.50
675.64	542.93
675.97	539.40
676.31	535.87
676.65	532.26
676.99	528.91
677.33	525.13
677.67	521.54
678.01	517.60
678.34	513.99
678.68	510.50
679.02	506.91
679.36	503.22
679.70	499.65
680.04	496.20
680.37	492.80
680.71	489.55
681.05	486.37
681.39	483.21
681.73	480.12
682.06	477.13
682.40	474.05
682.74	470.84
683.08	467.72
683.42	464.60
683.75	461.70
684.09	458.73
684.43	455.90
684.77	453.05
685.10	450.28
685.44	447.40
685.78	444.53
686.12	441.81
686.45	439.15
686.79	436.50
687.13	433.94
687.46	431.39
687.80	428.73
688.14	425.96
688.48	423.38
688.81	420.74
689.15	418.23
689.49	415.68
689.82	413.26
690.16	410.72
690.50	408.27
690.83	405.82
691.17	403.35
691.51	401.02
691.84	398.81
692.18	396.67
692.52	394.49
692.85	392.38
693.19	390.27
693.52	388.11
693.86	385.98
694.20	383.88
694.53	381.78
694.87	379.65
695.21	377.58
695.54	375.45
695.88	373.34
696.21	371.19
696.55	369.17
696.88	367.14
697.22	365.18
697.56	363.36
697.89	361.50
698.23	359.79
698.56	358.03
698.90	356.28
699.23	354.39
699.57	352.61
699.90	350.81
700.24	349.08
700.58	347.40
700.91	345.80
701.25	344.25
701.58	342.69
701.92	341.13
702.25	339.57
702.59	337.98
702.92	336.47
703.26	334.95
703.59	333.50
703.93	332.23
704.26	330.85
704.60	329.38
704.93	327.93
705.26	326.48
705.60	325.02
705.93	323.54
706.27	322.29
706.60	321.05
706.94	319.84
707.27	318.49
707.61	317.18
707.94	315.84
708.27	314.34
708.61	312.92
708.94	311.58
709.28	310.37
709.61	309.17
709.94	308.02
710.28	306.83
710.61	305.63
710.95	304.25
711.28	303.18
711.61	302.02
711.95	300.93
712.28	299.78
712.61	298.62
712.95	297.60
713.28	296.57
713.61	295.43
713.95	294.30
714.28	293.28
714.61	292.21
714.95	291.21
715.28	290.19
715.61	289.17
715.95	288.26
716.28	287.28
716.61	286.35
716.95	285.37
717.28	284.48
717.61	283.56
717.94	282.72
718.28	281.72
718.61	280.89
718.94	280.00
719.27	279.18
719.61	278.41
719.94	277.58
720.27	276.63
720.60	275.82
720.94	275.00
721.27	274.27
721.60	273.64
721.93	272.97
722.27	272.41
722.60	271.82
722.93	271.10
723.26	270.50
723.59	269.87
723.93	269.29
724.26	268.68
724.59	268.05
724.92	267.47
725.25	266.97
725.59	266.37
725.92	265.87
726.25	265.28
726.58	264.69
726.91	264.14
727.24	263.66
727.57	263.12
727.91	262.56
728.24	262.06
728.57	261.44
728.90	260.88
729.23	260.26
729.56	259.81
729.89	259.26
730.22	258.70
730.55	258.13
730.89	257.57
731.22	257.07
731.55	256.58
731.88	256.08
732.21	255.54
732.54	255.00
732.87	254.46
733.20	254.02
733.53	253.57
733.86	253.08
734.19	252.57
734.52	252.18
734.85	251.90
735.18	251.43
735.51	251.09
735.84	250.71
736.17	250.37
736.50	249.80
736.83	249.68
737.16	249.32
737.49	248.93
737.82	248.54
738.15	248.18
738.48	247.77
738.81	247.39
739.14	246.99
739.47	246.67
739.80	246.36
740.13	246.02
740.46	245.63
740.79	245.26
741.12	244.95
741.45	244.57
741.78	244.13
742.11	243.87
742.44	243.48
742.77	243.17
743.10	242.82
743.43	242.57
743.75	242.01
744.08	241.88
744.41	241.56
744.74	241.22
745.07	240.85
745.40	240.61
745.73	240.37
746.06	240.03
746.39	239.78
746.71	239.41
747.04	239.03
747.37	238.72
747.70	238.47
748.03	238.16
748.36	237.88
748.68	237.62
749.01	237.28
749.34	237.03
749.67	236.71
750.00	236.44
750.33	236.28
750.65	236.02
750.98	235.55
751.31	235.31
751.64	235.10
751.97	234.97
752.29	234.71
752.62	234.40
752.95	234.18
753.28	233.89
753.60	233.65
753.93	233.53
754.26	233.34
754.59	233.09
754.91	232.88
755.24	232.65
755.57	232.43
755.90	232.19
756.22	231.99
756.55	231.76
756.88	231.52
757.20	231.22
757.53	230.97
757.86	230.76
758.19	230.59
758.51	230.39
758.84	230.11
759.17	229.93
759.49	229.76
759.82	229.68
760.15	229.52
760.47	229.36
760.80	229.09
761.13	228.95
761.45	228.72
761.78	228.54
762.11	228.39
762.43	228.18
762.76	228.03
763.08	227.86
763.41	227.71
763.74	227.60
764.06	227.46
764.39	227.36
764.71	227.22
765.04	227.06
765.37	226.93
765.69	226.79
766.02	226.64
766.34	226.47
766.67	226.25
767.00	226.14
767.32	226.11
767.65	226.11
767.97	225.96
768.30	225.88
768.62	225.74
768.95	225.64
769.27	225.52
769.60	225.45
769.92	225.32
770.25	225.18
770.57	225.01
770.90	224.88
771.22	224.74
771.55	224.63
771.87	224.53
772.20	224.36
772.52	224.42
772.85	224.55
773.17	224.45
773.50	224.38
773.82	224.29
774.15	224.11
774.47	223.89
774.80	223.80
775.12	223.69
775.45	223.58
775.77	223.45
776.09	223.38
776.42	223.26
776.74	223.23
777.07	223.10
777.39	223.01
777.72	222.92
778.04	222.87
778.36	222.78
778.69	222.70
779.01	222.67
779.33	222.41
779.66	222.10
779.98	222.03
780.31	221.91
780.63	221.95
780.95	221.89
781.28	221.84
781.60	221.70
781.92	221.66
782.25	221.60
782.57	221.54
782.89	221.46
783.22	221.39
783.54	221.27
783.86	221.26
784.19	221.20
784.51	221.22
784.83	221.10
785.16	221.04
785.48	220.95
785.80	220.95
786.12	220.90
