SpectraSuite Data File
++++++++++++++++++++++++++++++++++++
Date: Tue Jan 29 16:53:00 EST 2013
User: group
Dark Spectrum Present: No
Reference Spectrum Present: No
Number of Sampled Component Spectra: 1
Spectrometers: USB2E7196
Integration Time (usec): 65000 (USB2E7196)
Spectra Averaged: 100 (USB2E7196)
Boxcar Smoothing: 10 (USB2E7196)
Correct for Electrical Dark: No (USB2E7196)
Strobe/Lamp Enabled: No (USB2E7196)
Correct for Detector Non-linearity: No (USB2E7196)
Correct for Stray Light: No (USB2E7196)
Number of Pixels in Processed Spectrum: 2048
>>>>>Begin Processed Spectral Data<<<<<
339.09	0.00
339.48	201.24
339.86	202.82
340.24	203.78
340.63	205.21
341.01	209.60
341.39	208.64
341.78	210.28
342.16	211.16
342.54	211.07
342.93	200.53
343.31	210.65
343.69	211.21
344.07	211.67
344.46	212.14
344.84	212.54
345.22	212.73
345.60	213.00
345.99	213.20
346.37	213.34
346.75	213.47
347.13	213.55
347.52	213.62
347.90	213.78
348.28	213.81
348.66	213.87
349.05	213.84
349.43	213.89
349.81	213.97
350.19	214.06
350.57	214.15
350.96	214.26
351.34	214.40
351.72	214.47
352.10	214.58
352.48	214.66
352.87	214.73
353.25	214.80
353.63	214.86
354.01	214.91
354.39	215.03
354.77	215.09
355.15	215.21
355.54	215.26
355.92	215.23
356.30	215.33
356.68	215.53
357.06	215.62
357.44	215.66
357.82	215.70
358.20	215.76
358.58	215.83
358.97	215.90
359.35	215.99
359.73	216.10
360.11	216.18
360.49	216.22
360.87	216.29
361.25	216.37
361.63	216.50
362.01	216.58
362.39	216.59
362.77	216.67
363.15	216.71
363.53	216.76
363.91	216.83
364.29	216.87
364.67	216.72
365.05	216.77
365.43	216.84
365.81	216.88
366.19	216.98
366.57	217.09
366.95	217.09
367.33	217.06
367.71	217.04
368.09	217.07
368.47	217.07
368.85	217.07
369.23	217.09
369.61	217.00
369.99	217.04
370.37	217.05
370.75	217.14
371.13	217.08
371.51	217.04
371.89	217.05
372.27	217.02
372.65	217.01
373.03	216.96
373.41	216.88
373.78	216.82
374.16	216.70
374.54	216.59
374.92	216.51
375.30	216.48
375.68	216.42
376.06	216.38
376.44	216.35
376.82	216.34
377.19	216.28
377.57	216.22
377.95	216.09
378.33	216.01
378.71	215.84
379.09	215.86
379.47	215.81
379.84	215.73
380.22	215.68
380.60	215.62
380.98	215.58
381.36	215.53
381.73	215.48
382.11	215.48
382.49	215.40
382.87	215.37
383.25	215.29
383.62	215.51
384.00	215.42
384.38	215.35
384.76	215.34
385.13	215.38
385.51	215.35
385.89	215.28
386.27	215.27
386.64	215.26
387.02	215.14
387.40	215.09
387.78	215.08
388.15	215.05
388.53	214.98
388.91	214.96
389.29	214.94
389.66	214.96
390.04	214.92
390.42	214.95
390.79	214.97
391.17	214.98
391.55	214.74
391.92	214.76
392.30	214.82
392.68	214.78
393.05	214.76
393.43	214.75
393.81	214.78
394.18	214.74
394.56	214.73
394.94	214.83
395.31	214.83
395.69	214.88
396.06	214.92
396.44	214.96
396.82	214.95
397.19	215.10
397.57	215.10
397.95	215.15
398.32	215.11
398.70	215.13
399.07	215.21
399.45	215.24
399.82	215.27
400.20	215.28
400.58	215.33
400.95	215.32
401.33	215.47
401.70	215.68
402.08	215.80
402.45	215.88
402.83	215.99
403.20	216.08
403.58	216.16
403.95	216.29
404.33	216.48
404.71	216.62
405.08	216.87
405.46	217.05
405.83	217.24
406.21	217.44
406.58	217.69
406.96	217.88
407.33	218.16
407.70	218.48
408.08	218.95
408.45	219.29
408.83	219.70
409.20	220.01
409.58	220.27
409.95	220.74
410.33	221.26
410.70	221.65
411.08	222.26
411.45	222.87
411.82	223.47
412.20	224.15
412.57	224.98
412.95	225.53
413.32	226.35
413.69	227.20
414.07	228.12
414.44	229.09
414.82	230.13
415.19	231.32
415.56	232.53
415.94	233.68
416.31	235.10
416.68	236.48
417.06	238.12
417.43	239.70
417.81	241.43
418.18	243.21
418.55	245.19
418.93	247.24
419.30	249.37
419.67	251.61
420.04	253.89
420.42	256.29
420.79	259.14
421.16	261.98
421.54	264.91
421.91	267.91
422.28	271.05
422.66	274.35
423.03	277.61
423.40	280.96
423.77	284.61
424.15	288.26
424.52	292.09
424.89	296.24
425.26	300.35
425.64	304.26
426.01	308.58
426.38	313.08
426.75	317.62
427.13	322.35
427.50	327.37
427.87	332.61
428.24	337.83
428.61	342.81
428.99	348.34
429.36	354.42
429.73	360.36
430.10	366.22
430.47	372.32
430.85	378.66
431.22	385.39
431.59	392.52
431.96	399.39
432.33	406.97
432.70	414.26
433.08	422.79
433.45	430.87
433.82	438.96
434.19	447.88
434.56	456.62
434.93	464.93
435.30	473.27
435.68	482.42
436.05	491.48
436.42	500.45
436.79	508.61
437.16	517.40
437.53	526.69
437.90	535.99
438.27	545.05
438.64	554.33
439.01	562.91
439.38	570.48
439.75	577.84
440.13	586.28
440.50	594.29
440.87	600.76
441.24	607.47
441.61	614.81
441.98	620.17
442.35	626.51
442.72	632.95
443.09	638.96
443.46	642.85
443.83	645.37
444.20	647.59
444.57	650.77
444.94	652.24
445.31	653.78
445.68	655.14
446.05	655.75
446.42	654.99
446.79	654.11
447.16	653.07
447.53	652.33
447.90	649.04
448.27	645.75
448.64	641.10
449.01	637.81
449.37	631.94
449.74	626.30
450.11	619.39
450.48	612.00
450.85	604.53
451.22	597.94
451.59	591.78
451.96	585.94
452.33	578.06
452.70	570.91
453.07	562.31
453.43	553.67
453.80	545.29
454.17	537.27
454.54	529.62
454.91	521.40
455.28	513.37
455.65	505.89
456.02	498.33
456.38	491.94
456.75	484.01
457.12	477.34
457.49	470.77
457.86	464.55
458.23	459.08
458.59	453.13
458.96	447.06
459.33	441.66
459.70	436.27
460.07	431.96
460.43	427.04
460.80	422.49
461.17	418.44
461.54	414.22
461.91	410.14
462.27	406.01
462.64	402.53
463.01	398.71
463.38	395.00
463.74	391.25
464.11	388.05
464.48	385.16
464.85	382.01
465.21	379.58
465.58	376.96
465.95	373.80
466.32	371.18
466.68	368.58
467.05	366.01
467.42	363.45
467.78	360.73
468.15	358.16
468.52	356.20
468.88	353.69
469.25	351.47
469.62	349.61
469.98	347.70
470.35	345.90
470.72	344.20
471.08	342.40
471.45	340.89
471.82	339.31
472.18	337.64
472.55	336.45
472.92	335.04
473.28	333.80
473.65	332.64
474.02	331.51
474.38	330.61
474.75	329.81
475.11	328.97
475.48	328.37
475.85	327.86
476.21	327.38
476.58	327.02
476.94	326.78
477.31	326.50
477.67	326.18
478.04	326.03
478.41	325.97
478.77	326.11
479.14	326.05
479.50	326.14
479.87	326.45
480.23	326.77
480.60	327.00
480.96	327.25
481.33	327.83
481.69	328.38
482.06	328.89
482.42	329.37
482.79	329.91
483.15	330.76
483.52	331.71
483.88	332.56
484.25	333.49
484.61	334.46
484.98	335.50
485.34	336.82
485.71	338.19
486.07	339.62
486.44	340.93
486.80	342.52
487.17	344.24
487.53	346.03
487.90	347.85
488.26	349.86
488.62	351.98
488.99	354.05
489.35	356.22
489.72	358.56
490.08	361.09
490.44	363.66
490.81	366.32
491.17	369.01
491.54	371.99
491.90	375.02
492.26	378.29
492.63	381.67
492.99	385.14
493.36	388.78
493.72	392.61
494.08	396.62
494.45	400.86
494.81	405.21
495.17	409.62
495.54	414.29
495.90	419.14
496.26	424.08
496.63	429.23
496.99	434.64
497.35	440.19
497.72	446.03
498.08	451.93
498.44	458.02
498.80	464.44
499.17	470.92
499.53	477.64
499.89	484.46
500.26	491.40
500.62	498.42
500.98	505.73
501.34	513.22
501.71	521.00
502.07	528.77
502.43	536.67
502.79	544.79
503.16	553.19
503.52	561.75
503.88	570.47
504.24	579.42
504.60	588.46
504.97	597.72
505.33	606.96
505.69	616.82
506.05	626.69
506.41	636.56
506.78	646.57
507.14	656.75
507.50	667.22
507.86	677.95
508.22	688.71
508.59	699.37
508.95	710.43
509.31	721.59
509.67	732.99
510.03	744.42
510.39	756.06
510.75	767.84
511.12	779.68
511.48	791.75
511.84	803.97
512.20	816.21
512.56	828.71
512.92	841.49
513.28	854.12
513.64	866.85
514.00	879.62
514.37	892.56
514.73	905.64
515.09	918.61
515.45	931.47
515.81	944.57
516.17	958.00
516.53	971.22
516.89	984.38
517.25	997.64
517.61	1011.15
517.97	1024.66
518.33	1037.81
518.69	1051.36
519.05	1065.07
519.41	1078.75
519.77	1092.71
520.13	1106.15
520.49	1119.27
520.85	1132.64
521.21	1145.94
521.57	1159.60
521.93	1172.67
522.29	1186.42
522.65	1200.10
523.01	1213.75
523.37	1226.85
523.73	1240.29
524.09	1253.44
524.45	1266.91
524.81	1280.34
525.17	1293.70
525.53	1306.91
525.89	1320.29
526.25	1333.49
526.61	1346.32
526.97	1359.49
527.33	1372.54
527.68	1385.94
528.04	1399.56
528.40	1412.74
528.76	1426.08
529.12	1439.07
529.48	1452.38
529.84	1464.66
530.20	1477.43
530.56	1490.07
530.91	1503.42
531.27	1516.22
531.63	1528.93
531.99	1541.58
532.35	1553.90
532.71	1566.37
533.07	1579.30
533.42	1591.64
533.78	1603.72
534.14	1615.91
534.50	1627.12
534.86	1638.59
535.21	1649.59
535.57	1661.18
535.93	1672.51
536.29	1683.64
536.65	1695.17
537.00	1706.18
537.36	1717.67
537.72	1728.78
538.08	1740.33
538.44	1751.34
538.79	1762.59
539.15	1773.87
539.51	1784.86
539.87	1796.22
540.22	1807.22
540.58	1818.20
540.94	1829.11
541.29	1839.58
541.65	1849.36
542.01	1859.95
542.37	1870.11
542.72	1880.21
543.08	1889.93
543.44	1900.52
543.79	1910.00
544.15	1919.43
544.51	1929.47
544.87	1939.35
545.22	1948.65
545.58	1957.48
545.94	1966.46
546.29	1974.99
546.65	1983.26
547.01	1991.39
547.36	1999.14
547.72	2006.93
548.07	2014.52
548.43	2022.31
548.79	2030.19
549.14	2038.47
549.50	2047.06
549.86	2055.13
550.21	2062.74
550.57	2070.47
550.92	2077.23
551.28	2084.74
551.64	2092.08
551.99	2099.69
552.35	2106.95
552.70	2113.77
553.06	2120.41
553.41	2126.69
553.77	2133.04
554.13	2139.37
554.48	2146.58
554.84	2153.70
555.19	2160.14
555.55	2166.61
555.90	2172.85
556.26	2179.71
556.61	2185.86
556.97	2190.57
557.32	2196.22
557.68	2202.62
558.03	2208.42
558.39	2213.84
558.74	2219.77
559.10	2225.31
559.45	2230.89
559.81	2236.43
560.16	2241.93
560.52	2247.86
560.87	2254.12
561.23	2260.04
561.58	2266.60
561.94	2271.63
562.29	2276.16
562.64	2282.07
563.00	2287.59
563.35	2293.05
563.71	2298.60
564.06	2304.13
564.42	2310.01
564.77	2315.05
565.12	2320.24
565.48	2325.31
565.83	2330.74
566.19	2336.02
566.54	2341.15
566.89	2345.71
567.25	2350.13
567.60	2355.79
567.96	2360.73
568.31	2365.23
568.66	2369.51
569.02	2373.45
569.37	2377.13
569.72	2381.55
570.08	2384.89
570.43	2387.96
570.78	2391.13
571.14	2393.48
571.49	2396.40
571.84	2399.72
572.20	2402.50
572.55	2405.23
572.90	2407.46
573.26	2409.98
573.61	2412.50
573.96	2414.52
574.31	2416.33
574.67	2418.25
575.02	2418.75
575.37	2420.09
575.72	2420.72
576.08	2422.01
576.43	2422.02
576.78	2422.39
577.13	2423.68
577.49	2424.99
577.84	2425.78
578.19	2426.79
578.54	2427.26
578.90	2427.65
579.25	2427.35
579.60	2426.99
579.95	2426.05
580.30	2425.79
580.66	2424.92
581.01	2423.03
581.36	2420.48
581.71	2418.88
582.06	2417.42
582.42	2416.39
582.77	2413.91
583.12	2412.13
583.47	2410.41
583.82	2409.53
584.17	2407.91
584.53	2405.76
584.88	2403.30
585.23	2401.23
585.58	2398.72
585.93	2396.56
586.28	2394.27
586.63	2391.67
586.98	2389.30
587.34	2387.26
587.69	2384.49
588.04	2382.18
588.39	2380.54
588.74	2378.11
589.09	2375.00
589.44	2371.68
589.79	2369.00
590.14	2366.88
590.49	2363.77
590.84	2359.84
591.19	2356.54
591.54	2353.23
591.89	2348.91
592.25	2345.47
592.60	2341.13
592.95	2336.84
593.30	2332.48
593.65	2327.98
594.00	2323.67
594.35	2320.67
594.70	2315.89
595.05	2311.43
595.40	2305.84
595.75	2299.98
596.10	2296.19
596.45	2291.42
596.80	2286.68
597.15	2281.49
597.50	2275.58
597.85	2270.63
598.19	2265.32
598.54	2259.43
598.89	2254.23
599.24	2249.62
599.59	2243.51
599.94	2237.63
600.29	2231.65
600.64	2225.75
600.99	2219.01
601.34	2213.31
601.69	2206.26
602.04	2199.83
602.39	2193.17
602.74	2187.06
603.08	2181.52
603.43	2174.93
603.78	2168.07
604.13	2161.11
604.48	2153.87
604.83	2147.62
605.18	2141.44
605.53	2134.56
605.87	2127.59
606.22	2120.73
606.57	2112.81
606.92	2104.80
607.27	2098.01
607.62	2091.46
607.96	2084.44
608.31	2077.89
608.66	2070.18
609.01	2062.48
609.36	2055.30
609.70	2047.67
610.05	2039.93
610.40	2031.64
610.75	2023.16
611.10	2015.36
611.44	2006.34
611.79	1997.63
612.14	1987.75
612.49	1977.14
612.83	1967.80
613.18	1958.43
613.53	1949.16
613.88	1939.66
614.22	1931.09
614.57	1921.05
614.92	1910.38
615.27	1900.22
615.61	1890.17
615.96	1880.50
616.31	1871.02
616.65	1861.60
617.00	1851.87
617.35	1842.20
617.70	1832.44
618.04	1822.81
618.39	1812.86
618.74	1803.34
619.08	1793.68
619.43	1785.15
619.78	1776.84
620.12	1768.27
620.47	1758.97
620.82	1748.73
621.16	1738.98
621.51	1729.22
621.85	1719.57
622.20	1709.48
622.55	1698.92
622.89	1689.00
623.24	1679.31
623.59	1669.52
623.93	1659.57
624.28	1649.84
624.62	1640.18
624.97	1630.00
625.32	1620.11
625.66	1611.23
626.01	1602.53
626.35	1593.27
626.70	1583.23
627.04	1573.31
627.39	1563.27
627.73	1554.09
628.08	1545.34
628.43	1535.96
628.77	1526.82
629.12	1518.05
629.46	1510.24
629.81	1502.11
630.15	1492.93
630.50	1483.37
630.84	1473.08
631.19	1463.21
631.53	1454.06
631.88	1443.82
632.22	1434.00
632.57	1424.80
632.91	1414.85
633.26	1405.05
633.60	1395.64
633.95	1386.49
634.29	1377.18
634.64	1367.99
634.98	1358.06
635.32	1348.82
635.67	1340.48
636.01	1331.24
636.36	1321.69
636.70	1312.38
637.05	1303.08
637.39	1294.27
637.73	1285.67
638.08	1278.14
638.42	1270.16
638.77	1261.62
639.11	1253.62
639.45	1245.93
639.80	1237.47
640.14	1228.87
640.49	1220.23
640.83	1211.48
641.17	1203.35
641.52	1195.22
641.86	1186.90
642.20	1179.23
642.55	1170.68
642.89	1161.83
643.23	1153.45
643.58	1145.44
643.92	1136.45
644.26	1127.81
644.61	1119.43
644.95	1110.80
645.29	1101.75
645.64	1092.66
645.98	1084.10
646.32	1076.18
646.66	1067.76
647.01	1059.62
647.35	1051.59
647.69	1043.43
648.04	1035.24
648.38	1026.50
648.72	1017.86
649.06	1009.46
649.41	1001.29
649.75	993.40
650.09	985.68
650.43	977.72
650.78	969.42
651.12	961.77
651.46	954.43
651.80	947.25
652.14	940.05
652.49	932.65
652.83	925.43
653.17	917.78
653.51	910.16
653.85	903.04
654.20	895.77
654.54	888.43
654.88	881.13
655.22	873.99
655.56	867.08
655.90	860.36
656.25	853.64
656.59	846.82
656.93	839.87
657.27	832.71
657.61	825.68
657.95	819.68
658.29	813.77
658.64	807.74
658.98	801.27
659.32	794.75
659.66	788.56
660.00	782.28
660.34	776.34
660.68	770.22
661.02	763.90
661.36	757.97
661.70	752.11
662.05	746.52
662.39	741.03
662.73	735.62
663.07	730.24
663.41	724.68
663.75	718.93
664.09	713.24
664.43	707.85
664.77	702.55
665.11	696.66
665.45	690.84
665.79	685.03
666.13	679.36
666.47	673.81
666.81	668.28
667.15	662.82
667.49	657.57
667.83	652.35
668.17	647.03
668.51	641.93
668.85	637.04
669.19	632.19
669.53	627.17
669.87	622.01
670.21	617.20
670.55	612.52
670.89	608.05
671.23	603.77
671.57	599.41
671.91	595.08
672.25	590.94
672.58	586.82
672.92	582.81
673.26	578.97
673.60	575.13
673.94	571.41
674.28	567.94
674.62	564.24
674.96	560.55
675.30	557.11
675.64	553.40
675.97	549.77
676.31	546.10
676.65	542.50
676.99	539.13
677.33	535.34
677.67	531.69
678.01	527.87
678.34	524.25
678.68	520.71
679.02	517.19
679.36	513.52
679.70	509.79
680.04	506.14
680.37	502.61
680.71	499.29
681.05	496.00
681.39	492.61
681.73	489.41
682.06	486.35
682.40	483.17
682.74	479.99
683.08	476.79
683.42	473.61
683.75	470.59
684.09	467.49
684.43	464.63
684.77	461.68
685.10	458.84
685.44	455.89
685.78	452.97
686.12	450.13
686.45	447.36
686.79	444.71
687.13	442.19
687.46	439.56
687.80	436.79
688.14	433.94
688.48	431.28
688.81	428.52
689.15	425.88
689.49	423.28
689.82	420.75
690.16	418.19
690.50	415.69
690.83	413.19
691.17	410.69
691.51	408.26
691.84	405.97
692.18	403.75
692.52	401.49
692.85	399.33
693.19	397.15
693.52	394.99
693.86	392.75
694.20	390.51
694.53	388.34
694.87	386.17
695.21	384.04
695.54	381.91
695.88	379.78
696.21	377.54
696.55	375.38
696.88	373.29
697.22	371.26
697.56	369.33
697.89	367.34
698.23	365.56
698.56	363.68
698.90	361.84
699.23	359.87
699.57	357.98
699.90	356.10
700.24	354.27
700.58	352.51
700.91	350.82
701.25	349.27
701.58	347.64
701.92	346.05
702.25	344.37
702.59	342.71
702.92	341.15
703.26	339.58
703.59	338.10
703.93	336.78
704.26	335.30
704.60	333.83
704.93	332.40
705.26	330.87
705.60	329.43
705.93	327.87
706.27	326.53
706.60	325.25
706.94	323.97
707.27	322.59
707.61	321.17
707.94	319.78
708.27	318.22
708.61	316.74
708.94	315.34
709.28	314.05
709.61	312.76
709.94	311.51
710.28	310.29
710.61	309.14
710.95	307.70
711.28	306.59
711.61	305.38
711.95	304.23
712.28	302.97
712.61	301.72
712.95	300.67
713.28	299.62
713.61	298.45
713.95	297.30
714.28	296.24
714.61	295.18
714.95	294.17
715.28	293.13
715.61	292.14
715.95	291.15
716.28	290.19
716.61	289.21
716.95	288.16
717.28	287.25
717.61	286.20
717.94	285.29
718.28	284.23
718.61	283.31
718.94	282.41
719.27	281.56
719.61	280.77
719.94	279.90
720.27	278.89
720.60	278.01
720.94	277.19
721.27	276.44
721.60	275.71
721.93	274.97
722.27	274.31
722.60	273.57
722.93	272.84
723.26	272.12
723.59	271.37
723.93	270.74
724.26	270.08
724.59	269.43
724.92	268.82
725.25	268.28
725.59	267.70
725.92	267.13
726.25	266.58
726.58	265.98
726.91	265.38
727.24	264.83
727.57	264.24
727.91	263.62
728.24	263.04
728.57	262.48
728.90	261.94
729.23	261.30
729.56	260.87
729.89	260.30
730.22	259.76
730.55	259.24
730.89	258.67
731.22	258.09
731.55	257.59
731.88	257.07
732.21	256.51
732.54	255.94
732.87	255.44
733.20	254.95
733.53	254.46
733.86	254.00
734.19	253.54
734.52	253.13
734.85	252.85
735.18	252.36
735.51	251.91
735.84	251.46
736.17	251.07
736.50	250.53
736.83	250.42
737.16	250.05
737.49	249.66
737.82	249.27
738.15	248.94
738.48	248.53
738.81	248.09
739.14	247.68
739.47	247.31
739.80	246.89
740.13	246.52
740.46	246.10
740.79	245.72
741.12	245.35
741.45	244.97
741.78	244.54
742.11	244.25
742.44	243.92
742.77	243.68
743.10	243.32
743.43	242.99
743.75	242.39
744.08	242.25
744.41	241.87
744.74	241.50
745.07	241.10
745.40	240.76
745.73	240.58
746.06	240.22
746.39	239.90
746.71	239.58
747.04	239.20
747.37	238.89
747.70	238.60
748.03	238.27
748.36	237.96
748.68	237.63
749.01	237.27
749.34	236.96
749.67	236.62
750.00	236.35
750.33	236.22
750.65	235.98
750.98	235.48
751.31	235.26
751.64	235.05
751.97	234.94
752.29	234.72
752.62	234.33
752.95	234.11
753.28	233.85
753.60	233.61
753.93	233.47
754.26	233.26
754.59	232.97
754.91	232.76
755.24	232.53
755.57	232.29
755.90	232.05
756.22	231.82
756.55	231.55
756.88	231.26
757.20	230.88
757.53	230.57
757.86	230.37
758.19	230.17
758.51	229.95
758.84	229.65
759.17	229.44
759.49	229.29
759.82	229.21
760.15	229.06
760.47	228.86
760.80	228.59
761.13	228.43
761.45	228.21
761.78	228.00
762.11	227.82
762.43	227.62
762.76	227.47
763.08	227.30
763.41	227.16
763.74	227.03
764.06	226.85
764.39	226.72
764.71	226.54
765.04	226.34
765.37	226.16
765.69	226.00
766.02	225.82
766.34	225.64
766.67	225.42
767.00	225.33
767.32	225.32
767.65	225.33
767.97	225.20
768.30	225.11
768.62	224.99
768.95	224.84
769.27	224.73
769.60	224.63
769.92	224.46
770.25	224.29
770.57	224.13
770.90	224.02
771.22	223.87
771.55	223.79
771.87	223.72
772.20	223.62
772.52	223.68
772.85	223.83
773.17	223.74
773.50	223.62
773.82	223.45
774.15	223.24
774.47	222.96
774.80	222.83
775.12	222.72
775.45	222.63
775.77	222.55
776.09	222.47
776.42	222.38
776.74	222.39
777.07	222.32
777.39	222.25
777.72	222.17
778.04	222.16
778.36	222.00
778.69	221.89
779.01	221.84
779.33	221.55
779.66	221.24
779.98	221.14
780.31	221.05
780.63	221.07
780.95	221.01
781.28	221.00
781.60	220.90
781.92	220.84
782.25	220.75
782.57	220.66
782.89	220.56
783.22	220.45
783.54	220.29
783.86	220.24
784.19	220.18
784.51	220.16
784.83	220.02
785.16	220.01
785.48	219.98
785.80	219.93
786.12	219.89
