SpectraSuite Data File
++++++++++++++++++++++++++++++++++++
Date: Tue Jan 29 16:06:15 EST 2013
User: group
Dark Spectrum Present: No
Reference Spectrum Present: No
Number of Sampled Component Spectra: 1
Spectrometers: USB2E7196
Integration Time (usec): 65000 (USB2E7196)
Spectra Averaged: 100 (USB2E7196)
Boxcar Smoothing: 10 (USB2E7196)
Correct for Electrical Dark: No (USB2E7196)
Strobe/Lamp Enabled: No (USB2E7196)
Correct for Detector Non-linearity: No (USB2E7196)
Correct for Stray Light: No (USB2E7196)
Number of Pixels in Processed Spectrum: 2048
>>>>>Begin Processed Spectral Data<<<<<
339.09	0.00
339.48	202.99
339.86	204.34
340.24	205.11
340.63	206.45
341.01	211.22
341.39	209.60
341.78	210.89
342.16	212.09
342.54	212.82
342.93	201.83
343.31	212.04
343.69	212.58
344.07	213.04
344.46	213.52
344.84	213.95
345.22	214.14
345.60	214.46
345.99	214.68
346.37	214.85
346.75	214.98
347.13	215.06
347.52	215.15
347.90	215.27
348.28	215.29
348.66	215.41
349.05	215.37
349.43	215.44
349.81	215.53
350.19	215.60
350.57	215.67
350.96	215.81
351.34	215.92
351.72	216.03
352.10	216.16
352.48	216.22
352.87	216.28
353.25	216.37
353.63	216.39
354.01	216.44
354.39	216.54
354.77	216.63
355.15	216.76
355.54	216.84
355.92	216.83
356.30	216.91
356.68	217.12
357.06	217.19
357.44	217.23
357.82	217.30
358.20	217.37
358.58	217.45
358.97	217.52
359.35	217.61
359.73	217.72
360.11	217.78
360.49	217.83
360.87	217.86
361.25	217.92
361.63	218.01
362.01	218.06
362.39	218.04
362.77	218.05
363.15	218.05
363.53	218.06
363.91	218.12
364.29	218.15
364.67	217.97
365.05	217.99
365.43	218.00
365.81	218.04
366.19	218.13
366.57	218.23
366.95	218.21
367.33	218.17
367.71	218.14
368.09	218.14
368.47	218.12
368.85	218.13
369.23	218.12
369.61	218.04
369.99	218.12
370.37	218.16
370.75	218.25
371.13	218.19
371.51	218.13
371.89	218.10
372.27	218.09
372.65	218.06
373.03	218.01
373.41	217.97
373.78	217.89
374.16	217.76
374.54	217.65
374.92	217.58
375.30	217.54
375.68	217.45
376.06	217.45
376.44	217.42
376.82	217.35
377.19	217.33
377.57	217.27
377.95	217.13
378.33	217.03
378.71	216.87
379.09	216.86
379.47	216.83
379.84	216.74
380.22	216.64
380.60	216.56
380.98	216.52
381.36	216.47
381.73	216.43
382.11	216.42
382.49	216.39
382.87	216.34
383.25	216.28
383.62	216.48
384.00	216.39
384.38	216.33
384.76	216.37
385.13	216.38
385.51	216.35
385.89	216.30
386.27	216.29
386.64	216.30
387.02	216.25
387.40	216.21
387.78	216.22
388.15	216.22
388.53	216.20
388.91	216.16
389.29	216.15
389.66	216.12
390.04	216.09
390.42	216.08
390.79	216.07
391.17	216.08
391.55	215.84
391.92	215.79
392.30	215.80
392.68	215.73
393.05	215.70
393.43	215.70
393.81	215.73
394.18	215.71
394.56	215.68
394.94	215.76
395.31	215.77
395.69	215.81
396.06	215.83
396.44	215.87
396.82	215.89
397.19	215.99
397.57	216.03
397.95	216.09
398.32	216.04
398.70	216.08
399.07	216.15
399.45	216.18
399.82	216.25
400.20	216.31
400.58	216.38
400.95	216.39
401.33	216.50
401.70	216.67
402.08	216.76
402.45	216.86
402.83	216.97
403.20	217.07
403.58	217.15
403.95	217.31
404.33	217.47
404.71	217.61
405.08	217.86
405.46	217.99
405.83	218.16
406.21	218.40
406.58	218.64
406.96	218.85
407.33	219.13
407.70	219.41
408.08	219.87
408.45	220.19
408.83	220.61
409.20	220.95
409.58	221.25
409.95	221.71
410.33	222.19
410.70	222.60
411.08	223.13
411.45	223.71
411.82	224.30
412.20	224.94
412.57	225.76
412.95	226.29
413.32	227.10
413.69	227.92
414.07	228.78
414.44	229.75
414.82	230.72
415.19	231.84
415.56	232.97
415.94	234.10
416.31	235.49
416.68	236.82
417.06	238.38
417.43	239.84
417.81	241.53
418.18	243.24
418.55	245.13
418.93	247.13
419.30	249.13
419.67	251.24
420.04	253.46
420.42	255.77
420.79	258.56
421.16	261.24
421.54	264.02
421.91	266.90
422.28	269.89
422.66	273.07
423.03	276.22
423.40	279.50
423.77	282.89
424.15	286.42
424.52	290.09
424.89	294.12
425.26	298.07
425.64	301.81
426.01	305.90
426.38	310.21
426.75	314.58
427.13	319.18
427.50	324.02
427.87	329.03
428.24	334.03
428.61	338.81
428.99	344.18
429.36	349.97
429.73	355.68
430.10	361.34
430.47	367.15
430.85	373.25
431.22	379.74
431.59	386.69
431.96	393.28
432.33	400.56
432.70	407.58
433.08	415.80
433.45	423.58
433.82	431.39
434.19	439.97
434.56	448.40
434.93	456.44
435.30	464.39
435.68	473.23
436.05	481.88
436.42	490.47
436.79	498.29
437.16	506.80
437.53	515.72
437.90	524.51
438.27	533.22
438.64	542.09
439.01	550.34
439.38	557.63
439.75	564.69
440.13	572.84
440.50	580.47
440.87	586.66
441.24	593.04
441.61	600.09
441.98	605.32
442.35	611.38
442.72	617.46
443.09	623.30
443.46	626.94
443.83	629.37
444.20	631.47
444.57	634.50
444.94	635.91
445.31	637.24
445.68	638.55
446.05	639.09
446.42	638.33
446.79	637.36
447.16	636.28
447.53	635.54
447.90	632.25
448.27	629.05
448.64	624.53
449.01	621.30
449.37	615.54
449.74	609.98
450.11	603.28
450.48	596.11
450.85	588.89
451.22	582.57
451.59	576.61
451.96	570.98
452.33	563.42
452.70	556.55
453.07	548.42
453.43	540.17
453.80	532.21
454.17	524.53
454.54	517.24
454.91	509.38
455.28	501.75
455.65	494.65
456.02	487.48
456.38	481.42
456.75	473.93
457.12	467.67
457.49	461.40
457.86	455.51
458.23	450.41
458.59	444.76
458.96	438.99
459.33	433.98
459.70	428.83
460.07	424.76
460.43	420.05
460.80	415.64
461.17	411.78
461.54	407.74
461.91	403.81
462.27	399.84
462.64	396.55
463.01	392.82
463.38	389.26
463.74	385.70
464.11	382.60
464.48	379.84
464.85	376.89
465.21	374.55
465.58	371.99
465.95	368.93
466.32	366.36
466.68	363.83
467.05	361.29
467.42	358.84
467.78	356.23
468.15	353.80
468.52	351.97
468.88	349.56
469.25	347.46
469.62	345.83
469.98	343.99
470.35	342.27
470.72	340.71
471.08	339.03
471.45	337.57
471.82	336.10
472.18	334.45
472.55	333.26
472.92	332.00
473.28	330.86
473.65	329.78
474.02	328.78
474.38	327.96
474.75	327.23
475.11	326.48
475.48	325.97
475.85	325.52
476.21	325.05
476.58	324.78
476.94	324.53
477.31	324.27
477.67	324.05
478.04	323.90
478.41	323.84
478.77	323.98
479.14	323.94
479.50	324.11
479.87	324.46
480.23	324.82
480.60	325.07
480.96	325.41
481.33	325.99
481.69	326.54
482.06	327.10
482.42	327.62
482.79	328.23
483.15	329.01
483.52	329.99
483.88	330.93
484.25	331.87
484.61	332.91
484.98	333.89
485.34	335.22
485.71	336.59
486.07	338.03
486.44	339.36
486.80	341.03
487.17	342.69
487.53	344.46
487.90	346.29
488.26	348.30
488.62	350.43
488.99	352.49
489.35	354.63
489.72	357.00
490.08	359.50
490.44	362.00
490.81	364.70
491.17	367.37
491.54	370.36
491.90	373.39
492.26	376.65
492.63	380.10
492.99	383.58
493.36	387.25
493.72	391.11
494.08	395.07
494.45	399.22
494.81	403.57
495.17	408.07
495.54	412.82
495.90	417.63
496.26	422.55
496.63	427.72
496.99	433.17
497.35	438.68
497.72	444.51
498.08	450.44
498.44	456.50
498.80	462.89
499.17	469.37
499.53	476.05
499.89	482.89
500.26	489.81
500.62	496.85
500.98	504.23
501.34	511.74
501.71	519.52
502.07	527.27
502.43	535.24
502.79	543.36
503.16	551.68
503.52	560.20
503.88	568.88
504.24	577.81
504.60	586.76
504.97	595.93
505.33	605.14
505.69	615.05
506.05	624.86
506.41	634.63
506.78	644.64
507.14	654.86
507.50	665.26
507.86	675.99
508.22	686.80
508.59	697.35
508.95	708.37
509.31	719.59
509.67	730.96
510.03	742.26
510.39	753.96
510.75	765.72
511.12	777.67
511.48	789.76
511.84	801.89
512.20	814.23
512.56	826.88
512.92	839.59
513.28	852.13
513.64	864.79
514.00	877.55
514.37	890.37
514.73	903.31
515.09	916.24
515.45	928.89
515.81	941.65
516.17	955.02
516.53	968.07
516.89	981.01
517.25	994.07
517.61	1007.45
517.97	1020.65
518.33	1033.69
518.69	1047.03
519.05	1060.50
519.41	1074.05
519.77	1087.69
520.13	1100.80
520.49	1113.79
520.85	1126.92
521.21	1140.08
521.57	1153.55
521.93	1166.46
522.29	1180.12
522.65	1193.49
523.01	1206.99
523.37	1219.99
523.73	1232.93
524.09	1245.89
524.45	1259.14
524.81	1272.43
525.17	1285.60
525.53	1298.58
525.89	1311.62
526.25	1324.53
526.61	1337.13
526.97	1349.99
527.33	1362.63
527.68	1375.87
528.04	1389.09
528.40	1401.96
528.76	1415.01
529.12	1427.75
529.48	1440.80
529.84	1452.70
530.20	1465.19
530.56	1477.49
530.91	1490.54
531.27	1503.25
531.63	1515.76
531.99	1528.23
532.35	1540.17
532.71	1552.29
533.07	1564.60
533.42	1576.48
533.78	1588.18
534.14	1600.00
534.50	1610.92
534.86	1622.20
535.21	1632.74
535.57	1643.78
535.93	1654.87
536.29	1665.75
536.65	1676.92
537.00	1687.62
537.36	1698.63
537.72	1709.26
538.08	1720.19
538.44	1730.72
538.79	1741.33
539.15	1751.81
539.51	1762.12
539.87	1773.09
540.22	1783.56
540.58	1794.28
540.94	1804.84
541.29	1814.81
541.65	1824.13
542.01	1834.49
542.37	1844.26
542.72	1854.24
543.08	1863.84
543.44	1873.87
543.79	1882.89
544.15	1892.00
544.51	1901.70
544.87	1911.37
545.22	1920.14
545.58	1928.88
545.94	1937.55
546.29	1946.00
546.65	1954.15
547.01	1962.13
547.36	1969.50
547.72	1977.05
548.07	1984.48
548.43	1992.04
548.79	1999.74
549.14	2007.81
549.50	2015.78
549.86	2023.36
550.21	2030.45
550.57	2037.86
550.92	2044.42
551.28	2051.68
551.64	2058.65
551.99	2066.03
552.35	2072.95
552.70	2079.80
553.06	2086.28
553.41	2092.37
553.77	2098.62
554.13	2104.79
554.48	2111.66
554.84	2118.54
555.19	2124.87
555.55	2131.39
555.90	2137.56
556.26	2144.13
556.61	2149.82
556.97	2154.62
557.32	2160.58
557.68	2166.85
558.03	2172.55
558.39	2177.68
558.74	2183.58
559.10	2189.14
559.45	2194.42
559.81	2199.87
560.16	2205.57
560.52	2211.41
560.87	2217.84
561.23	2223.86
561.58	2230.56
561.94	2235.76
562.29	2240.74
562.64	2246.92
563.00	2252.28
563.35	2257.84
563.71	2263.75
564.06	2269.60
564.42	2275.53
564.77	2280.53
565.12	2285.78
565.48	2290.96
565.83	2296.70
566.19	2302.21
566.54	2307.54
566.89	2312.38
567.25	2317.13
567.60	2322.71
567.96	2327.96
568.31	2332.55
568.66	2336.75
569.02	2340.54
569.37	2344.46
569.72	2348.79
570.08	2352.33
570.43	2355.59
570.78	2358.67
571.14	2361.32
571.49	2364.44
571.84	2368.15
572.20	2371.17
572.55	2374.40
572.90	2376.71
573.26	2379.70
573.61	2382.27
573.96	2384.71
574.31	2386.64
574.67	2388.60
575.02	2389.62
575.37	2391.17
575.72	2392.14
576.08	2393.86
576.43	2394.46
576.78	2395.17
577.13	2397.10
577.49	2398.33
577.84	2399.75
578.19	2401.48
578.54	2402.35
578.90	2403.47
579.25	2403.47
579.60	2403.58
579.95	2402.97
580.30	2403.43
580.66	2402.92
581.01	2401.48
581.36	2399.48
581.71	2398.53
582.06	2397.79
582.42	2397.11
582.77	2395.17
583.12	2393.76
583.47	2392.65
583.82	2392.09
584.17	2391.00
584.53	2388.84
584.88	2387.11
585.23	2385.24
585.58	2383.01
585.93	2380.87
586.28	2378.84
586.63	2376.67
586.98	2374.58
587.34	2372.96
587.69	2370.97
588.04	2369.07
588.39	2367.79
588.74	2365.43
589.09	2362.82
589.44	2359.79
589.79	2357.49
590.14	2355.69
590.49	2352.96
590.84	2349.40
591.19	2346.72
591.54	2343.67
591.89	2339.92
592.25	2336.85
592.60	2332.84
592.95	2328.97
593.30	2325.08
593.65	2320.79
594.00	2316.57
594.35	2313.73
594.70	2309.18
595.05	2304.43
595.40	2299.06
595.75	2293.59
596.10	2290.05
596.45	2285.31
596.80	2280.98
597.15	2275.83
597.50	2269.97
597.85	2265.16
598.19	2259.88
598.54	2254.08
598.89	2249.09
599.24	2244.64
599.59	2238.55
599.94	2233.08
600.29	2227.37
600.64	2221.57
600.99	2214.92
601.34	2209.57
601.69	2202.60
602.04	2196.24
602.39	2189.90
602.74	2184.09
603.08	2178.48
603.43	2171.96
603.78	2165.34
604.13	2158.14
604.48	2151.06
604.83	2145.14
605.18	2138.92
605.53	2132.04
605.87	2125.08
606.22	2118.30
606.57	2110.45
606.92	2102.63
607.27	2095.58
607.62	2088.91
607.96	2082.09
608.31	2075.67
608.66	2067.92
609.01	2060.53
609.36	2053.40
609.70	2045.75
610.05	2038.08
610.40	2030.01
610.75	2021.72
611.10	2014.24
611.44	2005.65
611.79	1996.89
612.14	1986.86
612.49	1976.43
612.83	1967.31
613.18	1958.14
613.53	1948.72
613.88	1939.26
614.22	1930.70
614.57	1920.87
614.92	1910.38
615.27	1900.21
615.61	1890.37
615.96	1880.76
616.31	1871.18
616.65	1861.88
617.00	1851.99
617.35	1842.27
617.70	1832.54
618.04	1822.55
618.39	1811.98
618.74	1802.27
619.08	1792.70
619.43	1784.05
619.78	1775.81
620.12	1767.01
620.47	1757.22
620.82	1747.01
621.16	1737.28
621.51	1727.23
621.85	1717.26
622.20	1706.91
622.55	1696.33
622.89	1686.26
623.24	1676.59
623.59	1666.72
623.93	1656.67
624.28	1646.99
624.62	1636.96
624.97	1626.52
625.32	1616.83
625.66	1608.19
626.01	1599.26
626.35	1589.87
626.70	1579.73
627.04	1569.61
627.39	1559.65
627.73	1550.35
628.08	1541.20
628.43	1531.44
628.77	1522.30
629.12	1513.52
629.46	1505.63
629.81	1497.17
630.15	1487.62
630.50	1477.68
630.84	1467.23
631.19	1457.27
631.53	1447.79
631.88	1437.52
632.22	1427.62
632.57	1418.32
632.91	1407.99
633.26	1398.24
633.60	1388.70
633.95	1379.45
634.29	1370.00
634.64	1360.50
634.98	1350.84
635.32	1341.67
635.67	1333.23
636.01	1323.95
636.36	1314.07
636.70	1304.53
637.05	1295.16
637.39	1286.21
637.73	1277.72
638.08	1270.23
638.42	1261.88
638.77	1253.05
639.11	1244.75
639.45	1236.84
639.80	1228.11
640.14	1219.43
640.49	1210.42
640.83	1201.52
641.17	1193.44
641.52	1185.19
641.86	1176.69
642.20	1168.60
642.55	1159.99
642.89	1151.17
643.23	1142.49
643.58	1134.41
643.92	1125.29
644.26	1116.62
644.61	1108.30
644.95	1099.46
645.29	1090.18
645.64	1081.19
645.98	1072.88
646.32	1064.95
646.66	1056.47
647.01	1048.14
647.35	1040.08
647.69	1031.75
648.04	1023.51
648.38	1014.46
648.72	1005.70
649.06	997.17
649.41	989.02
649.75	981.00
650.09	973.09
650.43	965.11
650.78	956.97
651.12	949.35
651.46	941.96
651.80	934.68
652.14	927.32
652.49	919.83
652.83	912.47
653.17	904.73
653.51	897.14
653.85	889.93
654.20	882.73
654.54	875.22
654.88	868.15
655.22	860.99
655.56	854.13
655.90	847.38
656.25	840.80
656.59	833.83
656.93	826.85
657.27	819.73
657.61	812.80
657.95	806.64
658.29	800.80
658.64	794.61
658.98	788.17
659.32	781.70
659.66	775.43
660.00	769.14
660.34	763.28
660.68	757.24
661.02	751.00
661.36	745.14
661.70	739.39
662.05	733.67
662.39	728.27
662.73	722.92
663.07	717.58
663.41	712.07
663.75	706.59
664.09	701.10
664.43	695.76
664.77	690.47
665.11	684.79
665.45	678.90
665.79	673.20
666.13	667.55
666.47	662.13
666.81	656.83
667.15	651.54
667.49	646.33
667.83	641.11
668.17	635.83
668.51	630.72
668.85	625.86
669.19	621.10
669.53	616.08
669.87	611.11
670.21	606.42
670.55	601.68
670.89	597.29
671.23	593.00
671.57	588.74
671.91	584.52
672.25	580.43
672.58	576.37
672.92	572.34
673.26	568.47
673.60	564.66
673.94	560.86
674.28	557.24
674.62	553.59
674.96	549.85
675.30	546.43
675.64	542.85
675.97	539.33
676.31	535.75
676.65	532.26
676.99	528.82
677.33	525.07
677.67	521.53
678.01	517.67
678.34	514.04
678.68	510.52
679.02	506.91
679.36	503.28
679.70	499.67
680.04	496.28
680.37	492.88
680.71	489.60
681.05	486.40
681.39	483.27
681.73	480.09
682.06	477.21
682.40	474.14
682.74	470.93
683.08	467.76
683.42	464.62
683.75	461.64
684.09	458.67
684.43	455.90
684.77	452.99
685.10	450.22
685.44	447.35
685.78	444.45
686.12	441.78
686.45	439.07
686.79	436.49
687.13	433.94
687.46	431.39
687.80	428.75
688.14	426.00
688.48	423.36
688.81	420.72
689.15	418.16
689.49	415.64
689.82	413.21
690.16	410.72
690.50	408.31
690.83	405.84
691.17	403.30
691.51	400.86
691.84	398.66
692.18	396.50
692.52	394.38
692.85	392.30
693.19	390.12
693.52	388.02
693.86	385.83
694.20	383.70
694.53	381.57
694.87	379.42
695.21	377.33
695.54	375.24
695.88	373.12
696.21	370.91
696.55	368.81
696.88	366.75
697.22	364.82
697.56	362.94
697.89	361.14
698.23	359.47
698.56	357.73
698.90	356.02
699.23	354.14
699.57	352.25
699.90	350.50
700.24	348.79
700.58	347.09
700.91	345.49
701.25	344.00
701.58	342.40
701.92	340.88
702.25	339.34
702.59	337.77
702.92	336.27
703.26	334.82
703.59	333.42
703.93	332.23
704.26	330.83
704.60	329.36
704.93	327.93
705.26	326.48
705.60	325.01
705.93	323.55
706.27	322.23
706.60	321.04
706.94	319.80
707.27	318.46
707.61	317.12
707.94	315.76
708.27	314.25
708.61	312.88
708.94	311.55
709.28	310.32
709.61	309.06
709.94	307.91
710.28	306.66
710.61	305.46
710.95	304.08
711.28	303.03
711.61	301.88
711.95	300.81
712.28	299.66
712.61	298.53
712.95	297.49
713.28	296.51
713.61	295.39
713.95	294.28
714.28	293.32
714.61	292.35
714.95	291.39
715.28	290.40
715.61	289.41
715.95	288.47
716.28	287.49
716.61	286.61
716.95	285.63
717.28	284.78
717.61	283.86
717.94	282.99
718.28	281.96
718.61	281.08
718.94	280.11
719.27	279.27
719.61	278.50
719.94	277.63
720.27	276.71
720.60	275.87
720.94	275.10
721.27	274.34
721.60	273.62
721.93	272.90
722.27	272.27
722.60	271.64
722.93	270.97
723.26	270.35
723.59	269.70
723.93	269.12
724.26	268.45
724.59	267.83
724.92	267.26
725.25	266.76
725.59	266.27
725.92	265.74
726.25	265.21
726.58	264.62
726.91	264.07
727.24	263.55
727.57	263.04
727.91	262.43
728.24	261.87
728.57	261.28
728.90	260.78
729.23	260.21
729.56	259.76
729.89	259.21
730.22	258.66
730.55	258.13
730.89	257.59
731.22	257.11
731.55	256.60
731.88	256.08
732.21	255.53
732.54	254.96
732.87	254.48
733.20	253.97
733.53	253.51
733.86	253.09
734.19	252.61
734.52	252.17
734.85	251.90
735.18	251.47
735.51	251.11
735.84	250.66
736.17	250.31
736.50	249.81
736.83	249.67
737.16	249.32
737.49	248.94
737.82	248.54
738.15	248.20
738.48	247.87
738.81	247.48
739.14	247.07
739.47	246.74
739.80	246.39
740.13	246.07
740.46	245.67
740.79	245.27
741.12	244.92
741.45	244.55
741.78	244.10
742.11	243.84
742.44	243.46
742.77	243.17
743.10	242.80
743.43	242.47
743.75	241.86
744.08	241.77
744.41	241.41
744.74	241.07
745.07	240.67
745.40	240.38
745.73	240.14
746.06	239.87
746.39	239.58
746.71	239.26
747.04	238.94
747.37	238.66
747.70	238.42
748.03	238.13
748.36	237.91
748.68	237.63
749.01	237.27
749.34	237.01
749.67	236.73
750.00	236.48
750.33	236.35
750.65	236.14
750.98	235.62
751.31	235.41
751.64	235.22
751.97	235.12
752.29	234.83
752.62	234.48
752.95	234.22
753.28	233.95
753.60	233.72
753.93	233.58
754.26	233.37
754.59	233.11
754.91	232.88
755.24	232.62
755.57	232.39
755.90	232.18
756.22	231.92
756.55	231.68
756.88	231.42
757.20	231.06
757.53	230.80
757.86	230.59
758.19	230.36
758.51	230.14
758.84	229.86
759.17	229.66
759.49	229.55
759.82	229.49
760.15	229.31
760.47	229.11
760.80	228.85
761.13	228.69
761.45	228.48
761.78	228.32
762.11	228.17
762.43	227.98
762.76	227.81
763.08	227.69
763.41	227.56
763.74	227.47
764.06	227.31
764.39	227.21
764.71	227.05
765.04	226.92
765.37	226.81
765.69	226.64
766.02	226.52
766.34	226.36
766.67	226.10
767.00	226.02
767.32	225.99
767.65	225.99
767.97	225.84
768.30	225.74
768.62	225.60
768.95	225.44
769.27	225.34
769.60	225.24
769.92	225.10
770.25	224.93
770.57	224.75
770.90	224.68
771.22	224.52
771.55	224.46
771.87	224.35
772.20	224.19
772.52	224.26
772.85	224.41
773.17	224.30
773.50	224.22
773.82	224.10
774.15	223.90
774.47	223.67
774.80	223.59
775.12	223.50
775.45	223.40
775.77	223.33
776.09	223.23
776.42	223.14
776.74	223.13
777.07	223.05
777.39	222.99
777.72	222.85
778.04	222.81
778.36	222.71
778.69	222.63
779.01	222.57
779.33	222.31
779.66	221.98
779.98	221.91
780.31	221.86
780.63	221.86
780.95	221.87
781.28	221.81
781.60	221.69
781.92	221.56
782.25	221.53
782.57	221.48
782.89	221.39
783.22	221.31
783.54	221.18
783.86	221.14
784.19	221.09
784.51	221.09
784.83	221.01
785.16	220.95
785.48	220.92
785.80	220.88
786.12	220.80
