SpectraSuite Data File
++++++++++++++++++++++++++++++++++++
Date: Tue Jan 29 16:39:30 EST 2013
User: group
Dark Spectrum Present: No
Reference Spectrum Present: No
Number of Sampled Component Spectra: 1
Spectrometers: USB2E7196
Integration Time (usec): 65000 (USB2E7196)
Spectra Averaged: 100 (USB2E7196)
Boxcar Smoothing: 10 (USB2E7196)
Correct for Electrical Dark: No (USB2E7196)
Strobe/Lamp Enabled: No (USB2E7196)
Correct for Detector Non-linearity: No (USB2E7196)
Correct for Stray Light: No (USB2E7196)
Number of Pixels in Processed Spectrum: 2048
>>>>>Begin Processed Spectral Data<<<<<
339.09	0.00
339.48	202.04
339.86	203.51
340.24	204.44
340.63	206.48
341.01	210.81
341.39	208.91
341.78	210.43
342.16	212.48
342.54	212.28
342.93	201.28
343.31	211.44
343.69	211.98
344.07	212.46
344.46	212.93
344.84	213.33
345.22	213.50
345.60	213.75
345.99	213.97
346.37	214.07
346.75	214.15
347.13	214.19
347.52	214.24
347.90	214.34
348.28	214.35
348.66	214.45
349.05	214.38
349.43	214.43
349.81	214.48
350.19	214.52
350.57	214.58
350.96	214.64
351.34	214.69
351.72	214.78
352.10	214.88
352.48	214.92
352.87	214.93
353.25	214.98
353.63	215.04
354.01	215.07
354.39	215.14
354.77	215.20
355.15	215.35
355.54	215.39
355.92	215.42
356.30	215.49
356.68	215.66
357.06	215.76
357.44	215.80
357.82	215.85
358.20	215.92
358.58	215.97
358.97	216.05
359.35	216.17
359.73	216.26
360.11	216.31
360.49	216.40
360.87	216.45
361.25	216.52
361.63	216.64
362.01	216.72
362.39	216.76
362.77	216.82
363.15	216.83
363.53	216.88
363.91	216.86
364.29	216.88
364.67	216.72
365.05	216.75
365.43	216.80
365.81	216.84
366.19	216.94
366.57	217.06
366.95	217.06
367.33	217.03
367.71	217.03
368.09	217.08
368.47	217.08
368.85	217.08
369.23	217.10
369.61	217.02
369.99	217.05
370.37	217.05
370.75	217.17
371.13	217.08
371.51	217.05
371.89	217.08
372.27	217.09
372.65	217.07
373.03	217.05
373.41	216.99
373.78	216.93
374.16	216.81
374.54	216.70
374.92	216.65
375.30	216.61
375.68	216.54
376.06	216.47
376.44	216.41
376.82	216.40
377.19	216.36
377.57	216.30
377.95	216.16
378.33	216.10
378.71	215.91
379.09	215.96
379.47	215.95
379.84	215.89
380.22	215.81
380.60	215.76
380.98	215.72
381.36	215.68
381.73	215.65
382.11	215.66
382.49	215.62
382.87	215.58
383.25	215.55
383.62	215.77
384.00	215.71
384.38	215.67
384.76	215.65
385.13	215.70
385.51	215.66
385.89	215.64
386.27	215.62
386.64	215.60
387.02	215.52
387.40	215.46
387.78	215.46
388.15	215.46
388.53	215.41
388.91	215.37
389.29	215.35
389.66	215.33
390.04	215.30
390.42	215.32
390.79	215.31
391.17	215.29
391.55	215.05
391.92	215.06
392.30	215.08
392.68	215.01
393.05	214.98
393.43	214.99
393.81	214.96
394.18	214.98
394.56	215.02
394.94	215.09
395.31	215.09
395.69	215.12
396.06	215.16
396.44	215.25
396.82	215.30
397.19	215.42
397.57	215.48
397.95	215.52
398.32	215.49
398.70	215.52
399.07	215.62
399.45	215.63
399.82	215.64
400.20	215.68
400.58	215.77
400.95	215.75
401.33	215.86
401.70	216.13
402.08	216.20
402.45	216.29
402.83	216.42
403.20	216.52
403.58	216.63
403.95	216.78
404.33	216.90
404.71	217.00
405.08	217.28
405.46	217.44
405.83	217.64
406.21	217.84
406.58	218.08
406.96	218.28
407.33	218.58
407.70	218.92
408.08	219.40
408.45	219.73
408.83	220.11
409.20	220.47
409.58	220.73
409.95	221.19
410.33	221.69
410.70	222.13
411.08	222.69
411.45	223.30
411.82	223.87
412.20	224.57
412.57	225.43
412.95	225.98
413.32	226.80
413.69	227.59
414.07	228.50
414.44	229.48
414.82	230.51
415.19	231.68
415.56	232.86
415.94	234.05
416.31	235.47
416.68	236.91
417.06	238.49
417.43	240.08
417.81	241.82
418.18	243.57
418.55	245.52
418.93	247.55
419.30	249.65
419.67	251.92
420.04	254.22
420.42	256.63
420.79	259.47
421.16	262.27
421.54	265.19
421.91	268.19
422.28	271.33
422.66	274.66
423.03	277.93
423.40	281.31
423.77	284.88
424.15	288.56
424.52	292.40
424.89	296.65
425.26	300.71
425.64	304.59
426.01	308.89
426.38	313.39
426.75	317.94
427.13	322.69
427.50	327.66
427.87	332.88
428.24	338.05
428.61	343.07
428.99	348.63
429.36	354.65
429.73	360.65
430.10	366.57
430.47	372.68
430.85	378.98
431.22	385.70
431.59	392.85
431.96	399.70
432.33	407.24
432.70	414.45
433.08	423.02
433.45	431.08
433.82	439.07
434.19	447.97
434.56	456.75
434.93	465.09
435.30	473.38
435.68	482.49
436.05	491.50
436.42	500.39
436.79	508.55
437.16	517.34
437.53	526.53
437.90	535.66
438.27	544.64
438.64	553.98
439.01	562.55
439.38	570.09
439.75	577.48
440.13	585.89
440.50	593.87
440.87	600.34
441.24	607.07
441.61	614.47
441.98	619.86
442.35	626.17
442.72	632.57
443.09	638.64
443.46	642.43
443.83	644.96
444.20	647.16
444.57	650.33
444.94	651.73
445.31	653.27
445.68	654.65
446.05	655.27
446.42	654.42
446.79	653.42
447.16	652.46
447.53	651.68
447.90	648.40
448.27	645.13
448.64	640.43
449.01	637.09
449.37	631.25
449.74	625.56
450.11	618.66
450.48	611.20
450.85	603.69
451.22	597.16
451.59	591.01
451.96	585.22
452.33	577.31
452.70	570.27
453.07	561.71
453.43	553.07
453.80	544.69
454.17	536.69
454.54	529.11
454.91	520.84
455.28	512.79
455.65	505.32
456.02	497.84
456.38	491.49
456.75	483.59
457.12	476.95
457.49	470.43
457.86	464.18
458.23	458.75
458.59	452.81
458.96	446.81
459.33	441.48
459.70	436.07
460.07	431.80
460.43	426.83
460.80	422.23
461.17	418.22
461.54	414.04
461.91	409.99
462.27	405.85
462.64	402.41
463.01	398.63
463.38	394.90
463.74	391.10
464.11	387.81
464.48	384.95
464.85	381.80
465.21	379.33
465.58	376.66
465.95	373.53
466.32	370.91
466.68	368.28
467.05	365.68
467.42	363.10
467.78	360.41
468.15	357.89
468.52	356.01
468.88	353.52
469.25	351.29
469.62	349.48
469.98	347.56
470.35	345.75
470.72	344.06
471.08	342.24
471.45	340.80
471.82	339.29
472.18	337.61
472.55	336.44
472.92	335.04
473.28	333.84
473.65	332.68
474.02	331.55
474.38	330.67
474.75	329.94
475.11	329.12
475.48	328.54
475.85	328.05
476.21	327.50
476.58	327.12
476.94	326.86
477.31	326.55
477.67	326.30
478.04	326.14
478.41	326.13
478.77	326.28
479.14	326.20
479.50	326.33
479.87	326.60
480.23	326.89
480.60	327.15
480.96	327.42
481.33	328.03
481.69	328.64
482.06	329.13
482.42	329.60
482.79	330.19
483.15	330.93
483.52	331.89
483.88	332.80
484.25	333.83
484.61	334.83
484.98	335.87
485.34	337.17
485.71	338.54
486.07	339.92
486.44	341.22
486.80	342.86
487.17	344.52
487.53	346.38
487.90	348.26
488.26	350.32
488.62	352.50
488.99	354.51
489.35	356.67
489.72	359.04
490.08	361.59
490.44	364.15
490.81	366.86
491.17	369.57
491.54	372.49
491.90	375.48
492.26	378.73
492.63	382.15
492.99	385.63
493.36	389.28
493.72	393.17
494.08	397.20
494.45	401.40
494.81	405.74
495.17	410.13
495.54	414.85
495.90	419.60
496.26	424.52
496.63	429.75
496.99	435.11
497.35	440.73
497.72	446.56
498.08	452.56
498.44	458.72
498.80	465.16
499.17	471.68
499.53	478.40
499.89	485.31
500.26	492.28
500.62	499.37
500.98	506.84
501.34	514.33
501.71	522.15
502.07	529.97
502.43	537.94
502.79	546.18
503.16	554.57
503.52	563.22
503.88	571.98
504.24	580.99
504.60	590.10
504.97	599.29
505.33	608.58
505.69	618.49
506.05	628.34
506.41	638.22
506.78	648.35
507.14	658.56
507.50	669.09
507.86	679.86
508.22	690.64
508.59	701.32
508.95	712.40
509.31	723.58
509.67	735.02
510.03	746.51
510.39	758.22
510.75	770.06
511.12	782.08
511.48	794.18
511.84	806.37
512.20	818.69
512.56	831.46
512.92	844.30
513.28	856.99
513.64	869.77
514.00	882.66
514.37	895.64
514.73	908.79
515.09	921.76
515.45	934.64
515.81	947.80
516.17	961.20
516.53	974.48
516.89	987.74
517.25	1001.05
517.61	1014.60
517.97	1028.12
518.33	1041.33
518.69	1054.84
519.05	1068.69
519.41	1082.49
519.77	1096.39
520.13	1109.78
520.49	1122.92
520.85	1136.32
521.21	1149.73
521.57	1163.36
521.93	1176.58
522.29	1190.47
522.65	1204.28
523.01	1217.91
523.37	1231.20
523.73	1244.56
524.09	1257.87
524.45	1271.35
524.81	1284.94
525.17	1298.48
525.53	1311.70
525.89	1325.16
526.25	1338.43
526.61	1351.35
526.97	1364.50
527.33	1377.58
527.68	1390.95
528.04	1404.63
528.40	1417.73
528.76	1431.24
529.12	1444.38
529.48	1457.81
529.84	1470.09
530.20	1482.83
530.56	1495.67
530.91	1509.04
531.27	1521.97
531.63	1534.86
531.99	1547.72
532.35	1560.00
532.71	1572.41
533.07	1585.44
533.42	1597.76
533.78	1609.94
534.14	1622.11
534.50	1633.53
534.86	1645.24
535.21	1656.27
535.57	1668.01
535.93	1679.47
536.29	1690.58
536.65	1702.10
537.00	1713.19
537.36	1724.71
537.72	1735.81
538.08	1747.22
538.44	1758.18
538.79	1769.45
539.15	1780.43
539.51	1791.34
539.87	1802.92
540.22	1813.90
540.58	1824.97
540.94	1835.85
541.29	1846.17
541.65	1855.91
542.01	1866.42
542.37	1876.65
542.72	1886.99
543.08	1896.74
543.44	1907.33
543.79	1916.82
544.15	1926.26
544.51	1936.21
544.87	1946.18
545.22	1955.57
545.58	1964.68
545.94	1973.76
546.29	1982.27
546.65	1990.63
547.01	1998.88
547.36	2006.53
547.72	2014.43
548.07	2022.06
548.43	2030.09
548.79	2038.14
549.14	2046.54
549.50	2055.13
549.86	2063.02
550.21	2070.45
550.57	2078.16
550.92	2084.92
551.28	2092.40
551.64	2099.79
551.99	2107.49
552.35	2114.82
552.70	2121.79
553.06	2128.49
553.41	2134.86
553.77	2141.53
554.13	2148.09
554.48	2155.20
554.84	2162.42
555.19	2168.95
555.55	2175.39
555.90	2181.62
556.26	2188.49
556.61	2194.64
556.97	2199.42
557.32	2205.13
557.68	2211.67
558.03	2217.51
558.39	2222.94
558.74	2229.07
559.10	2234.55
559.45	2239.96
559.81	2245.51
560.16	2251.00
560.52	2256.87
560.87	2263.05
561.23	2268.97
561.58	2275.52
561.94	2280.80
562.29	2285.37
562.64	2291.31
563.00	2296.92
563.35	2302.47
563.71	2308.13
564.06	2313.62
564.42	2319.60
564.77	2324.73
565.12	2329.90
565.48	2335.00
565.83	2340.54
566.19	2345.86
566.54	2351.38
566.89	2355.98
567.25	2360.52
567.60	2366.09
567.96	2371.06
568.31	2375.72
568.66	2379.97
569.02	2383.85
569.37	2387.43
569.72	2391.93
570.08	2395.52
570.43	2398.62
570.78	2401.67
571.14	2404.17
571.49	2407.32
571.84	2410.92
572.20	2413.80
572.55	2416.62
572.90	2418.86
573.26	2421.63
573.61	2424.08
573.96	2426.11
574.31	2428.04
574.67	2429.75
575.02	2430.54
575.37	2431.94
575.72	2432.57
576.08	2433.79
576.43	2433.83
576.78	2434.28
577.13	2435.76
577.49	2436.74
577.84	2437.69
578.19	2438.91
578.54	2439.36
578.90	2439.84
579.25	2439.53
579.60	2439.35
579.95	2438.59
580.30	2438.51
580.66	2437.59
581.01	2435.82
581.36	2433.33
581.71	2431.80
582.06	2430.59
582.42	2429.63
582.77	2427.30
583.12	2425.48
583.47	2424.20
583.82	2423.70
584.17	2422.19
584.53	2419.79
584.88	2417.58
585.23	2415.53
585.58	2413.09
585.93	2410.90
586.28	2408.74
586.63	2405.96
586.98	2403.63
587.34	2401.49
587.69	2398.96
588.04	2396.82
588.39	2395.35
588.74	2392.79
589.09	2390.07
589.44	2386.77
589.79	2384.18
590.14	2382.02
590.49	2379.27
590.84	2375.13
591.19	2371.83
591.54	2368.68
591.89	2364.51
592.25	2361.29
592.60	2357.00
592.95	2352.96
593.30	2348.75
593.65	2344.30
594.00	2339.90
594.35	2336.82
594.70	2332.17
595.05	2327.59
595.40	2321.91
595.75	2316.08
596.10	2312.30
596.45	2307.39
596.80	2302.78
597.15	2297.45
597.50	2291.67
597.85	2286.65
598.19	2281.49
598.54	2275.54
598.89	2270.15
599.24	2265.68
599.59	2259.23
599.94	2253.38
600.29	2247.23
600.64	2241.34
600.99	2234.53
601.34	2229.00
601.69	2221.94
602.04	2215.53
602.39	2208.85
602.74	2202.86
603.08	2197.12
603.43	2190.45
603.78	2183.44
604.13	2176.16
604.48	2168.74
604.83	2162.44
605.18	2156.19
605.53	2149.23
605.87	2142.20
606.22	2135.51
606.57	2127.49
606.92	2119.53
607.27	2112.51
607.62	2105.73
607.96	2098.63
608.31	2092.14
608.66	2084.49
609.01	2076.80
609.36	2069.60
609.70	2061.84
610.05	2053.94
610.40	2045.54
610.75	2037.30
611.10	2029.55
611.44	2020.68
611.79	2011.89
612.14	2001.99
612.49	1991.17
612.83	1981.78
613.18	1972.36
613.53	1962.83
613.88	1953.15
614.22	1944.65
614.57	1934.78
614.92	1924.23
615.27	1913.97
615.61	1903.72
615.96	1893.82
616.31	1884.32
616.65	1874.82
617.00	1864.98
617.35	1855.36
617.70	1845.59
618.04	1835.51
618.39	1825.41
618.74	1815.82
619.08	1806.35
619.43	1797.62
619.78	1789.41
620.12	1780.81
620.47	1771.38
620.82	1761.14
621.16	1751.39
621.51	1741.45
621.85	1731.64
622.20	1721.45
622.55	1710.89
622.89	1701.11
623.24	1691.68
623.59	1681.84
623.93	1671.78
624.28	1662.06
624.62	1652.10
624.97	1641.90
625.32	1632.23
625.66	1623.42
626.01	1614.66
626.35	1605.40
626.70	1595.36
627.04	1585.30
627.39	1575.13
627.73	1565.85
628.08	1556.89
628.43	1547.35
628.77	1538.05
629.12	1529.10
629.46	1521.30
629.81	1513.02
630.15	1503.46
630.50	1493.70
630.84	1483.25
631.19	1473.33
631.53	1464.07
631.88	1453.81
632.22	1443.90
632.57	1434.58
632.91	1424.34
633.26	1414.52
633.60	1404.90
633.95	1395.59
634.29	1386.09
634.64	1376.78
634.98	1366.83
635.32	1357.60
635.67	1349.18
636.01	1340.03
636.36	1330.46
636.70	1320.88
637.05	1311.52
637.39	1302.53
637.73	1293.73
638.08	1286.28
638.42	1278.14
638.77	1269.39
639.11	1261.26
639.45	1253.53
639.80	1245.09
640.14	1236.47
640.49	1227.56
640.83	1218.67
641.17	1210.56
641.52	1202.51
641.86	1193.96
642.20	1186.08
642.55	1177.50
642.89	1168.66
643.23	1160.12
643.58	1151.96
643.92	1142.90
644.26	1134.28
644.61	1125.91
644.95	1117.21
645.29	1107.86
645.64	1098.70
645.98	1090.13
646.32	1082.14
646.66	1073.62
647.01	1065.22
647.35	1056.95
647.69	1048.75
648.04	1040.54
648.38	1031.65
648.72	1022.86
649.06	1014.46
649.41	1006.27
649.75	998.31
650.09	990.39
650.43	982.30
650.78	973.95
651.12	966.27
651.46	958.82
651.80	951.58
652.14	944.25
652.49	936.82
652.83	929.54
653.17	921.89
653.51	914.35
653.85	907.05
654.20	899.77
654.54	892.44
654.88	885.16
655.22	877.84
655.56	870.78
655.90	863.90
656.25	857.16
656.59	850.24
656.93	843.21
657.27	836.12
657.61	829.12
657.95	822.96
658.29	817.06
658.64	810.84
658.98	804.29
659.32	797.71
659.66	791.42
660.00	785.01
660.34	779.00
660.68	772.83
661.02	766.50
661.36	760.54
661.70	754.69
662.05	749.05
662.39	743.65
662.73	738.28
663.07	732.91
663.41	727.24
663.75	721.54
664.09	715.81
664.43	710.31
664.77	704.95
665.11	699.21
665.45	693.24
665.79	687.40
666.13	681.69
666.47	676.20
666.81	670.77
667.15	665.37
667.49	660.08
667.83	654.78
668.17	649.44
668.51	644.26
668.85	639.32
669.19	634.33
669.53	629.27
669.87	624.14
670.21	619.37
670.55	614.74
670.89	610.21
671.23	605.90
671.57	601.53
671.91	597.14
672.25	592.91
672.58	588.74
672.92	584.65
673.26	580.73
673.60	576.83
673.94	572.93
674.28	569.30
674.62	565.52
674.96	561.79
675.30	558.29
675.64	554.59
675.97	550.93
676.31	547.30
676.65	543.69
676.99	540.25
677.33	536.40
677.67	532.67
678.01	528.78
678.34	525.04
678.68	521.45
679.02	517.90
679.36	514.20
679.70	510.49
680.04	506.93
680.37	503.36
680.71	499.98
681.05	496.75
681.39	493.45
681.73	490.23
682.06	487.13
682.40	484.02
682.74	480.81
683.08	477.62
683.42	474.40
683.75	471.32
684.09	468.20
684.43	465.34
684.77	462.37
685.10	459.49
685.44	456.59
685.78	453.63
686.12	450.80
686.45	448.04
686.79	445.42
687.13	442.89
687.46	440.31
687.80	437.60
688.14	434.70
688.48	432.03
688.81	429.34
689.15	426.72
689.49	424.05
689.82	421.46
690.16	418.80
690.50	416.29
690.83	413.74
691.17	411.16
691.51	408.62
691.84	406.31
692.18	404.11
692.52	401.86
692.85	399.70
693.19	397.52
693.52	395.33
693.86	393.02
694.20	390.79
694.53	388.64
694.87	386.40
695.21	384.27
695.54	382.11
695.88	379.89
696.21	377.64
696.55	375.47
696.88	373.40
697.22	371.42
697.56	369.50
697.89	367.62
698.23	365.84
698.56	363.99
698.90	362.25
699.23	360.31
699.57	358.44
699.90	356.52
700.24	354.73
700.58	352.93
700.91	351.26
701.25	349.64
701.58	348.00
701.92	346.41
702.25	344.82
702.59	343.16
702.92	341.59
703.26	340.05
703.59	338.57
703.93	337.27
704.26	335.80
704.60	334.26
704.93	332.76
705.26	331.27
705.60	329.76
705.93	328.23
706.27	326.87
706.60	325.54
706.94	324.28
707.27	322.78
707.61	321.45
707.94	320.08
708.27	318.51
708.61	317.03
708.94	315.62
709.28	314.29
709.61	313.00
709.94	311.82
710.28	310.59
710.61	309.34
710.95	307.89
711.28	306.78
711.61	305.61
711.95	304.44
712.28	303.21
712.61	302.05
712.95	300.96
713.28	299.87
713.61	298.67
713.95	297.50
714.28	296.51
714.61	295.40
714.95	294.36
715.28	293.32
715.61	292.29
715.95	291.30
716.28	290.33
716.61	289.41
716.95	288.36
717.28	287.40
717.61	286.39
717.94	285.55
718.28	284.53
718.61	283.62
718.94	282.73
719.27	281.87
719.61	281.04
719.94	280.15
720.27	279.18
720.60	278.36
720.94	277.55
721.27	276.79
721.60	276.09
721.93	275.35
722.27	274.72
722.60	274.03
722.93	273.30
723.26	272.60
723.59	271.85
723.93	271.21
724.26	270.57
724.59	269.94
724.92	269.28
725.25	268.74
725.59	268.17
725.92	267.61
726.25	267.05
726.58	266.43
726.91	265.79
727.24	265.29
727.57	264.71
727.91	264.10
728.24	263.49
728.57	262.90
728.90	262.34
729.23	261.76
729.56	261.30
729.89	260.75
730.22	260.18
730.55	259.65
730.89	259.10
731.22	258.54
731.55	258.01
731.88	257.46
732.21	256.88
732.54	256.31
732.87	255.77
733.20	255.26
733.53	254.78
733.86	254.40
734.19	253.86
734.52	253.46
734.85	253.19
735.18	252.72
735.51	252.33
735.84	251.91
736.17	251.49
736.50	250.98
736.83	250.78
737.16	250.40
737.49	250.03
737.82	249.62
738.15	249.22
738.48	248.83
738.81	248.42
739.14	247.99
739.47	247.59
739.80	247.20
740.13	246.85
740.46	246.43
740.79	245.96
741.12	245.61
741.45	245.22
741.78	244.73
742.11	244.45
742.44	244.09
742.77	243.77
743.10	243.44
743.43	243.08
743.75	242.52
744.08	242.45
744.41	242.11
744.74	241.75
745.07	241.39
745.40	241.08
745.73	240.86
746.06	240.60
746.39	240.30
746.71	239.97
747.04	239.61
747.37	239.32
747.70	239.09
748.03	238.77
748.36	238.48
748.68	238.16
749.01	237.81
749.34	237.48
749.67	237.17
750.00	236.88
750.33	236.72
750.65	236.48
750.98	235.95
751.31	235.67
751.64	235.43
751.97	235.31
752.29	235.05
752.62	234.68
752.95	234.40
753.28	234.12
753.60	233.87
753.93	233.70
754.26	233.49
754.59	233.19
754.91	232.95
755.24	232.70
755.57	232.45
755.90	232.24
756.22	231.98
756.55	231.76
756.88	231.48
757.20	231.13
757.53	230.88
757.86	230.68
758.19	230.51
758.51	230.29
758.84	229.97
759.17	229.74
759.49	229.60
759.82	229.50
760.15	229.37
760.47	229.19
760.80	228.94
761.13	228.78
761.45	228.58
761.78	228.41
762.11	228.23
762.43	228.05
762.76	227.85
763.08	227.71
763.41	227.54
763.74	227.41
764.06	227.28
764.39	227.10
764.71	226.92
765.04	226.71
765.37	226.59
765.69	226.40
766.02	226.28
766.34	226.09
766.67	225.87
767.00	225.72
767.32	225.66
767.65	225.64
767.97	225.50
768.30	225.40
768.62	225.26
768.95	225.10
769.27	224.99
769.60	224.88
769.92	224.71
770.25	224.55
770.57	224.41
770.90	224.26
771.22	224.12
771.55	224.02
771.87	223.93
772.20	223.78
772.52	223.87
772.85	224.00
773.17	223.91
773.50	223.77
773.82	223.66
774.15	223.49
774.47	223.27
774.80	223.14
775.12	223.03
775.45	222.94
775.77	222.87
776.09	222.78
776.42	222.69
776.74	222.68
777.07	222.59
777.39	222.48
777.72	222.40
778.04	222.33
778.36	222.21
778.69	222.12
779.01	222.07
779.33	221.80
779.66	221.49
779.98	221.41
780.31	221.36
780.63	221.35
780.95	221.30
781.28	221.20
781.60	221.10
781.92	221.03
782.25	220.95
782.57	220.88
782.89	220.80
783.22	220.75
783.54	220.65
783.86	220.58
784.19	220.50
784.51	220.50
784.83	220.39
785.16	220.36
785.48	220.31
785.80	220.26
786.12	220.19
