SpectraSuite Data File
++++++++++++++++++++++++++++++++++++
Date: Tue Jan 29 16:04:55 EST 2013
User: group
Dark Spectrum Present: No
Reference Spectrum Present: No
Number of Sampled Component Spectra: 1
Spectrometers: USB2E7196
Integration Time (usec): 65000 (USB2E7196)
Spectra Averaged: 100 (USB2E7196)
Boxcar Smoothing: 10 (USB2E7196)
Correct for Electrical Dark: No (USB2E7196)
Strobe/Lamp Enabled: No (USB2E7196)
Correct for Detector Non-linearity: No (USB2E7196)
Correct for Stray Light: No (USB2E7196)
Number of Pixels in Processed Spectrum: 2048
>>>>>Begin Processed Spectral Data<<<<<
339.09	0.00
339.48	202.67
339.86	203.31
340.24	205.58
340.63	206.93
341.01	211.37
341.39	209.60
341.78	210.76
342.16	212.32
342.54	212.66
342.93	201.77
343.31	211.95
343.69	212.50
344.07	213.02
344.46	213.46
344.84	213.89
345.22	214.07
345.60	214.34
345.99	214.55
346.37	214.70
346.75	214.83
347.13	214.90
347.52	214.97
347.90	215.10
348.28	215.16
348.66	215.28
349.05	215.27
349.43	215.35
349.81	215.41
350.19	215.48
350.57	215.53
350.96	215.63
351.34	215.75
351.72	215.85
352.10	215.94
352.48	216.00
352.87	216.00
353.25	216.06
353.63	216.12
354.01	216.18
354.39	216.26
354.77	216.36
355.15	216.48
355.54	216.53
355.92	216.52
356.30	216.58
356.68	216.74
357.06	216.82
357.44	216.85
357.82	216.93
358.20	217.03
358.58	217.09
358.97	217.12
359.35	217.22
359.73	217.31
360.11	217.36
360.49	217.40
360.87	217.47
361.25	217.54
361.63	217.65
362.01	217.71
362.39	217.72
362.77	217.75
363.15	217.76
363.53	217.80
363.91	217.82
364.29	217.84
364.67	217.69
365.05	217.71
365.43	217.76
365.81	217.79
366.19	217.86
366.57	217.98
366.95	218.03
367.33	217.99
367.71	217.96
368.09	218.01
368.47	218.05
368.85	218.05
369.23	218.08
369.61	218.00
369.99	218.07
370.37	218.08
370.75	218.16
371.13	218.12
371.51	218.06
371.89	218.06
372.27	218.04
372.65	218.05
373.03	217.99
373.41	217.97
373.78	217.92
374.16	217.77
374.54	217.66
374.92	217.60
375.30	217.53
375.68	217.51
376.06	217.48
376.44	217.43
376.82	217.39
377.19	217.31
377.57	217.27
377.95	217.15
378.33	217.09
378.71	216.93
379.09	216.94
379.47	216.93
379.84	216.86
380.22	216.81
380.60	216.69
380.98	216.67
381.36	216.60
381.73	216.51
382.11	216.50
382.49	216.45
382.87	216.37
383.25	216.34
383.62	216.49
384.00	216.39
384.38	216.37
384.76	216.37
385.13	216.43
385.51	216.38
385.89	216.32
386.27	216.29
386.64	216.28
387.02	216.23
387.40	216.19
387.78	216.17
388.15	216.17
388.53	216.17
388.91	216.14
389.29	216.12
389.66	216.13
390.04	216.08
390.42	216.11
390.79	216.09
391.17	216.07
391.55	215.84
391.92	215.84
392.30	215.83
392.68	215.79
393.05	215.73
393.43	215.74
393.81	215.74
394.18	215.73
394.56	215.76
394.94	215.79
395.31	215.78
395.69	215.85
396.06	215.87
396.44	215.91
396.82	215.92
397.19	216.04
397.57	216.04
397.95	216.10
398.32	216.05
398.70	216.12
399.07	216.20
399.45	216.24
399.82	216.27
400.20	216.32
400.58	216.37
400.95	216.37
401.33	216.46
401.70	216.70
402.08	216.79
402.45	216.84
402.83	216.98
403.20	217.11
403.58	217.20
403.95	217.34
404.33	217.51
404.71	217.68
405.08	217.94
405.46	218.10
405.83	218.29
406.21	218.50
406.58	218.74
406.96	218.97
407.33	219.27
407.70	219.57
408.08	220.06
408.45	220.39
408.83	220.76
409.20	221.12
409.58	221.38
409.95	221.83
410.33	222.31
410.70	222.69
411.08	223.26
411.45	223.78
411.82	224.34
412.20	224.97
412.57	225.73
412.95	226.29
413.32	227.11
413.69	227.91
414.07	228.79
414.44	229.73
414.82	230.70
415.19	231.80
415.56	232.91
415.94	234.01
416.31	235.42
416.68	236.77
417.06	238.30
417.43	239.77
417.81	241.45
418.18	243.17
418.55	245.05
418.93	246.99
419.30	249.05
419.67	251.18
420.04	253.38
420.42	255.69
420.79	258.39
421.16	261.06
421.54	263.88
421.91	266.76
422.28	269.73
422.66	272.88
423.03	276.00
423.40	279.29
423.77	282.76
424.15	286.22
424.52	289.95
424.89	294.01
425.26	297.99
425.64	301.74
426.01	305.85
426.38	310.17
426.75	314.57
427.13	319.09
427.50	323.92
427.87	328.94
428.24	333.92
428.61	338.72
428.99	344.09
429.36	349.84
429.73	355.51
430.10	361.17
430.47	367.06
430.85	373.16
431.22	379.57
431.59	386.42
431.96	393.04
432.33	400.30
432.70	407.25
433.08	415.47
433.45	423.24
433.82	430.99
434.19	439.63
434.56	447.99
434.93	456.08
435.30	464.11
435.68	472.82
436.05	481.53
436.42	490.13
436.79	497.94
437.16	506.46
437.53	515.42
437.90	524.28
438.27	532.88
438.64	541.80
439.01	550.04
439.38	557.40
439.75	564.47
440.13	572.55
440.50	580.25
440.87	586.41
441.24	592.80
441.61	599.87
441.98	605.02
442.35	611.10
442.72	617.17
443.09	623.00
443.46	626.70
443.83	629.10
444.20	631.18
444.57	634.24
444.94	635.54
445.31	636.91
445.68	638.20
446.05	638.78
446.42	638.01
446.79	637.05
447.16	635.94
447.53	635.21
447.90	632.03
448.27	628.81
448.64	624.34
449.01	621.12
449.37	615.45
449.74	609.95
450.11	603.26
450.48	596.08
450.85	588.77
451.22	582.51
451.59	576.61
451.96	571.01
452.33	563.39
452.70	556.60
453.07	548.46
453.43	540.19
453.80	532.25
454.17	524.57
454.54	517.38
454.91	509.54
455.28	501.86
455.65	494.69
456.02	487.51
456.38	481.41
456.75	473.85
457.12	467.55
457.49	461.32
457.86	455.44
458.23	450.33
458.59	444.70
458.96	438.92
459.33	433.88
459.70	428.73
460.07	424.68
460.43	420.02
460.80	415.64
461.17	411.79
461.54	407.73
461.91	403.86
462.27	399.85
462.64	396.53
463.01	392.84
463.38	389.26
463.74	385.72
464.11	382.54
464.48	379.84
464.85	376.81
465.21	374.43
465.58	371.88
465.95	368.86
466.32	366.35
466.68	363.87
467.05	361.32
467.42	358.88
467.78	356.29
468.15	353.79
468.52	351.91
468.88	349.48
469.25	347.37
469.62	345.62
469.98	343.79
470.35	342.08
470.72	340.48
471.08	338.78
471.45	337.34
471.82	335.92
472.18	334.32
472.55	333.18
472.92	331.87
473.28	330.68
473.65	329.61
474.02	328.57
474.38	327.75
474.75	327.04
475.11	326.25
475.48	325.70
475.85	325.30
476.21	324.86
476.58	324.56
476.94	324.34
477.31	324.09
477.67	323.82
478.04	323.70
478.41	323.66
478.77	323.87
479.14	323.85
479.50	324.03
479.87	324.36
480.23	324.70
480.60	324.94
480.96	325.25
481.33	325.86
481.69	326.43
482.06	326.95
482.42	327.48
482.79	328.07
483.15	328.93
483.52	329.91
483.88	330.80
484.25	331.77
484.61	332.79
484.98	333.85
485.34	335.18
485.71	336.52
486.07	337.96
486.44	339.22
486.80	340.82
487.17	342.46
487.53	344.26
487.90	346.14
488.26	348.17
488.62	350.35
488.99	352.37
489.35	354.54
489.72	356.95
490.08	359.49
490.44	362.05
490.81	364.72
491.17	367.40
491.54	370.39
491.90	373.41
492.26	376.68
492.63	380.09
492.99	383.58
493.36	387.27
493.72	391.18
494.08	395.21
494.45	399.40
494.81	403.79
495.17	408.26
495.54	412.95
495.90	417.81
496.26	422.70
496.63	427.85
496.99	433.22
497.35	438.75
497.72	444.53
498.08	450.43
498.44	456.55
498.80	462.97
499.17	469.39
499.53	476.12
499.89	482.96
500.26	489.91
500.62	496.98
500.98	504.37
501.34	511.80
501.71	519.60
502.07	527.40
502.43	535.34
502.79	543.43
503.16	551.80
503.52	560.32
503.88	568.96
504.24	577.93
504.60	586.92
504.97	596.09
505.33	605.35
505.69	615.26
506.05	625.03
506.41	634.82
506.78	644.92
507.14	655.10
507.50	665.52
507.86	676.15
508.22	687.00
508.59	697.57
508.95	708.63
509.31	719.76
509.67	731.26
510.03	742.63
510.39	754.34
510.75	766.11
511.12	777.93
511.48	790.05
511.84	802.28
512.20	814.64
512.56	827.10
512.92	839.81
513.28	852.33
513.64	864.95
514.00	877.70
514.37	890.53
514.73	903.49
515.09	916.34
515.45	929.04
515.81	941.78
516.17	954.98
516.53	967.93
516.89	980.90
517.25	993.83
517.61	1007.27
517.97	1020.47
518.33	1033.38
518.69	1046.74
519.05	1060.31
519.41	1073.82
519.77	1087.47
520.13	1100.71
520.49	1113.70
520.85	1126.94
521.21	1140.03
521.57	1153.53
521.93	1166.52
522.29	1180.13
522.65	1193.58
523.01	1206.94
523.37	1219.94
523.73	1233.05
524.09	1246.03
524.45	1259.23
524.81	1272.50
525.17	1285.63
525.53	1298.44
525.89	1311.59
526.25	1324.48
526.61	1336.98
526.97	1349.73
527.33	1362.34
527.68	1375.48
528.04	1388.68
528.40	1401.44
528.76	1414.54
529.12	1427.17
529.48	1440.23
529.84	1452.25
530.20	1464.67
530.56	1477.24
530.91	1490.31
531.27	1502.91
531.63	1515.47
531.99	1527.88
532.35	1539.73
532.71	1551.83
533.07	1564.51
533.42	1576.27
533.78	1588.15
534.14	1600.06
534.50	1610.97
534.86	1622.41
535.21	1633.02
535.57	1644.16
535.93	1655.19
536.29	1666.13
536.65	1677.08
537.00	1687.65
537.36	1698.64
537.72	1709.38
538.08	1720.32
538.44	1730.89
538.79	1741.61
539.15	1752.13
539.51	1762.58
539.87	1773.73
540.22	1784.15
540.58	1794.57
540.94	1805.27
541.29	1815.16
541.65	1824.61
542.01	1834.93
542.37	1844.59
542.72	1854.59
543.08	1864.16
543.44	1874.25
543.79	1883.30
544.15	1892.62
544.51	1902.41
544.87	1911.91
545.22	1920.73
545.58	1929.24
545.94	1937.87
546.29	1946.16
546.65	1954.35
547.01	1962.40
547.36	1969.86
547.72	1977.36
548.07	1984.97
548.43	1992.47
548.79	2000.10
549.14	2007.97
549.50	2016.17
549.86	2023.68
550.21	2030.83
550.57	2038.14
550.92	2044.69
551.28	2051.81
551.64	2058.92
551.99	2066.16
552.35	2073.24
552.70	2079.97
553.06	2086.56
553.41	2092.57
553.77	2098.85
554.13	2105.04
554.48	2111.92
554.84	2118.78
555.19	2125.13
555.55	2131.43
555.90	2137.66
556.26	2144.31
556.61	2150.04
556.97	2154.67
557.32	2160.53
557.68	2166.80
558.03	2172.57
558.39	2177.80
558.74	2183.85
559.10	2189.27
559.45	2194.70
559.81	2200.21
560.16	2205.71
560.52	2211.59
560.87	2218.02
561.23	2224.13
561.58	2230.71
561.94	2235.81
562.29	2240.63
562.64	2246.89
563.00	2252.42
563.35	2258.16
563.71	2264.03
564.06	2269.73
564.42	2275.71
564.77	2280.90
565.12	2286.06
565.48	2291.27
565.83	2296.89
566.19	2302.42
566.54	2307.90
566.89	2312.50
567.25	2317.12
567.60	2322.96
567.96	2328.20
568.31	2332.74
568.66	2336.93
569.02	2340.87
569.37	2344.69
569.72	2348.98
570.08	2352.45
570.43	2355.68
570.78	2358.69
571.14	2361.42
571.49	2364.57
571.84	2368.33
572.20	2371.33
572.55	2374.58
572.90	2376.86
573.26	2379.96
573.61	2382.33
573.96	2384.64
574.31	2386.74
574.67	2388.81
575.02	2389.85
575.37	2391.35
575.72	2392.45
576.08	2394.11
576.43	2394.46
576.78	2395.41
577.13	2397.38
577.49	2398.69
577.84	2400.14
578.19	2401.70
578.54	2402.61
578.90	2403.98
579.25	2403.93
579.60	2404.19
579.95	2403.63
580.30	2404.14
580.66	2403.55
581.01	2402.11
581.36	2400.11
581.71	2399.15
582.06	2398.35
582.42	2397.66
582.77	2395.80
583.12	2394.45
583.47	2393.48
583.82	2393.20
584.17	2392.02
584.53	2390.04
584.88	2388.04
585.23	2386.30
585.58	2384.24
585.93	2382.09
586.28	2379.95
586.63	2377.86
586.98	2375.69
587.34	2373.89
587.69	2371.79
588.04	2370.06
588.39	2368.96
588.74	2366.54
589.09	2364.25
589.44	2361.27
589.79	2359.01
590.14	2357.35
590.49	2354.61
590.84	2350.88
591.19	2347.95
591.54	2344.84
591.89	2340.94
592.25	2338.05
592.60	2333.92
592.95	2329.93
593.30	2326.06
593.65	2321.94
594.00	2317.62
594.35	2314.73
594.70	2310.31
595.05	2305.59
595.40	2300.17
595.75	2294.73
596.10	2291.23
596.45	2286.26
596.80	2281.77
597.15	2276.61
597.50	2270.68
597.85	2265.76
598.19	2260.62
598.54	2255.02
598.89	2250.02
599.24	2245.71
599.59	2239.67
599.94	2234.18
600.29	2228.46
600.64	2222.66
600.99	2216.09
601.34	2210.81
601.69	2203.82
602.04	2197.55
602.39	2191.27
602.74	2185.34
603.08	2179.76
603.43	2173.32
603.78	2166.49
604.13	2159.45
604.48	2152.36
604.83	2146.45
605.18	2140.23
605.53	2133.39
605.87	2126.28
606.22	2119.57
606.57	2111.63
606.92	2103.84
607.27	2096.86
607.62	2090.29
607.96	2083.27
608.31	2076.65
608.66	2068.87
609.01	2061.38
609.36	2054.31
609.70	2046.67
610.05	2039.02
610.40	2030.70
610.75	2022.54
611.10	2015.05
611.44	2006.34
611.79	1997.67
612.14	1987.56
612.49	1977.21
612.83	1968.01
613.18	1958.98
613.53	1949.62
613.88	1940.15
614.22	1931.52
614.57	1921.73
614.92	1911.21
615.27	1901.11
615.61	1891.15
615.96	1881.55
616.31	1872.05
616.65	1862.68
617.00	1852.76
617.35	1842.99
617.70	1833.38
618.04	1823.27
618.39	1812.86
618.74	1803.28
619.08	1793.55
619.43	1784.90
619.78	1776.66
620.12	1767.95
620.47	1758.11
620.82	1747.88
621.16	1738.05
621.51	1728.07
621.85	1718.11
622.20	1707.60
622.55	1696.96
622.89	1687.09
623.24	1677.41
623.59	1667.59
623.93	1657.40
624.28	1647.76
624.62	1637.55
624.97	1627.18
625.32	1617.59
625.66	1608.96
626.01	1599.92
626.35	1590.54
626.70	1580.47
627.04	1570.21
627.39	1560.12
627.73	1550.83
628.08	1541.68
628.43	1532.11
628.77	1523.00
629.12	1514.08
629.46	1506.29
629.81	1497.91
630.15	1488.20
630.50	1478.22
630.84	1467.79
631.19	1457.97
631.53	1448.45
631.88	1438.41
632.22	1428.36
632.57	1418.96
632.91	1408.59
633.26	1398.85
633.60	1389.35
633.95	1380.02
634.29	1370.59
634.64	1361.22
634.98	1351.38
635.32	1342.04
635.67	1333.46
636.01	1324.19
636.36	1314.41
636.70	1304.81
637.05	1295.39
637.39	1286.50
637.73	1277.94
638.08	1270.36
638.42	1261.93
638.77	1253.19
639.11	1244.87
639.45	1237.05
639.80	1228.40
640.14	1219.77
640.49	1210.81
640.83	1201.89
641.17	1193.85
641.52	1185.73
641.86	1177.15
642.20	1169.24
642.55	1160.78
642.89	1151.94
643.23	1143.13
643.58	1135.05
643.92	1125.97
644.26	1117.32
644.61	1108.86
644.95	1100.07
645.29	1090.77
645.64	1081.72
645.98	1073.34
646.32	1065.47
646.66	1056.89
647.01	1048.44
647.35	1040.33
647.69	1031.96
648.04	1023.62
648.38	1014.55
648.72	1005.72
649.06	997.26
649.41	989.11
649.75	981.07
650.09	973.16
650.43	965.11
650.78	956.90
651.12	949.27
651.46	941.95
651.80	934.67
652.14	927.34
652.49	919.88
652.83	912.59
653.17	904.84
653.51	897.24
653.85	890.04
654.20	882.78
654.54	875.15
654.88	868.05
655.22	860.92
655.56	854.10
655.90	847.38
656.25	840.75
656.59	833.68
656.93	826.74
657.27	819.69
657.61	812.88
657.95	806.79
658.29	800.99
658.64	794.78
658.98	788.43
659.32	781.91
659.66	775.69
660.00	769.29
660.34	763.31
660.68	757.22
661.02	751.00
661.36	745.19
661.70	739.53
662.05	733.94
662.39	728.48
662.73	723.09
663.07	717.69
663.41	712.06
663.75	706.53
664.09	700.98
664.43	695.64
664.77	690.31
665.11	684.49
665.45	678.61
665.79	672.92
666.13	667.24
666.47	661.80
666.81	656.42
667.15	651.18
667.49	646.01
667.83	640.80
668.17	635.64
668.51	630.60
668.85	625.77
669.19	620.86
669.53	615.96
669.87	610.93
670.21	606.23
670.55	601.59
670.89	597.26
671.23	593.01
671.57	588.66
671.91	584.38
672.25	580.36
672.58	576.26
672.92	572.23
673.26	568.37
673.60	564.53
673.94	560.76
674.28	557.11
674.62	553.44
674.96	549.79
675.30	546.35
675.64	542.77
675.97	539.21
676.31	535.70
676.65	532.12
676.99	528.70
677.33	524.93
677.67	521.39
678.01	517.58
678.34	513.87
678.68	510.45
679.02	506.93
679.36	503.20
679.70	499.61
680.04	496.17
680.37	492.78
680.71	489.61
681.05	486.48
681.39	483.35
681.73	480.17
682.06	477.17
682.40	474.07
682.74	470.84
683.08	467.67
683.42	464.55
683.75	461.59
684.09	458.63
684.43	455.85
684.77	452.91
685.10	450.12
685.44	447.35
685.78	444.39
686.12	441.70
686.45	439.02
686.79	436.39
687.13	433.86
687.46	431.28
687.80	428.59
688.14	425.80
688.48	423.22
688.81	420.63
689.15	418.04
689.49	415.45
689.82	413.02
690.16	410.51
690.50	408.10
690.83	405.70
691.17	403.23
691.51	400.81
691.84	398.65
692.18	396.46
692.52	394.24
692.85	392.16
693.19	390.07
693.52	388.01
693.86	385.84
694.20	383.75
694.53	381.64
694.87	379.52
695.21	377.48
695.54	375.31
695.88	373.22
696.21	371.12
696.55	369.03
696.88	367.01
697.22	365.10
697.56	363.24
697.89	361.41
698.23	359.70
698.56	358.01
698.90	356.25
699.23	354.37
699.57	352.58
699.90	350.75
700.24	348.97
700.58	347.21
700.91	345.62
701.25	344.10
701.58	342.54
701.92	340.98
702.25	339.43
702.59	337.90
702.92	336.42
703.26	334.91
703.59	333.56
703.93	332.35
704.26	330.92
704.60	329.46
704.93	328.01
705.26	326.54
705.60	325.08
705.93	323.63
706.27	322.42
706.60	321.17
706.94	319.98
707.27	318.64
707.61	317.36
707.94	316.06
708.27	314.56
708.61	313.14
708.94	311.81
709.28	310.57
709.61	309.40
709.94	308.22
710.28	307.02
710.61	305.80
710.95	304.39
711.28	303.38
711.61	302.21
711.95	301.08
712.28	299.90
712.61	298.75
712.95	297.72
713.28	296.63
713.61	295.50
713.95	294.36
714.28	293.33
714.61	292.30
714.95	291.31
715.28	290.31
715.61	289.34
715.95	288.40
716.28	287.44
716.61	286.48
716.95	285.52
717.28	284.58
717.61	283.65
717.94	282.80
718.28	281.76
718.61	280.88
718.94	280.01
719.27	279.17
719.61	278.38
719.94	277.54
720.27	276.65
720.60	275.83
720.94	275.11
721.27	274.35
721.60	273.68
721.93	272.98
722.27	272.38
722.60	271.75
722.93	271.08
723.26	270.45
723.59	269.76
723.93	269.14
724.26	268.54
724.59	267.93
724.92	267.35
725.25	266.81
725.59	266.29
725.92	265.79
726.25	265.26
726.58	264.68
726.91	264.09
727.24	263.55
727.57	263.02
727.91	262.41
728.24	261.92
728.57	261.32
728.90	260.76
729.23	260.14
729.56	259.71
729.89	259.20
730.22	258.61
730.55	258.08
730.89	257.54
731.22	257.03
731.55	256.51
731.88	255.98
732.21	255.45
732.54	254.93
732.87	254.43
733.20	253.93
733.53	253.47
733.86	253.03
734.19	252.57
734.52	252.17
734.85	251.89
735.18	251.41
735.51	251.08
735.84	250.68
736.17	250.31
736.50	249.80
736.83	249.63
737.16	249.24
737.49	248.90
737.82	248.50
738.15	248.16
738.48	247.79
738.81	247.40
739.14	247.01
739.47	246.64
739.80	246.29
740.13	245.98
740.46	245.60
740.79	245.24
741.12	244.89
741.45	244.52
741.78	244.07
742.11	243.78
742.44	243.42
742.77	243.14
743.10	242.80
743.43	242.46
743.75	241.91
744.08	241.88
744.41	241.51
744.74	241.17
745.07	240.80
745.40	240.54
745.73	240.30
746.06	240.00
746.39	239.72
746.71	239.33
747.04	238.98
747.37	238.66
747.70	238.39
748.03	238.10
748.36	237.84
748.68	237.59
749.01	237.24
749.34	236.97
749.67	236.67
750.00	236.41
750.33	236.30
750.65	236.06
750.98	235.55
751.31	235.31
751.64	235.11
751.97	234.97
752.29	234.70
752.62	234.37
752.95	234.13
753.28	233.86
753.60	233.67
753.93	233.53
754.26	233.36
754.59	233.09
754.91	232.87
755.24	232.63
755.57	232.36
755.90	232.15
756.22	231.90
756.55	231.65
756.88	231.39
757.20	231.06
757.53	230.78
757.86	230.57
758.19	230.43
758.51	230.22
758.84	229.92
759.17	229.72
759.49	229.56
759.82	229.47
760.15	229.33
760.47	229.12
760.80	228.85
761.13	228.68
761.45	228.47
761.78	228.29
762.11	228.16
762.43	227.98
762.76	227.82
763.08	227.66
763.41	227.54
763.74	227.41
764.06	227.23
764.39	227.12
764.71	226.99
765.04	226.80
765.37	226.63
765.69	226.51
766.02	226.38
766.34	226.24
766.67	226.03
767.00	225.93
767.32	225.92
767.65	225.90
767.97	225.75
768.30	225.64
768.62	225.54
768.95	225.35
769.27	225.24
769.60	225.13
769.92	224.99
770.25	224.82
770.57	224.65
770.90	224.53
771.22	224.40
771.55	224.27
771.87	224.18
772.20	224.06
772.52	224.11
772.85	224.24
773.17	224.13
773.50	224.00
773.82	223.86
774.15	223.68
774.47	223.49
774.80	223.39
775.12	223.30
775.45	223.21
775.77	223.15
776.09	223.06
776.42	222.98
776.74	222.97
777.07	222.87
777.39	222.80
777.72	222.69
778.04	222.64
778.36	222.56
778.69	222.48
779.01	222.41
779.33	222.15
779.66	221.82
779.98	221.74
780.31	221.70
780.63	221.70
780.95	221.64
781.28	221.57
781.60	221.47
781.92	221.40
782.25	221.34
782.57	221.26
782.89	221.19
783.22	221.13
783.54	221.00
783.86	221.00
784.19	220.93
784.51	220.94
784.83	220.85
785.16	220.77
785.48	220.69
785.80	220.67
786.12	220.62
