SpectraSuite Data File
++++++++++++++++++++++++++++++++++++
Date: Tue Jan 29 16:06:08 EST 2013
User: group
Dark Spectrum Present: No
Reference Spectrum Present: No
Number of Sampled Component Spectra: 1
Spectrometers: USB2E7196
Integration Time (usec): 65000 (USB2E7196)
Spectra Averaged: 100 (USB2E7196)
Boxcar Smoothing: 10 (USB2E7196)
Correct for Electrical Dark: No (USB2E7196)
Strobe/Lamp Enabled: No (USB2E7196)
Correct for Detector Non-linearity: No (USB2E7196)
Correct for Stray Light: No (USB2E7196)
Number of Pixels in Processed Spectrum: 2048
>>>>>Begin Processed Spectral Data<<<<<
339.09	0.00
339.48	202.58
339.86	204.24
340.24	205.37
340.63	207.11
341.01	211.21
341.39	209.69
341.78	211.02
342.16	212.44
342.54	213.58
342.93	201.84
343.31	212.06
343.69	212.60
344.07	213.06
344.46	213.53
344.84	213.92
345.22	214.10
345.60	214.38
345.99	214.61
346.37	214.74
346.75	214.83
347.13	214.90
347.52	214.98
347.90	215.10
348.28	215.19
348.66	215.29
349.05	215.28
349.43	215.36
349.81	215.47
350.19	215.51
350.57	215.60
350.96	215.71
351.34	215.81
351.72	215.92
352.10	216.04
352.48	216.11
352.87	216.14
353.25	216.22
353.63	216.27
354.01	216.33
354.39	216.41
354.77	216.48
355.15	216.62
355.54	216.67
355.92	216.66
356.30	216.70
356.68	216.88
357.06	216.94
357.44	216.98
357.82	217.02
358.20	217.11
358.58	217.15
358.97	217.21
359.35	217.31
359.73	217.41
360.11	217.46
360.49	217.50
360.87	217.55
361.25	217.63
361.63	217.74
362.01	217.76
362.39	217.80
362.77	217.86
363.15	217.88
363.53	217.90
363.91	217.98
364.29	218.01
364.67	217.85
365.05	217.86
365.43	217.90
365.81	217.91
366.19	218.02
366.57	218.14
366.95	218.13
367.33	218.10
367.71	218.07
368.09	218.11
368.47	218.12
368.85	218.13
369.23	218.15
369.61	218.06
369.99	218.12
370.37	218.13
370.75	218.18
371.13	218.10
371.51	218.07
371.89	218.06
372.27	218.04
372.65	218.00
373.03	218.01
373.41	217.94
373.78	217.91
374.16	217.77
374.54	217.61
374.92	217.56
375.30	217.52
375.68	217.44
376.06	217.42
376.44	217.36
376.82	217.32
377.19	217.25
377.57	217.22
377.95	217.11
378.33	217.03
378.71	216.90
379.09	216.90
379.47	216.87
379.84	216.77
380.22	216.73
380.60	216.69
380.98	216.60
381.36	216.56
381.73	216.51
382.11	216.50
382.49	216.50
382.87	216.46
383.25	216.36
383.62	216.58
384.00	216.47
384.38	216.45
384.76	216.48
385.13	216.52
385.51	216.50
385.89	216.44
386.27	216.42
386.64	216.41
387.02	216.38
387.40	216.31
387.78	216.31
388.15	216.28
388.53	216.24
388.91	216.22
389.29	216.19
389.66	216.20
390.04	216.15
390.42	216.17
390.79	216.15
391.17	216.18
391.55	215.95
391.92	215.95
392.30	215.97
392.68	215.87
393.05	215.86
393.43	215.85
393.81	215.85
394.18	215.81
394.56	215.82
394.94	215.86
395.31	215.89
395.69	215.96
396.06	215.97
396.44	216.05
396.82	216.05
397.19	216.16
397.57	216.13
397.95	216.22
398.32	216.19
398.70	216.25
399.07	216.30
399.45	216.34
399.82	216.39
400.20	216.39
400.58	216.49
400.95	216.46
401.33	216.57
401.70	216.82
402.08	216.93
402.45	217.00
402.83	217.12
403.20	217.20
403.58	217.26
403.95	217.40
404.33	217.55
404.71	217.69
405.08	217.93
405.46	218.12
405.83	218.31
406.21	218.51
406.58	218.73
406.96	218.96
407.33	219.21
407.70	219.49
408.08	219.96
408.45	220.28
408.83	220.69
409.20	221.01
409.58	221.23
409.95	221.65
410.33	222.13
410.70	222.55
411.08	223.10
411.45	223.67
411.82	224.24
412.20	224.88
412.57	225.68
412.95	226.27
413.32	227.06
413.69	227.83
414.07	228.67
414.44	229.62
414.82	230.60
415.19	231.75
415.56	232.94
415.94	234.04
416.31	235.43
416.68	236.74
417.06	238.29
417.43	239.81
417.81	241.51
418.18	243.22
418.55	245.10
418.93	247.04
419.30	249.08
419.67	251.20
420.04	253.42
420.42	255.72
420.79	258.44
421.16	261.17
421.54	264.00
421.91	266.93
422.28	269.94
422.66	273.12
423.03	276.21
423.40	279.41
423.77	282.90
424.15	286.39
424.52	290.10
424.89	294.08
425.26	298.01
425.64	301.76
426.01	305.89
426.38	310.17
426.75	314.55
427.13	319.12
427.50	323.91
427.87	328.89
428.24	333.90
428.61	338.67
428.99	343.99
429.36	349.82
429.73	355.48
430.10	361.16
430.47	367.03
430.85	373.11
431.22	379.60
431.59	386.44
431.96	393.03
432.33	400.26
432.70	407.29
433.08	415.53
433.45	423.31
433.82	431.10
434.19	439.69
434.56	448.13
434.93	456.23
435.30	464.28
435.68	473.13
436.05	481.78
436.42	490.44
436.79	498.25
437.16	506.66
437.53	515.60
437.90	524.35
438.27	532.97
438.64	541.92
439.01	550.15
439.38	557.44
439.75	564.53
440.13	572.69
440.50	580.35
440.87	586.55
441.24	592.98
441.61	599.99
441.98	605.13
442.35	611.16
442.72	617.19
443.09	622.99
443.46	626.55
443.83	628.96
444.20	631.01
444.57	634.01
444.94	635.41
445.31	636.77
445.68	638.16
446.05	638.78
446.42	637.97
446.79	636.98
447.16	635.92
447.53	635.14
447.90	631.98
448.27	628.78
448.64	624.25
449.01	621.02
449.37	615.34
449.74	609.90
450.11	603.26
450.48	596.12
450.85	588.90
451.22	582.63
451.59	576.80
451.96	571.18
452.33	563.57
452.70	556.78
453.07	548.68
453.43	540.41
453.80	532.42
454.17	524.75
454.54	517.55
454.91	509.75
455.28	502.06
455.65	494.87
456.02	487.67
456.38	481.60
456.75	474.07
457.12	467.77
457.49	461.50
457.86	455.58
458.23	450.47
458.59	444.81
458.96	439.08
459.33	433.94
459.70	428.78
460.07	424.75
460.43	420.00
460.80	415.51
461.17	411.64
461.54	407.57
461.91	403.71
462.27	399.74
462.64	396.43
463.01	392.82
463.38	389.24
463.74	385.70
464.11	382.58
464.48	379.80
464.85	376.83
465.21	374.49
465.58	371.99
465.95	368.88
466.32	366.32
466.68	363.81
467.05	361.36
467.42	358.96
467.78	356.41
468.15	353.97
468.52	352.15
468.88	349.73
469.25	347.60
469.62	345.87
469.98	344.00
470.35	342.23
470.72	340.62
471.08	338.89
471.45	337.40
471.82	335.98
472.18	334.41
472.55	333.25
472.92	331.91
473.28	330.74
473.65	329.67
474.02	328.69
474.38	327.84
474.75	327.10
475.11	326.29
475.48	325.74
475.85	325.32
476.21	324.95
476.58	324.64
476.94	324.47
477.31	324.19
477.67	323.98
478.04	323.87
478.41	323.86
478.77	324.03
479.14	324.06
479.50	324.19
479.87	324.51
480.23	324.88
480.60	325.17
480.96	325.45
481.33	326.11
481.69	326.68
482.06	327.24
482.42	327.72
482.79	328.39
483.15	329.21
483.52	330.20
483.88	331.09
484.25	332.05
484.61	333.06
484.98	334.14
485.34	335.45
485.71	336.81
486.07	338.26
486.44	339.61
486.80	341.22
487.17	342.90
487.53	344.72
487.90	346.61
488.26	348.65
488.62	350.79
488.99	352.82
489.35	354.97
489.72	357.31
490.08	359.79
490.44	362.29
490.81	364.97
491.17	367.66
491.54	370.57
491.90	373.60
492.26	376.83
492.63	380.26
492.99	383.67
493.36	387.39
493.72	391.26
494.08	395.26
494.45	399.47
494.81	403.74
495.17	408.13
495.54	412.79
495.90	417.58
496.26	422.47
496.63	427.65
496.99	433.03
497.35	438.60
497.72	444.45
498.08	450.37
498.44	456.42
498.80	462.77
499.17	469.27
499.53	475.98
499.89	482.86
500.26	489.76
500.62	496.88
500.98	504.20
501.34	511.63
501.71	519.37
502.07	527.12
502.43	535.14
502.79	543.27
503.16	551.58
503.52	560.13
503.88	568.82
504.24	577.75
504.60	586.79
504.97	596.03
505.33	605.28
505.69	615.11
506.05	624.97
506.41	634.80
506.78	644.81
507.14	655.03
507.50	665.36
507.86	676.06
508.22	686.85
508.59	697.42
508.95	708.47
509.31	719.63
509.67	731.08
510.03	742.47
510.39	754.26
510.75	766.06
511.12	777.93
511.48	790.03
511.84	802.15
512.20	814.44
512.56	826.92
512.92	839.63
513.28	852.16
513.64	864.75
514.00	877.49
514.37	890.30
514.73	903.24
515.09	916.23
515.45	928.88
515.81	941.67
516.17	955.01
516.53	968.03
516.89	981.04
517.25	994.00
517.61	1007.38
517.97	1020.51
518.33	1033.55
518.69	1046.95
519.05	1060.46
519.41	1073.92
519.77	1087.55
520.13	1100.59
520.49	1113.59
520.85	1126.86
521.21	1140.02
521.57	1153.48
521.93	1166.45
522.29	1180.06
522.65	1193.43
523.01	1206.99
523.37	1220.03
523.73	1233.04
524.09	1246.01
524.45	1259.20
524.81	1272.45
525.17	1285.48
525.53	1298.36
525.89	1311.25
526.25	1324.16
526.61	1336.78
526.97	1349.53
527.33	1362.14
527.68	1375.48
528.04	1388.68
528.40	1401.40
528.76	1414.52
529.12	1427.06
529.48	1440.06
529.84	1451.96
530.20	1464.39
530.56	1476.64
530.91	1489.57
531.27	1502.16
531.63	1514.65
531.99	1527.19
532.35	1539.14
532.71	1551.31
533.07	1563.85
533.42	1575.87
533.78	1587.59
534.14	1599.36
534.50	1610.37
534.86	1621.76
535.21	1632.32
535.57	1643.50
535.93	1654.66
536.29	1665.50
536.65	1676.63
537.00	1687.30
537.36	1698.38
537.72	1709.12
538.08	1720.06
538.44	1730.77
538.79	1741.55
539.15	1752.02
539.51	1762.43
539.87	1773.48
540.22	1783.98
540.58	1794.67
540.94	1805.25
541.29	1815.28
541.65	1824.77
542.01	1835.00
542.37	1844.84
542.72	1854.77
543.08	1864.34
543.44	1874.36
543.79	1883.42
544.15	1892.71
544.51	1902.35
544.87	1911.90
545.22	1920.69
545.58	1929.37
545.94	1937.96
546.29	1946.27
546.65	1954.50
547.01	1962.34
547.36	1969.71
547.72	1977.10
548.07	1984.52
548.43	1992.02
548.79	1999.59
549.14	2007.48
549.50	2015.70
549.86	2023.24
550.21	2030.51
550.57	2037.82
550.92	2044.60
551.28	2051.94
551.64	2058.99
551.99	2066.40
552.35	2073.47
552.70	2080.09
553.06	2086.67
553.41	2092.71
553.77	2099.03
554.13	2105.20
554.48	2112.12
554.84	2119.06
555.19	2125.61
555.55	2131.93
555.90	2138.08
556.26	2144.60
556.61	2150.39
556.97	2155.11
557.32	2160.77
557.68	2166.97
558.03	2172.59
558.39	2177.55
558.74	2183.26
559.10	2188.63
559.45	2194.06
559.81	2199.42
560.16	2205.14
560.52	2210.92
560.87	2217.43
561.23	2223.42
561.58	2230.06
561.94	2235.28
562.29	2240.15
562.64	2246.20
563.00	2251.75
563.35	2257.45
563.71	2263.46
564.06	2269.16
564.42	2275.11
564.77	2280.38
565.12	2285.54
565.48	2290.93
565.83	2296.73
566.19	2302.23
566.54	2307.89
566.89	2312.50
567.25	2317.15
567.60	2322.97
567.96	2328.20
568.31	2332.71
568.66	2336.88
569.02	2340.69
569.37	2344.56
569.72	2348.93
570.08	2352.48
570.43	2355.66
570.78	2358.79
571.14	2361.47
571.49	2364.72
571.84	2368.38
572.20	2371.35
572.55	2374.52
572.90	2376.66
573.26	2379.70
573.61	2382.29
573.96	2384.51
574.31	2386.65
574.67	2388.75
575.02	2389.69
575.37	2391.21
575.72	2392.17
576.08	2393.83
576.43	2394.39
576.78	2395.33
577.13	2397.38
577.49	2398.60
577.84	2400.07
578.19	2401.57
578.54	2402.43
578.90	2403.64
579.25	2403.60
579.60	2403.72
579.95	2403.36
580.30	2403.87
580.66	2403.18
581.01	2401.77
581.36	2399.62
581.71	2398.43
582.06	2397.69
582.42	2396.99
582.77	2395.11
583.12	2393.69
583.47	2392.65
583.82	2392.23
584.17	2391.03
584.53	2388.87
584.88	2387.15
585.23	2385.29
585.58	2383.26
585.93	2381.09
586.28	2378.99
586.63	2376.94
586.98	2374.86
587.34	2372.97
587.69	2370.84
588.04	2369.02
588.39	2367.76
588.74	2365.66
589.09	2363.30
589.44	2360.32
589.79	2357.96
590.14	2356.18
590.49	2353.57
590.84	2349.95
591.19	2347.10
591.54	2343.92
591.89	2339.92
592.25	2336.75
592.60	2332.80
592.95	2328.86
593.30	2324.92
593.65	2320.58
594.00	2316.25
594.35	2313.33
594.70	2308.78
595.05	2304.22
595.40	2298.91
595.75	2293.34
596.10	2289.68
596.45	2284.84
596.80	2280.47
597.15	2275.31
597.50	2269.51
597.85	2264.49
598.19	2259.20
598.54	2253.50
598.89	2248.56
599.24	2244.19
599.59	2238.23
599.94	2232.62
600.29	2226.73
600.64	2221.04
600.99	2214.55
601.34	2209.19
601.69	2202.26
602.04	2196.02
602.39	2189.48
602.74	2183.50
603.08	2178.05
603.43	2171.74
603.78	2165.05
604.13	2157.88
604.48	2150.82
604.83	2144.93
605.18	2138.85
605.53	2132.05
605.87	2125.13
606.22	2118.42
606.57	2110.68
606.92	2103.00
607.27	2095.95
607.62	2089.47
607.96	2082.50
608.31	2076.00
608.66	2068.39
609.01	2060.98
609.36	2053.94
609.70	2046.43
610.05	2038.70
610.40	2030.51
610.75	2022.18
611.10	2014.57
611.44	2006.04
611.79	1997.32
612.14	1987.23
612.49	1976.80
612.83	1967.73
613.18	1958.51
613.53	1949.09
613.88	1939.57
614.22	1930.93
614.57	1921.09
614.92	1910.56
615.27	1900.55
615.61	1890.55
615.96	1880.88
616.31	1871.33
616.65	1861.99
617.00	1852.09
617.35	1842.51
617.70	1832.84
618.04	1822.77
618.39	1812.43
618.74	1802.75
619.08	1793.25
619.43	1784.60
619.78	1776.29
620.12	1767.52
620.47	1757.71
620.82	1747.41
621.16	1737.55
621.51	1727.55
621.85	1717.68
622.20	1707.19
622.55	1696.47
622.89	1686.66
623.24	1676.99
623.59	1667.21
623.93	1656.94
624.28	1647.31
624.62	1637.17
624.97	1626.74
625.32	1617.04
625.66	1608.29
626.01	1599.31
626.35	1589.86
626.70	1579.68
627.04	1569.51
627.39	1559.52
627.73	1550.35
628.08	1541.35
628.43	1531.77
628.77	1522.55
629.12	1513.81
629.46	1505.97
629.81	1497.69
630.15	1487.99
630.50	1478.16
630.84	1467.62
631.19	1457.84
631.53	1448.29
631.88	1438.12
632.22	1428.13
632.57	1418.81
632.91	1408.51
633.26	1398.66
633.60	1389.08
633.95	1379.84
634.29	1370.44
634.64	1360.99
634.98	1351.05
635.32	1341.71
635.67	1333.20
636.01	1323.92
636.36	1314.00
636.70	1304.45
637.05	1295.02
637.39	1286.02
637.73	1277.25
638.08	1269.67
638.42	1261.28
638.77	1252.57
639.11	1244.35
639.45	1236.47
639.80	1227.67
640.14	1219.12
640.49	1210.17
640.83	1201.33
641.17	1193.22
641.52	1185.07
641.86	1176.41
642.20	1168.59
642.55	1160.03
642.89	1151.07
643.23	1142.33
643.58	1134.25
643.92	1125.19
644.26	1116.48
644.61	1108.06
644.95	1099.34
645.29	1090.14
645.64	1081.18
645.98	1072.75
646.32	1064.75
646.66	1056.25
647.01	1048.02
647.35	1039.83
647.69	1031.48
648.04	1023.13
648.38	1014.19
648.72	1005.29
649.06	996.95
649.41	988.72
649.75	980.73
650.09	972.91
650.43	964.91
650.78	956.72
651.12	949.06
651.46	941.72
651.80	934.52
652.14	927.20
652.49	919.69
652.83	912.34
653.17	904.69
653.51	897.13
653.85	889.89
654.20	882.60
654.54	875.10
654.88	867.95
655.22	860.90
655.56	854.03
655.90	847.33
656.25	840.62
656.59	833.61
656.93	826.61
657.27	819.56
657.61	812.70
657.95	806.70
658.29	800.90
658.64	794.78
658.98	788.31
659.32	781.88
659.66	775.72
660.00	769.35
660.34	763.36
660.68	757.28
661.02	751.02
661.36	745.16
661.70	739.40
662.05	733.83
662.39	728.30
662.73	722.96
663.07	717.65
663.41	712.16
663.75	706.64
664.09	701.08
664.43	695.74
664.77	690.42
665.11	684.57
665.45	678.65
665.79	672.87
666.13	667.31
666.47	661.87
666.81	656.63
667.15	651.37
667.49	646.25
667.83	641.05
668.17	635.89
668.51	630.83
668.85	626.00
669.19	621.11
669.53	616.22
669.87	611.14
670.21	606.45
670.55	601.73
670.89	597.38
671.23	593.11
671.57	588.76
671.91	584.50
672.25	580.42
672.58	576.36
672.92	572.38
673.26	568.44
673.60	564.60
673.94	560.68
674.28	557.06
674.62	553.34
674.96	549.62
675.30	546.20
675.64	542.62
675.97	539.08
676.31	535.59
676.65	532.02
676.99	528.61
677.33	524.79
677.67	521.19
678.01	517.34
678.34	513.76
678.68	510.33
679.02	506.78
679.36	503.13
679.70	499.56
680.04	496.05
680.37	492.66
680.71	489.40
681.05	486.20
681.39	483.05
681.73	479.91
682.06	476.98
682.40	473.89
682.74	470.73
683.08	467.62
683.42	464.47
683.75	461.49
684.09	458.56
684.43	455.82
684.77	452.95
685.10	450.16
685.44	447.30
685.78	444.37
686.12	441.73
686.45	439.02
686.79	436.38
687.13	433.92
687.46	431.33
687.80	428.71
688.14	425.98
688.48	423.35
688.81	420.72
689.15	418.18
689.49	415.66
689.82	413.19
690.16	410.63
690.50	408.22
690.83	405.76
691.17	403.24
691.51	400.85
691.84	398.67
692.18	396.51
692.52	394.35
692.85	392.32
693.19	390.17
693.52	388.10
693.86	385.94
694.20	383.77
694.53	381.70
694.87	379.53
695.21	377.44
695.54	375.35
695.88	373.24
696.21	371.10
696.55	369.01
696.88	366.99
697.22	365.09
697.56	363.26
697.89	361.47
698.23	359.80
698.56	358.03
698.90	356.29
699.23	354.41
699.57	352.55
699.90	350.71
700.24	348.99
700.58	347.21
700.91	345.66
701.25	344.15
701.58	342.60
701.92	341.10
702.25	339.57
702.59	338.04
702.92	336.54
703.26	335.04
703.59	333.63
703.93	332.41
704.26	331.00
704.60	329.52
704.93	328.09
705.26	326.61
705.60	325.18
705.93	323.73
706.27	322.46
706.60	321.26
706.94	320.04
707.27	318.63
707.61	317.41
707.94	316.05
708.27	314.56
708.61	313.15
708.94	311.81
709.28	310.55
709.61	309.35
709.94	308.21
710.28	307.02
710.61	305.85
710.95	304.43
711.28	303.39
711.61	302.21
711.95	301.07
712.28	299.90
712.61	298.72
712.95	297.67
713.28	296.67
713.61	295.55
713.95	294.48
714.28	293.51
714.61	292.51
714.95	291.53
715.28	290.57
715.61	289.58
715.95	288.61
716.28	287.65
716.61	286.69
716.95	285.70
717.28	284.76
717.61	283.83
717.94	282.98
718.28	281.97
718.61	281.11
718.94	280.24
719.27	279.44
719.61	278.66
719.94	277.82
720.27	276.89
720.60	276.06
720.94	275.24
721.27	274.51
721.60	273.77
721.93	273.06
722.27	272.43
722.60	271.82
722.93	271.13
723.26	270.51
723.59	269.83
723.93	269.20
724.26	268.59
724.59	267.96
724.92	267.39
725.25	266.87
725.59	266.32
725.92	265.81
726.25	265.26
726.58	264.67
726.91	264.12
727.24	263.56
727.57	263.02
727.91	262.45
728.24	261.92
728.57	261.36
728.90	260.82
729.23	260.22
729.56	259.76
729.89	259.21
730.22	258.63
730.55	258.11
730.89	257.59
731.22	257.06
731.55	256.56
731.88	256.07
732.21	255.53
732.54	254.98
732.87	254.51
733.20	254.03
733.53	253.59
733.86	253.12
734.19	252.68
734.52	252.29
734.85	251.96
735.18	251.50
735.51	251.13
735.84	250.72
736.17	250.35
736.50	249.83
736.83	249.71
737.16	249.36
737.49	249.02
737.82	248.61
738.15	248.29
738.48	247.91
738.81	247.49
739.14	247.10
739.47	246.77
739.80	246.39
740.13	246.04
740.46	245.66
740.79	245.24
741.12	244.91
741.45	244.50
741.78	244.12
742.11	243.86
742.44	243.48
742.77	243.19
743.10	242.85
743.43	242.52
743.75	241.95
744.08	241.88
744.41	241.50
744.74	241.18
745.07	240.82
745.40	240.55
745.73	240.30
746.06	240.00
746.39	239.71
746.71	239.36
747.04	239.01
747.37	238.72
747.70	238.46
748.03	238.13
748.36	237.91
748.68	237.58
749.01	237.21
749.34	236.93
749.67	236.64
750.00	236.39
750.33	236.27
750.65	236.03
750.98	235.51
751.31	235.31
751.64	235.07
751.97	234.94
752.29	234.69
752.62	234.38
752.95	234.13
753.28	233.86
753.60	233.64
753.93	233.53
754.26	233.29
754.59	233.02
754.91	232.81
755.24	232.55
755.57	232.33
755.90	232.11
756.22	231.88
756.55	231.64
756.88	231.37
757.20	231.01
757.53	230.78
757.86	230.58
758.19	230.38
758.51	230.17
758.84	229.86
759.17	229.63
759.49	229.48
759.82	229.38
760.15	229.24
760.47	229.06
760.80	228.74
761.13	228.63
761.45	228.44
761.78	228.25
762.11	228.09
762.43	227.89
762.76	227.74
763.08	227.58
763.41	227.41
763.74	227.29
764.06	227.17
764.39	227.00
764.71	226.85
765.04	226.69
765.37	226.56
765.69	226.38
766.02	226.25
766.34	226.07
766.67	225.87
767.00	225.79
767.32	225.77
767.65	225.80
767.97	225.64
768.30	225.55
768.62	225.44
768.95	225.30
769.27	225.21
769.60	225.13
769.92	224.98
770.25	224.86
770.57	224.71
770.90	224.58
771.22	224.44
771.55	224.30
771.87	224.20
772.20	224.07
772.52	224.16
772.85	224.33
773.17	224.26
773.50	224.13
773.82	223.98
774.15	223.76
774.47	223.55
774.80	223.41
775.12	223.31
775.45	223.21
775.77	223.15
776.09	223.08
776.42	222.98
776.74	222.96
777.07	222.85
777.39	222.78
777.72	222.68
778.04	222.67
778.36	222.62
778.69	222.53
779.01	222.47
779.33	222.24
779.66	221.94
779.98	221.84
780.31	221.74
780.63	221.75
780.95	221.72
781.28	221.67
781.60	221.61
781.92	221.54
782.25	221.50
782.57	221.42
782.89	221.34
783.22	221.27
783.54	221.18
783.86	221.13
784.19	221.03
784.51	221.01
784.83	220.89
785.16	220.83
785.48	220.81
785.80	220.76
786.12	220.66
