SpectraSuite Data File
++++++++++++++++++++++++++++++++++++
Date: Tue Jan 29 16:48:59 EST 2013
User: group
Dark Spectrum Present: No
Reference Spectrum Present: No
Number of Sampled Component Spectra: 1
Spectrometers: USB2E7196
Integration Time (usec): 65000 (USB2E7196)
Spectra Averaged: 100 (USB2E7196)
Boxcar Smoothing: 10 (USB2E7196)
Correct for Electrical Dark: No (USB2E7196)
Strobe/Lamp Enabled: No (USB2E7196)
Correct for Detector Non-linearity: No (USB2E7196)
Correct for Stray Light: No (USB2E7196)
Number of Pixels in Processed Spectrum: 2048
>>>>>Begin Processed Spectral Data<<<<<
339.09	0.00
339.48	201.51
339.86	202.89
340.24	203.73
340.63	205.64
341.01	210.01
341.39	208.74
341.78	210.26
342.16	211.45
342.54	211.36
342.93	200.69
343.31	210.85
343.69	211.39
344.07	211.87
344.46	212.35
344.84	212.76
345.22	212.94
345.60	213.20
345.99	213.37
346.37	213.49
346.75	213.60
347.13	213.70
347.52	213.77
347.90	213.95
348.28	213.96
348.66	214.01
349.05	214.00
349.43	214.04
349.81	214.10
350.19	214.17
350.57	214.23
350.96	214.35
351.34	214.45
351.72	214.58
352.10	214.70
352.48	214.77
352.87	214.83
353.25	214.92
353.63	215.01
354.01	215.08
354.39	215.20
354.77	215.28
355.15	215.38
355.54	215.45
355.92	215.42
356.30	215.47
356.68	215.73
357.06	215.83
357.44	215.89
357.82	215.95
358.20	216.08
358.58	216.14
358.97	216.21
359.35	216.33
359.73	216.43
360.11	216.45
360.49	216.51
360.87	216.59
361.25	216.65
361.63	216.76
362.01	216.82
362.39	216.84
362.77	216.91
363.15	216.99
363.53	217.06
363.91	217.09
364.29	217.16
364.67	216.95
365.05	216.99
365.43	217.02
365.81	217.06
366.19	217.16
366.57	217.26
366.95	217.24
367.33	217.16
367.71	217.15
368.09	217.23
368.47	217.24
368.85	217.20
369.23	217.23
369.61	217.15
369.99	217.20
370.37	217.22
370.75	217.27
371.13	217.20
371.51	217.16
371.89	217.16
372.27	217.13
372.65	217.12
373.03	217.06
373.41	217.00
373.78	216.94
374.16	216.78
374.54	216.69
374.92	216.66
375.30	216.63
375.68	216.55
376.06	216.51
376.44	216.43
376.82	216.40
377.19	216.34
377.57	216.30
377.95	216.19
378.33	216.11
378.71	215.95
379.09	215.92
379.47	215.89
379.84	215.81
380.22	215.76
380.60	215.71
380.98	215.67
381.36	215.63
381.73	215.58
382.11	215.59
382.49	215.56
382.87	215.47
383.25	215.43
383.62	215.62
384.00	215.53
384.38	215.51
384.76	215.52
385.13	215.52
385.51	215.47
385.89	215.42
386.27	215.39
386.64	215.36
387.02	215.30
387.40	215.23
387.78	215.24
388.15	215.19
388.53	215.14
388.91	215.11
389.29	215.09
389.66	215.09
390.04	215.04
390.42	215.04
390.79	215.07
391.17	215.06
391.55	214.80
391.92	214.78
392.30	214.77
392.68	214.72
393.05	214.70
393.43	214.71
393.81	214.74
394.18	214.75
394.56	214.79
394.94	214.83
395.31	214.86
395.69	214.90
396.06	214.95
396.44	215.00
396.82	215.00
397.19	215.13
397.57	215.14
397.95	215.18
398.32	215.13
398.70	215.15
399.07	215.23
399.45	215.27
399.82	215.30
400.20	215.33
400.58	215.41
400.95	215.41
401.33	215.51
401.70	215.72
402.08	215.77
402.45	215.85
402.83	215.97
403.20	216.10
403.58	216.20
403.95	216.34
404.33	216.50
404.71	216.64
405.08	216.89
405.46	217.02
405.83	217.22
406.21	217.42
406.58	217.65
406.96	217.86
407.33	218.15
407.70	218.47
408.08	218.94
408.45	219.27
408.83	219.64
409.20	219.97
409.58	220.26
409.95	220.75
410.33	221.25
410.70	221.70
411.08	222.26
411.45	222.82
411.82	223.44
412.20	224.12
412.57	224.96
412.95	225.52
413.32	226.40
413.69	227.25
414.07	228.20
414.44	229.21
414.82	230.28
415.19	231.47
415.56	232.71
415.94	233.91
416.31	235.36
416.68	236.78
417.06	238.41
417.43	239.96
417.81	241.68
418.18	243.50
418.55	245.44
418.93	247.46
419.30	249.54
419.67	251.79
420.04	254.08
420.42	256.47
420.79	259.29
421.16	262.08
421.54	264.99
421.91	267.96
422.28	271.09
422.66	274.35
423.03	277.65
423.40	281.02
423.77	284.64
424.15	288.29
424.52	292.17
424.89	296.41
425.26	300.53
425.64	304.44
426.01	308.71
426.38	313.24
426.75	317.81
427.13	322.62
427.50	327.61
427.87	332.85
428.24	338.09
428.61	343.15
428.99	348.69
429.36	354.73
429.73	360.68
430.10	366.58
430.47	372.69
430.85	378.93
431.22	385.64
431.59	392.78
431.96	399.66
432.33	407.20
432.70	414.45
433.08	422.95
433.45	431.09
433.82	439.20
434.19	448.11
434.56	456.91
434.93	465.26
435.30	473.52
435.68	482.64
436.05	491.70
436.42	500.65
436.79	508.87
437.16	517.75
437.53	527.02
437.90	536.30
438.27	545.28
438.64	554.59
439.01	563.24
439.38	570.86
439.75	578.24
440.13	586.72
440.50	594.73
440.87	601.28
441.24	607.99
441.61	615.30
441.98	620.74
442.35	627.11
442.72	633.48
443.09	639.66
443.46	643.55
443.83	646.04
444.20	648.30
444.57	651.48
444.94	652.93
445.31	654.46
445.68	655.82
446.05	656.45
446.42	655.73
446.79	654.74
447.16	653.71
447.53	652.97
447.90	649.65
448.27	646.38
448.64	641.63
449.01	638.33
449.37	632.49
449.74	626.76
450.11	619.78
450.48	612.41
450.85	604.89
451.22	598.41
451.59	592.29
451.96	586.35
452.33	578.45
452.70	571.28
453.07	562.75
453.43	554.11
453.80	545.81
454.17	537.72
454.54	530.09
454.91	521.85
455.28	513.81
455.65	506.30
456.02	498.73
456.38	492.43
456.75	484.43
457.12	477.83
457.49	471.31
457.86	465.04
458.23	459.56
458.59	453.57
458.96	447.39
459.33	442.04
459.70	436.67
460.07	432.40
460.43	427.49
460.80	422.84
461.17	418.80
461.54	414.59
461.91	410.53
462.27	406.44
462.64	403.00
463.01	399.18
463.38	395.45
463.74	391.73
464.11	388.42
464.48	385.53
464.85	382.39
465.21	379.95
465.58	377.34
465.95	374.22
466.32	371.60
466.68	369.00
467.05	366.36
467.42	363.77
467.78	361.02
468.15	358.44
468.52	356.57
468.88	354.01
469.25	351.73
469.62	349.95
469.98	347.96
470.35	346.09
470.72	344.38
471.08	342.58
471.45	341.04
471.82	339.50
472.18	337.87
472.55	336.62
472.92	335.15
473.28	333.92
473.65	332.73
474.02	331.60
474.38	330.70
474.75	329.95
475.11	329.08
475.48	328.47
475.85	327.94
476.21	327.38
476.58	327.04
476.94	326.81
477.31	326.46
477.67	326.19
478.04	326.05
478.41	325.99
478.77	326.13
479.14	326.08
479.50	326.19
479.87	326.44
480.23	326.76
480.60	327.02
480.96	327.28
481.33	327.87
481.69	328.42
482.06	328.97
482.42	329.46
482.79	330.11
483.15	330.91
483.52	331.91
483.88	332.80
484.25	333.73
484.61	334.70
484.98	335.76
485.34	337.09
485.71	338.43
486.07	339.88
486.44	341.20
486.80	342.80
487.17	344.52
487.53	346.35
487.90	348.23
488.26	350.25
488.62	352.46
488.99	354.47
489.35	356.64
489.72	359.01
490.08	361.53
490.44	364.08
490.81	366.78
491.17	369.48
491.54	372.52
491.90	375.58
492.26	378.90
492.63	382.28
492.99	385.80
493.36	389.46
493.72	393.28
494.08	397.31
494.45	401.55
494.81	405.90
495.17	410.36
495.54	415.05
495.90	419.85
496.26	424.77
496.63	429.99
496.99	435.43
497.35	440.94
497.72	446.78
498.08	452.72
498.44	458.81
498.80	465.25
499.17	471.72
499.53	478.47
499.89	485.31
500.26	492.30
500.62	499.29
500.98	506.69
501.34	514.18
501.71	521.88
502.07	529.67
502.43	537.63
502.79	545.81
503.16	554.19
503.52	562.81
503.88	571.49
504.24	580.47
504.60	589.53
504.97	598.77
505.33	608.01
505.69	617.87
506.05	627.70
506.41	637.54
506.78	647.59
507.14	657.75
507.50	668.17
507.86	678.93
508.22	689.80
508.59	700.47
508.95	711.51
509.31	722.75
509.67	734.22
510.03	745.65
510.39	757.36
510.75	769.19
511.12	781.07
511.48	793.17
511.84	805.48
512.20	817.76
512.56	830.39
512.92	843.21
513.28	855.90
513.64	868.69
514.00	881.55
514.37	894.55
514.73	907.69
515.09	920.72
515.45	933.60
515.81	946.61
516.17	960.00
516.53	973.32
516.89	986.43
517.25	999.61
517.61	1013.11
517.97	1026.47
518.33	1039.56
518.69	1053.14
519.05	1066.90
519.41	1080.51
519.77	1094.50
520.13	1107.82
520.49	1121.01
520.85	1134.31
521.21	1147.69
521.57	1161.35
521.93	1174.47
522.29	1188.12
522.65	1201.75
523.01	1215.43
523.37	1228.64
523.73	1241.95
524.09	1255.14
524.45	1268.66
524.81	1282.16
525.17	1295.64
525.53	1308.91
525.89	1322.43
526.25	1335.47
526.61	1348.38
526.97	1361.55
527.33	1374.49
527.68	1388.09
528.04	1401.63
528.40	1414.84
528.76	1428.30
529.12	1441.25
529.48	1454.53
529.84	1466.96
530.20	1479.79
530.56	1492.45
530.91	1505.78
531.27	1518.71
531.63	1531.47
531.99	1544.27
532.35	1556.53
532.71	1568.90
533.07	1581.83
533.42	1594.05
533.78	1606.26
534.14	1618.38
534.50	1629.66
534.86	1641.43
535.21	1652.31
535.57	1663.97
535.93	1675.21
536.29	1686.33
536.65	1697.95
537.00	1709.09
537.36	1720.60
537.72	1731.67
538.08	1743.14
538.44	1754.21
538.79	1765.46
539.15	1776.60
539.51	1787.43
539.87	1798.79
540.22	1809.84
540.58	1820.90
540.94	1831.89
541.29	1842.40
541.65	1852.35
542.01	1862.99
542.37	1873.06
542.72	1883.38
543.08	1893.10
543.44	1903.81
543.79	1913.17
544.15	1922.63
544.51	1932.67
544.87	1942.74
545.22	1952.18
545.58	1961.10
545.94	1970.09
546.29	1978.65
546.65	1987.08
547.01	1995.41
547.36	2003.23
547.72	2010.97
548.07	2018.64
548.43	2026.43
548.79	2034.28
549.14	2042.35
549.50	2050.86
549.86	2058.75
550.21	2066.20
550.57	2073.97
550.92	2080.73
551.28	2088.31
551.64	2095.62
551.99	2103.09
552.35	2110.07
552.70	2116.94
553.06	2123.61
553.41	2129.97
553.77	2136.49
554.13	2142.88
554.48	2149.89
554.84	2156.99
555.19	2163.52
555.55	2169.89
555.90	2176.31
556.26	2183.22
556.61	2189.45
556.97	2194.29
557.32	2200.05
557.68	2206.38
558.03	2212.20
558.39	2217.60
558.74	2223.44
559.10	2228.87
559.45	2234.33
559.81	2239.94
560.16	2245.28
560.52	2251.11
560.87	2257.24
561.23	2262.94
561.58	2269.45
561.94	2274.70
562.29	2279.34
562.64	2285.41
563.00	2291.06
563.35	2296.45
563.71	2301.98
564.06	2307.55
564.42	2313.34
564.77	2318.28
565.12	2323.61
565.48	2328.59
565.83	2334.08
566.19	2339.39
566.54	2344.81
566.89	2349.31
567.25	2353.90
567.60	2359.73
567.96	2364.68
568.31	2369.21
568.66	2373.50
569.02	2377.34
569.37	2380.92
569.72	2385.40
570.08	2388.69
570.43	2391.75
570.78	2394.80
571.14	2397.21
571.49	2400.20
571.84	2403.58
572.20	2406.49
572.55	2409.28
572.90	2411.41
573.26	2413.88
573.61	2416.42
573.96	2418.36
574.31	2420.49
574.67	2422.13
575.02	2422.61
575.37	2423.94
575.72	2424.51
576.08	2425.91
576.43	2425.99
576.78	2426.40
577.13	2427.77
577.49	2428.79
577.84	2429.68
578.19	2430.78
578.54	2431.19
578.90	2431.62
579.25	2431.25
579.60	2430.93
579.95	2429.96
580.30	2429.94
580.66	2429.27
581.01	2427.39
581.36	2424.76
581.71	2423.08
582.06	2421.75
582.42	2420.73
582.77	2418.34
583.12	2416.54
583.47	2414.88
583.82	2414.03
584.17	2412.55
584.53	2410.13
584.88	2407.85
585.23	2405.74
585.58	2403.24
585.93	2401.06
586.28	2398.68
586.63	2396.20
586.98	2393.91
587.34	2391.87
587.69	2389.18
588.04	2386.88
588.39	2385.14
588.74	2382.56
589.09	2379.61
589.44	2376.19
589.79	2373.56
590.14	2371.51
590.49	2368.59
590.84	2364.53
591.19	2361.10
591.54	2357.65
591.89	2353.53
592.25	2350.14
592.60	2345.71
592.95	2341.52
593.30	2337.39
593.65	2333.08
594.00	2328.55
594.35	2325.32
594.70	2320.53
595.05	2315.95
595.40	2310.33
595.75	2304.57
596.10	2300.93
596.45	2296.07
596.80	2291.44
597.15	2286.13
597.50	2280.12
597.85	2275.08
598.19	2269.98
598.54	2264.35
598.89	2259.08
599.24	2254.37
599.59	2248.19
599.94	2242.43
600.29	2236.47
600.64	2230.49
600.99	2223.39
601.34	2217.94
601.69	2211.09
602.04	2204.60
602.39	2197.90
602.74	2191.84
603.08	2186.29
603.43	2179.73
603.78	2172.96
604.13	2165.91
604.48	2158.73
604.83	2152.69
605.18	2146.40
605.53	2139.44
605.87	2132.40
606.22	2125.74
606.57	2117.80
606.92	2109.77
607.27	2102.71
607.62	2095.93
607.96	2088.85
608.31	2082.61
608.66	2074.75
609.01	2067.01
609.36	2059.89
609.70	2052.21
610.05	2044.36
610.40	2036.05
610.75	2027.73
611.10	2019.87
611.44	2010.93
611.79	2002.18
612.14	1992.13
612.49	1981.42
612.83	1972.03
613.18	1962.72
613.53	1953.30
613.88	1943.80
614.22	1935.27
614.57	1925.51
614.92	1914.97
615.27	1904.83
615.61	1894.67
615.96	1885.07
616.31	1875.46
616.65	1866.15
617.00	1856.44
617.35	1846.87
617.70	1837.19
618.04	1827.26
618.39	1817.18
618.74	1807.68
619.08	1797.93
619.43	1789.37
619.78	1781.36
620.12	1772.79
620.47	1763.27
620.82	1752.97
621.16	1743.23
621.51	1733.40
621.85	1723.59
622.20	1713.37
622.55	1702.83
622.89	1692.81
623.24	1683.23
623.59	1673.52
623.93	1663.41
624.28	1653.69
624.62	1643.71
624.97	1633.44
625.32	1623.62
625.66	1614.79
626.01	1606.06
626.35	1596.91
626.70	1586.74
627.04	1576.78
627.39	1566.73
627.73	1557.54
628.08	1548.87
628.43	1539.46
628.77	1530.39
629.12	1521.67
629.46	1513.87
629.81	1505.73
630.15	1496.46
630.50	1486.70
630.84	1476.25
631.19	1466.53
631.53	1457.37
631.88	1447.27
632.22	1437.41
632.57	1428.15
632.91	1418.14
633.26	1408.46
633.60	1398.92
633.95	1389.93
634.29	1380.39
634.64	1371.23
634.98	1361.41
635.32	1352.02
635.67	1343.65
636.01	1334.44
636.36	1324.69
636.70	1315.34
637.05	1306.05
637.39	1297.35
637.73	1288.78
638.08	1281.44
638.42	1273.33
638.77	1264.63
639.11	1256.57
639.45	1248.94
639.80	1240.53
640.14	1231.89
640.49	1222.97
640.83	1214.26
641.17	1206.12
641.52	1198.09
641.86	1189.64
642.20	1181.81
642.55	1173.32
642.89	1164.45
643.23	1155.87
643.58	1147.90
643.92	1138.87
644.26	1130.14
644.61	1121.57
644.95	1112.84
645.29	1103.66
645.64	1094.49
645.98	1085.98
646.32	1078.06
646.66	1069.58
647.01	1061.40
647.35	1053.33
647.69	1045.17
648.04	1036.94
648.38	1028.08
648.72	1019.41
649.06	1010.96
649.41	1002.74
649.75	994.93
650.09	987.13
650.43	979.18
650.78	970.87
651.12	963.28
651.46	955.90
651.80	948.76
652.14	941.54
652.49	934.04
652.83	926.81
653.17	919.19
653.51	911.63
653.85	904.46
654.20	897.17
654.54	889.83
654.88	882.64
655.22	875.46
655.56	868.46
655.90	861.64
656.25	854.94
656.59	848.13
656.93	841.07
657.27	833.93
657.61	827.01
657.95	820.95
658.29	815.03
658.64	809.06
658.98	802.61
659.32	796.06
659.66	789.86
660.00	783.50
660.34	777.53
660.68	771.39
661.02	765.01
661.36	759.01
661.70	753.11
662.05	747.41
662.39	741.97
662.73	736.61
663.07	731.33
663.41	725.74
663.75	720.03
664.09	714.35
664.43	708.93
664.77	703.48
665.11	697.69
665.45	691.72
665.79	685.81
666.13	680.12
666.47	674.62
666.81	669.19
667.15	663.81
667.49	658.56
667.83	653.29
668.17	648.01
668.51	642.91
668.85	638.02
669.19	633.14
669.53	628.11
669.87	622.99
670.21	618.10
670.55	613.42
670.89	608.94
671.23	604.57
671.57	600.16
671.91	595.86
672.25	591.65
672.58	587.58
672.92	583.49
673.26	579.58
673.60	575.69
673.94	571.87
674.28	568.26
674.62	564.56
674.96	560.75
675.30	557.27
675.64	553.62
675.97	549.95
676.31	546.34
676.65	542.71
676.99	539.31
677.33	535.49
677.67	531.82
678.01	527.95
678.34	524.32
678.68	520.81
679.02	517.18
679.36	513.51
679.70	509.80
680.04	506.23
680.37	502.78
680.71	499.43
681.05	496.18
681.39	492.87
681.73	489.67
682.06	486.68
682.40	483.57
682.74	480.40
683.08	477.17
683.42	473.98
683.75	470.93
684.09	467.83
684.43	465.04
684.77	462.10
685.10	459.27
685.44	456.35
685.78	453.45
686.12	450.67
686.45	447.92
686.79	445.25
687.13	442.69
687.46	440.04
687.80	437.38
688.14	434.49
688.48	431.80
688.81	429.07
689.15	426.45
689.49	423.76
689.82	421.16
690.16	418.54
690.50	416.07
690.83	413.58
691.17	411.05
691.51	408.55
691.84	406.25
692.18	403.96
692.52	401.78
692.85	399.59
693.19	397.38
693.52	395.18
693.86	392.88
694.20	390.68
694.53	388.48
694.87	386.21
695.21	384.06
695.54	381.87
695.88	379.64
696.21	377.37
696.55	375.25
696.88	373.20
697.22	371.18
697.56	369.23
697.89	367.30
698.23	365.51
698.56	363.68
698.90	361.88
699.23	359.94
699.57	357.97
699.90	356.08
700.24	354.29
700.58	352.51
700.91	350.85
701.25	349.23
701.58	347.61
701.92	346.03
702.25	344.50
702.59	342.87
702.92	341.36
703.26	339.79
703.59	338.28
703.93	336.95
704.26	335.53
704.60	334.03
704.93	332.53
705.26	331.01
705.60	329.51
705.93	327.98
706.27	326.66
706.60	325.37
706.94	324.16
707.27	322.78
707.61	321.41
707.94	320.06
708.27	318.55
708.61	317.07
708.94	315.65
709.28	314.29
709.61	313.02
709.94	311.75
710.28	310.52
710.61	309.30
710.95	307.83
711.28	306.76
711.61	305.54
711.95	304.39
712.28	303.17
712.61	301.97
712.95	300.90
713.28	299.84
713.61	298.67
713.95	297.46
714.28	296.38
714.61	295.30
714.95	294.27
715.28	293.23
715.61	292.20
715.95	291.21
716.28	290.23
716.61	289.25
716.95	288.26
717.28	287.34
717.61	286.37
717.94	285.48
718.28	284.38
718.61	283.47
718.94	282.55
719.27	281.68
719.61	280.82
719.94	279.95
720.27	278.96
720.60	278.10
720.94	277.32
721.27	276.57
721.60	275.87
721.93	275.13
722.27	274.50
722.60	273.83
722.93	273.11
723.26	272.39
723.59	271.70
723.93	271.05
724.26	270.39
724.59	269.75
724.92	269.19
725.25	268.63
725.59	268.01
725.92	267.42
726.25	266.85
726.58	266.30
726.91	265.70
727.24	265.14
727.57	264.53
727.91	263.88
728.24	263.29
728.57	262.67
728.90	262.09
729.23	261.45
729.56	261.00
729.89	260.46
730.22	259.90
730.55	259.27
730.89	258.71
731.22	258.14
731.55	257.61
731.88	257.05
732.21	256.50
732.54	255.97
732.87	255.49
733.20	255.02
733.53	254.49
733.86	253.99
734.19	253.51
734.52	253.09
734.85	252.81
735.18	252.33
735.51	251.95
735.84	251.51
736.17	251.11
736.50	250.58
736.83	250.42
737.16	250.05
737.49	249.75
737.82	249.32
738.15	248.94
738.48	248.52
738.81	248.12
739.14	247.69
739.47	247.32
739.80	246.93
740.13	246.54
740.46	246.16
740.79	245.75
741.12	245.37
741.45	245.00
741.78	244.53
742.11	244.26
742.44	243.86
742.77	243.56
743.10	243.18
743.43	242.82
743.75	242.26
744.08	242.16
744.41	241.78
744.74	241.46
745.07	241.08
745.40	240.81
745.73	240.55
746.06	240.23
746.39	239.89
746.71	239.54
747.04	239.19
747.37	238.87
747.70	238.59
748.03	238.30
748.36	238.01
748.68	237.74
749.01	237.39
749.34	237.11
749.67	236.81
750.00	236.57
750.33	236.42
750.65	236.16
750.98	235.60
751.31	235.34
751.64	235.10
751.97	235.01
752.29	234.74
752.62	234.41
752.95	234.18
753.28	233.96
753.60	233.72
753.93	233.55
754.26	233.33
754.59	233.05
754.91	232.78
755.24	232.54
755.57	232.29
755.90	232.07
756.22	231.81
756.55	231.60
756.88	231.32
757.20	231.00
757.53	230.71
757.86	230.52
758.19	230.33
758.51	230.09
758.84	229.74
759.17	229.53
759.49	229.35
759.82	229.24
760.15	229.08
760.47	228.87
760.80	228.61
761.13	228.48
761.45	228.28
761.78	228.10
762.11	227.92
762.43	227.73
762.76	227.51
763.08	227.33
763.41	227.13
763.74	227.00
764.06	226.82
764.39	226.66
764.71	226.50
765.04	226.32
765.37	226.18
765.69	226.05
766.02	225.90
766.34	225.74
766.67	225.56
767.00	225.45
767.32	225.43
767.65	225.43
767.97	225.24
768.30	225.12
768.62	225.03
768.95	224.90
769.27	224.75
769.60	224.67
769.92	224.52
770.25	224.35
770.57	224.15
770.90	224.00
771.22	223.86
771.55	223.75
771.87	223.65
772.20	223.51
772.52	223.55
772.85	223.66
773.17	223.54
773.50	223.39
773.82	223.21
774.15	223.03
774.47	222.76
774.80	222.68
775.12	222.59
775.45	222.49
775.77	222.39
776.09	222.31
776.42	222.22
776.74	222.22
777.07	222.13
777.39	222.10
777.72	222.01
778.04	221.98
778.36	221.85
778.69	221.77
779.01	221.71
779.33	221.49
779.66	221.17
779.98	221.08
780.31	221.02
780.63	221.03
780.95	220.97
781.28	220.92
781.60	220.81
781.92	220.72
782.25	220.67
782.57	220.59
782.89	220.51
783.22	220.45
783.54	220.35
783.86	220.30
784.19	220.20
784.51	220.20
784.83	220.10
785.16	220.06
785.48	220.01
785.80	219.96
786.12	219.88
