SpectraSuite Data File
++++++++++++++++++++++++++++++++++++
Date: Tue Jan 29 16:55:41 EST 2013
User: group
Dark Spectrum Present: No
Reference Spectrum Present: No
Number of Sampled Component Spectra: 1
Spectrometers: USB2E7196
Integration Time (usec): 65000 (USB2E7196)
Spectra Averaged: 100 (USB2E7196)
Boxcar Smoothing: 10 (USB2E7196)
Correct for Electrical Dark: No (USB2E7196)
Strobe/Lamp Enabled: No (USB2E7196)
Correct for Detector Non-linearity: No (USB2E7196)
Correct for Stray Light: No (USB2E7196)
Number of Pixels in Processed Spectrum: 2048
>>>>>Begin Processed Spectral Data<<<<<
339.09	0.00
339.48	201.03
339.86	202.65
340.24	204.57
340.63	205.86
341.01	210.48
341.39	208.79
341.78	209.30
342.16	211.71
342.54	211.74
342.93	200.78
343.31	210.94
343.69	211.51
344.07	211.98
344.46	212.40
344.84	212.80
345.22	212.96
345.60	213.20
345.99	213.42
346.37	213.54
346.75	213.62
347.13	213.69
347.52	213.81
347.90	213.89
348.28	213.94
348.66	213.99
349.05	213.97
349.43	214.00
349.81	214.05
350.19	214.09
350.57	214.16
350.96	214.26
351.34	214.36
351.72	214.45
352.10	214.55
352.48	214.62
352.87	214.68
353.25	214.73
353.63	214.80
354.01	214.87
354.39	214.95
354.77	215.08
355.15	215.19
355.54	215.21
355.92	215.24
356.30	215.31
356.68	215.52
357.06	215.63
357.44	215.66
357.82	215.72
358.20	215.84
358.58	215.91
358.97	215.98
359.35	216.08
359.73	216.18
360.11	216.24
360.49	216.34
360.87	216.37
361.25	216.52
361.63	216.63
362.01	216.69
362.39	216.69
362.77	216.70
363.15	216.70
363.53	216.72
363.91	216.74
364.29	216.75
364.67	216.59
365.05	216.58
365.43	216.62
365.81	216.66
366.19	216.73
366.57	216.79
366.95	216.78
367.33	216.70
367.71	216.69
368.09	216.72
368.47	216.69
368.85	216.70
369.23	216.70
369.61	216.60
369.99	216.64
370.37	216.66
370.75	216.75
371.13	216.71
371.51	216.66
371.89	216.66
372.27	216.65
372.65	216.61
373.03	216.57
373.41	216.51
373.78	216.46
374.16	216.32
374.54	216.23
374.92	216.12
375.30	216.08
375.68	216.00
376.06	216.00
376.44	215.93
376.82	215.90
377.19	215.81
377.57	215.76
377.95	215.63
378.33	215.57
378.71	215.41
379.09	215.40
379.47	215.38
379.84	215.33
380.22	215.27
380.60	215.20
380.98	215.15
381.36	215.11
381.73	215.05
382.11	215.05
382.49	215.00
382.87	214.98
383.25	214.97
383.62	215.17
384.00	215.08
384.38	215.05
384.76	215.06
385.13	215.12
385.51	215.09
385.89	215.05
386.27	215.04
386.64	215.04
387.02	214.96
387.40	214.91
387.78	214.88
388.15	214.89
388.53	214.90
388.91	214.90
389.29	214.89
389.66	214.89
390.04	214.86
390.42	214.93
390.79	214.95
391.17	214.94
391.55	214.68
391.92	214.65
392.30	214.66
392.68	214.58
393.05	214.53
393.43	214.55
393.81	214.57
394.18	214.55
394.56	214.55
394.94	214.60
395.31	214.61
395.69	214.69
396.06	214.71
396.44	214.74
396.82	214.74
397.19	214.85
397.57	214.84
397.95	214.89
398.32	214.80
398.70	214.82
399.07	214.92
399.45	215.00
399.82	215.06
400.20	215.10
400.58	215.19
400.95	215.17
401.33	215.27
401.70	215.48
402.08	215.55
402.45	215.63
402.83	215.78
403.20	215.88
403.58	215.95
403.95	216.12
404.33	216.23
404.71	216.39
405.08	216.64
405.46	216.84
405.83	217.06
406.21	217.28
406.58	217.53
406.96	217.73
407.33	217.96
407.70	218.28
408.08	218.78
408.45	219.12
408.83	219.51
409.20	219.85
409.58	220.14
409.95	220.59
410.33	221.10
410.70	221.56
411.08	222.14
411.45	222.77
411.82	223.32
412.20	224.02
412.57	224.84
412.95	225.43
413.32	226.27
413.69	227.10
414.07	228.03
414.44	229.02
414.82	230.07
415.19	231.28
415.56	232.49
415.94	233.65
416.31	235.08
416.68	236.50
417.06	238.14
417.43	239.71
417.81	241.50
418.18	243.26
418.55	245.20
418.93	247.24
419.30	249.33
419.67	251.56
420.04	253.87
420.42	256.31
420.79	259.16
421.16	261.95
421.54	264.87
421.91	267.91
422.28	270.99
422.66	274.29
423.03	277.61
423.40	281.00
423.77	284.63
424.15	288.28
424.52	292.14
424.89	296.33
425.26	300.40
425.64	304.30
426.01	308.59
426.38	313.10
426.75	317.66
427.13	322.39
427.50	327.41
427.87	332.69
428.24	337.90
428.61	342.89
428.99	348.41
429.36	354.47
429.73	360.37
430.10	366.32
430.47	372.41
430.85	378.65
431.22	385.32
431.59	392.53
431.96	399.42
432.33	407.00
432.70	414.28
433.08	422.88
433.45	431.03
433.82	439.16
434.19	448.04
434.56	456.79
434.93	465.22
435.30	473.55
435.68	482.68
436.05	491.71
436.42	500.71
436.79	508.96
437.16	517.77
437.53	527.12
437.90	536.35
438.27	545.42
438.64	554.77
439.01	563.36
439.38	570.91
439.75	578.24
440.13	586.70
440.50	594.70
440.87	601.22
441.24	607.84
441.61	615.16
441.98	620.62
442.35	627.01
442.72	633.36
443.09	639.48
443.46	643.19
443.83	645.78
444.20	647.98
444.57	651.15
444.94	652.59
445.31	654.06
445.68	655.46
446.05	656.07
446.42	655.28
446.79	654.38
447.16	653.28
447.53	652.54
447.90	649.18
448.27	645.94
448.64	641.23
449.01	637.94
449.37	632.09
449.74	626.42
450.11	619.45
450.48	612.01
450.85	604.55
451.22	598.14
451.59	591.89
451.96	586.06
452.33	578.18
452.70	571.11
453.07	562.56
453.43	553.91
453.80	545.54
454.17	537.52
454.54	529.92
454.91	521.80
455.28	513.80
455.65	506.34
456.02	498.74
456.38	492.33
456.75	484.38
457.12	477.71
457.49	471.11
457.86	464.88
458.23	459.45
458.59	453.40
458.96	447.31
459.33	441.95
459.70	436.53
460.07	432.23
460.43	427.28
460.80	422.64
461.17	418.60
461.54	414.36
461.91	410.30
462.27	406.17
462.64	402.61
463.01	398.80
463.38	395.07
463.74	391.35
464.11	388.09
464.48	385.23
464.85	382.12
465.21	379.67
465.58	377.07
465.95	373.90
466.32	371.29
466.68	368.67
467.05	366.11
467.42	363.51
467.78	360.76
468.15	358.18
468.52	356.23
468.88	353.70
469.25	351.47
469.62	349.65
469.98	347.64
470.35	345.85
470.72	344.10
471.08	342.27
471.45	340.74
471.82	339.19
472.18	337.50
472.55	336.27
472.92	334.87
473.28	333.59
473.65	332.40
474.02	331.26
474.38	330.34
474.75	329.54
475.11	328.69
475.48	328.12
475.85	327.59
476.21	327.14
476.58	326.76
476.94	326.49
477.31	326.15
477.67	325.92
478.04	325.74
478.41	325.71
478.77	325.86
479.14	325.81
479.50	325.98
479.87	326.30
480.23	326.59
480.60	326.84
480.96	327.08
481.33	327.70
481.69	328.26
482.06	328.80
482.42	329.29
482.79	329.89
483.15	330.61
483.52	331.53
483.88	332.35
484.25	333.32
484.61	334.32
484.98	335.34
485.34	336.58
485.71	337.92
486.07	339.37
486.44	340.69
486.80	342.32
487.17	343.95
487.53	345.78
487.90	347.66
488.26	349.65
488.62	351.84
488.99	353.93
489.35	356.08
489.72	358.44
490.08	360.98
490.44	363.61
490.81	366.35
491.17	369.10
491.54	372.11
491.90	375.12
492.26	378.40
492.63	381.81
492.99	385.31
493.36	388.97
493.72	392.81
494.08	396.81
494.45	400.96
494.81	405.33
495.17	409.74
495.54	414.45
495.90	419.30
496.26	424.20
496.63	429.39
496.99	434.82
497.35	440.37
497.72	446.15
498.08	452.04
498.44	458.15
498.80	464.60
499.17	471.07
499.53	477.72
499.89	484.62
500.26	491.61
500.62	498.67
500.98	506.02
501.34	513.53
501.71	521.22
502.07	529.00
502.43	536.98
502.79	545.13
503.16	553.54
503.52	562.07
503.88	570.72
504.24	579.63
504.60	588.63
504.97	597.83
505.33	607.11
505.69	616.95
506.05	626.77
506.41	636.60
506.78	646.63
507.14	656.82
507.50	667.24
507.86	677.91
508.22	688.70
508.59	699.37
508.95	710.35
509.31	721.65
509.67	733.12
510.03	744.47
510.39	756.04
510.75	767.67
511.12	779.61
511.48	791.59
511.84	803.85
512.20	816.17
512.56	828.82
512.92	841.52
513.28	854.13
513.64	866.88
514.00	879.70
514.37	892.63
514.73	905.76
515.09	918.77
515.45	931.67
515.81	944.69
516.17	958.13
516.53	971.29
516.89	984.35
517.25	997.59
517.61	1011.18
517.97	1024.61
518.33	1037.83
518.69	1051.29
519.05	1065.15
519.41	1078.77
519.77	1092.71
520.13	1106.07
520.49	1119.20
520.85	1132.58
521.21	1145.88
521.57	1159.52
521.93	1172.57
522.29	1186.28
522.65	1199.81
523.01	1213.35
523.37	1226.57
523.73	1239.79
524.09	1253.10
524.45	1266.56
524.81	1280.06
525.17	1293.42
525.53	1306.67
525.89	1320.01
526.25	1333.19
526.61	1346.04
526.97	1359.15
527.33	1372.12
527.68	1385.56
528.04	1399.20
528.40	1412.26
528.76	1425.69
529.12	1438.56
529.48	1451.85
529.84	1464.17
530.20	1476.95
530.56	1489.63
530.91	1502.83
531.27	1515.77
531.63	1528.36
531.99	1541.21
532.35	1553.50
532.71	1565.89
533.07	1578.91
533.42	1591.31
533.78	1603.50
534.14	1615.52
534.50	1626.71
534.86	1638.34
535.21	1649.26
535.57	1660.83
535.93	1672.22
536.29	1683.32
536.65	1694.92
537.00	1706.01
537.36	1717.49
537.72	1728.60
538.08	1740.12
538.44	1751.35
538.79	1762.47
539.15	1773.66
539.51	1784.53
539.87	1795.79
540.22	1806.71
540.58	1817.69
540.94	1828.65
541.29	1838.99
541.65	1848.91
542.01	1859.52
542.37	1869.52
542.72	1879.64
543.08	1889.49
543.44	1900.11
543.79	1909.40
544.15	1918.90
544.51	1928.96
544.87	1938.92
545.22	1948.31
545.58	1957.17
545.94	1965.98
546.29	1974.58
546.65	1983.00
547.01	1991.15
547.36	1999.00
547.72	2006.93
548.07	2014.52
548.43	2022.10
548.79	2030.06
549.14	2038.18
549.50	2046.79
549.86	2054.92
550.21	2062.54
550.57	2070.30
550.92	2077.04
551.28	2084.61
551.64	2091.79
551.99	2099.16
552.35	2106.33
552.70	2113.15
553.06	2119.94
553.41	2126.23
553.77	2132.62
554.13	2138.96
554.48	2145.85
554.84	2152.87
555.19	2159.23
555.55	2165.67
555.90	2172.05
556.26	2178.83
556.61	2185.15
556.97	2190.00
557.32	2195.67
557.68	2202.07
558.03	2207.86
558.39	2213.31
558.74	2219.33
559.10	2224.90
559.45	2230.53
559.81	2236.05
560.16	2241.53
560.52	2247.19
560.87	2253.55
561.23	2259.37
561.58	2265.88
561.94	2271.37
562.29	2275.80
562.64	2281.73
563.00	2287.30
563.35	2292.77
563.71	2298.42
564.06	2303.84
564.42	2309.70
564.77	2314.60
565.12	2319.89
565.48	2324.64
565.83	2329.94
566.19	2335.05
566.54	2340.16
566.89	2344.56
567.25	2349.08
567.60	2354.78
567.96	2359.72
568.31	2364.11
568.66	2368.34
569.02	2372.18
569.37	2375.67
569.72	2380.11
570.08	2383.54
570.43	2386.67
570.78	2389.70
571.14	2392.06
571.49	2395.13
571.84	2398.52
572.20	2401.37
572.55	2403.99
572.90	2406.31
573.26	2408.99
573.61	2411.53
573.96	2413.78
574.31	2415.82
574.67	2417.61
575.02	2417.99
575.37	2419.49
575.72	2419.97
576.08	2421.27
576.43	2421.35
576.78	2421.45
577.13	2422.64
577.49	2423.67
577.84	2424.35
578.19	2425.40
578.54	2425.69
578.90	2426.03
579.25	2425.70
579.60	2425.42
579.95	2424.52
580.30	2424.26
580.66	2423.44
581.01	2421.75
581.36	2419.01
581.71	2417.29
582.06	2415.75
582.42	2414.78
582.77	2412.28
583.12	2410.60
583.47	2409.03
583.82	2408.22
584.17	2406.75
584.53	2404.68
584.88	2402.26
585.23	2400.21
585.58	2397.80
585.93	2395.85
586.28	2393.59
586.63	2390.70
586.98	2388.32
587.34	2386.09
587.69	2383.38
588.04	2381.07
588.39	2379.23
588.74	2376.58
589.09	2373.64
589.44	2370.21
589.79	2367.46
590.14	2365.13
590.49	2362.12
590.84	2358.18
591.19	2354.68
591.54	2351.57
591.89	2347.31
592.25	2344.05
592.60	2339.74
592.95	2335.49
593.30	2331.13
593.65	2326.55
594.00	2322.17
594.35	2319.14
594.70	2314.41
595.05	2309.90
595.40	2304.24
595.75	2298.30
596.10	2294.57
596.45	2289.80
596.80	2285.27
597.15	2280.17
597.50	2274.36
597.85	2269.35
598.19	2264.15
598.54	2258.37
598.89	2253.01
599.24	2248.41
599.59	2242.14
599.94	2236.13
600.29	2229.93
600.64	2223.91
600.99	2217.06
601.34	2211.47
601.69	2204.35
602.04	2198.03
602.39	2191.38
602.74	2185.29
603.08	2179.75
603.43	2173.35
603.78	2166.52
604.13	2159.42
604.48	2152.02
604.83	2145.88
605.18	2139.74
605.53	2132.81
605.87	2125.92
606.22	2119.23
606.57	2111.23
606.92	2103.30
607.27	2096.35
607.62	2089.96
607.96	2083.09
608.31	2076.90
608.66	2069.27
609.01	2061.71
609.36	2054.59
609.70	2047.06
610.05	2039.25
610.40	2031.03
610.75	2022.63
611.10	2014.67
611.44	2005.70
611.79	1996.98
612.14	1987.07
612.49	1976.39
612.83	1966.83
613.18	1957.34
613.53	1947.86
613.88	1938.51
614.22	1929.99
614.57	1920.25
614.92	1909.52
615.27	1899.06
615.61	1888.66
615.96	1879.01
616.31	1869.47
616.65	1859.88
617.00	1850.23
617.35	1840.76
617.70	1830.92
618.04	1821.10
618.39	1811.24
618.74	1801.90
619.08	1792.39
619.43	1783.67
619.78	1775.36
620.12	1766.95
620.47	1757.60
620.82	1747.46
621.16	1737.71
621.51	1727.77
621.85	1718.18
622.20	1708.11
622.55	1697.83
622.89	1688.00
623.24	1678.42
623.59	1668.59
623.93	1658.75
624.28	1648.80
624.62	1638.80
624.97	1628.87
625.32	1619.03
625.66	1610.03
626.01	1601.25
626.35	1592.05
626.70	1582.15
627.04	1572.33
627.39	1562.36
627.73	1553.27
628.08	1544.57
628.43	1535.17
628.77	1526.05
629.12	1517.17
629.46	1509.48
629.81	1501.22
630.15	1492.05
630.50	1482.30
630.84	1472.00
631.19	1462.07
631.53	1453.08
631.88	1443.01
632.22	1433.08
632.57	1423.99
632.91	1414.19
633.26	1404.40
633.60	1394.93
633.95	1385.94
634.29	1376.50
634.64	1367.30
634.98	1357.46
635.32	1348.19
635.67	1339.90
636.01	1330.81
636.36	1321.23
636.70	1311.81
637.05	1302.57
637.39	1293.82
637.73	1285.43
638.08	1277.96
638.42	1270.07
638.77	1261.42
639.11	1253.36
639.45	1245.71
639.80	1237.28
640.14	1228.59
640.49	1219.99
640.83	1211.26
641.17	1203.01
641.52	1194.98
641.86	1186.52
642.20	1178.79
642.55	1170.19
642.89	1161.36
643.23	1152.88
643.58	1144.84
643.92	1135.89
644.26	1127.40
644.61	1118.96
644.95	1110.17
645.29	1101.17
645.64	1092.07
645.98	1083.52
646.32	1075.63
646.66	1067.24
647.01	1059.06
647.35	1051.14
647.69	1042.96
648.04	1034.85
648.38	1026.19
648.72	1017.60
649.06	1009.25
649.41	1001.16
649.75	993.36
650.09	985.59
650.43	977.76
650.78	969.52
651.12	961.84
651.46	954.42
651.80	947.26
652.14	940.11
652.49	932.65
652.83	925.47
653.17	917.93
653.51	910.39
653.85	903.15
654.20	895.91
654.54	888.51
654.88	881.34
655.22	874.13
655.56	867.16
655.90	860.44
656.25	853.80
656.59	846.96
656.93	840.11
657.27	833.01
657.61	825.93
657.95	819.85
658.29	813.97
658.64	807.98
658.98	801.52
659.32	794.98
659.66	788.76
660.00	782.35
660.34	776.32
660.68	770.29
661.02	763.98
661.36	757.95
661.70	752.20
662.05	746.56
662.39	741.04
662.73	735.64
663.07	730.14
663.41	724.54
663.75	718.71
664.09	712.93
664.43	707.46
664.77	702.12
665.11	696.36
665.45	690.46
665.79	684.47
666.13	678.88
666.47	673.42
666.81	667.97
667.15	662.67
667.49	657.51
667.83	652.22
668.17	647.03
668.51	642.05
668.85	637.07
669.19	632.11
669.53	627.15
669.87	622.04
670.21	617.33
670.55	612.70
670.89	608.31
671.23	603.96
671.57	599.55
671.91	595.29
672.25	591.05
672.58	587.00
672.92	583.00
673.26	579.05
673.60	575.07
673.94	571.25
674.28	567.60
674.62	563.83
674.96	560.10
675.30	556.56
675.64	552.81
675.97	549.24
676.31	545.63
676.65	542.04
676.99	538.71
677.33	534.85
677.67	531.20
678.01	527.33
678.34	523.70
678.68	520.22
679.02	516.62
679.36	513.01
679.70	509.36
680.04	505.81
680.37	502.34
680.71	499.05
681.05	495.83
681.39	492.49
681.73	489.33
682.06	486.29
682.40	483.25
682.74	480.06
683.08	476.82
683.42	473.61
683.75	470.53
684.09	467.40
684.43	464.60
684.77	461.62
685.10	458.82
685.44	455.86
685.78	452.95
686.12	450.12
686.45	447.34
686.79	444.67
687.13	442.12
687.46	439.47
687.80	436.74
688.14	433.88
688.48	431.29
688.81	428.54
689.15	425.92
689.49	423.26
689.82	420.67
690.16	418.04
690.50	415.55
690.83	413.07
691.17	410.45
691.51	407.93
691.84	405.64
692.18	403.36
692.52	401.17
692.85	399.01
693.19	396.81
693.52	394.62
693.86	392.36
694.20	390.17
694.53	387.96
694.87	385.73
695.21	383.62
695.54	381.41
695.88	379.24
696.21	377.01
696.55	374.86
696.88	372.81
697.22	370.83
697.56	368.92
697.89	366.95
698.23	365.23
698.56	363.43
698.90	361.64
699.23	359.74
699.57	357.83
699.90	355.98
700.24	354.15
700.58	352.40
700.91	350.66
701.25	349.04
701.58	347.44
701.92	345.85
702.25	344.19
702.59	342.55
702.92	341.01
703.26	339.47
703.59	337.94
703.93	336.69
704.26	335.24
704.60	333.70
704.93	332.26
705.26	330.71
705.60	329.22
705.93	327.62
706.27	326.29
706.60	325.03
706.94	323.78
707.27	322.41
707.61	321.04
707.94	319.67
708.27	318.11
708.61	316.66
708.94	315.27
709.28	313.97
709.61	312.68
709.94	311.45
710.28	310.21
710.61	309.02
710.95	307.54
711.28	306.43
711.61	305.25
711.95	304.07
712.28	302.84
712.61	301.65
712.95	300.66
713.28	299.61
713.61	298.42
713.95	297.19
714.28	296.13
714.61	295.05
714.95	294.04
715.28	293.05
715.61	292.04
715.95	291.07
716.28	290.07
716.61	289.11
716.95	288.03
717.28	287.10
717.61	286.13
717.94	285.21
718.28	284.16
718.61	283.26
718.94	282.37
719.27	281.51
719.61	280.67
719.94	279.80
720.27	278.81
720.60	277.92
720.94	277.12
721.27	276.37
721.60	275.65
721.93	274.90
722.27	274.23
722.60	273.56
722.93	272.84
723.26	272.17
723.59	271.47
723.93	270.85
724.26	270.16
724.59	269.49
724.92	268.89
725.25	268.35
725.59	267.78
725.92	267.24
726.25	266.69
726.58	266.08
726.91	265.44
727.24	264.82
727.57	264.25
727.91	263.63
728.24	263.08
728.57	262.46
728.90	261.92
729.23	261.27
729.56	260.80
729.89	260.23
730.22	259.63
730.55	259.08
730.89	258.54
731.22	257.98
731.55	257.47
731.88	256.95
732.21	256.36
732.54	255.77
732.87	255.23
733.20	254.68
733.53	254.22
733.86	253.78
734.19	253.32
734.52	252.88
734.85	252.58
735.18	252.08
735.51	251.73
735.84	251.25
736.17	250.88
736.50	250.36
736.83	250.20
737.16	249.84
737.49	249.44
737.82	249.01
738.15	248.64
738.48	248.22
738.81	247.81
739.14	247.38
739.47	247.03
739.80	246.64
740.13	246.34
740.46	245.93
740.79	245.52
741.12	245.15
741.45	244.84
741.78	244.41
742.11	244.12
742.44	243.75
742.77	243.47
743.10	243.11
743.43	242.73
743.75	242.20
744.08	242.11
744.41	241.73
744.74	241.41
745.07	241.05
745.40	240.77
745.73	240.51
746.06	240.21
746.39	239.86
746.71	239.51
747.04	239.15
747.37	238.80
747.70	238.51
748.03	238.24
748.36	237.94
748.68	237.60
749.01	237.26
749.34	236.97
749.67	236.64
750.00	236.37
750.33	236.26
750.65	235.98
750.98	235.44
751.31	235.19
751.64	234.96
751.97	234.85
752.29	234.56
752.62	234.22
752.95	233.97
753.28	233.71
753.60	233.46
753.93	233.29
754.26	233.12
754.59	232.85
754.91	232.57
755.24	232.32
755.57	232.09
755.90	231.86
756.22	231.60
756.55	231.35
756.88	231.10
757.20	230.73
757.53	230.46
757.86	230.27
758.19	230.09
758.51	229.87
758.84	229.55
759.17	229.34
759.49	229.20
759.82	229.11
760.15	228.93
760.47	228.76
760.80	228.46
761.13	228.30
761.45	228.10
761.78	227.91
762.11	227.72
762.43	227.54
762.76	227.34
763.08	227.19
763.41	227.04
763.74	226.89
764.06	226.74
764.39	226.54
764.71	226.37
765.04	226.20
765.37	226.05
765.69	225.87
766.02	225.74
766.34	225.54
766.67	225.30
767.00	225.21
767.32	225.21
767.65	225.25
767.97	225.06
768.30	224.96
768.62	224.85
768.95	224.68
769.27	224.58
769.60	224.53
769.92	224.36
770.25	224.22
770.57	224.04
770.90	223.92
771.22	223.82
771.55	223.74
771.87	223.63
772.20	223.49
772.52	223.56
772.85	223.68
773.17	223.60
773.50	223.52
773.82	223.38
774.15	223.15
774.47	222.89
774.80	222.82
775.12	222.71
775.45	222.61
775.77	222.55
776.09	222.46
776.42	222.33
776.74	222.32
777.07	222.22
777.39	222.18
777.72	222.05
778.04	222.00
778.36	221.87
778.69	221.80
779.01	221.75
779.33	221.47
779.66	221.14
779.98	221.01
780.31	220.95
780.63	220.98
780.95	220.94
781.28	220.86
781.60	220.74
781.92	220.68
782.25	220.62
782.57	220.55
782.89	220.47
783.22	220.39
783.54	220.28
783.86	220.24
784.19	220.15
784.51	220.18
784.83	220.11
785.16	220.07
785.48	219.98
785.80	219.91
786.12	219.92
