SpectraSuite Data File
++++++++++++++++++++++++++++++++++++
Date: Tue Jan 29 16:27:00 EST 2013
User: group
Dark Spectrum Present: No
Reference Spectrum Present: No
Number of Sampled Component Spectra: 1
Spectrometers: USB2E7196
Integration Time (usec): 65000 (USB2E7196)
Spectra Averaged: 100 (USB2E7196)
Boxcar Smoothing: 10 (USB2E7196)
Correct for Electrical Dark: No (USB2E7196)
Strobe/Lamp Enabled: No (USB2E7196)
Correct for Detector Non-linearity: No (USB2E7196)
Correct for Stray Light: No (USB2E7196)
Number of Pixels in Processed Spectrum: 2048
>>>>>Begin Processed Spectral Data<<<<<
339.09	0.00
339.48	201.57
339.86	202.70
340.24	204.36
340.63	206.70
341.01	210.91
341.39	208.86
341.78	210.07
342.16	211.82
342.54	212.22
342.93	201.14
343.31	211.30
343.69	211.84
344.07	212.30
344.46	212.78
344.84	213.17
345.22	213.34
345.60	213.63
345.99	213.85
346.37	214.00
346.75	214.11
347.13	214.21
347.52	214.28
347.90	214.41
348.28	214.46
348.66	214.52
349.05	214.51
349.43	214.63
349.81	214.71
350.19	214.77
350.57	214.84
350.96	214.93
351.34	215.04
351.72	215.15
352.10	215.31
352.48	215.37
352.87	215.41
353.25	215.49
353.63	215.53
354.01	215.57
354.39	215.62
354.77	215.71
355.15	215.85
355.54	215.90
355.92	215.88
356.30	215.94
356.68	216.17
357.06	216.28
357.44	216.30
357.82	216.36
358.20	216.45
358.58	216.53
358.97	216.59
359.35	216.68
359.73	216.79
360.11	216.84
360.49	216.93
360.87	216.96
361.25	217.03
361.63	217.15
362.01	217.23
362.39	217.25
362.77	217.30
363.15	217.30
363.53	217.33
363.91	217.38
364.29	217.43
364.67	217.25
365.05	217.22
365.43	217.26
365.81	217.28
366.19	217.40
366.57	217.45
366.95	217.45
367.33	217.40
367.71	217.41
368.09	217.45
368.47	217.41
368.85	217.44
369.23	217.47
369.61	217.39
369.99	217.42
370.37	217.44
370.75	217.48
371.13	217.42
371.51	217.34
371.89	217.32
372.27	217.29
372.65	217.30
373.03	217.31
373.41	217.27
373.78	217.22
374.16	217.05
374.54	216.97
374.92	216.92
375.30	216.90
375.68	216.82
376.06	216.79
376.44	216.76
376.82	216.73
377.19	216.66
377.57	216.58
377.95	216.48
378.33	216.42
378.71	216.27
379.09	216.26
379.47	216.30
379.84	216.24
380.22	216.21
380.60	216.10
380.98	216.02
381.36	215.97
381.73	215.90
382.11	215.93
382.49	215.88
382.87	215.80
383.25	215.74
383.62	215.93
384.00	215.82
384.38	215.79
384.76	215.78
385.13	215.82
385.51	215.78
385.89	215.71
386.27	215.69
386.64	215.71
387.02	215.63
387.40	215.57
387.78	215.57
388.15	215.53
388.53	215.52
388.91	215.50
389.29	215.46
389.66	215.46
390.04	215.39
390.42	215.44
390.79	215.40
391.17	215.41
391.55	215.17
391.92	215.16
392.30	215.12
392.68	215.07
393.05	214.99
393.43	215.03
393.81	215.06
394.18	215.03
394.56	215.04
394.94	215.13
395.31	215.12
395.69	215.17
396.06	215.23
396.44	215.28
396.82	215.29
397.19	215.43
397.57	215.44
397.95	215.51
398.32	215.47
398.70	215.57
399.07	215.65
399.45	215.70
399.82	215.78
400.20	215.84
400.58	215.90
400.95	215.93
401.33	216.04
401.70	216.28
402.08	216.40
402.45	216.51
402.83	216.62
403.20	216.70
403.58	216.74
403.95	216.90
404.33	217.06
404.71	217.23
405.08	217.47
405.46	217.66
405.83	217.83
406.21	218.05
406.58	218.27
406.96	218.50
407.33	218.74
407.70	219.03
408.08	219.52
408.45	219.85
408.83	220.26
409.20	220.63
409.58	220.91
409.95	221.34
410.33	221.79
410.70	222.25
411.08	222.81
411.45	223.42
411.82	223.98
412.20	224.66
412.57	225.45
412.95	226.00
413.32	226.78
413.69	227.64
414.07	228.52
414.44	229.53
414.82	230.57
415.19	231.78
415.56	232.97
415.94	234.17
416.31	235.61
416.68	237.00
417.06	238.58
417.43	240.12
417.81	241.89
418.18	243.72
418.55	245.60
418.93	247.65
419.30	249.72
419.67	251.94
420.04	254.21
420.42	256.59
420.79	259.46
421.16	262.28
421.54	265.16
421.91	268.16
422.28	271.24
422.66	274.56
423.03	277.80
423.40	281.14
423.77	284.72
424.15	288.34
424.52	292.16
424.89	296.29
425.26	300.39
425.64	304.20
426.01	308.41
426.38	312.91
426.75	317.47
427.13	322.17
427.50	327.11
427.87	332.29
428.24	337.48
428.61	342.43
428.99	347.95
429.36	353.96
429.73	359.83
430.10	365.65
430.47	371.66
430.85	377.90
431.22	384.62
431.59	391.72
431.96	398.50
432.33	406.02
432.70	413.27
433.08	421.71
433.45	429.72
433.82	437.74
434.19	446.60
434.56	455.24
434.93	463.56
435.30	471.81
435.68	480.95
436.05	489.90
436.42	498.74
436.79	506.91
437.16	515.64
437.53	524.88
437.90	534.03
438.27	542.93
438.64	552.14
439.01	560.57
439.38	568.10
439.75	575.48
440.13	583.86
440.50	591.78
440.87	598.18
441.24	604.87
441.61	612.16
441.98	617.57
442.35	623.87
442.72	630.22
443.09	636.36
443.46	640.11
443.83	642.64
444.20	644.91
444.57	648.00
444.94	649.47
445.31	650.91
445.68	652.28
446.05	652.94
446.42	652.22
446.79	651.26
447.16	650.24
447.53	649.48
447.90	646.17
448.27	642.91
448.64	638.27
449.01	634.91
449.37	629.05
449.74	623.33
450.11	616.46
450.48	609.05
450.85	601.55
451.22	595.03
451.59	588.84
451.96	582.97
452.33	575.13
452.70	568.06
453.07	559.59
453.43	551.02
453.80	542.72
454.17	534.68
454.54	527.14
454.91	518.93
455.28	510.92
455.65	503.51
456.02	496.02
456.38	489.71
456.75	481.91
457.12	475.32
457.49	468.84
457.86	462.60
458.23	457.22
458.59	451.30
458.96	445.32
459.33	440.11
459.70	434.74
460.07	430.47
460.43	425.55
460.80	420.98
461.17	417.02
461.54	412.85
461.91	408.86
462.27	404.78
462.64	401.34
463.01	397.61
463.38	393.91
463.74	390.27
464.11	387.06
464.48	384.21
464.85	381.11
465.21	378.70
465.58	376.14
465.95	373.01
466.32	370.42
466.68	367.82
467.05	365.20
467.42	362.66
467.78	359.97
468.15	357.46
468.52	355.53
468.88	353.00
469.25	350.78
469.62	348.97
469.98	347.09
470.35	345.29
470.72	343.57
471.08	341.76
471.45	340.27
471.82	338.76
472.18	337.12
472.55	335.94
472.92	334.58
473.28	333.39
473.65	332.28
474.02	331.15
474.38	330.29
474.75	329.53
475.11	328.71
475.48	328.11
475.85	327.61
476.21	327.18
476.58	326.87
476.94	326.63
477.31	326.35
477.67	326.07
478.04	325.95
478.41	325.91
478.77	326.11
479.14	325.98
479.50	326.11
479.87	326.37
480.23	326.71
480.60	326.91
480.96	327.18
481.33	327.73
481.69	328.31
482.06	328.77
482.42	329.27
482.79	329.89
483.15	330.73
483.52	331.72
483.88	332.60
484.25	333.57
484.61	334.53
484.98	335.57
485.34	336.90
485.71	338.24
486.07	339.64
486.44	341.00
486.80	342.66
487.17	344.38
487.53	346.23
487.90	348.08
488.26	350.15
488.62	352.35
488.99	354.49
489.35	356.61
489.72	359.02
490.08	361.56
490.44	364.17
490.81	366.86
491.17	369.52
491.54	372.48
491.90	375.51
492.26	378.79
492.63	382.22
492.99	385.69
493.36	389.42
493.72	393.33
494.08	397.32
494.45	401.53
494.81	405.91
495.17	410.43
495.54	415.17
495.90	419.93
496.26	424.85
496.63	429.99
496.99	435.45
497.35	441.05
497.72	446.83
498.08	452.81
498.44	458.95
498.80	465.45
499.17	471.98
499.53	478.73
499.89	485.74
500.26	492.80
500.62	499.94
500.98	507.33
501.34	514.81
501.71	522.57
502.07	530.41
502.43	538.39
502.79	546.55
503.16	554.99
503.52	563.67
503.88	572.50
504.24	581.53
504.60	590.65
504.97	599.91
505.33	609.36
505.69	619.32
506.05	629.23
506.41	639.13
506.78	649.30
507.14	659.58
507.50	670.08
507.86	680.81
508.22	691.64
508.59	702.37
508.95	713.61
509.31	725.00
509.67	736.54
510.03	747.99
510.39	759.84
510.75	771.76
511.12	783.69
511.48	795.87
511.84	808.21
512.20	820.71
512.56	833.57
512.92	846.42
513.28	859.10
513.64	872.00
514.00	884.99
514.37	898.08
514.73	911.31
515.09	924.39
515.45	937.39
515.81	950.62
516.17	964.12
516.53	977.44
516.89	990.53
517.25	1003.94
517.61	1017.59
517.97	1031.03
518.33	1044.29
518.69	1058.02
519.05	1071.89
519.41	1085.75
519.77	1099.77
520.13	1113.12
520.49	1126.43
520.85	1139.87
521.21	1153.30
521.57	1167.09
521.93	1180.21
522.29	1194.02
522.65	1207.79
523.01	1221.58
523.37	1234.83
523.73	1248.24
524.09	1261.50
524.45	1275.17
524.81	1288.71
525.17	1302.25
525.53	1315.64
525.89	1329.11
526.25	1342.45
526.61	1355.42
526.97	1368.57
527.33	1381.58
527.68	1395.29
528.04	1408.98
528.40	1422.31
528.76	1435.85
529.12	1448.80
529.48	1462.31
529.84	1474.71
530.20	1487.68
530.56	1500.36
530.91	1513.81
531.27	1526.84
531.63	1539.78
531.99	1552.66
532.35	1565.09
532.71	1577.68
533.07	1590.64
533.42	1603.06
533.78	1615.14
534.14	1627.22
534.50	1638.56
534.86	1650.25
535.21	1661.00
535.57	1672.46
535.93	1683.88
536.29	1695.01
536.65	1706.60
537.00	1717.69
537.36	1729.21
537.72	1740.17
538.08	1751.72
538.44	1762.70
538.79	1773.89
539.15	1784.80
539.51	1795.67
539.87	1806.98
540.22	1817.79
540.58	1828.76
540.94	1839.67
541.29	1850.18
541.65	1860.10
542.01	1870.71
542.37	1880.92
542.72	1891.35
543.08	1901.26
543.44	1911.82
543.79	1921.21
544.15	1930.75
544.51	1940.68
544.87	1950.62
545.22	1959.94
545.58	1968.94
545.94	1977.96
546.29	1986.41
546.65	1994.93
547.01	2003.22
547.36	2010.98
547.72	2018.93
548.07	2026.55
548.43	2034.41
548.79	2042.37
549.14	2050.60
549.50	2059.15
549.86	2067.05
550.21	2074.48
550.57	2082.25
550.92	2089.09
551.28	2096.74
551.64	2104.03
551.99	2111.61
552.35	2118.96
552.70	2125.89
553.06	2132.65
553.41	2138.97
553.77	2145.69
554.13	2152.13
554.48	2159.06
554.84	2166.22
555.19	2172.78
555.55	2179.42
555.90	2185.73
556.26	2192.51
556.61	2198.64
556.97	2203.47
557.32	2209.37
557.68	2215.94
558.03	2221.84
558.39	2227.18
558.74	2233.17
559.10	2238.82
559.45	2244.50
559.81	2249.97
560.16	2255.58
560.52	2261.38
560.87	2267.89
561.23	2273.84
561.58	2280.67
561.94	2286.18
562.29	2291.02
562.64	2297.16
563.00	2302.74
563.35	2308.39
563.71	2314.25
564.06	2319.91
564.42	2325.96
564.77	2330.92
565.12	2336.06
565.48	2341.13
565.83	2346.67
566.19	2352.15
566.54	2357.57
566.89	2362.34
567.25	2367.08
567.60	2372.83
567.96	2378.00
568.31	2382.52
568.66	2386.88
569.02	2390.63
569.37	2394.35
569.72	2398.75
570.08	2402.18
570.43	2405.37
570.78	2408.64
571.14	2411.09
571.49	2414.29
571.84	2417.99
572.20	2421.04
572.55	2424.14
572.90	2426.41
573.26	2429.40
573.61	2431.92
573.96	2434.08
574.31	2435.98
574.67	2437.73
575.02	2438.50
575.37	2440.10
575.72	2440.75
576.08	2442.13
576.43	2442.26
576.78	2442.75
577.13	2444.33
577.49	2445.55
577.84	2446.67
578.19	2447.90
578.54	2448.52
578.90	2449.30
579.25	2449.05
579.60	2449.04
579.95	2448.21
580.30	2448.47
580.66	2447.73
581.01	2446.16
581.36	2443.75
581.71	2442.32
582.06	2441.22
582.42	2440.48
582.77	2438.20
583.12	2436.59
583.47	2435.22
583.82	2434.67
584.17	2433.38
584.53	2431.33
584.88	2429.15
585.23	2427.27
585.58	2424.97
585.93	2422.94
586.28	2420.74
586.63	2418.25
586.98	2415.93
587.34	2413.93
587.69	2411.41
588.04	2409.35
588.39	2407.82
588.74	2405.40
589.09	2402.82
589.44	2399.72
589.79	2397.15
590.14	2395.16
590.49	2392.45
590.84	2388.71
591.19	2385.65
591.54	2382.30
591.89	2378.21
592.25	2375.05
592.60	2370.82
592.95	2366.63
593.30	2362.51
593.65	2358.02
594.00	2353.72
594.35	2350.66
594.70	2346.00
595.05	2341.49
595.40	2335.92
595.75	2330.06
596.10	2326.52
596.45	2321.52
596.80	2316.89
597.15	2311.62
597.50	2305.71
597.85	2300.68
598.19	2295.40
598.54	2289.75
598.89	2284.71
599.24	2279.93
599.59	2273.65
599.94	2267.74
600.29	2261.75
600.64	2255.82
600.99	2249.06
601.34	2243.45
601.69	2236.44
602.04	2230.15
602.39	2223.43
602.74	2217.30
603.08	2211.82
603.43	2205.18
603.78	2198.29
604.13	2191.25
604.48	2183.99
604.83	2177.86
605.18	2171.62
605.53	2164.50
605.87	2157.28
606.22	2150.39
606.57	2142.58
606.92	2134.58
607.27	2127.59
607.62	2120.92
607.96	2113.78
608.31	2107.22
608.66	2099.53
609.01	2091.93
609.36	2084.68
609.70	2076.97
610.05	2069.16
610.40	2060.68
610.75	2052.31
611.10	2044.64
611.44	2035.59
611.79	2026.84
612.14	2016.66
612.49	2005.77
612.83	1996.38
613.18	1986.93
613.53	1977.52
613.88	1967.84
614.22	1959.24
614.57	1949.30
614.92	1938.66
615.27	1928.39
615.61	1918.21
615.96	1908.46
616.31	1898.69
616.65	1889.20
617.00	1879.27
617.35	1869.52
617.70	1859.80
618.04	1849.77
618.39	1839.46
618.74	1829.77
619.08	1820.04
619.43	1811.28
619.78	1803.03
620.12	1794.48
620.47	1784.92
620.82	1774.56
621.16	1764.75
621.51	1754.66
621.85	1744.74
622.20	1734.26
622.55	1723.60
622.89	1713.58
623.24	1703.73
623.59	1693.96
623.93	1683.74
624.28	1673.89
624.62	1663.70
624.97	1653.29
625.32	1643.31
625.66	1634.33
626.01	1625.58
626.35	1616.15
626.70	1606.03
627.04	1595.93
627.39	1585.77
627.73	1576.43
628.08	1567.42
628.43	1557.87
628.77	1548.65
629.12	1539.71
629.46	1531.83
629.81	1523.55
630.15	1514.03
630.50	1504.13
630.84	1493.49
631.19	1483.53
631.53	1474.17
631.88	1463.93
632.22	1453.80
632.57	1444.32
632.91	1434.19
633.26	1424.11
633.60	1414.41
633.95	1405.09
634.29	1395.55
634.64	1386.12
634.98	1376.13
635.32	1366.70
635.67	1358.10
636.01	1348.76
636.36	1339.00
636.70	1329.37
637.05	1319.78
637.39	1310.64
637.73	1301.96
638.08	1294.33
638.42	1286.08
638.77	1277.27
639.11	1268.91
639.45	1260.96
639.80	1252.34
640.14	1243.50
640.49	1234.62
640.83	1225.69
641.17	1217.41
641.52	1209.17
641.86	1200.41
642.20	1192.34
642.55	1183.60
642.89	1174.49
643.23	1165.81
643.58	1157.59
643.92	1148.43
644.26	1139.68
644.61	1131.22
644.95	1122.22
645.29	1112.87
645.64	1103.59
645.98	1094.93
646.32	1086.95
646.66	1078.47
647.01	1070.11
647.35	1061.85
647.69	1053.43
648.04	1045.11
648.38	1036.12
648.72	1027.23
649.06	1018.64
649.41	1010.39
649.75	1002.41
650.09	994.46
650.43	986.28
650.78	977.87
651.12	970.14
651.46	962.53
651.80	955.15
652.14	947.82
652.49	940.25
652.83	932.85
653.17	925.07
653.51	917.39
653.85	910.06
654.20	902.67
654.54	895.11
654.88	887.73
655.22	880.43
655.56	873.32
655.90	866.49
656.25	859.87
656.59	852.83
656.93	845.64
657.27	838.37
657.61	831.31
657.95	825.05
658.29	819.01
658.64	812.88
658.98	806.38
659.32	799.78
659.66	793.45
660.00	787.03
660.34	780.86
660.68	774.68
661.02	768.24
661.36	762.21
661.70	756.36
662.05	750.63
662.39	745.02
662.73	739.63
663.07	734.15
663.41	728.46
663.75	722.72
664.09	717.00
664.43	711.61
664.77	706.21
665.11	700.36
665.45	694.44
665.79	688.57
666.13	682.81
666.47	677.24
666.81	671.72
667.15	666.27
667.49	661.05
667.83	655.67
668.17	650.40
668.51	645.27
668.85	640.36
669.19	635.42
669.53	630.31
669.87	625.10
670.21	620.28
670.55	615.45
670.89	610.89
671.23	606.52
671.57	602.03
671.91	597.64
672.25	593.46
672.58	589.24
672.92	585.11
673.26	581.15
673.60	577.23
673.94	573.37
674.28	569.75
674.62	565.97
674.96	562.22
675.30	558.65
675.64	554.89
675.97	551.19
676.31	547.54
676.65	543.89
676.99	540.40
677.33	536.48
677.67	532.76
678.01	528.91
678.34	525.20
678.68	521.63
679.02	518.00
679.36	514.25
679.70	510.51
680.04	506.93
680.37	503.37
680.71	499.97
681.05	496.74
681.39	493.41
681.73	490.16
682.06	487.06
682.40	483.97
682.74	480.78
683.08	477.48
683.42	474.24
683.75	471.22
684.09	468.19
684.43	465.36
684.77	462.43
685.10	459.52
685.44	456.58
685.78	453.66
686.12	450.85
686.45	448.10
686.79	445.41
687.13	442.83
687.46	440.25
687.80	437.55
688.14	434.65
688.48	431.95
688.81	429.23
689.15	426.61
689.49	423.90
689.82	421.29
690.16	418.67
690.50	416.18
690.83	413.62
691.17	411.01
691.51	408.51
691.84	406.16
692.18	403.93
692.52	401.69
692.85	399.50
693.19	397.36
693.52	395.12
693.86	392.86
694.20	390.61
694.53	388.36
694.87	386.15
695.21	384.02
695.54	381.85
695.88	379.67
696.21	377.45
696.55	375.28
696.88	373.23
697.22	371.20
697.56	369.29
697.89	367.34
698.23	365.52
698.56	363.66
698.90	361.89
699.23	359.93
699.57	358.01
699.90	356.13
700.24	354.25
700.58	352.50
700.91	350.83
701.25	349.31
701.58	347.65
701.92	345.99
702.25	344.35
702.59	342.71
702.92	341.09
703.26	339.47
703.59	337.92
703.93	336.58
704.26	335.11
704.60	333.59
704.93	332.12
705.26	330.63
705.60	329.15
705.93	327.60
706.27	326.28
706.60	325.03
706.94	323.75
707.27	322.34
707.61	320.96
707.94	319.61
708.27	318.03
708.61	316.55
708.94	315.20
709.28	313.89
709.61	312.62
709.94	311.40
710.28	310.20
710.61	309.05
710.95	307.62
711.28	306.54
711.61	305.31
711.95	304.18
712.28	302.97
712.61	301.80
712.95	300.73
713.28	299.63
713.61	298.47
713.95	297.27
714.28	296.27
714.61	295.20
714.95	294.14
715.28	293.10
715.61	292.12
715.95	291.15
716.28	290.17
716.61	289.16
716.95	288.14
717.28	287.16
717.61	286.20
717.94	285.30
718.28	284.28
718.61	283.38
718.94	282.46
719.27	281.62
719.61	280.80
719.94	279.98
720.27	279.00
720.60	278.11
720.94	277.36
721.27	276.58
721.60	275.88
721.93	275.17
722.27	274.49
722.60	273.82
722.93	273.10
723.26	272.46
723.59	271.78
723.93	271.21
724.26	270.61
724.59	269.93
724.92	269.33
725.25	268.79
725.59	268.20
725.92	267.62
726.25	267.06
726.58	266.45
726.91	265.79
727.24	265.23
727.57	264.66
727.91	264.03
728.24	263.48
728.57	262.88
728.90	262.34
729.23	261.74
729.56	261.27
729.89	260.73
730.22	260.11
730.55	259.56
730.89	258.94
731.22	258.39
731.55	257.85
731.88	257.31
732.21	256.71
732.54	256.15
732.87	255.65
733.20	255.16
733.53	254.67
733.86	254.24
734.19	253.75
734.52	253.33
734.85	253.02
735.18	252.52
735.51	252.18
735.84	251.72
736.17	251.32
736.50	250.79
736.83	250.61
737.16	250.22
737.49	249.83
737.82	249.46
738.15	249.09
738.48	248.70
738.81	248.30
739.14	247.92
739.47	247.57
739.80	247.17
740.13	246.79
740.46	246.39
740.79	245.99
741.12	245.65
741.45	245.30
741.78	244.88
742.11	244.59
742.44	244.18
742.77	243.89
743.10	243.55
743.43	243.18
743.75	242.60
744.08	242.54
744.41	242.19
744.74	241.87
745.07	241.50
745.40	241.22
745.73	241.00
746.06	240.68
746.39	240.39
746.71	240.08
747.04	239.74
747.37	239.42
747.70	239.16
748.03	238.87
748.36	238.59
748.68	238.28
749.01	237.93
749.34	237.61
749.67	237.29
750.00	237.03
750.33	236.91
750.65	236.67
750.98	236.15
751.31	235.90
751.64	235.66
751.97	235.50
752.29	235.26
752.62	234.91
752.95	234.63
753.28	234.30
753.60	234.06
753.93	233.89
754.26	233.66
754.59	233.37
754.91	233.09
755.24	232.82
755.57	232.57
755.90	232.35
756.22	232.14
756.55	231.88
756.88	231.61
757.20	231.26
757.53	230.98
757.86	230.77
758.19	230.58
758.51	230.35
758.84	230.05
759.17	229.79
759.49	229.61
759.82	229.53
760.15	229.42
760.47	229.23
760.80	228.97
761.13	228.82
761.45	228.62
761.78	228.45
762.11	228.27
762.43	228.07
762.76	227.88
763.08	227.72
763.41	227.59
763.74	227.45
764.06	227.30
764.39	227.17
764.71	227.02
765.04	226.87
765.37	226.69
765.69	226.55
766.02	226.45
766.34	226.30
766.67	226.08
767.00	225.95
767.32	225.93
767.65	225.92
767.97	225.77
768.30	225.64
768.62	225.53
768.95	225.40
769.27	225.29
769.60	225.21
769.92	225.04
770.25	224.87
770.57	224.70
770.90	224.56
771.22	224.42
771.55	224.29
771.87	224.14
772.20	224.03
772.52	224.08
772.85	224.20
773.17	224.10
773.50	223.98
773.82	223.84
774.15	223.63
774.47	223.43
774.80	223.29
775.12	223.20
775.45	223.09
775.77	222.98
776.09	222.93
776.42	222.82
776.74	222.79
777.07	222.70
777.39	222.66
777.72	222.59
778.04	222.52
778.36	222.43
778.69	222.40
779.01	222.33
779.33	222.07
779.66	221.76
779.98	221.67
780.31	221.61
780.63	221.61
780.95	221.56
781.28	221.47
781.60	221.40
781.92	221.33
782.25	221.26
782.57	221.15
782.89	221.05
783.22	220.97
783.54	220.86
783.86	220.80
784.19	220.71
784.51	220.68
784.83	220.58
785.16	220.49
785.48	220.40
785.80	220.33
786.12	220.31
