SpectraSuite Data File
++++++++++++++++++++++++++++++++++++
Date: Tue Jan 29 16:32:35 EST 2013
User: group
Dark Spectrum Present: No
Reference Spectrum Present: No
Number of Sampled Component Spectra: 1
Spectrometers: USB2E7196
Integration Time (usec): 65000 (USB2E7196)
Spectra Averaged: 100 (USB2E7196)
Boxcar Smoothing: 10 (USB2E7196)
Correct for Electrical Dark: No (USB2E7196)
Strobe/Lamp Enabled: No (USB2E7196)
Correct for Detector Non-linearity: No (USB2E7196)
Correct for Stray Light: No (USB2E7196)
Number of Pixels in Processed Spectrum: 2048
>>>>>Begin Processed Spectral Data<<<<<
339.09	0.00
339.48	201.71
339.86	203.71
340.24	204.45
340.63	205.91
341.01	210.82
341.39	209.07
341.78	210.66
342.16	211.52
342.54	212.11
342.93	201.23
343.31	211.42
343.69	211.97
344.07	212.42
344.46	212.89
344.84	213.31
345.22	213.48
345.60	213.72
345.99	213.92
346.37	214.08
346.75	214.20
347.13	214.31
347.52	214.39
347.90	214.51
348.28	214.58
348.66	214.68
349.05	214.64
349.43	214.69
349.81	214.75
350.19	214.79
350.57	214.89
350.96	214.95
351.34	215.02
351.72	215.13
352.10	215.24
352.48	215.31
352.87	215.34
353.25	215.41
353.63	215.47
354.01	215.52
354.39	215.60
354.77	215.67
355.15	215.75
355.54	215.80
355.92	215.80
356.30	215.88
356.68	216.07
357.06	216.13
357.44	216.19
357.82	216.25
358.20	216.34
358.58	216.39
358.97	216.46
359.35	216.57
359.73	216.66
360.11	216.71
360.49	216.75
360.87	216.84
361.25	216.92
361.63	217.04
362.01	217.08
362.39	217.09
362.77	217.11
363.15	217.14
363.53	217.18
363.91	217.23
364.29	217.27
364.67	217.06
365.05	217.10
365.43	217.14
365.81	217.16
366.19	217.27
366.57	217.33
366.95	217.35
367.33	217.31
367.71	217.29
368.09	217.33
368.47	217.33
368.85	217.29
369.23	217.32
369.61	217.26
369.99	217.30
370.37	217.28
370.75	217.40
371.13	217.34
371.51	217.28
371.89	217.25
372.27	217.19
372.65	217.18
373.03	217.12
373.41	217.05
373.78	217.01
374.16	216.88
374.54	216.75
374.92	216.66
375.30	216.61
375.68	216.53
376.06	216.51
376.44	216.44
376.82	216.42
377.19	216.34
377.57	216.27
377.95	216.19
378.33	216.17
378.71	216.01
379.09	215.98
379.47	215.97
379.84	215.91
380.22	215.82
380.60	215.75
380.98	215.74
381.36	215.71
381.73	215.66
382.11	215.67
382.49	215.69
382.87	215.65
383.25	215.61
383.62	215.85
384.00	215.75
384.38	215.73
384.76	215.76
385.13	215.80
385.51	215.78
385.89	215.74
386.27	215.71
386.64	215.68
387.02	215.64
387.40	215.60
387.78	215.58
388.15	215.59
388.53	215.57
388.91	215.52
389.29	215.50
389.66	215.47
390.04	215.40
390.42	215.42
390.79	215.39
391.17	215.39
391.55	215.11
391.92	215.12
392.30	215.11
392.68	215.02
393.05	215.00
393.43	214.97
393.81	214.95
394.18	214.91
394.56	214.95
394.94	215.02
395.31	215.01
395.69	215.09
396.06	215.16
396.44	215.22
396.82	215.22
397.19	215.33
397.57	215.36
397.95	215.45
398.32	215.41
398.70	215.48
399.07	215.57
399.45	215.63
399.82	215.70
400.20	215.75
400.58	215.87
400.95	215.85
401.33	216.02
401.70	216.27
402.08	216.36
402.45	216.40
402.83	216.55
403.20	216.68
403.58	216.80
403.95	216.91
404.33	217.08
404.71	217.23
405.08	217.51
405.46	217.69
405.83	217.87
406.21	218.08
406.58	218.30
406.96	218.50
407.33	218.74
407.70	218.99
408.08	219.44
408.45	219.75
408.83	220.13
409.20	220.44
409.58	220.70
409.95	221.21
410.33	221.71
410.70	222.07
411.08	222.59
411.45	223.14
411.82	223.73
412.20	224.39
412.57	225.26
412.95	225.83
413.32	226.67
413.69	227.47
414.07	228.38
414.44	229.41
414.82	230.45
415.19	231.67
415.56	232.91
415.94	234.12
416.31	235.52
416.68	236.94
417.06	238.54
417.43	240.07
417.81	241.77
418.18	243.61
418.55	245.59
418.93	247.63
419.30	249.70
419.67	251.89
420.04	254.16
420.42	256.54
420.79	259.35
421.16	262.16
421.54	265.08
421.91	268.08
422.28	271.15
422.66	274.40
423.03	277.60
423.40	280.94
423.77	284.54
424.15	288.21
424.52	292.07
424.89	296.23
425.26	300.33
425.64	304.23
426.01	308.50
426.38	312.95
426.75	317.49
427.13	322.26
427.50	327.27
427.87	332.49
428.24	337.62
428.61	342.62
428.99	348.09
429.36	354.08
429.73	359.96
430.10	365.88
430.47	371.96
430.85	378.29
431.22	385.03
431.59	392.15
431.96	398.96
432.33	406.42
432.70	413.69
433.08	422.21
433.45	430.30
433.82	438.31
434.19	447.21
434.56	455.94
434.93	464.32
435.30	472.60
435.68	481.73
436.05	490.72
436.42	499.65
436.79	507.82
437.16	516.63
437.53	525.91
437.90	535.02
438.27	543.98
438.64	553.17
439.01	561.69
439.38	569.17
439.75	576.52
440.13	585.02
440.50	593.00
440.87	599.47
441.24	606.08
441.61	613.46
441.98	618.82
442.35	625.21
442.72	631.47
443.09	637.50
443.46	641.30
443.83	643.91
444.20	646.05
444.57	649.17
444.94	650.64
445.31	652.06
445.68	653.44
446.05	654.09
446.42	653.37
446.79	652.43
447.16	651.42
447.53	650.64
447.90	647.29
448.27	643.93
448.64	639.29
449.01	635.97
449.37	629.98
449.74	624.34
450.11	617.33
450.48	609.95
450.85	602.51
451.22	595.94
451.59	589.74
451.96	583.92
452.33	576.06
452.70	568.92
453.07	560.43
453.43	551.82
453.80	543.45
454.17	535.47
454.54	527.89
454.91	519.67
455.28	511.67
455.65	504.23
456.02	496.75
456.38	490.38
456.75	482.53
457.12	476.01
457.49	469.46
457.86	463.30
458.23	457.93
458.59	452.05
458.96	446.04
459.33	440.77
459.70	435.43
460.07	431.17
460.43	426.30
460.80	421.72
461.17	417.72
461.54	413.58
461.91	409.56
462.27	405.45
462.64	402.10
463.01	398.35
463.38	394.68
463.74	391.04
464.11	387.74
464.48	384.86
464.85	381.77
465.21	379.38
465.58	376.73
465.95	373.59
466.32	370.91
466.68	368.30
467.05	365.66
467.42	363.09
467.78	360.40
468.15	357.88
468.52	355.99
468.88	353.48
469.25	351.26
469.62	349.42
469.98	347.47
470.35	345.58
470.72	343.88
471.08	342.06
471.45	340.53
471.82	339.01
472.18	337.39
472.55	336.18
472.92	334.75
473.28	333.57
473.65	332.42
474.02	331.30
474.38	330.45
474.75	329.75
475.11	328.91
475.48	328.38
475.85	327.85
476.21	327.37
476.58	327.09
476.94	326.83
477.31	326.49
477.67	326.25
478.04	326.12
478.41	326.10
478.77	326.26
479.14	326.19
479.50	326.34
479.87	326.64
480.23	326.99
480.60	327.26
480.96	327.51
481.33	328.09
481.69	328.65
482.06	329.17
482.42	329.62
482.79	330.24
483.15	331.00
483.52	331.97
483.88	332.87
484.25	333.76
484.61	334.82
484.98	335.95
485.34	337.24
485.71	338.62
486.07	340.05
486.44	341.36
486.80	342.94
487.17	344.62
487.53	346.40
487.90	348.19
488.26	350.25
488.62	352.43
488.99	354.46
489.35	356.62
489.72	358.98
490.08	361.48
490.44	364.02
490.81	366.76
491.17	369.53
491.54	372.48
491.90	375.53
492.26	378.76
492.63	382.16
492.99	385.63
493.36	389.30
493.72	393.17
494.08	397.21
494.45	401.43
494.81	405.82
495.17	410.29
495.54	415.08
495.90	419.86
496.26	424.76
496.63	429.99
496.99	435.41
497.35	440.98
497.72	446.84
498.08	452.81
498.44	458.90
498.80	465.31
499.17	471.81
499.53	478.57
499.89	485.46
500.26	492.44
500.62	499.60
500.98	506.99
501.34	514.50
501.71	522.28
502.07	530.23
502.43	538.26
502.79	546.45
503.16	554.79
503.52	563.43
503.88	572.23
504.24	581.23
504.60	590.33
504.97	599.61
505.33	608.94
505.69	618.83
506.05	628.69
506.41	638.58
506.78	648.74
507.14	659.05
507.50	669.57
507.86	680.32
508.22	691.13
508.59	701.87
508.95	712.98
509.31	724.21
509.67	735.65
510.03	747.09
510.39	758.92
510.75	770.87
511.12	782.91
511.48	795.02
511.84	807.34
512.20	819.79
512.56	832.54
512.92	845.41
513.28	858.12
513.64	871.06
514.00	883.98
514.37	897.03
514.73	910.23
515.09	923.39
515.45	936.36
515.81	949.50
516.17	963.04
516.53	976.38
516.89	989.70
517.25	1002.95
517.61	1016.60
517.97	1030.01
518.33	1043.33
518.69	1056.98
519.05	1070.89
519.41	1084.65
519.77	1098.58
520.13	1111.94
520.49	1125.22
520.85	1138.78
521.21	1152.13
521.57	1166.00
521.93	1179.17
522.29	1192.98
522.65	1206.65
523.01	1220.46
523.37	1233.82
523.73	1247.18
524.09	1260.46
524.45	1274.07
524.81	1287.69
525.17	1301.16
525.53	1314.46
525.89	1327.81
526.25	1340.97
526.61	1353.92
526.97	1367.07
527.33	1380.24
527.68	1393.87
528.04	1407.51
528.40	1420.74
528.76	1434.23
529.12	1447.23
529.48	1460.64
529.84	1473.05
530.20	1485.95
530.56	1498.63
530.91	1512.04
531.27	1525.05
531.63	1537.90
531.99	1550.65
532.35	1563.09
532.71	1575.51
533.07	1588.54
533.42	1600.87
533.78	1613.17
534.14	1625.37
534.50	1636.82
534.86	1648.40
535.21	1659.38
535.57	1670.90
535.93	1682.22
536.29	1693.59
536.65	1705.14
537.00	1716.28
537.36	1727.81
537.72	1739.00
538.08	1750.49
538.44	1761.54
538.79	1772.67
539.15	1783.61
539.51	1794.46
539.87	1805.74
540.22	1816.73
540.58	1827.76
540.94	1838.79
541.29	1849.16
541.65	1859.01
542.01	1869.52
542.37	1879.73
542.72	1889.94
543.08	1899.90
543.44	1910.55
543.79	1919.92
544.15	1929.43
544.51	1939.49
544.87	1949.42
545.22	1958.70
545.58	1967.65
545.94	1976.56
546.29	1985.13
546.65	1993.65
547.01	2002.00
547.36	2009.87
547.72	2017.73
548.07	2025.33
548.43	2033.17
548.79	2041.21
549.14	2049.42
549.50	2058.05
549.86	2066.03
550.21	2073.63
550.57	2081.36
550.92	2088.19
551.28	2095.79
551.64	2103.23
551.99	2110.60
552.35	2117.79
552.70	2124.62
553.06	2131.45
553.41	2137.97
553.77	2144.78
554.13	2151.16
554.48	2158.28
554.84	2165.44
555.19	2172.11
555.55	2178.79
555.90	2185.12
556.26	2191.91
556.61	2198.09
556.97	2202.96
557.32	2208.83
557.68	2215.12
558.03	2220.89
558.39	2226.33
558.74	2232.26
559.10	2237.70
559.45	2243.39
559.81	2249.05
560.16	2254.63
560.52	2260.53
560.87	2266.84
561.23	2272.71
561.58	2279.51
561.94	2284.80
562.29	2289.49
562.64	2295.57
563.00	2301.10
563.35	2306.70
563.71	2312.51
564.06	2318.09
564.42	2324.14
564.77	2329.16
565.12	2334.48
565.48	2339.63
565.83	2344.99
566.19	2350.33
566.54	2355.65
566.89	2360.33
567.25	2364.91
567.60	2370.59
567.96	2375.75
568.31	2380.26
568.66	2384.48
569.02	2388.44
569.37	2392.16
569.72	2396.62
570.08	2400.10
570.43	2403.30
570.78	2406.43
571.14	2408.87
571.49	2412.11
571.84	2415.57
572.20	2418.59
572.55	2421.81
572.90	2424.07
573.26	2427.07
573.61	2429.64
573.96	2431.86
574.31	2433.89
574.67	2435.68
575.02	2436.46
575.37	2437.72
575.72	2438.33
576.08	2439.73
576.43	2439.75
576.78	2440.13
577.13	2441.68
577.49	2442.77
577.84	2443.73
578.19	2444.97
578.54	2445.40
578.90	2446.03
579.25	2445.95
579.60	2445.72
579.95	2444.80
580.30	2444.80
580.66	2444.03
581.01	2442.30
581.36	2439.84
581.71	2438.37
582.06	2437.22
582.42	2436.39
582.77	2434.11
583.12	2432.49
583.47	2431.10
583.82	2430.38
584.17	2429.21
584.53	2426.95
584.88	2424.84
585.23	2422.98
585.58	2420.74
585.93	2418.80
586.28	2416.44
586.63	2413.88
586.98	2411.66
587.34	2409.37
587.69	2407.05
588.04	2404.89
588.39	2403.43
588.74	2400.95
589.09	2398.15
589.44	2395.01
589.79	2392.36
590.14	2390.34
590.49	2387.48
590.84	2383.56
591.19	2380.39
591.54	2376.97
591.89	2372.95
592.25	2369.66
592.60	2365.39
592.95	2361.10
593.30	2356.77
593.65	2352.40
594.00	2347.87
594.35	2344.71
594.70	2340.35
595.05	2335.73
595.40	2330.19
595.75	2324.33
596.10	2320.57
596.45	2315.81
596.80	2310.96
597.15	2305.81
597.50	2299.89
597.85	2294.84
598.19	2289.52
598.54	2283.77
598.89	2278.55
599.24	2273.89
599.59	2267.57
599.94	2261.65
600.29	2255.53
600.64	2249.57
600.99	2242.71
601.34	2237.22
601.69	2230.18
602.04	2223.67
602.39	2216.86
602.74	2210.67
603.08	2205.16
603.43	2198.57
603.78	2191.44
604.13	2184.45
604.48	2176.96
604.83	2170.81
605.18	2164.50
605.53	2157.46
605.87	2150.23
606.22	2143.34
606.57	2135.38
606.92	2127.42
607.27	2120.52
607.62	2114.00
607.96	2106.94
608.31	2100.41
608.66	2092.64
609.01	2084.99
609.36	2077.72
609.70	2069.95
610.05	2062.09
610.40	2053.62
610.75	2045.30
611.10	2037.61
611.44	2028.66
611.79	2019.97
612.14	2010.02
612.49	1999.36
612.83	1989.98
613.18	1980.69
613.53	1971.29
613.88	1961.66
614.22	1952.96
614.57	1942.86
614.92	1932.17
615.27	1921.96
615.61	1911.98
615.96	1902.20
616.31	1892.52
616.65	1883.10
617.00	1873.35
617.35	1863.71
617.70	1854.12
618.04	1843.95
618.39	1833.73
618.74	1824.09
619.08	1814.44
619.43	1805.57
619.78	1797.36
620.12	1788.77
620.47	1779.15
620.82	1768.80
621.16	1758.93
621.51	1749.02
621.85	1739.25
622.20	1728.89
622.55	1718.26
622.89	1708.17
623.24	1698.32
623.59	1688.57
623.93	1678.45
624.28	1668.55
624.62	1658.45
624.97	1647.95
625.32	1638.27
625.66	1629.37
626.01	1620.50
626.35	1611.01
626.70	1600.95
627.04	1590.85
627.39	1580.72
627.73	1571.51
628.08	1562.53
628.43	1552.96
628.77	1543.75
629.12	1534.76
629.46	1526.87
629.81	1518.50
630.15	1509.04
630.50	1499.28
630.84	1488.76
631.19	1478.78
631.53	1469.57
631.88	1459.32
632.22	1449.33
632.57	1439.94
632.91	1429.78
633.26	1419.93
633.60	1410.41
633.95	1401.10
634.29	1391.61
634.64	1382.28
634.98	1372.17
635.32	1362.77
635.67	1354.18
636.01	1344.84
636.36	1335.07
636.70	1325.53
637.05	1316.18
637.39	1307.15
637.73	1298.47
638.08	1290.86
638.42	1282.57
638.77	1273.75
639.11	1265.52
639.45	1257.71
639.80	1249.11
640.14	1240.38
640.49	1231.51
640.83	1222.66
641.17	1214.47
641.52	1206.18
641.86	1197.54
642.20	1189.76
642.55	1181.14
642.89	1172.26
643.23	1163.58
643.58	1155.42
643.92	1146.30
644.26	1137.54
644.61	1129.04
644.95	1120.15
645.29	1110.89
645.64	1101.83
645.98	1093.25
646.32	1085.31
646.66	1076.60
647.01	1068.22
647.35	1060.09
647.69	1051.68
648.04	1043.27
648.38	1034.31
648.72	1025.55
649.06	1017.08
649.41	1008.76
649.75	1000.80
650.09	992.96
650.43	984.85
650.78	976.52
651.12	968.69
651.46	961.14
651.80	953.90
652.14	946.65
652.49	939.06
652.83	931.62
653.17	923.89
653.51	916.17
653.85	908.98
654.20	901.70
654.54	894.06
654.88	886.73
655.22	879.57
655.56	872.53
655.90	865.64
656.25	858.86
656.59	851.88
656.93	844.82
657.27	837.62
657.61	830.60
657.95	824.47
658.29	818.57
658.64	812.46
658.98	805.93
659.32	799.32
659.66	793.00
660.00	786.54
660.34	780.44
660.68	774.23
661.02	767.83
661.36	761.72
661.70	755.86
662.05	750.20
662.39	744.61
662.73	739.15
663.07	733.79
663.41	728.16
663.75	722.48
664.09	716.72
664.43	711.18
664.77	705.80
665.11	699.89
665.45	693.95
665.79	688.05
666.13	682.28
666.47	676.72
666.81	671.23
667.15	665.84
667.49	660.58
667.83	655.25
668.17	649.96
668.51	644.76
668.85	639.87
669.19	634.86
669.53	629.83
669.87	624.63
670.21	619.78
670.55	615.01
670.89	610.51
671.23	606.17
671.57	601.79
671.91	597.43
672.25	593.22
672.58	589.06
672.92	585.04
673.26	581.03
673.60	577.16
673.94	573.27
674.28	569.59
674.62	565.77
674.96	562.08
675.30	558.49
675.64	554.88
675.97	551.27
676.31	547.63
676.65	543.95
676.99	540.48
677.33	536.55
677.67	532.86
678.01	528.93
678.34	525.26
678.68	521.75
679.02	518.11
679.36	514.38
679.70	510.72
680.04	507.08
680.37	503.58
680.71	500.20
681.05	497.04
681.39	493.77
681.73	490.56
682.06	487.49
682.40	484.38
682.74	481.10
683.08	477.78
683.42	474.59
683.75	471.56
684.09	468.56
684.43	465.74
684.77	462.77
685.10	459.92
685.44	456.90
685.78	453.87
686.12	451.06
686.45	448.30
686.79	445.58
687.13	443.04
687.46	440.39
687.80	437.65
688.14	434.71
688.48	432.02
688.81	429.31
689.15	426.63
689.49	423.98
689.82	421.44
690.16	418.82
690.50	416.33
690.83	413.79
691.17	411.15
691.51	408.64
691.84	406.38
692.18	404.13
692.52	401.95
692.85	399.79
693.19	397.60
693.52	395.43
693.86	393.17
694.20	390.90
694.53	388.73
694.87	386.44
695.21	384.28
695.54	382.12
695.88	379.89
696.21	377.69
696.55	375.54
696.88	373.46
697.22	371.46
697.56	369.54
697.89	367.64
698.23	365.86
698.56	364.05
698.90	362.19
699.23	360.22
699.57	358.28
699.90	356.39
700.24	354.59
700.58	352.79
700.91	351.12
701.25	349.53
701.58	347.85
701.92	346.23
702.25	344.64
702.59	343.00
702.92	341.50
703.26	339.88
703.59	338.40
703.93	337.09
704.26	335.65
704.60	334.08
704.93	332.61
705.26	331.04
705.60	329.54
705.93	328.03
706.27	326.68
706.60	325.36
706.94	324.11
707.27	322.65
707.61	321.27
707.94	319.87
708.27	318.38
708.61	316.92
708.94	315.56
709.28	314.28
709.61	313.01
709.94	311.76
710.28	310.55
710.61	309.32
710.95	307.86
711.28	306.75
711.61	305.50
711.95	304.29
712.28	303.13
712.61	301.87
712.95	300.79
713.28	299.75
713.61	298.62
713.95	297.43
714.28	296.39
714.61	295.34
714.95	294.29
715.28	293.22
715.61	292.19
715.95	291.23
716.28	290.22
716.61	289.22
716.95	288.18
717.28	287.25
717.61	286.31
717.94	285.38
718.28	284.32
718.61	283.50
718.94	282.59
719.27	281.72
719.61	280.94
719.94	280.08
720.27	279.08
720.60	278.23
720.94	277.41
721.27	276.62
721.60	275.93
721.93	275.21
722.27	274.56
722.60	273.90
722.93	273.14
723.26	272.45
723.59	271.75
723.93	271.13
724.26	270.44
724.59	269.74
724.92	269.15
725.25	268.62
725.59	268.04
725.92	267.52
726.25	266.93
726.58	266.35
726.91	265.73
727.24	265.20
727.57	264.60
727.91	264.01
728.24	263.49
728.57	262.89
728.90	262.34
729.23	261.70
729.56	261.25
729.89	260.72
730.22	260.15
730.55	259.59
730.89	259.00
731.22	258.49
731.55	257.93
731.88	257.37
732.21	256.83
732.54	256.29
732.87	255.74
733.20	255.26
733.53	254.74
733.86	254.29
734.19	253.78
734.52	253.34
734.85	253.05
735.18	252.56
735.51	252.18
735.84	251.72
736.17	251.32
736.50	250.76
736.83	250.61
737.16	250.24
737.49	249.86
737.82	249.51
738.15	249.13
738.48	248.76
738.81	248.38
739.14	247.96
739.47	247.55
739.80	247.17
740.13	246.83
740.46	246.44
740.79	246.04
741.12	245.68
741.45	245.35
741.78	244.88
742.11	244.60
742.44	244.18
742.77	243.90
743.10	243.57
743.43	243.24
743.75	242.64
744.08	242.52
744.41	242.19
744.74	241.83
745.07	241.47
745.40	241.16
745.73	240.90
746.06	240.58
746.39	240.29
746.71	239.91
747.04	239.52
747.37	239.22
747.70	238.94
748.03	238.62
748.36	238.32
748.68	238.04
749.01	237.68
749.34	237.43
749.67	237.13
750.00	236.85
750.33	236.73
750.65	236.49
750.98	235.99
751.31	235.71
751.64	235.49
751.97	235.35
752.29	235.11
752.62	234.79
752.95	234.51
753.28	234.21
753.60	234.03
753.93	233.90
754.26	233.64
754.59	233.34
754.91	233.07
755.24	232.81
755.57	232.56
755.90	232.30
756.22	232.02
756.55	231.77
756.88	231.49
757.20	231.12
757.53	230.85
757.86	230.61
758.19	230.39
758.51	230.17
758.84	229.86
759.17	229.64
759.49	229.45
759.82	229.37
760.15	229.22
760.47	229.01
760.80	228.73
761.13	228.58
761.45	228.40
761.78	228.24
762.11	228.08
762.43	227.89
762.76	227.74
763.08	227.60
763.41	227.45
763.74	227.30
764.06	227.18
764.39	227.05
764.71	226.90
765.04	226.74
765.37	226.57
765.69	226.40
766.02	226.23
766.34	226.08
766.67	225.85
767.00	225.75
767.32	225.70
767.65	225.67
767.97	225.57
768.30	225.46
768.62	225.33
768.95	225.14
769.27	224.99
769.60	224.92
769.92	224.77
770.25	224.60
770.57	224.44
770.90	224.29
771.22	224.11
771.55	223.99
771.87	223.92
772.20	223.79
772.52	223.87
772.85	224.04
773.17	223.91
773.50	223.81
773.82	223.65
774.15	223.44
774.47	223.25
774.80	223.13
775.12	223.02
775.45	222.94
775.77	222.87
776.09	222.78
776.42	222.66
776.74	222.61
777.07	222.47
777.39	222.39
777.72	222.28
778.04	222.26
778.36	222.18
778.69	222.07
779.01	222.02
779.33	221.74
779.66	221.39
779.98	221.31
780.31	221.23
780.63	221.25
780.95	221.20
781.28	221.10
781.60	220.98
781.92	220.92
782.25	220.88
782.57	220.82
782.89	220.74
783.22	220.67
783.54	220.55
783.86	220.53
784.19	220.46
784.51	220.47
784.83	220.37
785.16	220.30
785.48	220.22
785.80	220.15
786.12	220.10
