SpectraSuite Data File
++++++++++++++++++++++++++++++++++++
Date: Tue Jan 29 16:29:21 EST 2013
User: group
Dark Spectrum Present: No
Reference Spectrum Present: No
Number of Sampled Component Spectra: 1
Spectrometers: USB2E7196
Integration Time (usec): 65000 (USB2E7196)
Spectra Averaged: 100 (USB2E7196)
Boxcar Smoothing: 10 (USB2E7196)
Correct for Electrical Dark: No (USB2E7196)
Strobe/Lamp Enabled: No (USB2E7196)
Correct for Detector Non-linearity: No (USB2E7196)
Correct for Stray Light: No (USB2E7196)
Number of Pixels in Processed Spectrum: 2048
>>>>>Begin Processed Spectral Data<<<<<
339.09	0.00
339.48	201.82
339.86	204.25
340.24	204.89
340.63	206.15
341.01	211.22
341.39	209.31
341.78	211.12
342.16	212.25
342.54	212.45
342.93	201.43
343.31	211.62
343.69	212.20
344.07	212.62
344.46	213.08
344.84	213.52
345.22	213.69
345.60	213.94
345.99	214.12
346.37	214.22
346.75	214.32
347.13	214.38
347.52	214.40
347.90	214.52
348.28	214.55
348.66	214.60
349.05	214.60
349.43	214.64
349.81	214.72
350.19	214.78
350.57	214.85
350.96	214.95
351.34	215.05
351.72	215.12
352.10	215.23
352.48	215.28
352.87	215.30
353.25	215.33
353.63	215.40
354.01	215.43
354.39	215.52
354.77	215.58
355.15	215.70
355.54	215.79
355.92	215.78
356.30	215.87
356.68	216.08
357.06	216.16
357.44	216.20
357.82	216.21
358.20	216.28
358.58	216.30
358.97	216.38
359.35	216.45
359.73	216.55
360.11	216.61
360.49	216.66
360.87	216.69
361.25	216.76
361.63	216.86
362.01	216.91
362.39	216.94
362.77	216.99
363.15	217.00
363.53	217.04
363.91	217.11
364.29	217.11
364.67	216.89
365.05	216.91
365.43	216.98
365.81	217.06
366.19	217.19
366.57	217.30
366.95	217.28
367.33	217.23
367.71	217.19
368.09	217.22
368.47	217.22
368.85	217.21
369.23	217.25
369.61	217.16
369.99	217.23
370.37	217.23
370.75	217.31
371.13	217.28
371.51	217.25
371.89	217.20
372.27	217.19
372.65	217.21
373.03	217.19
373.41	217.14
373.78	217.07
374.16	216.90
374.54	216.81
374.92	216.76
375.30	216.72
375.68	216.70
376.06	216.67
376.44	216.59
376.82	216.55
377.19	216.50
377.57	216.47
377.95	216.40
378.33	216.34
378.71	216.16
379.09	216.14
379.47	216.09
379.84	216.02
380.22	215.97
380.60	215.90
380.98	215.84
381.36	215.79
381.73	215.75
382.11	215.76
382.49	215.74
382.87	215.68
383.25	215.66
383.62	215.86
384.00	215.79
384.38	215.79
384.76	215.80
385.13	215.85
385.51	215.82
385.89	215.75
386.27	215.74
386.64	215.78
387.02	215.71
387.40	215.68
387.78	215.71
388.15	215.68
388.53	215.64
388.91	215.61
389.29	215.59
389.66	215.59
390.04	215.53
390.42	215.55
390.79	215.55
391.17	215.53
391.55	215.28
391.92	215.27
392.30	215.27
392.68	215.24
393.05	215.22
393.43	215.23
393.81	215.26
394.18	215.24
394.56	215.22
394.94	215.28
395.31	215.28
395.69	215.34
396.06	215.42
396.44	215.44
396.82	215.50
397.19	215.61
397.57	215.63
397.95	215.69
398.32	215.67
398.70	215.75
399.07	215.82
399.45	215.87
399.82	215.94
400.20	215.98
400.58	216.05
400.95	216.03
401.33	216.16
401.70	216.33
402.08	216.40
402.45	216.51
402.83	216.63
403.20	216.75
403.58	216.83
403.95	216.95
404.33	217.10
404.71	217.26
405.08	217.51
405.46	217.68
405.83	217.88
406.21	218.09
406.58	218.31
406.96	218.55
407.33	218.81
407.70	219.07
408.08	219.54
408.45	219.90
408.83	220.28
409.20	220.59
409.58	220.89
409.95	221.39
410.33	221.87
410.70	222.30
411.08	222.83
411.45	223.41
411.82	223.99
412.20	224.67
412.57	225.47
412.95	226.05
413.32	226.89
413.69	227.70
414.07	228.62
414.44	229.58
414.82	230.58
415.19	231.77
415.56	232.97
415.94	234.13
416.31	235.52
416.68	236.92
417.06	238.55
417.43	240.10
417.81	241.83
418.18	243.63
418.55	245.59
418.93	247.63
419.30	249.76
419.67	251.99
420.04	254.28
420.42	256.64
420.79	259.46
421.16	262.25
421.54	265.15
421.91	268.11
422.28	271.20
422.66	274.54
423.03	277.76
423.40	281.10
423.77	284.73
424.15	288.42
424.52	292.22
424.89	296.39
425.26	300.48
425.64	304.40
426.01	308.64
426.38	313.10
426.75	317.64
427.13	322.35
427.50	327.27
427.87	332.49
428.24	337.68
428.61	342.65
428.99	348.14
429.36	354.17
429.73	360.08
430.10	365.95
430.47	371.96
430.85	378.32
431.22	384.97
431.59	392.06
431.96	398.84
432.33	406.37
432.70	413.57
433.08	422.06
433.45	430.02
433.82	438.03
434.19	446.85
434.56	455.57
434.93	463.89
435.30	472.19
435.68	481.26
436.05	490.25
436.42	499.13
436.79	507.27
437.16	515.96
437.53	525.24
437.90	534.40
438.27	543.37
438.64	552.52
439.01	561.06
439.38	568.67
439.75	575.98
440.13	584.36
440.50	592.28
440.87	598.65
441.24	605.34
441.61	612.68
441.98	618.12
442.35	624.42
442.72	630.74
443.09	636.78
443.46	640.56
443.83	643.04
444.20	645.20
444.57	648.39
444.94	649.90
445.31	651.38
445.68	652.69
446.05	653.28
446.42	652.54
446.79	651.63
447.16	650.55
447.53	649.80
447.90	646.51
448.27	643.25
448.64	638.69
449.01	635.36
449.37	629.47
449.74	623.76
450.11	616.91
450.48	609.52
450.85	602.08
451.22	595.62
451.59	589.50
451.96	583.69
452.33	575.76
452.70	568.61
453.07	560.02
453.43	551.48
453.80	543.21
454.17	535.19
454.54	527.64
454.91	519.43
455.28	511.46
455.65	504.01
456.02	496.51
456.38	490.22
456.75	482.36
457.12	475.77
457.49	469.32
457.86	463.07
458.23	457.70
458.59	451.81
458.96	445.79
459.33	440.51
459.70	435.17
460.07	430.95
460.43	426.03
460.80	421.52
461.17	417.55
461.54	413.40
461.91	409.37
462.27	405.21
462.64	401.78
463.01	398.03
463.38	394.42
463.74	390.70
464.11	387.38
464.48	384.57
464.85	381.47
465.21	378.99
465.58	376.41
465.95	373.27
466.32	370.61
466.68	368.01
467.05	365.44
467.42	362.90
467.78	360.21
468.15	357.75
468.52	355.87
468.88	353.39
469.25	351.19
469.62	349.43
469.98	347.52
470.35	345.71
470.72	344.00
471.08	342.15
471.45	340.68
471.82	339.13
472.18	337.42
472.55	336.23
472.92	334.89
473.28	333.66
473.65	332.50
474.02	331.41
474.38	330.55
474.75	329.77
475.11	328.95
475.48	328.38
475.85	327.87
476.21	327.37
476.58	327.00
476.94	326.73
477.31	326.39
477.67	326.14
478.04	325.99
478.41	325.98
478.77	326.18
479.14	326.10
479.50	326.28
479.87	326.58
480.23	326.89
480.60	327.12
480.96	327.35
481.33	327.95
481.69	328.53
482.06	329.04
482.42	329.55
482.79	330.12
483.15	330.94
483.52	331.95
483.88	332.82
484.25	333.75
484.61	334.78
484.98	335.83
485.34	337.14
485.71	338.53
486.07	339.91
486.44	341.20
486.80	342.84
487.17	344.48
487.53	346.32
487.90	348.21
488.26	350.28
488.62	352.46
488.99	354.51
489.35	356.64
489.72	359.00
490.08	361.47
490.44	364.08
490.81	366.75
491.17	369.44
491.54	372.43
491.90	375.49
492.26	378.73
492.63	382.17
492.99	385.68
493.36	389.38
493.72	393.33
494.08	397.37
494.45	401.60
494.81	405.99
495.17	410.46
495.54	415.20
495.90	419.98
496.26	424.91
496.63	430.15
496.99	435.56
497.35	441.15
497.72	447.01
498.08	452.98
498.44	459.14
498.80	465.54
499.17	472.07
499.53	478.82
499.89	485.75
500.26	492.81
500.62	499.88
500.98	507.28
501.34	514.77
501.71	522.61
502.07	530.43
502.43	538.45
502.79	546.59
503.16	555.01
503.52	563.74
503.88	572.54
504.24	581.49
504.60	590.65
504.97	599.92
505.33	609.27
505.69	619.16
506.05	629.06
506.41	638.99
506.78	649.12
507.14	659.49
507.50	670.01
507.86	680.76
508.22	691.62
508.59	702.32
508.95	713.41
509.31	724.67
509.67	736.22
510.03	747.82
510.39	759.70
510.75	771.71
511.12	783.70
511.48	795.85
511.84	808.29
512.20	820.67
512.56	833.42
512.92	846.38
513.28	859.14
513.64	871.99
514.00	884.93
514.37	898.02
514.73	911.14
515.09	924.23
515.45	937.27
515.81	950.40
516.17	963.91
516.53	977.30
516.89	990.58
517.25	1003.86
517.61	1017.37
517.97	1030.84
518.33	1044.00
518.69	1057.62
519.05	1071.45
519.41	1085.22
519.77	1099.24
520.13	1112.69
520.49	1125.96
520.85	1139.52
521.21	1152.96
521.57	1166.80
521.93	1179.94
522.29	1193.79
522.65	1207.55
523.01	1221.18
523.37	1234.61
523.73	1247.93
524.09	1261.22
524.45	1274.68
524.81	1288.38
525.17	1301.91
525.53	1315.19
525.89	1328.71
526.25	1341.98
526.61	1355.03
526.97	1368.20
527.33	1381.21
527.68	1394.82
528.04	1408.38
528.40	1421.47
528.76	1435.06
529.12	1447.99
529.48	1461.51
529.84	1473.97
530.20	1486.84
530.56	1499.69
530.91	1513.02
531.27	1526.16
531.63	1538.97
531.99	1551.87
532.35	1564.13
532.71	1576.69
533.07	1589.78
533.42	1602.13
533.78	1614.43
534.14	1626.65
534.50	1638.00
534.86	1649.79
535.21	1660.71
535.57	1672.31
535.93	1683.86
536.29	1695.00
536.65	1706.60
537.00	1717.61
537.36	1729.06
537.72	1740.14
538.08	1751.59
538.44	1762.56
538.79	1773.72
539.15	1784.71
539.51	1795.67
539.87	1807.08
540.22	1818.00
540.58	1829.14
540.94	1840.12
541.29	1850.46
541.65	1860.32
542.01	1870.98
542.37	1881.16
542.72	1891.43
543.08	1901.25
543.44	1911.80
543.79	1921.19
544.15	1930.88
544.51	1940.92
544.87	1950.88
545.22	1960.13
545.58	1969.01
545.94	1978.14
546.29	1986.66
546.65	1995.23
547.01	2003.58
547.36	2011.30
547.72	2019.19
548.07	2026.80
548.43	2034.47
548.79	2042.28
549.14	2050.42
549.50	2058.94
549.86	2066.84
550.21	2074.50
550.57	2082.40
550.92	2089.26
551.28	2096.79
551.64	2104.05
551.99	2111.69
552.35	2118.89
552.70	2125.92
553.06	2132.76
553.41	2139.00
553.77	2145.68
554.13	2152.06
554.48	2158.99
554.84	2166.23
555.19	2172.84
555.55	2179.29
555.90	2185.65
556.26	2192.62
556.61	2198.80
556.97	2203.65
557.32	2209.60
557.68	2216.01
558.03	2221.74
558.39	2227.07
558.74	2233.03
559.10	2238.39
559.45	2243.90
559.81	2249.61
560.16	2255.17
560.52	2260.97
560.87	2267.45
561.23	2273.26
561.58	2280.04
561.94	2285.38
562.29	2289.97
562.64	2296.03
563.00	2301.72
563.35	2307.36
563.71	2313.14
564.06	2318.87
564.42	2324.89
564.77	2329.90
565.12	2335.16
565.48	2340.31
565.83	2345.87
566.19	2351.48
566.54	2357.10
566.89	2361.86
567.25	2366.40
567.60	2372.22
567.96	2377.51
568.31	2382.06
568.66	2386.60
569.02	2390.52
569.37	2394.22
569.72	2398.92
570.08	2402.36
570.43	2405.45
570.78	2408.69
571.14	2411.12
571.49	2414.24
571.84	2417.81
572.20	2420.80
572.55	2423.76
572.90	2426.02
573.26	2428.81
573.61	2431.24
573.96	2433.37
574.31	2435.30
574.67	2437.19
575.02	2437.81
575.37	2439.11
575.72	2439.81
576.08	2441.08
576.43	2441.14
576.78	2441.59
577.13	2443.18
577.49	2444.33
577.84	2445.39
578.19	2446.66
578.54	2447.29
578.90	2447.95
579.25	2447.78
579.60	2447.63
579.95	2446.79
580.30	2446.79
580.66	2446.06
581.01	2444.39
581.36	2441.92
581.71	2440.48
582.06	2439.41
582.42	2438.69
582.77	2436.54
583.12	2434.97
583.47	2433.56
583.82	2432.96
584.17	2431.84
584.53	2429.48
584.88	2427.54
585.23	2425.56
585.58	2423.14
585.93	2421.15
586.28	2419.05
586.63	2416.55
586.98	2414.40
587.34	2412.45
587.69	2410.15
588.04	2408.15
588.39	2406.83
588.74	2404.46
589.09	2401.63
589.44	2398.43
589.79	2395.86
590.14	2393.80
590.49	2390.87
590.84	2387.11
591.19	2383.91
591.54	2380.48
591.89	2376.53
592.25	2373.19
592.60	2368.97
592.95	2364.92
593.30	2360.67
593.65	2356.10
594.00	2351.59
594.35	2348.51
594.70	2343.84
595.05	2339.11
595.40	2333.49
595.75	2327.54
596.10	2323.73
596.45	2318.99
596.80	2314.29
597.15	2309.03
597.50	2303.08
597.85	2298.13
598.19	2292.68
598.54	2286.87
598.89	2281.64
599.24	2276.95
599.59	2270.58
599.94	2264.71
600.29	2258.65
600.64	2252.67
600.99	2245.91
601.34	2240.46
601.69	2233.16
602.04	2226.65
602.39	2220.03
602.74	2213.95
603.08	2208.39
603.43	2201.88
603.78	2194.96
604.13	2187.80
604.48	2180.49
604.83	2174.33
605.18	2168.09
605.53	2161.34
605.87	2154.25
606.22	2147.45
606.57	2139.54
606.92	2131.62
607.27	2124.60
607.62	2117.74
607.96	2110.63
608.31	2104.11
608.66	2096.33
609.01	2088.88
609.36	2081.84
609.70	2074.17
610.05	2066.36
610.40	2058.10
610.75	2049.62
611.10	2041.89
611.44	2032.90
611.79	2024.10
612.14	2014.14
612.49	2003.43
612.83	1993.95
613.18	1984.69
613.53	1975.29
613.88	1965.66
614.22	1957.06
614.57	1947.19
614.92	1936.74
615.27	1926.55
615.61	1916.48
615.96	1906.65
616.31	1896.91
616.65	1887.50
617.00	1877.67
617.35	1867.99
617.70	1858.12
618.04	1848.24
618.39	1837.89
618.74	1828.27
619.08	1818.46
619.43	1809.64
619.78	1801.33
620.12	1792.69
620.47	1783.02
620.82	1772.62
621.16	1762.70
621.51	1752.56
621.85	1742.65
622.20	1732.20
622.55	1721.65
622.89	1711.53
623.24	1701.90
623.59	1692.04
623.93	1681.75
624.28	1671.90
624.62	1661.66
624.97	1651.26
625.32	1641.36
625.66	1632.52
626.01	1623.61
626.35	1614.33
626.70	1604.20
627.04	1593.95
627.39	1583.74
627.73	1574.40
628.08	1565.42
628.43	1555.95
628.77	1546.68
629.12	1537.73
629.46	1529.84
629.81	1521.33
630.15	1511.79
630.50	1501.78
630.84	1491.29
631.19	1481.37
631.53	1471.87
631.88	1461.69
632.22	1451.62
632.57	1442.14
632.91	1431.91
633.26	1422.01
633.60	1412.41
633.95	1403.04
634.29	1393.46
634.64	1384.06
634.98	1374.07
635.32	1364.74
635.67	1356.05
636.01	1346.72
636.36	1336.92
636.70	1327.37
637.05	1317.94
637.39	1308.90
637.73	1300.25
638.08	1292.67
638.42	1284.40
638.77	1275.74
639.11	1267.41
639.45	1259.58
639.80	1250.95
640.14	1242.26
640.49	1233.41
640.83	1224.51
641.17	1216.34
641.52	1208.17
641.86	1199.52
642.20	1191.52
642.55	1182.74
642.89	1173.84
643.23	1165.16
643.58	1156.99
643.92	1147.82
644.26	1139.00
644.61	1130.57
644.95	1121.68
645.29	1112.40
645.64	1103.11
645.98	1094.47
646.32	1086.50
646.66	1077.86
647.01	1069.52
647.35	1061.30
647.69	1052.83
648.04	1044.43
648.38	1035.45
648.72	1026.71
649.06	1018.16
649.41	1009.89
649.75	1001.90
650.09	993.92
650.43	985.89
650.78	977.55
651.12	969.79
651.46	962.36
651.80	954.99
652.14	947.67
652.49	940.04
652.83	932.69
653.17	924.92
653.51	917.25
653.85	909.96
654.20	902.59
654.54	894.92
654.88	887.65
655.22	880.34
655.56	873.28
655.90	866.32
656.25	859.63
656.59	852.66
656.93	845.54
657.27	838.34
657.61	831.20
657.95	824.97
658.29	818.98
658.64	812.79
658.98	806.26
659.32	799.58
659.66	793.20
660.00	786.78
660.34	780.67
660.68	774.41
661.02	768.04
661.36	762.02
661.70	756.26
662.05	750.55
662.39	745.05
662.73	739.54
663.07	734.07
663.41	728.33
663.75	722.55
664.09	716.81
664.43	711.28
664.77	705.93
665.11	700.04
665.45	694.11
665.79	688.20
666.13	682.47
666.47	676.96
666.81	671.59
667.15	666.12
667.49	660.81
667.83	655.53
668.17	650.15
668.51	645.00
668.85	639.93
669.19	634.91
669.53	629.82
669.87	624.64
670.21	619.85
670.55	615.13
670.89	610.60
671.23	606.25
671.57	601.85
671.91	597.46
672.25	593.24
672.58	589.04
672.92	584.97
673.26	580.96
673.60	576.96
673.94	573.04
674.28	569.38
674.62	565.57
674.96	561.72
675.30	558.27
675.64	554.53
675.97	550.95
676.31	547.30
676.65	543.70
676.99	540.24
677.33	536.35
677.67	532.62
678.01	528.78
678.34	525.13
678.68	521.57
679.02	517.88
679.36	514.13
679.70	510.45
680.04	506.83
680.37	503.27
680.71	499.93
681.05	496.74
681.39	493.42
681.73	490.22
682.06	487.18
682.40	484.00
682.74	480.78
683.08	477.49
683.42	474.29
683.75	471.15
684.09	468.12
684.43	465.29
684.77	462.32
685.10	459.40
685.44	456.46
685.78	453.48
686.12	450.67
686.45	447.95
686.79	445.20
687.13	442.61
687.46	440.00
687.80	437.28
688.14	434.33
688.48	431.61
688.81	428.91
689.15	426.29
689.49	423.58
689.82	421.01
690.16	418.33
690.50	415.85
690.83	413.32
691.17	410.76
691.51	408.26
691.84	405.94
692.18	403.72
692.52	401.44
692.85	399.27
693.19	397.09
693.52	394.88
693.86	392.68
694.20	390.46
694.53	388.27
694.87	386.05
695.21	383.92
695.54	381.80
695.88	379.58
696.21	377.37
696.55	375.25
696.88	373.16
697.22	371.26
697.56	369.31
697.89	367.43
698.23	365.63
698.56	363.82
698.90	362.00
699.23	360.08
699.57	358.20
699.90	356.32
700.24	354.53
700.58	352.74
700.91	351.02
701.25	349.44
701.58	347.82
701.92	346.20
702.25	344.59
702.59	342.91
702.92	341.36
703.26	339.75
703.59	338.25
703.93	336.96
704.26	335.46
704.60	333.94
704.93	332.40
705.26	330.84
705.60	329.32
705.93	327.82
706.27	326.45
706.60	325.19
706.94	323.91
707.27	322.50
707.61	321.17
707.94	319.82
708.27	318.28
708.61	316.78
708.94	315.34
709.28	313.97
709.61	312.73
709.94	311.51
710.28	310.29
710.61	309.07
710.95	307.61
711.28	306.51
711.61	305.29
711.95	304.17
712.28	302.99
712.61	301.79
712.95	300.73
713.28	299.67
713.61	298.48
713.95	297.33
714.28	296.32
714.61	295.22
714.95	294.20
715.28	293.18
715.61	292.17
715.95	291.21
716.28	290.28
716.61	289.32
716.95	288.31
717.28	287.39
717.61	286.43
717.94	285.55
718.28	284.50
718.61	283.61
718.94	282.69
719.27	281.81
719.61	281.01
719.94	280.11
720.27	279.14
720.60	278.28
720.94	277.49
721.27	276.69
721.60	276.03
721.93	275.30
722.27	274.64
722.60	273.93
722.93	273.25
723.26	272.62
723.59	271.90
723.93	271.23
724.26	270.56
724.59	269.87
724.92	269.25
725.25	268.73
725.59	268.14
725.92	267.59
726.25	267.02
726.58	266.44
726.91	265.87
727.24	265.31
727.57	264.75
727.91	264.15
728.24	263.60
728.57	262.99
728.90	262.42
729.23	261.78
729.56	261.40
729.89	260.85
730.22	260.24
730.55	259.69
730.89	259.19
731.22	258.66
731.55	258.14
731.88	257.63
732.21	257.07
732.54	256.49
732.87	255.96
733.20	255.46
733.53	254.96
733.86	254.54
734.19	254.09
734.52	253.67
734.85	253.34
735.18	252.88
735.51	252.48
735.84	252.00
736.17	251.65
736.50	251.09
736.83	250.95
737.16	250.58
737.49	250.18
737.82	249.73
738.15	249.34
738.48	248.99
738.81	248.57
739.14	248.13
739.47	247.78
739.80	247.43
740.13	247.08
740.46	246.67
740.79	246.22
741.12	245.84
741.45	245.40
741.78	244.93
742.11	244.64
742.44	244.28
742.77	244.04
743.10	243.68
743.43	243.32
743.75	242.71
744.08	242.59
744.41	242.20
744.74	241.85
745.07	241.47
745.40	241.14
745.73	240.88
746.06	240.57
746.39	240.28
746.71	239.93
747.04	239.59
747.37	239.27
747.70	238.98
748.03	238.66
748.36	238.42
748.68	238.16
749.01	237.81
749.34	237.45
749.67	237.13
750.00	236.86
750.33	236.75
750.65	236.50
750.98	235.98
751.31	235.81
751.64	235.59
751.97	235.47
752.29	235.24
752.62	234.91
752.95	234.64
753.28	234.34
753.60	234.10
753.93	233.92
754.26	233.72
754.59	233.46
754.91	233.24
755.24	233.00
755.57	232.76
755.90	232.52
756.22	232.29
756.55	232.02
756.88	231.76
757.20	231.38
757.53	231.10
757.86	230.91
758.19	230.66
758.51	230.42
758.84	230.15
759.17	229.90
759.49	229.71
759.82	229.65
760.15	229.50
760.47	229.33
760.80	229.01
761.13	228.86
761.45	228.65
761.78	228.46
762.11	228.28
762.43	228.08
762.76	227.86
763.08	227.73
763.41	227.59
763.74	227.46
764.06	227.29
764.39	227.15
764.71	226.96
765.04	226.82
765.37	226.65
765.69	226.46
766.02	226.30
766.34	226.17
766.67	225.94
767.00	225.83
767.32	225.80
767.65	225.86
767.97	225.70
768.30	225.57
768.62	225.44
768.95	225.32
769.27	225.16
769.60	225.09
769.92	224.94
770.25	224.80
770.57	224.61
770.90	224.50
771.22	224.36
771.55	224.28
771.87	224.17
772.20	224.06
772.52	224.12
772.85	224.25
773.17	224.16
773.50	224.03
773.82	223.93
774.15	223.70
774.47	223.47
774.80	223.37
775.12	223.28
775.45	223.17
775.77	223.09
776.09	223.05
776.42	222.95
776.74	222.91
777.07	222.83
777.39	222.76
777.72	222.67
778.04	222.61
778.36	222.52
778.69	222.45
779.01	222.39
779.33	222.18
779.66	221.89
779.98	221.75
780.31	221.68
780.63	221.64
780.95	221.61
781.28	221.52
781.60	221.40
781.92	221.33
782.25	221.29
782.57	221.18
782.89	221.09
783.22	221.00
783.54	220.92
783.86	220.84
784.19	220.79
784.51	220.81
784.83	220.74
785.16	220.69
785.48	220.62
785.80	220.55
786.12	220.48
