SpectraSuite Data File
++++++++++++++++++++++++++++++++++++
Date: Tue Jan 29 16:46:19 EST 2013
User: group
Dark Spectrum Present: No
Reference Spectrum Present: No
Number of Sampled Component Spectra: 1
Spectrometers: USB2E7196
Integration Time (usec): 65000 (USB2E7196)
Spectra Averaged: 100 (USB2E7196)
Boxcar Smoothing: 10 (USB2E7196)
Correct for Electrical Dark: No (USB2E7196)
Strobe/Lamp Enabled: No (USB2E7196)
Correct for Detector Non-linearity: No (USB2E7196)
Correct for Stray Light: No (USB2E7196)
Number of Pixels in Processed Spectrum: 2048
>>>>>Begin Processed Spectral Data<<<<<
339.09	0.00
339.48	202.00
339.86	203.29
340.24	204.54
340.63	205.76
341.01	210.88
341.39	209.13
341.78	209.97
342.16	211.94
342.54	212.25
342.93	201.21
343.31	211.36
343.69	211.91
344.07	212.36
344.46	212.80
344.84	213.25
345.22	213.44
345.60	213.71
345.99	213.93
346.37	214.06
346.75	214.15
347.13	214.21
347.52	214.29
347.90	214.41
348.28	214.45
348.66	214.51
349.05	214.49
349.43	214.55
349.81	214.60
350.19	214.62
350.57	214.67
350.96	214.73
351.34	214.81
351.72	214.90
352.10	215.00
352.48	215.05
352.87	215.07
353.25	215.08
353.63	215.12
354.01	215.16
354.39	215.20
354.77	215.28
355.15	215.40
355.54	215.38
355.92	215.38
356.30	215.41
356.68	215.60
357.06	215.66
357.44	215.66
357.82	215.69
358.20	215.75
358.58	215.79
358.97	215.87
359.35	215.97
359.73	216.01
360.11	216.07
360.49	216.13
360.87	216.16
361.25	216.25
361.63	216.32
362.01	216.37
362.39	216.37
362.77	216.40
363.15	216.40
363.53	216.47
363.91	216.51
364.29	216.54
364.67	216.36
365.05	216.37
365.43	216.44
365.81	216.49
366.19	216.59
366.57	216.67
366.95	216.67
367.33	216.60
367.71	216.65
368.09	216.70
368.47	216.72
368.85	216.75
369.23	216.78
369.61	216.71
369.99	216.76
370.37	216.83
370.75	216.90
371.13	216.84
371.51	216.79
371.89	216.78
372.27	216.79
372.65	216.74
373.03	216.71
373.41	216.64
373.78	216.60
374.16	216.47
374.54	216.41
374.92	216.37
375.30	216.37
375.68	216.26
376.06	216.21
376.44	216.14
376.82	216.07
377.19	216.00
377.57	216.00
377.95	215.90
378.33	215.83
378.71	215.69
379.09	215.72
379.47	215.71
379.84	215.68
380.22	215.60
380.60	215.60
380.98	215.53
381.36	215.50
381.73	215.46
382.11	215.45
382.49	215.40
382.87	215.31
383.25	215.25
383.62	215.48
384.00	215.42
384.38	215.41
384.76	215.44
385.13	215.48
385.51	215.43
385.89	215.37
386.27	215.32
386.64	215.34
387.02	215.29
387.40	215.25
387.78	215.23
388.15	215.23
388.53	215.18
388.91	215.18
389.29	215.16
389.66	215.15
390.04	215.13
390.42	215.17
390.79	215.20
391.17	215.19
391.55	214.96
391.92	214.97
392.30	214.95
392.68	214.89
393.05	214.85
393.43	214.85
393.81	214.87
394.18	214.82
394.56	214.83
394.94	214.85
395.31	214.85
395.69	214.92
396.06	214.96
396.44	214.99
396.82	215.01
397.19	215.11
397.57	215.15
397.95	215.22
398.32	215.17
398.70	215.22
399.07	215.32
399.45	215.33
399.82	215.35
400.20	215.39
400.58	215.45
400.95	215.46
401.33	215.56
401.70	215.78
402.08	215.92
402.45	216.00
402.83	216.15
403.20	216.24
403.58	216.29
403.95	216.48
404.33	216.64
404.71	216.78
405.08	217.06
405.46	217.18
405.83	217.35
406.21	217.57
406.58	217.81
406.96	218.02
407.33	218.31
407.70	218.64
408.08	219.12
408.45	219.50
408.83	219.89
409.20	220.24
409.58	220.52
409.95	220.99
410.33	221.49
410.70	221.93
411.08	222.52
411.45	223.12
411.82	223.67
412.20	224.35
412.57	225.22
412.95	225.78
413.32	226.60
413.69	227.42
414.07	228.36
414.44	229.36
414.82	230.38
415.19	231.58
415.56	232.77
415.94	233.96
416.31	235.37
416.68	236.79
417.06	238.40
417.43	239.96
417.81	241.70
418.18	243.45
418.55	245.39
418.93	247.40
419.30	249.51
419.67	251.75
420.04	254.01
420.42	256.39
420.79	259.23
421.16	262.11
421.54	265.01
421.91	268.02
422.28	271.14
422.66	274.44
423.03	277.70
423.40	281.07
423.77	284.69
424.15	288.37
424.52	292.20
424.89	296.44
425.26	300.51
425.64	304.37
426.01	308.69
426.38	313.19
426.75	317.82
427.13	322.56
427.50	327.60
427.87	332.87
428.24	338.10
428.61	343.11
428.99	348.62
429.36	354.67
429.73	360.59
430.10	366.51
430.47	372.58
430.85	378.94
431.22	385.68
431.59	392.84
431.96	399.67
432.33	407.19
432.70	414.39
433.08	422.97
433.45	431.03
433.82	439.04
434.19	447.97
434.56	456.66
434.93	465.06
435.30	473.31
435.68	482.43
436.05	491.44
436.42	500.40
436.79	508.63
437.16	517.39
437.53	526.71
437.90	535.83
438.27	544.83
438.64	554.05
439.01	562.54
439.38	570.13
439.75	577.52
440.13	586.00
440.50	594.04
440.87	600.49
441.24	607.30
441.61	614.70
441.98	620.11
442.35	626.44
442.72	632.84
443.09	638.96
443.46	642.76
443.83	645.32
444.20	647.53
444.57	650.68
444.94	652.19
445.31	653.65
445.68	655.09
446.05	655.79
446.42	655.09
446.79	654.24
447.16	653.20
447.53	652.45
447.90	649.14
448.27	645.90
448.64	641.26
449.01	637.88
449.37	631.98
449.74	626.32
450.11	619.42
450.48	611.95
450.85	604.52
451.22	598.07
451.59	591.89
451.96	586.04
452.33	578.10
452.70	571.04
453.07	562.53
453.43	553.91
453.80	545.49
454.17	537.36
454.54	529.77
454.91	521.54
455.28	513.49
455.65	505.96
456.02	498.38
456.38	492.00
456.75	484.07
457.12	477.46
457.49	470.87
457.86	464.68
458.23	459.24
458.59	453.22
458.96	447.14
459.33	441.82
459.70	436.43
460.07	432.16
460.43	427.18
460.80	422.54
461.17	418.51
461.54	414.38
461.91	410.33
462.27	406.19
462.64	402.72
463.01	398.91
463.38	395.24
463.74	391.52
464.11	388.28
464.48	385.41
464.85	382.31
465.21	379.87
465.58	377.17
465.95	374.05
466.32	371.41
466.68	368.80
467.05	366.19
467.42	363.66
467.78	360.94
468.15	358.41
468.52	356.50
468.88	353.96
469.25	351.71
469.62	349.89
469.98	347.95
470.35	346.10
470.72	344.39
471.08	342.53
471.45	341.01
471.82	339.43
472.18	337.75
472.55	336.51
472.92	335.07
473.28	333.91
473.65	332.71
474.02	331.62
474.38	330.67
474.75	329.87
475.11	328.98
475.48	328.45
475.85	327.93
476.21	327.39
476.58	327.02
476.94	326.75
477.31	326.45
477.67	326.14
478.04	325.98
478.41	325.91
478.77	326.12
479.14	326.07
479.50	326.20
479.87	326.50
480.23	326.78
480.60	327.08
480.96	327.31
481.33	327.86
481.69	328.42
482.06	328.97
482.42	329.46
482.79	330.04
483.15	330.77
483.52	331.71
483.88	332.61
484.25	333.54
484.61	334.54
484.98	335.60
485.34	336.88
485.71	338.25
486.07	339.71
486.44	341.05
486.80	342.68
487.17	344.38
487.53	346.21
487.90	348.12
488.26	350.09
488.62	352.27
488.99	354.36
489.35	356.45
489.72	358.85
490.08	361.36
490.44	363.94
490.81	366.69
491.17	369.39
491.54	372.38
491.90	375.42
492.26	378.63
492.63	382.04
492.99	385.58
493.36	389.24
493.72	393.06
494.08	397.08
494.45	401.24
494.81	405.56
495.17	410.05
495.54	414.76
495.90	419.64
496.26	424.55
496.63	429.68
496.99	435.15
497.35	440.69
497.72	446.49
498.08	452.41
498.44	458.48
498.80	464.96
499.17	471.46
499.53	478.16
499.89	485.13
500.26	492.11
500.62	499.20
500.98	506.61
501.34	514.15
501.71	521.83
502.07	529.65
502.43	537.70
502.79	545.87
503.16	554.28
503.52	562.89
503.88	571.61
504.24	580.63
504.60	589.70
504.97	598.96
505.33	608.24
505.69	618.11
506.05	628.02
506.41	637.88
506.78	647.99
507.14	658.22
507.50	668.68
507.86	679.37
508.22	690.18
508.59	700.80
508.95	711.89
509.31	723.22
509.67	734.64
510.03	745.98
510.39	757.67
510.75	769.38
511.12	781.31
511.48	793.34
511.84	805.61
512.20	817.85
512.56	830.46
512.92	843.24
513.28	855.98
513.64	868.63
514.00	881.40
514.37	894.27
514.73	907.46
515.09	920.44
515.45	933.39
515.81	946.42
516.17	959.96
516.53	973.21
516.89	986.33
517.25	999.50
517.61	1013.10
517.97	1026.46
518.33	1039.68
518.69	1053.10
519.05	1067.02
519.41	1080.74
519.77	1094.71
520.13	1108.04
520.49	1121.41
520.85	1134.83
521.21	1148.26
521.57	1162.03
521.93	1175.15
522.29	1188.81
522.65	1202.47
523.01	1216.10
523.37	1229.35
523.73	1242.62
524.09	1255.87
524.45	1269.32
524.81	1283.01
525.17	1296.42
525.53	1309.67
525.89	1323.11
526.25	1336.38
526.61	1349.25
526.97	1362.37
527.33	1375.44
527.68	1388.99
528.04	1402.42
528.40	1415.53
528.76	1428.89
529.12	1441.84
529.48	1455.25
529.84	1467.58
530.20	1480.37
530.56	1493.00
530.91	1506.22
531.27	1519.14
531.63	1531.95
531.99	1544.87
532.35	1557.09
532.71	1569.53
533.07	1582.56
533.42	1594.89
533.78	1607.12
534.14	1619.28
534.50	1630.66
534.86	1642.24
535.21	1653.16
535.57	1664.82
535.93	1676.20
536.29	1687.40
536.65	1698.96
537.00	1709.99
537.36	1721.63
537.72	1732.66
538.08	1744.15
538.44	1755.37
538.79	1766.62
539.15	1777.61
539.51	1788.41
539.87	1799.80
540.22	1810.72
540.58	1821.63
540.94	1832.56
541.29	1842.84
541.65	1852.64
542.01	1863.06
542.37	1873.15
542.72	1883.30
543.08	1893.10
543.44	1903.68
543.79	1913.13
544.15	1922.59
544.51	1932.62
544.87	1942.45
545.22	1951.81
545.58	1960.74
545.94	1969.61
546.29	1978.08
546.65	1986.50
547.01	1994.76
547.36	2002.68
547.72	2010.52
548.07	2018.26
548.43	2026.06
548.79	2034.02
549.14	2042.23
549.50	2050.84
549.86	2058.88
550.21	2066.50
550.57	2074.27
550.92	2081.09
551.28	2088.60
551.64	2095.97
551.99	2103.59
552.35	2110.80
552.70	2117.67
553.06	2124.41
553.41	2130.66
553.77	2137.29
554.13	2143.62
554.48	2150.68
554.84	2157.71
555.19	2164.39
555.55	2170.81
555.90	2177.05
556.26	2183.93
556.61	2190.02
556.97	2194.82
557.32	2200.62
557.68	2207.03
558.03	2212.78
558.39	2218.06
558.74	2224.10
559.10	2229.75
559.45	2235.31
559.81	2240.81
560.16	2246.34
560.52	2252.18
560.87	2258.70
561.23	2264.50
561.58	2271.24
561.94	2276.36
562.29	2280.99
562.64	2286.83
563.00	2292.42
563.35	2297.99
563.71	2303.55
564.06	2309.16
564.42	2315.08
564.77	2320.05
565.12	2325.29
565.48	2330.22
565.83	2335.80
566.19	2340.96
566.54	2345.98
566.89	2350.47
567.25	2355.05
567.60	2360.72
567.96	2365.84
568.31	2370.26
568.66	2374.50
569.02	2378.28
569.37	2382.09
569.72	2386.33
570.08	2389.71
570.43	2392.79
570.78	2395.92
571.14	2398.39
571.49	2401.57
571.84	2405.07
572.20	2407.89
572.55	2410.74
572.90	2413.01
573.26	2415.48
573.61	2417.99
573.96	2420.19
574.31	2422.19
574.67	2423.97
575.02	2424.53
575.37	2425.92
575.72	2426.42
576.08	2427.75
576.43	2427.79
576.78	2427.89
577.13	2429.35
577.49	2430.41
577.84	2431.33
578.19	2432.32
578.54	2432.71
578.90	2433.15
579.25	2432.89
579.60	2432.66
579.95	2431.70
580.30	2431.51
580.66	2430.78
581.01	2429.01
581.36	2426.41
581.71	2424.84
582.06	2423.51
582.42	2422.52
582.77	2420.00
583.12	2418.24
583.47	2416.62
583.82	2415.69
584.17	2414.48
584.53	2412.28
584.88	2410.09
585.23	2407.95
585.58	2405.50
585.93	2403.41
586.28	2401.04
586.63	2398.34
586.98	2396.06
587.34	2394.03
587.69	2391.42
588.04	2389.18
588.39	2387.48
588.74	2384.88
589.09	2381.89
589.44	2378.55
589.79	2375.89
590.14	2373.75
590.49	2370.87
590.84	2366.94
591.19	2363.69
591.54	2360.09
591.89	2355.77
592.25	2352.42
592.60	2348.25
592.95	2344.02
593.30	2339.76
593.65	2335.27
594.00	2330.83
594.35	2327.70
594.70	2322.86
595.05	2318.43
595.40	2312.96
595.75	2307.07
596.10	2303.36
596.45	2298.42
596.80	2293.76
597.15	2288.49
597.50	2282.48
597.85	2277.34
598.19	2272.11
598.54	2266.38
598.89	2261.25
599.24	2256.79
599.59	2250.60
599.94	2244.60
600.29	2238.71
600.64	2232.85
600.99	2225.88
601.34	2220.22
601.69	2213.14
602.04	2206.68
602.39	2199.94
602.74	2193.75
603.08	2188.40
603.43	2181.82
603.78	2174.99
604.13	2167.99
604.48	2160.65
604.83	2154.54
605.18	2148.43
605.53	2141.44
605.87	2134.42
606.22	2127.57
606.57	2119.47
606.92	2111.52
607.27	2104.50
607.62	2097.73
607.96	2090.61
608.31	2084.25
608.66	2076.63
609.01	2069.08
609.36	2061.93
609.70	2054.24
610.05	2046.45
610.40	2038.02
610.75	2029.69
611.10	2022.03
611.44	2013.03
611.79	2004.39
612.14	1994.43
612.49	1983.72
612.83	1974.33
613.18	1965.04
613.53	1955.87
613.88	1946.34
614.22	1937.70
614.57	1927.89
614.92	1917.42
615.27	1907.11
615.61	1896.93
615.96	1887.22
616.31	1877.46
616.65	1868.01
617.00	1858.35
617.35	1848.74
617.70	1839.10
618.04	1829.20
618.39	1819.01
618.74	1809.45
619.08	1799.83
619.43	1791.24
619.78	1782.92
620.12	1774.41
620.47	1764.86
620.82	1754.46
621.16	1744.82
621.51	1734.95
621.85	1725.23
622.20	1714.92
622.55	1704.45
622.89	1694.53
623.24	1684.87
623.59	1675.14
623.93	1665.23
624.28	1655.45
624.62	1645.35
624.97	1634.97
625.32	1625.18
625.66	1616.36
626.01	1607.76
626.35	1598.47
626.70	1588.40
627.04	1578.47
627.39	1568.42
627.73	1559.31
628.08	1550.51
628.43	1541.13
628.77	1531.97
629.12	1523.09
629.46	1515.33
629.81	1507.18
630.15	1497.98
630.50	1488.18
630.84	1477.73
631.19	1467.93
631.53	1458.76
631.88	1448.69
632.22	1438.87
632.57	1429.66
632.91	1419.66
633.26	1409.74
633.60	1400.26
633.95	1391.17
634.29	1381.74
634.64	1372.53
634.98	1362.43
635.32	1353.29
635.67	1344.78
636.01	1335.52
636.36	1325.85
636.70	1316.29
637.05	1306.86
637.39	1298.03
637.73	1289.56
638.08	1282.23
638.42	1274.07
638.77	1265.24
639.11	1256.99
639.45	1249.22
639.80	1240.72
640.14	1231.98
640.49	1223.20
640.83	1214.50
641.17	1206.31
641.52	1198.30
641.86	1189.75
642.20	1182.09
642.55	1173.45
642.89	1164.58
643.23	1156.03
643.58	1148.18
643.92	1139.40
644.26	1130.73
644.61	1122.32
644.95	1113.57
645.29	1104.34
645.64	1095.24
645.98	1086.79
646.32	1079.04
646.66	1070.60
647.01	1062.31
647.35	1054.32
647.69	1046.11
648.04	1037.84
648.38	1029.06
648.72	1020.29
649.06	1011.90
649.41	1003.73
649.75	995.81
650.09	987.98
650.43	980.02
650.78	971.54
651.12	963.82
651.46	956.47
651.80	949.17
652.14	941.91
652.49	934.45
652.83	927.15
653.17	919.54
653.51	911.87
653.85	904.58
654.20	897.44
654.54	890.00
654.88	882.75
655.22	875.59
655.56	868.59
655.90	861.82
656.25	855.15
656.59	848.31
656.93	841.31
657.27	834.19
657.61	827.14
657.95	821.09
658.29	815.10
658.64	809.01
658.98	802.49
659.32	795.95
659.66	789.76
660.00	783.46
660.34	777.41
660.68	771.32
661.02	765.03
661.36	758.94
661.70	753.22
662.05	747.60
662.39	742.07
662.73	736.65
663.07	731.33
663.41	725.79
663.75	720.03
664.09	714.35
664.43	708.94
664.77	703.69
665.11	697.87
665.45	692.01
665.79	686.22
666.13	680.68
666.47	675.17
666.81	669.67
667.15	664.23
667.49	659.02
667.83	653.81
668.17	648.62
668.51	643.48
668.85	638.42
669.19	633.54
669.53	628.52
669.87	623.37
670.21	618.52
670.55	613.74
670.89	609.24
671.23	604.87
671.57	600.48
671.91	596.21
672.25	592.04
672.58	587.88
672.92	583.78
673.26	579.73
673.60	575.82
673.94	572.01
674.28	568.38
674.62	564.64
674.96	560.79
675.30	557.30
675.64	553.63
675.97	550.06
676.31	546.35
676.65	542.74
676.99	539.34
677.33	535.46
677.67	531.85
678.01	528.04
678.34	524.36
678.68	520.78
679.02	517.16
679.36	513.47
679.70	509.82
680.04	506.24
680.37	502.80
680.71	499.51
681.05	496.30
681.39	492.99
681.73	489.78
682.06	486.84
682.40	483.69
682.74	480.45
683.08	477.20
683.42	474.00
683.75	470.98
684.09	467.88
684.43	465.06
684.77	462.07
685.10	459.15
685.44	456.26
685.78	453.38
686.12	450.49
686.45	447.72
686.79	444.98
687.13	442.46
687.46	439.82
687.80	437.06
688.14	434.15
688.48	431.49
688.81	428.72
689.15	426.04
689.49	423.37
689.82	420.87
690.16	418.28
690.50	415.81
690.83	413.26
691.17	410.76
691.51	408.26
691.84	405.98
692.18	403.78
692.52	401.54
692.85	399.29
693.19	397.15
693.52	394.93
693.86	392.68
694.20	390.45
694.53	388.21
694.87	386.07
695.21	383.97
695.54	381.79
695.88	379.64
696.21	377.40
696.55	375.25
696.88	373.18
697.22	371.12
697.56	369.19
697.89	367.31
698.23	365.49
698.56	363.67
698.90	361.88
699.23	359.94
699.57	358.04
699.90	356.20
700.24	354.34
700.58	352.59
700.91	350.93
701.25	349.35
701.58	347.75
701.92	346.08
702.25	344.46
702.59	342.84
702.92	341.30
703.26	339.75
703.59	338.24
703.93	336.92
704.26	335.52
704.60	334.01
704.93	332.48
705.26	330.95
705.60	329.46
705.93	327.88
706.27	326.52
706.60	325.25
706.94	323.97
707.27	322.62
707.61	321.29
707.94	319.96
708.27	318.43
708.61	316.96
708.94	315.55
709.28	314.22
709.61	312.96
709.94	311.69
710.28	310.50
710.61	309.34
710.95	307.92
711.28	306.83
711.61	305.63
711.95	304.51
712.28	303.27
712.61	302.06
712.95	301.00
713.28	299.97
713.61	298.79
713.95	297.63
714.28	296.57
714.61	295.46
714.95	294.37
715.28	293.32
715.61	292.30
715.95	291.34
716.28	290.39
716.61	289.37
716.95	288.38
717.28	287.41
717.61	286.38
717.94	285.46
718.28	284.39
718.61	283.45
718.94	282.51
719.27	281.69
719.61	280.87
719.94	280.01
720.27	278.97
720.60	278.07
720.94	277.25
721.27	276.50
721.60	275.82
721.93	275.14
722.27	274.53
722.60	273.85
722.93	273.13
723.26	272.41
723.59	271.73
723.93	271.09
724.26	270.39
724.59	269.74
724.92	269.13
725.25	268.58
725.59	267.98
725.92	267.42
726.25	266.85
726.58	266.28
726.91	265.67
727.24	265.13
727.57	264.58
727.91	263.97
728.24	263.37
728.57	262.72
728.90	262.13
729.23	261.47
729.56	260.99
729.89	260.42
730.22	259.86
730.55	259.29
730.89	258.72
731.22	258.19
731.55	257.66
731.88	257.15
732.21	256.60
732.54	256.06
732.87	255.58
733.20	255.04
733.53	254.53
733.86	254.05
734.19	253.56
734.52	253.15
734.85	252.86
735.18	252.40
735.51	252.06
735.84	251.59
736.17	251.18
736.50	250.65
736.83	250.49
737.16	250.11
737.49	249.74
737.82	249.36
738.15	248.98
738.48	248.60
738.81	248.18
739.14	247.75
739.47	247.41
739.80	247.01
740.13	246.67
740.46	246.28
740.79	245.88
741.12	245.52
741.45	245.08
741.78	244.61
742.11	244.33
742.44	243.91
742.77	243.62
743.10	243.32
743.43	242.98
743.75	242.41
744.08	242.31
744.41	241.95
744.74	241.58
745.07	241.20
745.40	240.92
745.73	240.66
746.06	240.34
746.39	239.97
746.71	239.65
747.04	239.30
747.37	238.98
747.70	238.73
748.03	238.39
748.36	238.14
748.68	237.86
749.01	237.49
749.34	237.20
749.67	236.87
750.00	236.57
750.33	236.44
750.65	236.19
750.98	235.70
751.31	235.46
751.64	235.24
751.97	235.11
752.29	234.85
752.62	234.48
752.95	234.21
753.28	233.98
753.60	233.70
753.93	233.55
754.26	233.33
754.59	233.05
754.91	232.81
755.24	232.57
755.57	232.30
755.90	232.07
756.22	231.86
756.55	231.61
756.88	231.35
757.20	230.99
757.53	230.72
757.86	230.50
758.19	230.29
758.51	230.05
758.84	229.74
759.17	229.51
759.49	229.33
759.82	229.23
760.15	229.04
760.47	228.85
760.80	228.57
761.13	228.41
761.45	228.18
761.78	228.01
762.11	227.81
762.43	227.66
762.76	227.47
763.08	227.29
763.41	227.13
763.74	227.01
764.06	226.87
764.39	226.74
764.71	226.57
765.04	226.39
765.37	226.21
765.69	226.05
766.02	225.90
766.34	225.78
766.67	225.57
767.00	225.50
767.32	225.47
767.65	225.48
767.97	225.34
768.30	225.26
768.62	225.13
768.95	224.98
769.27	224.82
769.60	224.75
769.92	224.58
770.25	224.43
770.57	224.28
770.90	224.12
771.22	223.97
771.55	223.89
771.87	223.79
772.20	223.70
772.52	223.77
772.85	223.90
773.17	223.77
773.50	223.67
773.82	223.55
774.15	223.38
774.47	223.14
774.80	223.03
775.12	222.91
775.45	222.79
775.77	222.74
776.09	222.67
776.42	222.55
776.74	222.56
777.07	222.46
777.39	222.34
777.72	222.25
778.04	222.19
778.36	222.05
778.69	222.01
779.01	221.95
779.33	221.70
779.66	221.40
779.98	221.33
780.31	221.25
780.63	221.24
780.95	221.20
781.28	221.13
781.60	221.02
781.92	220.96
782.25	220.92
782.57	220.83
782.89	220.74
783.22	220.67
783.54	220.55
783.86	220.54
784.19	220.50
784.51	220.48
784.83	220.41
785.16	220.36
785.48	220.26
785.80	220.19
786.12	220.14
