SpectraSuite Data File
++++++++++++++++++++++++++++++++++++
Date: Tue Jan 29 16:22:33 EST 2013
User: group
Dark Spectrum Present: No
Reference Spectrum Present: No
Number of Sampled Component Spectra: 1
Spectrometers: USB2E7196
Integration Time (usec): 65000 (USB2E7196)
Spectra Averaged: 100 (USB2E7196)
Boxcar Smoothing: 10 (USB2E7196)
Correct for Electrical Dark: No (USB2E7196)
Strobe/Lamp Enabled: No (USB2E7196)
Correct for Detector Non-linearity: No (USB2E7196)
Correct for Stray Light: No (USB2E7196)
Number of Pixels in Processed Spectrum: 2048
>>>>>Begin Processed Spectral Data<<<<<
339.09	0.00
339.48	201.97
339.86	203.26
340.24	205.01
340.63	206.29
341.01	210.78
341.39	209.13
341.78	210.00
342.16	212.87
342.54	212.24
342.93	201.44
343.31	211.60
343.69	212.15
344.07	212.64
344.46	213.11
344.84	213.51
345.22	213.68
345.60	213.97
345.99	214.20
346.37	214.29
346.75	214.42
347.13	214.48
347.52	214.53
347.90	214.67
348.28	214.73
348.66	214.80
349.05	214.77
349.43	214.84
349.81	214.91
350.19	214.96
350.57	215.02
350.96	215.12
351.34	215.23
351.72	215.34
352.10	215.44
352.48	215.48
352.87	215.55
353.25	215.63
353.63	215.67
354.01	215.74
354.39	215.82
354.77	215.88
355.15	216.01
355.54	216.09
355.92	216.10
356.30	216.18
356.68	216.37
357.06	216.44
357.44	216.50
357.82	216.56
358.20	216.68
358.58	216.72
358.97	216.79
359.35	216.87
359.73	216.96
360.11	217.01
360.49	217.07
360.87	217.12
361.25	217.20
361.63	217.31
362.01	217.34
362.39	217.37
362.77	217.45
363.15	217.48
363.53	217.49
363.91	217.50
364.29	217.48
364.67	217.32
365.05	217.35
365.43	217.38
365.81	217.41
366.19	217.47
366.57	217.58
366.95	217.60
367.33	217.60
367.71	217.59
368.09	217.67
368.47	217.67
368.85	217.67
369.23	217.71
369.61	217.63
369.99	217.69
370.37	217.73
370.75	217.80
371.13	217.71
371.51	217.69
371.89	217.68
372.27	217.70
372.65	217.67
373.03	217.64
373.41	217.60
373.78	217.53
374.16	217.41
374.54	217.30
374.92	217.22
375.30	217.16
375.68	217.07
376.06	217.02
376.44	216.94
376.82	216.90
377.19	216.83
377.57	216.78
377.95	216.68
378.33	216.62
378.71	216.42
379.09	216.44
379.47	216.42
379.84	216.31
380.22	216.25
380.60	216.20
380.98	216.14
381.36	216.11
381.73	216.04
382.11	216.03
382.49	216.01
382.87	215.95
383.25	215.92
383.62	216.16
384.00	216.08
384.38	216.08
384.76	216.10
385.13	216.15
385.51	216.10
385.89	216.03
386.27	216.00
386.64	216.05
387.02	215.98
387.40	215.93
387.78	215.96
388.15	215.95
388.53	215.89
388.91	215.88
389.29	215.83
389.66	215.88
390.04	215.83
390.42	215.86
390.79	215.88
391.17	215.84
391.55	215.57
391.92	215.58
392.30	215.57
392.68	215.50
393.05	215.49
393.43	215.53
393.81	215.53
394.18	215.51
394.56	215.51
394.94	215.60
395.31	215.59
395.69	215.65
396.06	215.69
396.44	215.74
396.82	215.75
397.19	215.86
397.57	215.82
397.95	215.91
398.32	215.84
398.70	215.89
399.07	215.99
399.45	216.06
399.82	216.09
400.20	216.16
400.58	216.21
400.95	216.16
401.33	216.26
401.70	216.47
402.08	216.54
402.45	216.62
402.83	216.75
403.20	216.88
403.58	216.95
403.95	217.11
404.33	217.27
404.71	217.42
405.08	217.70
405.46	217.88
405.83	218.04
406.21	218.25
406.58	218.48
406.96	218.67
407.33	218.95
407.70	219.23
408.08	219.69
408.45	220.07
408.83	220.48
409.20	220.81
409.58	221.09
409.95	221.57
410.33	222.06
410.70	222.45
411.08	222.98
411.45	223.58
411.82	224.12
412.20	224.81
412.57	225.65
412.95	226.22
413.32	227.06
413.69	227.88
414.07	228.80
414.44	229.79
414.82	230.79
415.19	231.97
415.56	233.15
415.94	234.27
416.31	235.68
416.68	237.02
417.06	238.65
417.43	240.18
417.81	241.91
418.18	243.67
418.55	245.61
418.93	247.64
419.30	249.68
419.67	251.91
420.04	254.18
420.42	256.52
420.79	259.33
421.16	262.11
421.54	264.99
421.91	267.91
422.28	270.97
422.66	274.25
423.03	277.43
423.40	280.82
423.77	284.41
424.15	288.00
424.52	291.84
424.89	295.97
425.26	300.00
425.64	303.85
426.01	308.10
426.38	312.52
426.75	316.99
427.13	321.71
427.50	326.65
427.87	331.84
428.24	337.00
428.61	341.92
428.99	347.38
429.36	353.34
429.73	359.17
430.10	365.01
430.47	371.04
430.85	377.32
431.22	383.91
431.59	390.98
431.96	397.78
432.33	405.26
432.70	412.44
433.08	420.91
433.45	428.87
433.82	436.83
434.19	445.62
434.56	454.26
434.93	462.51
435.30	470.68
435.68	479.70
436.05	488.57
436.42	497.33
436.79	505.41
437.16	514.09
437.53	523.30
437.90	532.36
438.27	541.19
438.64	550.31
439.01	558.77
439.38	566.23
439.75	573.50
440.13	581.79
440.50	589.65
440.87	596.00
441.24	602.61
441.61	609.85
441.98	615.16
442.35	621.48
442.72	627.78
443.09	633.82
443.46	637.48
443.83	640.04
444.20	642.25
444.57	645.32
444.94	646.78
445.31	648.20
445.68	649.59
446.05	650.25
446.42	649.40
446.79	648.49
447.16	647.45
447.53	646.65
447.90	643.33
448.27	640.06
448.64	635.50
449.01	632.26
449.37	626.44
449.74	620.85
450.11	613.92
450.48	606.59
450.85	599.11
451.22	592.68
451.59	586.55
451.96	580.80
452.33	573.10
452.70	566.00
453.07	557.56
453.43	549.02
453.80	540.72
454.17	532.84
454.54	525.31
454.91	517.17
455.28	509.27
455.65	501.93
456.02	494.50
456.38	488.17
456.75	480.34
457.12	473.81
457.49	467.39
457.86	461.31
458.23	456.00
458.59	450.19
458.96	444.26
459.33	438.99
459.70	433.62
460.07	429.35
460.43	424.53
460.80	420.05
461.17	416.06
461.54	411.97
461.91	407.99
462.27	403.96
462.64	400.57
463.01	396.83
463.38	393.16
463.74	389.51
464.11	386.33
464.48	383.45
464.85	380.39
465.21	377.94
465.58	375.32
465.95	372.19
466.32	369.56
466.68	367.00
467.05	364.48
467.42	361.96
467.78	359.29
468.15	356.76
468.52	354.90
468.88	352.44
469.25	350.21
469.62	348.45
469.98	346.49
470.35	344.70
470.72	343.03
471.08	341.30
471.45	339.77
471.82	338.23
472.18	336.64
472.55	335.45
472.92	334.08
473.28	332.90
473.65	331.80
474.02	330.71
474.38	329.85
474.75	329.09
475.11	328.32
475.48	327.75
475.85	327.29
476.21	326.73
476.58	326.40
476.94	326.13
477.31	325.84
477.67	325.62
478.04	325.47
478.41	325.41
478.77	325.54
479.14	325.53
479.50	325.74
479.87	326.05
480.23	326.36
480.60	326.64
480.96	326.90
481.33	327.47
481.69	328.11
482.06	328.61
482.42	329.11
482.79	329.78
483.15	330.58
483.52	331.55
483.88	332.48
484.25	333.46
484.61	334.52
484.98	335.57
485.34	336.88
485.71	338.26
486.07	339.72
486.44	341.03
486.80	342.66
487.17	344.28
487.53	346.07
487.90	347.96
488.26	349.99
488.62	352.13
488.99	354.22
489.35	356.30
489.72	358.66
490.08	361.20
490.44	363.73
490.81	366.42
491.17	369.16
491.54	372.13
491.90	375.16
492.26	378.41
492.63	381.83
492.99	385.29
493.36	389.02
493.72	392.92
494.08	396.99
494.45	401.18
494.81	405.59
495.17	410.08
495.54	414.81
495.90	419.66
496.26	424.66
496.63	429.84
496.99	435.32
497.35	440.96
497.72	446.81
498.08	452.78
498.44	458.94
498.80	465.40
499.17	471.89
499.53	478.64
499.89	485.58
500.26	492.60
500.62	499.77
500.98	507.13
501.34	514.65
501.71	522.56
502.07	530.43
502.43	538.44
502.79	546.64
503.16	555.07
503.52	563.69
503.88	572.40
504.24	581.47
504.60	590.58
504.97	599.88
505.33	609.26
505.69	619.20
506.05	629.18
506.41	639.06
506.78	649.24
507.14	659.54
507.50	670.10
507.86	680.88
508.22	691.79
508.59	702.62
508.95	713.81
509.31	725.08
509.67	736.65
510.03	748.09
510.39	759.87
510.75	771.80
511.12	783.85
511.48	796.07
511.84	808.40
512.20	820.86
512.56	833.57
512.92	846.44
513.28	859.09
513.64	871.92
514.00	884.94
514.37	898.04
514.73	911.30
515.09	924.35
515.45	937.32
515.81	950.47
516.17	963.94
516.53	977.16
516.89	990.37
517.25	1003.63
517.61	1017.33
517.97	1030.86
518.33	1044.03
518.69	1057.66
519.05	1071.54
519.41	1085.28
519.77	1099.28
520.13	1112.71
520.49	1125.96
520.85	1139.59
521.21	1152.98
521.57	1166.79
521.93	1179.91
522.29	1193.70
522.65	1207.42
523.01	1221.27
523.37	1234.53
523.73	1247.78
524.09	1261.13
524.45	1274.61
524.81	1288.32
525.17	1301.75
525.53	1314.97
525.89	1328.44
526.25	1341.68
526.61	1354.54
526.97	1367.72
527.33	1380.64
527.68	1394.15
528.04	1407.77
528.40	1420.83
528.76	1434.29
529.12	1447.19
529.48	1460.64
529.84	1472.94
530.20	1485.76
530.56	1498.33
530.91	1511.59
531.27	1524.67
531.63	1537.48
531.99	1550.30
532.35	1562.45
532.71	1575.04
533.07	1588.12
533.42	1600.33
533.78	1612.48
534.14	1624.73
534.50	1636.09
534.86	1647.76
535.21	1658.76
535.57	1670.19
535.93	1681.58
536.29	1692.64
536.65	1704.24
537.00	1715.16
537.36	1726.64
537.72	1737.72
538.08	1749.15
538.44	1760.21
538.79	1771.31
539.15	1782.17
539.51	1793.02
539.87	1804.48
540.22	1815.28
540.58	1826.09
540.94	1837.15
541.29	1847.41
541.65	1857.18
542.01	1867.77
542.37	1877.86
542.72	1887.97
543.08	1897.72
543.44	1908.30
543.79	1917.73
544.15	1927.12
544.51	1937.14
544.87	1947.08
545.22	1956.30
545.58	1965.26
545.94	1974.08
546.29	1982.57
546.65	1991.00
547.01	1999.30
547.36	2007.09
547.72	2014.91
548.07	2022.66
548.43	2030.39
548.79	2038.45
549.14	2046.64
549.50	2055.03
549.86	2062.83
550.21	2070.38
550.57	2078.30
550.92	2085.03
551.28	2092.53
551.64	2099.88
551.99	2107.38
552.35	2114.56
552.70	2121.46
553.06	2128.14
553.41	2134.56
553.77	2141.37
554.13	2147.91
554.48	2154.92
554.84	2161.92
555.19	2168.50
555.55	2174.85
555.90	2181.23
556.26	2187.84
556.61	2193.98
556.97	2198.85
557.32	2204.83
557.68	2211.28
558.03	2217.05
558.39	2222.39
558.74	2228.45
559.10	2233.92
559.45	2239.62
559.81	2245.09
560.16	2250.70
560.52	2256.59
560.87	2262.98
561.23	2268.89
561.58	2275.49
561.94	2280.75
562.29	2285.44
562.64	2291.61
563.00	2297.36
563.35	2303.04
563.71	2309.07
564.06	2314.84
564.42	2320.84
564.77	2326.07
565.12	2331.35
565.48	2336.55
565.83	2342.19
566.19	2347.61
566.54	2353.22
566.89	2358.04
567.25	2362.90
567.60	2368.66
567.96	2373.95
568.31	2378.67
568.66	2382.90
569.02	2386.77
569.37	2390.67
569.72	2395.24
570.08	2398.75
570.43	2402.08
570.78	2405.18
571.14	2407.62
571.49	2410.76
571.84	2414.42
572.20	2417.18
572.55	2420.31
572.90	2422.68
573.26	2425.72
573.61	2428.33
573.96	2430.40
574.31	2432.44
574.67	2434.34
575.02	2435.16
575.37	2436.70
575.72	2437.54
576.08	2439.10
576.43	2439.48
576.78	2440.06
577.13	2441.73
577.49	2442.92
577.84	2443.94
578.19	2445.50
578.54	2446.26
578.90	2446.83
579.25	2446.74
579.60	2446.90
579.95	2446.20
580.30	2446.36
580.66	2445.69
581.01	2444.19
581.36	2442.05
581.71	2440.52
582.06	2439.53
582.42	2438.82
582.77	2436.61
583.12	2435.01
583.47	2433.58
583.82	2433.12
584.17	2431.88
584.53	2429.84
584.88	2427.90
585.23	2426.03
585.58	2423.66
585.93	2421.75
586.28	2419.87
586.63	2417.41
586.98	2415.29
587.34	2413.31
587.69	2410.89
588.04	2408.90
588.39	2407.35
588.74	2404.95
589.09	2402.45
589.44	2399.44
589.79	2397.01
590.14	2395.09
590.49	2392.33
590.84	2388.68
591.19	2385.58
591.54	2382.35
591.89	2378.29
592.25	2375.10
592.60	2370.98
592.95	2366.95
593.30	2362.66
593.65	2358.23
594.00	2353.98
594.35	2350.95
594.70	2346.34
595.05	2341.97
595.40	2336.40
595.75	2330.80
596.10	2327.25
596.45	2322.43
596.80	2317.76
597.15	2312.57
597.50	2306.62
597.85	2301.77
598.19	2296.54
598.54	2290.71
598.89	2285.48
599.24	2280.93
599.59	2274.65
599.94	2268.82
600.29	2262.76
600.64	2256.89
600.99	2250.19
601.34	2244.65
601.69	2237.63
602.04	2231.24
602.39	2224.44
602.74	2218.32
603.08	2212.94
603.43	2206.28
603.78	2199.42
604.13	2192.36
604.48	2185.14
604.83	2179.09
605.18	2172.69
605.53	2165.73
605.87	2158.62
606.22	2151.77
606.57	2143.91
606.92	2135.95
607.27	2129.14
607.62	2122.53
607.96	2115.57
608.31	2108.98
608.66	2101.18
609.01	2093.41
609.36	2086.29
609.70	2078.58
610.05	2070.79
610.40	2062.24
610.75	2053.85
611.10	2046.07
611.44	2037.04
611.79	2028.05
612.14	2017.90
612.49	2007.17
612.83	1997.85
613.18	1988.65
613.53	1979.34
613.88	1969.67
614.22	1961.04
614.57	1950.87
614.92	1940.24
615.27	1929.85
615.61	1919.84
615.96	1910.16
616.31	1900.72
616.65	1891.18
617.00	1881.37
617.35	1871.70
617.70	1861.93
618.04	1851.83
618.39	1841.59
618.74	1831.84
619.08	1822.27
619.43	1813.42
619.78	1805.10
620.12	1796.21
620.47	1786.49
620.82	1776.02
621.16	1766.08
621.51	1756.10
621.85	1746.13
622.20	1735.62
622.55	1724.94
622.89	1714.77
623.24	1704.89
623.59	1694.92
623.93	1684.68
624.28	1674.85
624.62	1664.55
624.97	1654.10
625.32	1644.17
625.66	1635.23
626.01	1626.40
626.35	1616.98
626.70	1606.94
627.04	1596.80
627.39	1586.73
627.73	1577.27
628.08	1568.31
628.43	1558.64
628.77	1549.35
629.12	1540.47
629.46	1532.54
629.81	1524.16
630.15	1514.44
630.50	1504.56
630.84	1493.84
631.19	1483.99
631.53	1474.53
631.88	1464.35
632.22	1454.28
632.57	1444.87
632.91	1434.54
633.26	1424.62
633.60	1414.94
633.95	1405.44
634.29	1395.90
634.64	1386.39
634.98	1376.38
635.32	1366.95
635.67	1358.33
636.01	1348.87
636.36	1338.97
636.70	1329.29
637.05	1319.80
637.39	1310.88
637.73	1302.19
638.08	1294.60
638.42	1286.13
638.77	1277.17
639.11	1268.67
639.45	1260.76
639.80	1252.06
640.14	1243.28
640.49	1234.23
640.83	1225.24
641.17	1217.08
641.52	1208.74
641.86	1200.06
642.20	1192.02
642.55	1183.25
642.89	1174.28
643.23	1165.48
643.58	1157.29
643.92	1148.17
644.26	1139.33
644.61	1130.76
644.95	1121.67
645.29	1112.34
645.64	1103.06
645.98	1094.40
646.32	1086.45
646.66	1077.69
647.01	1069.27
647.35	1060.99
647.69	1052.56
648.04	1044.04
648.38	1035.05
648.72	1026.12
649.06	1017.59
649.41	1009.28
649.75	1001.25
650.09	993.27
650.43	985.13
650.78	976.70
651.12	968.90
651.46	961.39
651.80	954.02
652.14	946.63
652.49	938.99
652.83	931.65
653.17	923.91
653.51	916.12
653.85	908.88
654.20	901.43
654.54	893.78
654.88	886.44
655.22	879.22
655.56	872.11
655.90	865.23
656.25	858.42
656.59	851.46
656.93	844.34
657.27	837.15
657.61	830.08
657.95	823.94
658.29	817.90
658.64	811.71
658.98	805.14
659.32	798.61
659.66	792.25
660.00	785.74
660.34	779.62
660.68	773.48
661.02	767.06
661.36	761.05
661.70	755.12
662.05	749.38
662.39	743.78
662.73	738.33
663.07	732.89
663.41	727.14
663.75	721.38
664.09	715.59
664.43	710.06
664.77	704.68
665.11	698.71
665.45	692.81
665.79	686.90
666.13	681.11
666.47	675.51
666.81	670.02
667.15	664.57
667.49	659.32
667.83	654.04
668.17	648.80
668.51	643.55
668.85	638.64
669.19	633.65
669.53	628.56
669.87	623.34
670.21	618.54
670.55	613.80
670.89	609.28
671.23	604.92
671.57	600.49
671.91	596.15
672.25	591.93
672.58	587.71
672.92	583.61
673.26	579.69
673.60	575.71
673.94	571.83
674.28	568.18
674.62	564.41
674.96	560.57
675.30	556.98
675.64	553.37
675.97	549.74
676.31	546.11
676.65	542.48
676.99	539.09
677.33	535.17
677.67	531.53
678.01	527.63
678.34	523.90
678.68	520.32
679.02	516.71
679.36	513.00
679.70	509.29
680.04	505.64
680.37	502.16
680.71	498.84
681.05	495.61
681.39	492.32
681.73	489.06
682.06	486.02
682.40	482.91
682.74	479.64
683.08	476.39
683.42	473.21
683.75	470.22
684.09	467.05
684.43	464.23
684.77	461.23
685.10	458.37
685.44	455.44
685.78	452.48
686.12	449.64
686.45	446.88
686.79	444.19
687.13	441.68
687.46	438.96
687.80	436.25
688.14	433.43
688.48	430.80
688.81	428.12
689.15	425.50
689.49	422.80
689.82	420.29
690.16	417.69
690.50	415.15
690.83	412.60
691.17	410.05
691.51	407.53
691.84	405.26
692.18	402.99
692.52	400.79
692.85	398.67
693.19	396.49
693.52	394.31
693.86	392.09
694.20	389.90
694.53	387.77
694.87	385.58
695.21	383.40
695.54	381.20
695.88	378.99
696.21	376.74
696.55	374.62
696.88	372.56
697.22	370.54
697.56	368.66
697.89	366.75
698.23	365.01
698.56	363.20
698.90	361.38
699.23	359.41
699.57	357.50
699.90	355.57
700.24	353.74
700.58	351.99
700.91	350.24
701.25	348.64
701.58	347.03
701.92	345.40
702.25	343.79
702.59	342.15
702.92	340.56
703.26	339.00
703.59	337.52
703.93	336.18
704.26	334.72
704.60	333.15
704.93	331.64
705.26	330.12
705.60	328.63
705.93	327.11
706.27	325.81
706.60	324.55
706.94	323.35
707.27	321.92
707.61	320.53
707.94	319.21
708.27	317.66
708.61	316.20
708.94	314.81
709.28	313.48
709.61	312.22
709.94	311.08
710.28	309.87
710.61	308.63
710.95	307.21
711.28	306.11
711.61	304.92
711.95	303.80
712.28	302.61
712.61	301.41
712.95	300.36
713.28	299.31
713.61	298.15
713.95	296.94
714.28	295.95
714.61	294.90
714.95	293.88
715.28	292.86
715.61	291.84
715.95	290.88
716.28	289.94
716.61	288.96
716.95	287.91
717.28	286.97
717.61	286.05
717.94	285.15
718.28	284.12
718.61	283.24
718.94	282.30
719.27	281.43
719.61	280.63
719.94	279.75
720.27	278.77
720.60	277.94
720.94	277.14
721.27	276.37
721.60	275.68
721.93	274.94
722.27	274.29
722.60	273.61
722.93	272.91
723.26	272.24
723.59	271.55
723.93	270.96
724.26	270.30
724.59	269.63
724.92	269.05
725.25	268.50
725.59	267.92
725.92	267.39
726.25	266.80
726.58	266.21
726.91	265.58
727.24	265.06
727.57	264.47
727.91	263.87
728.24	263.33
728.57	262.70
728.90	262.11
729.23	261.52
729.56	261.08
729.89	260.54
730.22	259.98
730.55	259.42
730.89	258.85
731.22	258.35
731.55	257.83
731.88	257.28
732.21	256.73
732.54	256.22
732.87	255.70
733.20	255.25
733.53	254.77
733.86	254.32
734.19	253.82
734.52	253.39
734.85	253.11
735.18	252.63
735.51	252.28
735.84	251.90
736.17	251.50
736.50	250.97
736.83	250.82
737.16	250.44
737.49	250.02
737.82	249.59
738.15	249.16
738.48	248.77
738.81	248.39
739.14	247.95
739.47	247.56
739.80	247.18
740.13	246.82
740.46	246.42
740.79	246.07
741.12	245.71
741.45	245.33
741.78	244.87
742.11	244.62
742.44	244.22
742.77	243.92
743.10	243.55
743.43	243.24
743.75	242.65
744.08	242.56
744.41	242.24
744.74	241.92
745.07	241.58
745.40	241.29
745.73	241.04
746.06	240.72
746.39	240.42
746.71	240.06
747.04	239.69
747.37	239.39
747.70	239.09
748.03	238.78
748.36	238.51
748.68	238.20
749.01	237.79
749.34	237.49
749.67	237.18
750.00	236.92
750.33	236.79
750.65	236.54
750.98	235.99
751.31	235.77
751.64	235.56
751.97	235.45
752.29	235.17
752.62	234.84
752.95	234.61
753.28	234.32
753.60	234.14
753.93	233.99
754.26	233.77
754.59	233.45
754.91	233.19
755.24	232.97
755.57	232.73
755.90	232.54
756.22	232.29
756.55	232.03
756.88	231.76
757.20	231.38
757.53	231.14
757.86	230.94
758.19	230.72
758.51	230.46
758.84	230.14
759.17	229.92
759.49	229.75
759.82	229.67
760.15	229.53
760.47	229.31
760.80	229.06
761.13	228.92
761.45	228.76
761.78	228.58
762.11	228.39
762.43	228.20
762.76	228.03
763.08	227.91
763.41	227.78
763.74	227.66
764.06	227.52
764.39	227.33
764.71	227.21
765.04	227.01
765.37	226.86
765.69	226.69
766.02	226.58
766.34	226.41
766.67	226.19
767.00	226.06
767.32	226.06
767.65	226.05
767.97	225.86
768.30	225.76
768.62	225.64
768.95	225.48
769.27	225.34
769.60	225.24
769.92	225.08
770.25	224.90
770.57	224.73
770.90	224.61
771.22	224.46
771.55	224.30
771.87	224.21
772.20	224.08
772.52	224.13
772.85	224.23
773.17	224.13
773.50	223.98
773.82	223.86
774.15	223.65
774.47	223.38
774.80	223.28
775.12	223.15
775.45	223.06
775.77	222.99
776.09	222.93
776.42	222.82
776.74	222.79
777.07	222.74
777.39	222.66
777.72	222.55
778.04	222.54
778.36	222.50
778.69	222.43
779.01	222.39
779.33	222.13
779.66	221.86
779.98	221.78
780.31	221.73
780.63	221.72
780.95	221.66
781.28	221.63
781.60	221.54
781.92	221.46
782.25	221.38
782.57	221.31
782.89	221.19
783.22	221.11
783.54	220.98
783.86	220.93
784.19	220.87
784.51	220.86
784.83	220.78
785.16	220.70
785.48	220.68
785.80	220.59
786.12	220.58
