SpectraSuite Data File
++++++++++++++++++++++++++++++++++++
Date: Tue Jan 29 16:12:51 EST 2013
User: group
Dark Spectrum Present: No
Reference Spectrum Present: No
Number of Sampled Component Spectra: 1
Spectrometers: USB2E7196
Integration Time (usec): 65000 (USB2E7196)
Spectra Averaged: 100 (USB2E7196)
Boxcar Smoothing: 10 (USB2E7196)
Correct for Electrical Dark: No (USB2E7196)
Strobe/Lamp Enabled: No (USB2E7196)
Correct for Detector Non-linearity: No (USB2E7196)
Correct for Stray Light: No (USB2E7196)
Number of Pixels in Processed Spectrum: 2048
>>>>>Begin Processed Spectral Data<<<<<
339.09	0.00
339.48	202.21
339.86	203.94
340.24	205.13
340.63	206.80
341.01	211.11
341.39	209.70
341.78	211.10
342.16	212.22
342.54	212.50
342.93	201.79
343.31	211.99
343.69	212.56
344.07	213.02
344.46	213.48
344.84	213.88
345.22	214.09
345.60	214.36
345.99	214.56
346.37	214.72
346.75	214.83
347.13	214.87
347.52	214.94
347.90	215.05
348.28	215.08
348.66	215.12
349.05	215.10
349.43	215.18
349.81	215.24
350.19	215.30
350.57	215.38
350.96	215.49
351.34	215.60
351.72	215.69
352.10	215.82
352.48	215.90
352.87	216.00
353.25	216.08
353.63	216.14
354.01	216.18
354.39	216.26
354.77	216.33
355.15	216.47
355.54	216.52
355.92	216.54
356.30	216.61
356.68	216.82
357.06	216.87
357.44	216.94
357.82	216.98
358.20	217.05
358.58	217.08
358.97	217.15
359.35	217.20
359.73	217.32
360.11	217.37
360.49	217.43
360.87	217.45
361.25	217.45
361.63	217.54
362.01	217.59
362.39	217.58
362.77	217.62
363.15	217.63
363.53	217.66
363.91	217.65
364.29	217.68
364.67	217.51
365.05	217.53
365.43	217.52
365.81	217.55
366.19	217.64
366.57	217.72
366.95	217.70
367.33	217.68
367.71	217.64
368.09	217.65
368.47	217.61
368.85	217.59
369.23	217.63
369.61	217.56
369.99	217.60
370.37	217.64
370.75	217.73
371.13	217.70
371.51	217.68
371.89	217.66
372.27	217.64
372.65	217.67
373.03	217.66
373.41	217.61
373.78	217.58
374.16	217.40
374.54	217.30
374.92	217.26
375.30	217.24
375.68	217.18
376.06	217.14
376.44	217.12
376.82	217.08
377.19	217.02
377.57	216.95
377.95	216.85
378.33	216.79
378.71	216.63
379.09	216.62
379.47	216.57
379.84	216.56
380.22	216.49
380.60	216.37
380.98	216.32
381.36	216.29
381.73	216.24
382.11	216.27
382.49	216.23
382.87	216.17
383.25	216.12
383.62	216.31
384.00	216.23
384.38	216.18
384.76	216.19
385.13	216.23
385.51	216.20
385.89	216.17
386.27	216.16
386.64	216.15
387.02	216.07
387.40	216.04
387.78	215.99
388.15	216.00
388.53	216.00
388.91	215.95
389.29	215.91
389.66	215.93
390.04	215.87
390.42	215.92
390.79	215.93
391.17	215.92
391.55	215.68
391.92	215.66
392.30	215.70
392.68	215.66
393.05	215.64
393.43	215.65
393.81	215.66
394.18	215.62
394.56	215.65
394.94	215.72
395.31	215.69
395.69	215.77
396.06	215.79
396.44	215.85
396.82	215.88
397.19	215.98
397.57	215.96
397.95	216.03
398.32	215.94
398.70	215.96
399.07	216.02
399.45	216.07
399.82	216.12
400.20	216.14
400.58	216.20
400.95	216.20
401.33	216.31
401.70	216.53
402.08	216.64
402.45	216.70
402.83	216.83
403.20	216.96
403.58	217.05
403.95	217.20
404.33	217.35
404.71	217.49
405.08	217.76
405.46	217.93
405.83	218.12
406.21	218.35
406.58	218.59
406.96	218.85
407.33	219.10
407.70	219.39
408.08	219.84
408.45	220.19
408.83	220.60
409.20	220.91
409.58	221.16
409.95	221.59
410.33	222.07
410.70	222.45
411.08	223.00
411.45	223.58
411.82	224.15
412.20	224.77
412.57	225.57
412.95	226.09
413.32	226.88
413.69	227.69
414.07	228.59
414.44	229.53
414.82	230.44
415.19	231.60
415.56	232.77
415.94	233.91
416.31	235.22
416.68	236.52
417.06	238.11
417.43	239.62
417.81	241.29
418.18	243.01
418.55	244.94
418.93	246.87
419.30	248.87
419.67	251.02
420.04	253.20
420.42	255.50
420.79	258.28
421.16	260.97
421.54	263.80
421.91	266.67
422.28	269.65
422.66	272.85
423.03	275.97
423.40	279.18
423.77	282.64
424.15	286.17
424.52	289.87
424.89	293.83
425.26	297.75
425.64	301.48
426.01	305.60
426.38	309.84
426.75	314.20
427.13	318.77
427.50	323.53
427.87	328.56
428.24	333.58
428.61	338.36
428.99	343.67
429.36	349.44
429.73	355.13
430.10	360.86
430.47	366.77
430.85	372.88
431.22	379.39
431.59	386.24
431.96	392.87
432.33	400.16
432.70	407.19
433.08	415.45
433.45	423.24
433.82	430.98
434.19	439.57
434.56	448.04
434.93	456.10
435.30	464.15
435.68	472.98
436.05	481.63
436.42	490.19
436.79	498.04
437.16	506.48
437.53	515.43
437.90	524.23
438.27	532.85
438.64	541.74
439.01	549.95
439.38	557.24
439.75	564.30
440.13	572.41
440.50	580.12
440.87	586.29
441.24	592.72
441.61	599.76
441.98	604.96
442.35	611.05
442.72	617.16
443.09	622.99
443.46	626.63
443.83	629.08
444.20	631.19
444.57	634.26
444.94	635.63
445.31	637.02
445.68	638.36
446.05	638.90
446.42	638.12
446.79	637.21
447.16	636.20
447.53	635.44
447.90	632.19
448.27	628.91
448.64	624.44
449.01	621.19
449.37	615.54
449.74	610.08
450.11	603.42
450.48	596.22
450.85	588.97
451.22	582.67
451.59	576.75
451.96	571.11
452.33	563.52
452.70	556.68
453.07	548.51
453.43	540.22
453.80	532.27
454.17	524.57
454.54	517.32
454.91	509.43
455.28	501.78
455.65	494.64
456.02	487.52
456.38	481.42
456.75	473.91
457.12	467.57
457.49	461.35
457.86	455.37
458.23	450.33
458.59	444.63
458.96	438.87
459.33	433.74
459.70	428.65
460.07	424.59
460.43	419.92
460.80	415.47
461.17	411.58
461.54	407.54
461.91	403.66
462.27	399.71
462.64	396.42
463.01	392.74
463.38	389.19
463.74	385.60
464.11	382.48
464.48	379.72
464.85	376.74
465.21	374.34
465.58	371.81
465.95	368.71
466.32	366.20
466.68	363.70
467.05	361.28
467.42	358.79
467.78	356.19
468.15	353.74
468.52	351.92
468.88	349.55
469.25	347.42
469.62	345.68
469.98	343.84
470.35	342.11
470.72	340.49
471.08	338.81
471.45	337.33
471.82	335.84
472.18	334.23
472.55	333.09
472.92	331.78
473.28	330.63
473.65	329.55
474.02	328.51
474.38	327.68
474.75	326.95
475.11	326.22
475.48	325.66
475.85	325.22
476.21	324.81
476.58	324.49
476.94	324.30
477.31	324.07
477.67	323.83
478.04	323.68
478.41	323.69
478.77	323.88
479.14	323.91
479.50	324.05
479.87	324.37
480.23	324.71
480.60	325.00
480.96	325.30
481.33	325.93
481.69	326.56
482.06	327.10
482.42	327.58
482.79	328.19
483.15	329.01
483.52	329.98
483.88	330.89
484.25	331.82
484.61	332.86
484.98	333.92
485.34	335.23
485.71	336.62
486.07	338.03
486.44	339.32
486.80	340.89
487.17	342.58
487.53	344.49
487.90	346.34
488.26	348.36
488.62	350.51
488.99	352.55
489.35	354.66
489.72	357.01
490.08	359.49
490.44	362.01
490.81	364.68
491.17	367.36
491.54	370.31
491.90	373.37
492.26	376.58
492.63	379.97
492.99	383.38
493.36	387.02
493.72	390.88
494.08	394.87
494.45	399.09
494.81	403.43
495.17	407.78
495.54	412.47
495.90	417.28
496.26	422.22
496.63	427.38
496.99	432.79
497.35	438.33
497.72	444.12
498.08	450.03
498.44	456.14
498.80	462.54
499.17	469.01
499.53	475.67
499.89	482.51
500.26	489.45
500.62	496.54
500.98	503.91
501.34	511.38
501.71	519.12
502.07	526.83
502.43	534.83
502.79	542.95
503.16	551.31
503.52	559.81
503.88	568.44
504.24	577.35
504.60	586.31
504.97	595.49
505.33	604.67
505.69	614.53
506.05	624.31
506.41	634.13
506.78	644.08
507.14	654.25
507.50	664.60
507.86	675.22
508.22	685.94
508.59	696.55
508.95	707.51
509.31	718.64
509.67	730.10
510.03	741.42
510.39	753.16
510.75	764.90
511.12	776.74
511.48	788.71
511.84	800.86
512.20	813.11
512.56	825.64
512.92	838.36
513.28	850.84
513.64	863.44
514.00	876.20
514.37	889.05
514.73	901.95
515.09	914.87
515.45	927.60
515.81	940.49
516.17	953.70
516.53	966.77
516.89	979.79
517.25	992.80
517.61	1006.12
517.97	1019.21
518.33	1032.11
518.69	1045.42
519.05	1059.05
519.41	1072.51
519.77	1086.17
520.13	1099.23
520.49	1112.24
520.85	1125.34
521.21	1138.46
521.57	1151.84
521.93	1164.64
522.29	1178.18
522.65	1191.48
523.01	1204.93
523.37	1217.86
523.73	1230.85
524.09	1243.69
524.45	1256.82
524.81	1269.95
525.17	1283.04
525.53	1295.96
525.89	1309.06
526.25	1321.87
526.61	1334.35
526.97	1347.07
527.33	1359.59
527.68	1372.72
528.04	1385.87
528.40	1398.73
528.76	1411.83
529.12	1424.33
529.48	1437.39
529.84	1449.36
530.20	1461.89
530.56	1474.17
530.91	1487.15
531.27	1499.83
531.63	1512.35
531.99	1524.68
532.35	1536.69
532.71	1548.84
533.07	1561.33
533.42	1573.17
533.78	1584.93
534.14	1596.74
534.50	1607.72
534.86	1619.08
535.21	1629.67
535.57	1640.79
535.93	1651.63
536.29	1662.36
536.65	1673.60
537.00	1684.32
537.36	1695.46
537.72	1706.13
538.08	1717.14
538.44	1727.61
538.79	1738.25
539.15	1748.81
539.51	1759.27
539.87	1770.21
540.22	1780.60
540.58	1791.24
540.94	1801.85
541.29	1811.86
541.65	1821.29
542.01	1831.63
542.37	1841.47
542.72	1851.43
543.08	1860.97
543.44	1871.18
543.79	1880.21
544.15	1889.28
544.51	1898.90
544.87	1908.40
545.22	1917.12
545.58	1925.59
545.94	1934.29
546.29	1942.49
546.65	1950.61
547.01	1958.67
547.36	1966.09
547.72	1973.59
548.07	1980.96
548.43	1988.49
548.79	1996.21
549.14	2004.16
549.50	2012.24
549.86	2019.76
550.21	2026.89
550.57	2034.34
550.92	2041.01
551.28	2048.33
551.64	2055.45
551.99	2062.80
552.35	2069.81
552.70	2076.56
553.06	2083.07
553.41	2089.05
553.77	2095.44
554.13	2101.49
554.48	2108.35
554.84	2115.35
555.19	2121.68
555.55	2128.05
555.90	2134.16
556.26	2140.74
556.61	2146.54
556.97	2151.20
557.32	2156.89
557.68	2163.20
558.03	2168.79
558.39	2173.99
558.74	2179.69
559.10	2185.15
559.45	2190.63
559.81	2196.12
560.16	2201.70
560.52	2207.63
560.87	2214.08
561.23	2219.95
561.58	2226.74
561.94	2231.94
562.29	2236.68
562.64	2242.75
563.00	2248.15
563.35	2253.69
563.71	2259.51
564.06	2265.10
564.42	2271.06
564.77	2276.14
565.12	2281.41
565.48	2286.55
565.83	2292.16
566.19	2297.81
566.54	2303.21
566.89	2307.74
567.25	2312.24
567.60	2317.88
567.96	2323.06
568.31	2327.57
568.66	2331.88
569.02	2335.65
569.37	2339.30
569.72	2343.70
570.08	2347.35
570.43	2350.71
570.78	2353.87
571.14	2356.62
571.49	2359.83
571.84	2363.50
572.20	2366.44
572.55	2369.60
572.90	2371.96
573.26	2374.84
573.61	2377.32
573.96	2379.54
574.31	2381.67
574.67	2383.63
575.02	2384.65
575.37	2386.08
575.72	2387.10
576.08	2388.70
576.43	2389.20
576.78	2389.95
577.13	2391.75
577.49	2392.94
577.84	2394.32
578.19	2395.84
578.54	2396.42
578.90	2397.46
579.25	2397.46
579.60	2397.56
579.95	2396.89
580.30	2397.37
580.66	2396.76
581.01	2395.38
581.36	2393.35
581.71	2392.11
582.06	2391.29
582.42	2390.63
582.77	2388.85
583.12	2387.42
583.47	2386.29
583.82	2385.72
584.17	2384.67
584.53	2382.54
584.88	2380.75
585.23	2378.96
585.58	2376.89
585.93	2374.92
586.28	2372.87
586.63	2370.58
586.98	2368.74
587.34	2367.01
587.69	2364.82
588.04	2363.04
588.39	2361.66
588.74	2359.34
589.09	2356.89
589.44	2353.98
589.79	2351.60
590.14	2349.67
590.49	2346.94
590.84	2343.33
591.19	2340.62
591.54	2337.51
591.89	2333.76
592.25	2330.73
592.60	2326.51
592.95	2322.50
593.30	2318.54
593.65	2314.35
594.00	2310.18
594.35	2307.18
594.70	2302.67
595.05	2298.14
595.40	2292.86
595.75	2287.40
596.10	2283.84
596.45	2279.25
596.80	2274.70
597.15	2269.73
597.50	2264.04
597.85	2259.28
598.19	2254.16
598.54	2248.38
598.89	2243.28
599.24	2238.84
599.59	2232.76
599.94	2227.35
600.29	2221.64
600.64	2215.88
600.99	2209.40
601.34	2204.10
601.69	2197.07
602.04	2190.78
602.39	2184.14
602.74	2178.11
603.08	2172.64
603.43	2166.25
603.78	2159.43
604.13	2152.44
604.48	2145.23
604.83	2139.18
605.18	2132.90
605.53	2125.94
605.87	2118.91
606.22	2112.22
606.57	2104.38
606.92	2096.57
607.27	2089.51
607.62	2082.90
607.96	2075.93
608.31	2069.26
608.66	2061.52
609.01	2054.22
609.36	2047.08
609.70	2039.53
610.05	2031.81
610.40	2023.64
610.75	2015.50
611.10	2008.00
611.44	1999.36
611.79	1990.71
612.14	1980.75
612.49	1970.31
612.83	1961.25
613.18	1952.24
613.53	1943.07
613.88	1933.58
614.22	1924.97
614.57	1915.26
614.92	1904.83
615.27	1894.83
615.61	1885.01
615.96	1875.46
616.31	1865.87
616.65	1856.67
617.00	1846.80
617.35	1837.21
617.70	1827.39
618.04	1817.19
618.39	1806.89
618.74	1797.18
619.08	1787.57
619.43	1778.90
619.78	1770.75
620.12	1762.03
620.47	1752.27
620.82	1741.91
621.16	1732.17
621.51	1722.31
621.85	1712.35
622.20	1701.85
622.55	1691.20
622.89	1681.28
623.24	1671.44
623.59	1661.81
623.93	1651.63
624.28	1642.21
624.62	1632.08
624.97	1621.90
625.32	1612.26
625.66	1603.44
626.01	1594.69
626.35	1585.37
626.70	1575.30
627.04	1565.11
627.39	1555.06
627.73	1545.83
628.08	1536.77
628.43	1527.11
628.77	1517.91
629.12	1509.19
629.46	1501.33
629.81	1492.97
630.15	1483.37
630.50	1473.68
630.84	1463.06
631.19	1453.21
631.53	1443.70
631.88	1433.55
632.22	1423.56
632.57	1414.19
632.91	1403.99
633.26	1394.18
633.60	1384.53
633.95	1375.35
634.29	1366.07
634.64	1356.73
634.98	1346.97
635.32	1337.80
635.67	1329.28
636.01	1320.02
636.36	1310.24
636.70	1300.73
637.05	1291.45
637.39	1282.54
637.73	1273.95
638.08	1266.48
638.42	1258.13
638.77	1249.36
639.11	1241.19
639.45	1233.33
639.80	1224.87
640.14	1216.40
640.49	1207.59
640.83	1198.95
641.17	1190.80
641.52	1182.60
641.86	1173.99
642.20	1166.02
642.55	1157.43
642.89	1148.73
643.23	1140.05
643.58	1131.96
643.92	1123.00
644.26	1114.32
644.61	1105.96
644.95	1097.16
645.29	1087.94
645.64	1078.93
645.98	1070.65
646.32	1062.82
646.66	1054.35
647.01	1045.84
647.35	1037.65
647.69	1029.27
648.04	1020.98
648.38	1012.12
648.72	1003.33
649.06	995.00
649.41	986.86
649.75	978.94
650.09	971.03
650.43	963.09
650.78	954.93
651.12	947.32
651.46	940.01
651.80	932.86
652.14	925.62
652.49	918.22
652.83	911.04
653.17	903.31
653.51	895.71
653.85	888.52
654.20	881.39
654.54	873.91
654.88	866.79
655.22	859.66
655.56	852.76
655.90	846.01
656.25	839.38
656.59	832.53
656.93	825.59
657.27	818.57
657.61	811.69
657.95	805.66
658.29	799.86
658.64	793.73
658.98	787.24
659.32	780.77
659.66	774.57
660.00	768.25
660.34	762.33
660.68	756.31
661.02	750.08
661.36	744.26
661.70	738.54
662.05	732.98
662.39	727.55
662.73	722.23
663.07	716.94
663.41	711.48
663.75	705.92
664.09	700.30
664.43	694.93
664.77	689.63
665.11	683.77
665.45	677.92
665.79	672.20
666.13	666.58
666.47	661.14
666.81	655.92
667.15	650.63
667.49	645.46
667.83	640.28
668.17	635.14
668.51	630.16
668.85	625.31
669.19	620.44
669.53	615.43
669.87	610.39
670.21	605.80
670.55	601.08
670.89	596.74
671.23	592.51
671.57	588.23
671.91	584.07
672.25	580.06
672.58	575.99
672.92	572.05
673.26	568.19
673.60	564.39
673.94	560.46
674.28	556.82
674.62	553.13
674.96	549.45
675.30	546.02
675.64	542.37
675.97	538.86
676.31	535.36
676.65	531.85
676.99	528.50
677.33	524.62
677.67	521.09
678.01	517.25
678.34	513.68
678.68	510.23
679.02	506.56
679.36	502.87
679.70	499.25
680.04	495.73
680.37	492.39
680.71	489.16
681.05	486.09
681.39	482.96
681.73	479.85
682.06	476.85
682.40	473.83
682.74	470.68
683.08	467.56
683.42	464.45
683.75	461.52
684.09	458.53
684.43	455.80
684.77	452.87
685.10	450.14
685.44	447.26
685.78	444.43
686.12	441.75
686.45	439.11
686.79	436.54
687.13	434.04
687.46	431.39
687.80	428.76
688.14	425.88
688.48	423.33
688.81	420.68
689.15	418.15
689.49	415.49
689.82	413.03
690.16	410.45
690.50	408.01
690.83	405.53
691.17	403.05
691.51	400.67
691.84	398.48
692.18	396.33
692.52	394.17
692.85	392.04
693.19	389.95
693.52	387.83
693.86	385.66
694.20	383.52
694.53	381.48
694.87	379.31
695.21	377.31
695.54	375.19
695.88	373.11
696.21	370.95
696.55	368.91
696.88	366.85
697.22	364.93
697.56	363.11
697.89	361.31
698.23	359.60
698.56	357.85
698.90	356.11
699.23	354.17
699.57	352.40
699.90	350.58
700.24	348.88
700.58	347.12
700.91	345.48
701.25	343.97
701.58	342.37
701.92	340.81
702.25	339.22
702.59	337.62
702.92	336.12
703.26	334.65
703.59	333.27
703.93	332.09
704.26	330.69
704.60	329.22
704.93	327.77
705.26	326.33
705.60	324.87
705.93	323.40
706.27	322.12
706.60	320.87
706.94	319.66
707.27	318.28
707.61	317.00
707.94	315.77
708.27	314.29
708.61	312.92
708.94	311.56
709.28	310.30
709.61	309.08
709.94	307.92
710.28	306.68
710.61	305.51
710.95	304.13
711.28	303.10
711.61	301.90
711.95	300.79
712.28	299.63
712.61	298.47
712.95	297.46
713.28	296.44
713.61	295.32
713.95	294.18
714.28	293.20
714.61	292.16
714.95	291.10
715.28	290.13
715.61	289.11
715.95	288.23
716.28	287.31
716.61	286.40
716.95	285.41
717.28	284.52
717.61	283.58
717.94	282.69
718.28	281.64
718.61	280.84
718.94	279.95
719.27	279.12
719.61	278.33
719.94	277.49
720.27	276.57
720.60	275.79
720.94	275.04
721.27	274.31
721.60	273.65
721.93	272.97
722.27	272.39
722.60	271.77
722.93	271.06
723.26	270.41
723.59	269.71
723.93	269.14
724.26	268.51
724.59	267.89
724.92	267.32
725.25	266.84
725.59	266.23
725.92	265.66
726.25	265.11
726.58	264.54
726.91	263.95
727.24	263.39
727.57	262.81
727.91	262.20
728.24	261.64
728.57	261.05
728.90	260.49
729.23	259.85
729.56	259.42
729.89	258.88
730.22	258.32
730.55	257.81
730.89	257.27
731.22	256.73
731.55	256.17
731.88	255.67
732.21	255.11
732.54	254.62
732.87	254.17
733.20	253.67
733.53	253.22
733.86	252.79
734.19	252.33
734.52	251.94
734.85	251.64
735.18	251.19
735.51	250.82
735.84	250.41
736.17	250.04
736.50	249.52
736.83	249.40
737.16	249.03
737.49	248.71
737.82	248.28
738.15	247.93
738.48	247.63
738.81	247.25
739.14	246.86
739.47	246.47
739.80	246.09
740.13	245.77
740.46	245.37
740.79	244.99
741.12	244.71
741.45	244.33
741.78	243.92
742.11	243.67
742.44	243.30
742.77	243.02
743.10	242.68
743.43	242.40
743.75	241.86
744.08	241.81
744.41	241.43
744.74	241.17
745.07	240.82
745.40	240.54
745.73	240.29
746.06	239.95
746.39	239.68
746.71	239.42
747.04	239.08
747.37	238.80
747.70	238.53
748.03	238.21
748.36	237.94
748.68	237.62
749.01	237.28
749.34	237.02
749.67	236.73
750.00	236.45
750.33	236.28
750.65	236.03
750.98	235.54
751.31	235.29
751.64	235.04
751.97	234.93
752.29	234.64
752.62	234.32
752.95	234.13
753.28	233.86
753.60	233.59
753.93	233.41
754.26	233.24
754.59	232.94
754.91	232.66
755.24	232.46
755.57	232.25
755.90	232.03
756.22	231.83
756.55	231.60
756.88	231.39
757.20	231.06
757.53	230.80
757.86	230.56
758.19	230.38
758.51	230.16
758.84	229.88
759.17	229.67
759.49	229.51
759.82	229.41
760.15	229.28
760.47	229.10
760.80	228.88
761.13	228.68
761.45	228.54
761.78	228.42
762.11	228.24
762.43	228.05
762.76	227.86
763.08	227.70
763.41	227.55
763.74	227.41
764.06	227.23
764.39	227.07
764.71	226.93
765.04	226.79
765.37	226.65
765.69	226.47
766.02	226.34
766.34	226.18
766.67	225.97
767.00	225.85
767.32	225.83
767.65	225.81
767.97	225.70
768.30	225.57
768.62	225.45
768.95	225.27
769.27	225.20
769.60	225.11
769.92	224.95
770.25	224.80
770.57	224.59
770.90	224.50
771.22	224.39
771.55	224.28
771.87	224.16
772.20	224.03
772.52	224.12
772.85	224.26
773.17	224.20
773.50	224.08
773.82	223.91
774.15	223.71
774.47	223.48
774.80	223.33
775.12	223.23
775.45	223.13
775.77	223.08
776.09	222.96
776.42	222.86
776.74	222.83
777.07	222.75
777.39	222.72
777.72	222.63
778.04	222.57
778.36	222.48
778.69	222.43
779.01	222.36
779.33	222.10
779.66	221.77
779.98	221.64
780.31	221.57
780.63	221.62
780.95	221.60
781.28	221.54
781.60	221.47
781.92	221.42
782.25	221.36
782.57	221.28
782.89	221.24
783.22	221.18
783.54	221.03
783.86	220.96
784.19	220.91
784.51	220.90
784.83	220.79
785.16	220.70
785.48	220.60
785.80	220.58
786.12	220.54
