SpectraSuite Data File
++++++++++++++++++++++++++++++++++++
Date: Tue Jan 29 16:22:13 EST 2013
User: group
Dark Spectrum Present: No
Reference Spectrum Present: No
Number of Sampled Component Spectra: 1
Spectrometers: USB2E7196
Integration Time (usec): 65000 (USB2E7196)
Spectra Averaged: 100 (USB2E7196)
Boxcar Smoothing: 10 (USB2E7196)
Correct for Electrical Dark: No (USB2E7196)
Strobe/Lamp Enabled: No (USB2E7196)
Correct for Detector Non-linearity: No (USB2E7196)
Correct for Stray Light: No (USB2E7196)
Number of Pixels in Processed Spectrum: 2048
>>>>>Begin Processed Spectral Data<<<<<
339.09	0.00
339.48	202.11
339.86	204.09
340.24	204.64
340.63	206.83
341.01	210.85
341.39	208.79
341.78	210.41
342.16	211.97
342.54	212.05
342.93	201.12
343.31	211.25
343.69	211.77
344.07	212.23
344.46	212.69
344.84	213.04
345.22	213.24
345.60	213.51
345.99	213.71
346.37	213.83
346.75	213.94
347.13	214.04
347.52	214.11
347.90	214.21
348.28	214.24
348.66	214.33
349.05	214.29
349.43	214.38
349.81	214.43
350.19	214.51
350.57	214.59
350.96	214.69
351.34	214.85
351.72	214.96
352.10	215.05
352.48	215.09
352.87	215.18
353.25	215.20
353.63	215.30
354.01	215.36
354.39	215.45
354.77	215.52
355.15	215.67
355.54	215.73
355.92	215.78
356.30	215.85
356.68	216.05
357.06	216.18
357.44	216.21
357.82	216.32
358.20	216.42
358.58	216.50
358.97	216.60
359.35	216.68
359.73	216.81
360.11	216.87
360.49	216.96
360.87	217.01
361.25	217.13
361.63	217.24
362.01	217.32
362.39	217.37
362.77	217.47
363.15	217.50
363.53	217.57
363.91	217.59
364.29	217.67
364.67	217.53
365.05	217.56
365.43	217.59
365.81	217.65
366.19	217.76
366.57	217.85
366.95	217.87
367.33	217.84
367.71	217.84
368.09	217.91
368.47	217.92
368.85	217.93
369.23	217.94
369.61	217.85
369.99	217.90
370.37	217.94
370.75	218.04
371.13	217.98
371.51	217.96
371.89	217.97
372.27	217.93
372.65	217.92
373.03	217.93
373.41	217.91
373.78	217.85
374.16	217.70
374.54	217.60
374.92	217.56
375.30	217.54
375.68	217.48
376.06	217.44
376.44	217.38
376.82	217.32
377.19	217.30
377.57	217.28
377.95	217.18
378.33	217.11
378.71	216.92
379.09	216.92
379.47	216.86
379.84	216.79
380.22	216.71
380.60	216.64
380.98	216.54
381.36	216.50
381.73	216.43
382.11	216.45
382.49	216.42
382.87	216.34
383.25	216.27
383.62	216.43
384.00	216.34
384.38	216.30
384.76	216.33
385.13	216.34
385.51	216.31
385.89	216.23
386.27	216.22
386.64	216.22
387.02	216.18
387.40	216.14
387.78	216.14
388.15	216.15
388.53	216.11
388.91	216.13
389.29	216.09
389.66	216.12
390.04	216.07
390.42	216.09
390.79	216.08
391.17	216.10
391.55	215.87
391.92	215.86
392.30	215.88
392.68	215.80
393.05	215.76
393.43	215.74
393.81	215.75
394.18	215.67
394.56	215.67
394.94	215.69
395.31	215.67
395.69	215.75
396.06	215.78
396.44	215.79
396.82	215.75
397.19	215.87
397.57	215.86
397.95	215.90
398.32	215.84
398.70	215.88
399.07	215.94
399.45	215.96
399.82	216.01
400.20	216.00
400.58	216.08
400.95	216.07
401.33	216.18
401.70	216.39
402.08	216.51
402.45	216.60
402.83	216.74
403.20	216.88
403.58	216.93
403.95	217.06
404.33	217.24
404.71	217.40
405.08	217.64
405.46	217.79
405.83	217.97
406.21	218.20
406.58	218.41
406.96	218.62
407.33	218.88
407.70	219.17
408.08	219.66
408.45	220.02
408.83	220.42
409.20	220.76
409.58	221.02
409.95	221.45
410.33	221.92
410.70	222.32
411.08	222.87
411.45	223.44
411.82	224.01
412.20	224.66
412.57	225.49
412.95	226.01
413.32	226.85
413.69	227.70
414.07	228.60
414.44	229.61
414.82	230.62
415.19	231.79
415.56	232.98
415.94	234.15
416.31	235.54
416.68	236.92
417.06	238.51
417.43	240.03
417.81	241.79
418.18	243.54
418.55	245.48
418.93	247.48
419.30	249.56
419.67	251.75
420.04	254.03
420.42	256.39
420.79	259.24
421.16	262.00
421.54	264.86
421.91	267.84
422.28	270.87
422.66	274.13
423.03	277.37
423.40	280.73
423.77	284.32
424.15	287.92
424.52	291.71
424.89	295.84
425.26	299.88
425.64	303.71
426.01	307.95
426.38	312.39
426.75	316.89
427.13	321.59
427.50	326.50
427.87	331.65
428.24	336.83
428.61	341.79
428.99	347.27
429.36	353.21
429.73	359.04
430.10	364.90
430.47	370.91
430.85	377.13
431.22	383.73
431.59	390.70
431.96	397.44
432.33	404.90
432.70	412.10
433.08	420.58
433.45	428.56
433.82	436.50
434.19	445.30
434.56	453.98
434.93	462.22
435.30	470.49
435.68	479.49
436.05	488.38
436.42	497.22
436.79	505.29
437.16	513.97
437.53	523.14
437.90	532.21
438.27	541.06
438.64	550.16
439.01	558.60
439.38	566.16
439.75	573.48
440.13	581.78
440.50	589.65
440.87	596.01
441.24	602.59
441.61	609.85
441.98	615.16
442.35	621.41
442.72	627.70
443.09	633.64
443.46	637.42
443.83	639.85
444.20	641.92
444.57	645.03
444.94	646.40
445.31	647.90
445.68	649.27
446.05	649.86
446.42	649.20
446.79	648.28
447.16	647.21
447.53	646.39
447.90	643.08
448.27	639.77
448.64	635.10
449.01	631.76
449.37	625.97
449.74	620.35
450.11	613.52
450.48	606.19
450.85	598.81
451.22	592.35
451.59	586.28
451.96	580.56
452.33	572.73
452.70	565.74
453.07	557.24
453.43	548.69
453.80	540.53
454.17	532.60
454.54	525.14
454.91	517.02
455.28	509.20
455.65	501.86
456.02	494.47
456.38	488.27
456.75	480.51
457.12	473.97
457.49	467.55
457.86	461.35
458.23	455.99
458.59	450.13
458.96	444.20
459.33	439.01
459.70	433.68
460.07	429.46
460.43	424.64
460.80	420.16
461.17	416.24
461.54	412.07
461.91	408.01
462.27	403.95
462.64	400.53
463.01	396.75
463.38	393.10
463.74	389.45
464.11	386.21
464.48	383.40
464.85	380.32
465.21	377.91
465.58	375.34
465.95	372.21
466.32	369.61
466.68	367.04
467.05	364.40
467.42	361.85
467.78	359.21
468.15	356.72
468.52	354.81
468.88	352.30
469.25	350.10
469.62	348.37
469.98	346.40
470.35	344.61
470.72	342.91
471.08	341.19
471.45	339.72
471.82	338.20
472.18	336.56
472.55	335.41
472.92	334.00
473.28	332.79
473.65	331.69
474.02	330.57
474.38	329.68
474.75	328.98
475.11	328.20
475.48	327.69
475.85	327.21
476.21	326.74
476.58	326.41
476.94	326.17
477.31	325.87
477.67	325.66
478.04	325.49
478.41	325.45
478.77	325.54
479.14	325.45
479.50	325.62
479.87	325.94
480.23	326.21
480.60	326.48
480.96	326.75
481.33	327.36
481.69	327.98
482.06	328.49
482.42	329.04
482.79	329.64
483.15	330.38
483.52	331.34
483.88	332.23
484.25	333.18
484.61	334.22
484.98	335.27
485.34	336.59
485.71	338.01
486.07	339.47
486.44	340.86
486.80	342.50
487.17	344.12
487.53	345.93
487.90	347.81
488.26	349.89
488.62	352.12
488.99	354.16
489.35	356.34
489.72	358.74
490.08	361.18
490.44	363.74
490.81	366.52
491.17	369.19
491.54	372.19
491.90	375.18
492.26	378.43
492.63	381.89
492.99	385.36
493.36	389.01
493.72	392.88
494.08	396.92
494.45	401.14
494.81	405.55
495.17	410.01
495.54	414.80
495.90	419.64
496.26	424.54
496.63	429.76
496.99	435.13
497.35	440.71
497.72	446.61
498.08	452.58
498.44	458.68
498.80	465.14
499.17	471.70
499.53	478.54
499.89	485.48
500.26	492.45
500.62	499.57
500.98	507.06
501.34	514.55
501.71	522.36
502.07	530.24
502.43	538.31
502.79	546.52
503.16	554.88
503.52	563.54
503.88	572.33
504.24	581.29
504.60	590.43
504.97	599.78
505.33	609.09
505.69	619.07
506.05	628.97
506.41	638.89
506.78	648.96
507.14	659.27
507.50	669.78
507.86	680.57
508.22	691.44
508.59	702.16
508.95	713.39
509.31	724.70
509.67	736.26
510.03	747.86
510.39	759.65
510.75	771.61
511.12	783.66
511.48	795.84
511.84	808.29
512.20	820.80
512.56	833.49
512.92	846.41
513.28	859.16
513.64	872.01
514.00	885.01
514.37	898.07
514.73	911.18
515.09	924.25
515.45	937.20
515.81	950.37
516.17	963.79
516.53	977.07
516.89	990.29
517.25	1003.55
517.61	1017.08
517.97	1030.58
518.33	1043.82
518.69	1057.37
519.05	1071.18
519.41	1084.86
519.77	1098.75
520.13	1112.13
520.49	1125.53
520.85	1139.00
521.21	1152.47
521.57	1166.17
521.93	1179.44
522.29	1193.36
522.65	1207.08
523.01	1220.86
523.37	1234.09
523.73	1247.47
524.09	1260.75
524.45	1274.27
524.81	1287.87
525.17	1301.26
525.53	1314.48
525.89	1327.99
526.25	1341.21
526.61	1354.10
526.97	1367.23
527.33	1380.24
527.68	1393.80
528.04	1407.19
528.40	1420.35
528.76	1433.77
529.12	1446.87
529.48	1460.14
529.84	1472.43
530.20	1485.24
530.56	1497.88
530.91	1511.22
531.27	1524.36
531.63	1537.16
531.99	1550.00
532.35	1562.30
532.71	1574.74
533.07	1587.74
533.42	1599.93
533.78	1612.02
534.14	1624.24
534.50	1635.64
534.86	1647.30
535.21	1658.17
535.57	1669.74
535.93	1681.13
536.29	1692.27
536.65	1703.67
537.00	1714.74
537.36	1726.19
537.72	1737.23
538.08	1748.58
538.44	1759.60
538.79	1770.59
539.15	1781.52
539.51	1792.35
539.87	1803.57
540.22	1814.60
540.58	1825.59
540.94	1836.55
541.29	1847.01
541.65	1856.77
542.01	1867.32
542.37	1877.46
542.72	1887.71
543.08	1897.53
543.44	1907.98
543.79	1917.44
544.15	1926.96
544.51	1936.96
544.87	1946.81
545.22	1956.08
545.58	1965.07
545.94	1973.99
546.29	1982.53
546.65	1990.95
547.01	1999.10
547.36	2006.93
547.72	2014.68
548.07	2022.27
548.43	2029.94
548.79	2037.67
549.14	2045.80
549.50	2054.15
549.86	2062.05
550.21	2069.60
550.57	2077.29
550.92	2084.08
551.28	2091.49
551.64	2098.78
551.99	2106.27
552.35	2113.42
552.70	2120.28
553.06	2126.86
553.41	2133.13
553.77	2139.62
554.13	2146.04
554.48	2153.15
554.84	2160.18
555.19	2166.62
555.55	2173.03
555.90	2179.44
556.26	2186.35
556.61	2192.48
556.97	2197.40
557.32	2203.32
557.68	2209.74
558.03	2215.56
558.39	2220.86
558.74	2226.80
559.10	2232.37
559.45	2238.13
559.81	2243.69
560.16	2249.37
560.52	2255.32
560.87	2261.87
561.23	2267.81
561.58	2274.64
561.94	2279.83
562.29	2284.60
562.64	2290.80
563.00	2296.61
563.35	2302.24
563.71	2308.12
564.06	2313.83
564.42	2319.84
564.77	2324.92
565.12	2330.15
565.48	2335.52
565.83	2341.23
566.19	2346.78
566.54	2352.27
566.89	2356.75
567.25	2361.44
567.60	2367.21
567.96	2372.64
568.31	2377.13
568.66	2381.52
569.02	2385.36
569.37	2389.27
569.72	2393.83
570.08	2397.34
570.43	2400.37
570.78	2403.49
571.14	2406.10
571.49	2409.31
571.84	2413.02
572.20	2415.97
572.55	2418.99
572.90	2421.22
573.26	2424.12
573.61	2426.59
573.96	2428.76
574.31	2431.02
574.67	2432.93
575.02	2433.76
575.37	2435.15
575.72	2436.01
576.08	2437.73
576.43	2437.93
576.78	2438.50
577.13	2440.20
577.49	2441.51
577.84	2442.79
578.19	2444.46
578.54	2445.13
578.90	2445.99
579.25	2446.01
579.60	2446.08
579.95	2445.37
580.30	2445.50
580.66	2444.73
581.01	2443.31
581.36	2441.01
581.71	2439.71
582.06	2438.86
582.42	2438.14
582.77	2436.00
583.12	2434.62
583.47	2433.33
583.82	2432.96
584.17	2431.89
584.53	2429.74
584.88	2427.66
585.23	2425.68
585.58	2423.21
585.93	2421.21
586.28	2419.00
586.63	2416.61
586.98	2414.44
587.34	2412.69
587.69	2410.38
588.04	2408.48
588.39	2407.02
588.74	2404.73
589.09	2401.94
589.44	2398.83
589.79	2396.52
590.14	2394.69
590.49	2391.83
590.84	2387.91
591.19	2384.87
591.54	2381.53
591.89	2377.59
592.25	2374.42
592.60	2370.41
592.95	2366.32
593.30	2362.10
593.65	2357.82
594.00	2353.48
594.35	2350.47
594.70	2345.93
595.05	2341.31
595.40	2335.80
595.75	2330.07
596.10	2326.37
596.45	2321.67
596.80	2317.10
597.15	2311.66
597.50	2305.62
597.85	2300.68
598.19	2295.55
598.54	2289.75
598.89	2284.64
599.24	2280.03
599.59	2273.83
599.94	2268.03
600.29	2262.16
600.64	2256.38
600.99	2249.63
601.34	2244.10
601.69	2237.05
602.04	2230.54
602.39	2223.91
602.74	2217.97
603.08	2212.43
603.43	2205.86
603.78	2198.88
604.13	2191.79
604.48	2184.58
604.83	2178.60
605.18	2172.22
605.53	2165.22
605.87	2158.05
606.22	2151.20
606.57	2143.29
606.92	2135.34
607.27	2128.43
607.62	2121.79
607.96	2114.67
608.31	2108.05
608.66	2100.25
609.01	2092.58
609.36	2085.49
609.70	2077.81
610.05	2069.94
610.40	2061.61
610.75	2053.24
611.10	2045.51
611.44	2036.58
611.79	2027.69
612.14	2017.49
612.49	2006.88
612.83	1997.44
613.18	1988.22
613.53	1978.87
613.88	1969.24
614.22	1960.53
614.57	1950.49
614.92	1939.79
615.27	1929.55
615.61	1919.41
615.96	1909.62
616.31	1899.84
616.65	1890.36
617.00	1880.40
617.35	1870.66
617.70	1860.85
618.04	1850.71
618.39	1840.34
618.74	1830.58
619.08	1821.08
619.43	1812.35
619.78	1804.06
620.12	1795.39
620.47	1785.52
620.82	1775.05
621.16	1765.11
621.51	1755.18
621.85	1745.26
622.20	1734.67
622.55	1723.91
622.89	1713.91
623.24	1704.15
623.59	1694.36
623.93	1684.06
624.28	1674.21
624.62	1663.92
624.97	1653.50
625.32	1643.61
625.66	1634.76
626.01	1625.87
626.35	1616.28
626.70	1606.08
627.04	1595.76
627.39	1585.47
627.73	1576.17
628.08	1567.07
628.43	1557.36
628.77	1547.97
629.12	1539.01
629.46	1531.18
629.81	1522.71
630.15	1513.00
630.50	1502.97
630.84	1492.50
631.19	1482.56
631.53	1473.19
631.88	1462.93
632.22	1452.78
632.57	1443.38
632.91	1433.04
633.26	1422.99
633.60	1413.36
633.95	1403.96
634.29	1394.48
634.64	1385.08
634.98	1374.97
635.32	1365.49
635.67	1356.90
636.01	1347.58
636.36	1337.71
636.70	1327.99
637.05	1318.62
637.39	1309.60
637.73	1300.98
638.08	1293.21
638.42	1284.78
638.77	1275.84
639.11	1267.48
639.45	1259.64
639.80	1251.00
640.14	1242.29
640.49	1233.39
640.83	1224.36
641.17	1216.15
641.52	1207.84
641.86	1199.19
642.20	1191.21
642.55	1182.57
642.89	1173.62
643.23	1164.78
643.58	1156.52
643.92	1147.46
644.26	1138.64
644.61	1130.06
644.95	1121.10
645.29	1111.79
645.64	1102.54
645.98	1094.06
646.32	1086.06
646.66	1077.37
647.01	1068.87
647.35	1060.67
647.69	1052.18
648.04	1043.84
648.38	1034.85
648.72	1025.92
649.06	1017.28
649.41	1008.88
649.75	1000.82
650.09	992.87
650.43	984.75
650.78	976.39
651.12	968.58
651.46	961.11
651.80	953.88
652.14	946.35
652.49	938.71
652.83	931.31
653.17	923.42
653.51	915.77
653.85	908.39
654.20	901.05
654.54	893.41
654.88	886.15
655.22	878.82
655.56	871.71
655.90	864.83
656.25	858.11
656.59	851.18
656.93	844.00
657.27	836.81
657.61	829.73
657.95	823.54
658.29	817.51
658.64	811.27
658.98	804.60
659.32	798.07
659.66	791.74
660.00	785.29
660.34	779.23
660.68	773.01
661.02	766.68
661.36	760.72
661.70	754.74
662.05	748.98
662.39	743.40
662.73	737.91
663.07	732.46
663.41	726.73
663.75	720.99
664.09	715.27
664.43	709.73
664.77	704.39
665.11	698.45
665.45	692.49
665.79	686.56
666.13	680.85
666.47	675.25
666.81	669.79
667.15	664.40
667.49	659.15
667.83	653.82
668.17	648.52
668.51	643.32
668.85	638.42
669.19	633.48
669.53	628.41
669.87	623.29
670.21	618.52
670.55	613.73
670.89	609.25
671.23	604.89
671.57	600.42
671.91	596.07
672.25	591.90
672.58	587.69
672.92	583.60
673.26	579.65
673.60	575.75
673.94	571.81
674.28	568.03
674.62	564.20
674.96	560.37
675.30	556.81
675.64	553.06
675.97	549.37
676.31	545.73
676.65	542.10
676.99	538.56
677.33	534.63
677.67	530.93
678.01	527.03
678.34	523.37
678.68	519.81
679.02	516.14
679.36	512.43
679.70	508.77
680.04	505.16
680.37	501.66
680.71	498.29
681.05	495.10
681.39	491.86
681.73	488.61
682.06	485.56
682.40	482.39
682.74	479.14
683.08	475.91
683.42	472.66
683.75	469.61
684.09	466.58
684.43	463.74
684.77	460.81
685.10	457.91
685.44	454.95
685.78	452.02
686.12	449.25
686.45	446.50
686.79	443.86
687.13	441.28
687.46	438.62
687.80	435.92
688.14	433.04
688.48	430.38
688.81	427.68
689.15	425.01
689.49	422.38
689.82	419.83
690.16	417.17
690.50	414.69
690.83	412.15
691.17	409.59
691.51	407.05
691.84	404.78
692.18	402.56
692.52	400.32
692.85	398.12
693.19	395.92
693.52	393.69
693.86	391.39
694.20	389.24
694.53	387.05
694.87	384.80
695.21	382.69
695.54	380.52
695.88	378.35
696.21	376.17
696.55	374.08
696.88	372.05
697.22	370.12
697.56	368.19
697.89	366.29
698.23	364.53
698.56	362.79
698.90	360.99
699.23	359.08
699.57	357.18
699.90	355.32
700.24	353.47
700.58	351.72
700.91	350.05
701.25	348.45
701.58	346.86
701.92	345.23
702.25	343.59
702.59	341.95
702.92	340.42
703.26	338.86
703.59	337.32
703.93	336.00
704.26	334.55
704.60	333.03
704.93	331.51
705.26	329.99
705.60	328.50
705.93	326.97
706.27	325.64
706.60	324.37
706.94	323.15
707.27	321.75
707.61	320.37
707.94	319.01
708.27	317.46
708.61	315.99
708.94	314.65
709.28	313.38
709.61	312.13
709.94	310.90
710.28	309.70
710.61	308.49
710.95	307.05
711.28	305.98
711.61	304.81
711.95	303.70
712.28	302.48
712.61	301.28
712.95	300.25
713.28	299.20
713.61	298.06
713.95	296.87
714.28	295.87
714.61	294.84
714.95	293.85
715.28	292.83
715.61	291.80
715.95	290.83
716.28	289.84
716.61	288.84
716.95	287.83
717.28	286.82
717.61	285.92
717.94	285.03
718.28	283.99
718.61	283.14
718.94	282.23
719.27	281.36
719.61	280.53
719.94	279.59
720.27	278.61
720.60	277.78
720.94	276.97
721.27	276.25
721.60	275.57
721.93	274.83
722.27	274.22
722.60	273.55
722.93	272.88
723.26	272.24
723.59	271.61
723.93	270.97
724.26	270.38
724.59	269.71
724.92	269.12
725.25	268.55
725.59	267.94
725.92	267.39
726.25	266.85
726.58	266.30
726.91	265.76
727.24	265.22
727.57	264.67
727.91	264.03
728.24	263.44
728.57	262.80
728.90	262.21
729.23	261.58
729.56	261.13
729.89	260.56
730.22	259.98
730.55	259.42
730.89	258.89
731.22	258.32
731.55	257.79
731.88	257.26
732.21	256.70
732.54	256.12
732.87	255.60
733.20	255.09
733.53	254.58
733.86	254.11
734.19	253.61
734.52	253.16
734.85	252.88
735.18	252.40
735.51	252.05
735.84	251.59
736.17	251.19
736.50	250.65
736.83	250.49
737.16	250.09
737.49	249.67
737.82	249.26
738.15	248.90
738.48	248.52
738.81	248.12
739.14	247.71
739.47	247.36
739.80	247.03
740.13	246.67
740.46	246.27
740.79	245.91
741.12	245.57
741.45	245.22
741.78	244.80
742.11	244.51
742.44	244.11
742.77	243.81
743.10	243.49
743.43	243.16
743.75	242.58
744.08	242.50
744.41	242.17
744.74	241.83
745.07	241.51
745.40	241.18
745.73	240.95
746.06	240.67
746.39	240.34
746.71	239.98
747.04	239.63
747.37	239.32
747.70	239.02
748.03	238.68
748.36	238.42
748.68	238.08
749.01	237.72
749.34	237.45
749.67	237.16
750.00	236.86
750.33	236.73
750.65	236.47
750.98	235.95
751.31	235.70
751.64	235.46
751.97	235.27
752.29	235.04
752.62	234.67
752.95	234.37
753.28	234.13
753.60	233.88
753.93	233.73
754.26	233.52
754.59	233.21
754.91	233.00
755.24	232.75
755.57	232.53
755.90	232.31
756.22	232.05
756.55	231.81
756.88	231.55
757.20	231.21
757.53	230.97
757.86	230.76
758.19	230.55
758.51	230.35
758.84	230.05
759.17	229.84
759.49	229.70
759.82	229.61
760.15	229.43
760.47	229.20
760.80	228.95
761.13	228.81
761.45	228.68
761.78	228.47
762.11	228.29
762.43	228.13
762.76	227.95
763.08	227.81
763.41	227.67
763.74	227.58
764.06	227.42
764.39	227.25
764.71	227.10
765.04	226.93
765.37	226.74
765.69	226.57
766.02	226.46
766.34	226.30
766.67	226.07
767.00	225.97
767.32	226.00
767.65	225.96
767.97	225.81
768.30	225.69
768.62	225.57
768.95	225.41
769.27	225.26
769.60	225.18
769.92	225.03
770.25	224.85
770.57	224.66
770.90	224.51
771.22	224.39
771.55	224.27
771.87	224.19
772.20	224.09
772.52	224.19
772.85	224.32
773.17	224.22
773.50	224.11
773.82	223.99
774.15	223.79
774.47	223.61
774.80	223.50
775.12	223.40
775.45	223.31
775.77	223.23
776.09	223.16
776.42	223.06
776.74	223.04
777.07	222.94
777.39	222.89
777.72	222.80
778.04	222.76
778.36	222.65
778.69	222.57
779.01	222.51
779.33	222.23
779.66	221.88
779.98	221.77
780.31	221.73
780.63	221.74
780.95	221.70
781.28	221.60
781.60	221.51
781.92	221.43
782.25	221.34
782.57	221.28
782.89	221.21
783.22	221.15
783.54	221.03
783.86	220.99
784.19	220.90
784.51	220.89
784.83	220.80
785.16	220.77
785.48	220.67
785.80	220.61
786.12	220.57
