SpectraSuite Data File
++++++++++++++++++++++++++++++++++++
Date: Tue Jan 29 16:52:14 EST 2013
User: group
Dark Spectrum Present: No
Reference Spectrum Present: No
Number of Sampled Component Spectra: 1
Spectrometers: USB2E7196
Integration Time (usec): 65000 (USB2E7196)
Spectra Averaged: 100 (USB2E7196)
Boxcar Smoothing: 10 (USB2E7196)
Correct for Electrical Dark: No (USB2E7196)
Strobe/Lamp Enabled: No (USB2E7196)
Correct for Detector Non-linearity: No (USB2E7196)
Correct for Stray Light: No (USB2E7196)
Number of Pixels in Processed Spectrum: 2048
>>>>>Begin Processed Spectral Data<<<<<
339.09	0.00
339.48	201.74
339.86	202.52
340.24	204.71
340.63	206.04
341.01	210.64
341.39	208.32
341.78	209.88
342.16	211.15
342.54	211.57
342.93	200.87
343.31	211.03
343.69	211.55
344.07	212.06
344.46	212.50
344.84	212.91
345.22	213.06
345.60	213.35
345.99	213.55
346.37	213.72
346.75	213.84
347.13	213.93
347.52	213.97
347.90	214.14
348.28	214.18
348.66	214.24
349.05	214.17
349.43	214.24
349.81	214.30
350.19	214.36
350.57	214.41
350.96	214.47
351.34	214.56
351.72	214.68
352.10	214.76
352.48	214.80
352.87	214.84
353.25	214.93
353.63	214.97
354.01	215.03
354.39	215.07
354.77	215.16
355.15	215.30
355.54	215.38
355.92	215.35
356.30	215.40
356.68	215.59
357.06	215.69
357.44	215.71
357.82	215.75
358.20	215.79
358.58	215.85
358.97	215.95
359.35	216.01
359.73	216.09
360.11	216.12
360.49	216.22
360.87	216.25
361.25	216.30
361.63	216.41
362.01	216.46
362.39	216.49
362.77	216.49
363.15	216.48
363.53	216.47
363.91	216.48
364.29	216.53
364.67	216.36
365.05	216.39
365.43	216.42
365.81	216.47
366.19	216.57
366.57	216.67
366.95	216.63
367.33	216.60
367.71	216.62
368.09	216.69
368.47	216.64
368.85	216.63
369.23	216.66
369.61	216.57
369.99	216.65
370.37	216.65
370.75	216.73
371.13	216.68
371.51	216.66
371.89	216.67
372.27	216.65
372.65	216.65
373.03	216.61
373.41	216.58
373.78	216.52
374.16	216.41
374.54	216.29
374.92	216.24
375.30	216.24
375.68	216.15
376.06	216.11
376.44	216.09
376.82	216.07
377.19	216.02
377.57	215.95
377.95	215.81
378.33	215.75
378.71	215.59
379.09	215.59
379.47	215.54
379.84	215.46
380.22	215.41
380.60	215.31
380.98	215.24
381.36	215.19
381.73	215.17
382.11	215.17
382.49	215.17
382.87	215.10
383.25	215.05
383.62	215.26
384.00	215.18
384.38	215.12
384.76	215.11
385.13	215.18
385.51	215.16
385.89	215.12
386.27	215.14
386.64	215.15
387.02	215.10
387.40	215.09
387.78	215.08
388.15	215.07
388.53	215.06
388.91	215.07
389.29	215.04
389.66	215.04
390.04	214.97
390.42	214.98
390.79	215.01
391.17	215.01
391.55	214.77
391.92	214.75
392.30	214.79
392.68	214.73
393.05	214.68
393.43	214.70
393.81	214.72
394.18	214.66
394.56	214.66
394.94	214.70
395.31	214.70
395.69	214.79
396.06	214.83
396.44	214.89
396.82	214.90
397.19	215.03
397.57	215.02
397.95	215.08
398.32	215.01
398.70	215.06
399.07	215.12
399.45	215.15
399.82	215.20
400.20	215.22
400.58	215.31
400.95	215.26
401.33	215.38
401.70	215.60
402.08	215.69
402.45	215.79
402.83	215.96
403.20	216.05
403.58	216.13
403.95	216.27
404.33	216.41
404.71	216.58
405.08	216.84
405.46	217.02
405.83	217.24
406.21	217.49
406.58	217.70
406.96	217.97
407.33	218.23
407.70	218.53
408.08	219.01
408.45	219.36
408.83	219.80
409.20	220.12
409.58	220.38
409.95	220.85
410.33	221.37
410.70	221.78
411.08	222.37
411.45	222.96
411.82	223.50
412.20	224.18
412.57	224.96
412.95	225.53
413.32	226.34
413.69	227.17
414.07	228.06
414.44	229.08
414.82	230.08
415.19	231.29
415.56	232.50
415.94	233.68
416.31	235.11
416.68	236.51
417.06	238.15
417.43	239.75
417.81	241.50
418.18	243.25
418.55	245.26
418.93	247.29
419.30	249.41
419.67	251.68
420.04	253.94
420.42	256.38
420.79	259.21
421.16	262.09
421.54	265.01
421.91	268.04
422.28	271.14
422.66	274.44
423.03	277.70
423.40	281.04
423.77	284.63
424.15	288.31
424.52	292.20
424.89	296.41
425.26	300.50
425.64	304.41
426.01	308.70
426.38	313.14
426.75	317.71
427.13	322.51
427.50	327.49
427.87	332.75
428.24	337.96
428.61	342.97
428.99	348.49
429.36	354.54
429.73	360.47
430.10	366.40
430.47	372.52
430.85	378.87
431.22	385.61
431.59	392.83
431.96	399.64
432.33	407.17
432.70	414.45
433.08	422.98
433.45	431.12
433.82	439.14
434.19	448.11
434.56	456.88
434.93	465.21
435.30	473.54
435.68	482.70
436.05	491.71
436.42	500.66
436.79	508.83
437.16	517.64
437.53	526.96
437.90	536.13
438.27	545.14
438.64	554.39
439.01	562.95
439.38	570.52
439.75	577.85
440.13	586.28
440.50	594.23
440.87	600.64
441.24	607.29
441.61	614.67
441.98	620.03
442.35	626.35
442.72	632.75
443.09	638.83
443.46	642.66
443.83	645.23
444.20	647.50
444.57	650.74
444.94	652.16
445.31	653.63
445.68	655.06
446.05	655.69
446.42	654.94
446.79	654.04
447.16	652.93
447.53	652.24
447.90	648.88
448.27	645.62
448.64	641.07
449.01	637.77
449.37	631.91
449.74	626.26
450.11	619.41
450.48	611.96
450.85	604.52
451.22	598.01
451.59	591.81
451.96	585.92
452.33	577.96
452.70	570.90
453.07	562.36
453.43	553.70
453.80	545.39
454.17	537.37
454.54	529.77
454.91	521.54
455.28	513.53
455.65	506.11
456.02	498.58
456.38	492.16
456.75	484.20
457.12	477.58
457.49	470.99
457.86	464.70
458.23	459.23
458.59	453.26
458.96	447.14
459.33	441.78
459.70	436.37
460.07	432.08
460.43	427.15
460.80	422.53
461.17	418.43
461.54	414.11
461.91	410.08
462.27	405.95
462.64	402.56
463.01	398.74
463.38	395.04
463.74	391.30
464.11	388.08
464.48	385.21
464.85	382.11
465.21	379.68
465.58	377.07
465.95	373.98
466.32	371.34
466.68	368.76
467.05	366.19
467.42	363.61
467.78	360.89
468.15	358.29
468.52	356.37
468.88	353.88
469.25	351.68
469.62	349.82
469.98	347.85
470.35	346.00
470.72	344.25
471.08	342.42
471.45	340.88
471.82	339.30
472.18	337.63
472.55	336.42
472.92	334.98
473.28	333.71
473.65	332.53
474.02	331.42
474.38	330.48
474.75	329.73
475.11	328.88
475.48	328.31
475.85	327.82
476.21	327.29
476.58	326.91
476.94	326.63
477.31	326.31
477.67	326.05
478.04	325.88
478.41	325.85
478.77	325.95
479.14	325.91
479.50	326.04
479.87	326.28
480.23	326.55
480.60	326.78
480.96	327.04
481.33	327.60
481.69	328.17
482.06	328.69
482.42	329.19
482.79	329.75
483.15	330.53
483.52	331.47
483.88	332.38
484.25	333.33
484.61	334.38
484.98	335.39
485.34	336.71
485.71	338.05
486.07	339.48
486.44	340.85
486.80	342.46
487.17	344.13
487.53	346.00
487.90	347.89
488.26	349.92
488.62	352.07
488.99	354.10
489.35	356.24
489.72	358.60
490.08	361.10
490.44	363.69
490.81	366.41
491.17	369.11
491.54	372.09
491.90	375.16
492.26	378.42
492.63	381.87
492.99	385.33
493.36	389.01
493.72	392.89
494.08	396.89
494.45	401.08
494.81	405.44
495.17	409.85
495.54	414.57
495.90	419.40
496.26	424.32
496.63	429.52
496.99	434.94
497.35	440.51
497.72	446.31
498.08	452.20
498.44	458.29
498.80	464.66
499.17	471.12
499.53	477.83
499.89	484.70
500.26	491.70
500.62	498.73
500.98	506.12
501.34	513.62
501.71	521.29
502.07	529.09
502.43	537.05
502.79	545.20
503.16	553.55
503.52	562.11
503.88	570.85
504.24	579.77
504.60	588.81
504.97	598.08
505.33	607.34
505.69	617.27
506.05	627.08
506.41	637.01
506.78	647.07
507.14	657.26
507.50	667.66
507.86	678.25
508.22	689.02
508.59	699.68
508.95	710.69
509.31	721.93
509.67	733.29
510.03	744.63
510.39	756.29
510.75	768.10
511.12	780.00
511.48	792.03
511.84	804.28
512.20	816.59
512.56	829.18
512.92	841.98
513.28	854.53
513.64	867.36
514.00	880.17
514.37	893.12
514.73	906.23
515.09	919.24
515.45	932.27
515.81	945.28
516.17	958.65
516.53	971.85
516.89	984.96
517.25	998.20
517.61	1011.80
517.97	1025.20
518.33	1038.38
518.69	1051.89
519.05	1065.66
519.41	1079.31
519.77	1093.19
520.13	1106.46
520.49	1119.58
520.85	1132.94
521.21	1146.18
521.57	1159.74
521.93	1172.77
522.29	1186.48
522.65	1200.10
523.01	1213.68
523.37	1227.02
523.73	1240.35
524.09	1253.55
524.45	1267.00
524.81	1280.53
525.17	1293.89
525.53	1307.14
525.89	1320.42
526.25	1333.54
526.61	1346.43
526.97	1359.55
527.33	1372.43
527.68	1385.90
528.04	1399.46
528.40	1412.66
528.76	1426.06
529.12	1439.12
529.48	1452.49
529.84	1464.80
530.20	1477.61
530.56	1490.21
530.91	1503.28
531.27	1516.16
531.63	1528.88
531.99	1541.75
532.35	1553.99
532.71	1566.47
533.07	1579.33
533.42	1591.70
533.78	1603.94
534.14	1615.92
534.50	1627.19
534.86	1638.96
535.21	1649.86
535.57	1661.50
535.93	1672.83
536.29	1683.94
536.65	1695.36
537.00	1706.51
537.36	1717.99
537.72	1729.04
538.08	1740.55
538.44	1751.80
538.79	1762.92
539.15	1774.00
539.51	1784.79
539.87	1796.22
540.22	1807.06
540.58	1818.13
540.94	1829.14
541.29	1839.46
541.65	1849.39
542.01	1859.99
542.37	1870.01
542.72	1880.27
543.08	1890.02
543.44	1900.59
543.79	1910.01
544.15	1919.54
544.51	1929.47
544.87	1939.38
545.22	1948.71
545.58	1957.71
545.94	1966.66
546.29	1975.26
546.65	1983.67
547.01	1991.98
547.36	1999.75
547.72	2007.63
548.07	2015.27
548.43	2022.91
548.79	2030.73
549.14	2039.00
549.50	2047.50
549.86	2055.50
550.21	2063.06
550.57	2070.77
550.92	2077.60
551.28	2085.11
551.64	2092.52
551.99	2099.98
552.35	2107.20
552.70	2114.10
553.06	2120.75
553.41	2127.00
553.77	2133.53
554.13	2139.98
554.48	2147.04
554.84	2154.13
555.19	2160.59
555.55	2166.95
555.90	2173.34
556.26	2180.23
556.61	2186.25
556.97	2191.17
557.32	2196.88
557.68	2203.20
558.03	2209.02
558.39	2214.36
558.74	2220.31
559.10	2225.85
559.45	2231.49
559.81	2237.01
560.16	2242.50
560.52	2248.31
560.87	2254.61
561.23	2260.39
561.58	2267.00
561.94	2272.11
562.29	2276.63
562.64	2282.80
563.00	2288.29
563.35	2293.85
563.71	2299.41
564.06	2305.12
564.42	2311.00
564.77	2316.10
565.12	2321.29
565.48	2326.31
565.83	2331.69
566.19	2336.98
566.54	2342.13
566.89	2346.58
567.25	2351.09
567.60	2356.72
567.96	2361.59
568.31	2366.08
568.66	2370.32
569.02	2374.15
569.37	2377.82
569.72	2382.23
570.08	2385.53
570.43	2388.66
570.78	2391.61
571.14	2394.05
571.49	2396.93
571.84	2400.31
572.20	2403.15
572.55	2406.12
572.90	2408.28
573.26	2410.95
573.61	2413.33
573.96	2415.36
574.31	2417.23
574.67	2419.00
575.02	2419.69
575.37	2421.06
575.72	2421.57
576.08	2422.96
576.43	2422.91
576.78	2423.24
577.13	2424.62
577.49	2425.55
577.84	2426.43
578.19	2427.53
578.54	2428.03
578.90	2428.56
579.25	2428.29
579.60	2427.93
579.95	2426.90
580.30	2426.79
580.66	2425.92
581.01	2424.19
581.36	2421.58
581.71	2419.95
582.06	2418.53
582.42	2417.24
582.77	2414.72
583.12	2412.90
583.47	2411.08
583.82	2410.30
584.17	2408.84
584.53	2406.55
584.88	2404.27
585.23	2402.27
585.58	2399.79
585.93	2397.70
586.28	2395.22
586.63	2392.33
586.98	2389.97
587.34	2387.78
587.69	2385.11
588.04	2382.66
588.39	2380.97
588.74	2378.51
589.09	2375.77
589.44	2372.45
589.79	2369.77
590.14	2367.72
590.49	2364.76
590.84	2360.78
591.19	2357.44
591.54	2354.10
591.89	2349.86
592.25	2346.47
592.60	2342.15
592.95	2337.87
593.30	2333.52
593.65	2329.12
594.00	2324.74
594.35	2321.54
594.70	2316.88
595.05	2312.30
595.40	2306.83
595.75	2301.01
596.10	2297.05
596.45	2292.16
596.80	2287.37
597.15	2282.24
597.50	2276.38
597.85	2271.41
598.19	2266.35
598.54	2260.51
598.89	2255.09
599.24	2250.51
599.59	2244.24
599.94	2238.20
600.29	2232.20
600.64	2226.22
600.99	2219.41
601.34	2213.90
601.69	2206.97
602.04	2200.47
602.39	2193.71
602.74	2187.67
603.08	2182.16
603.43	2175.71
603.78	2168.79
604.13	2161.82
604.48	2154.45
604.83	2148.25
605.18	2141.94
605.53	2135.01
605.87	2127.92
606.22	2121.23
606.57	2113.35
606.92	2105.55
607.27	2098.70
607.62	2092.12
607.96	2085.12
608.31	2078.67
608.66	2070.83
609.01	2063.17
609.36	2056.10
609.70	2048.48
610.05	2040.73
610.40	2032.34
610.75	2024.01
611.10	2016.20
611.44	2007.31
611.79	1998.72
612.14	1988.80
612.49	1978.16
612.83	1968.81
613.18	1959.56
613.53	1950.15
613.88	1940.51
614.22	1931.87
614.57	1922.05
614.92	1911.39
615.27	1901.21
615.61	1891.06
615.96	1881.54
616.31	1871.95
616.65	1862.53
617.00	1852.83
617.35	1843.09
617.70	1833.34
618.04	1823.51
618.39	1813.44
618.74	1803.78
619.08	1794.21
619.43	1785.58
619.78	1777.44
620.12	1768.92
620.47	1759.53
620.82	1749.31
621.16	1739.59
621.51	1729.77
621.85	1720.08
622.20	1709.98
622.55	1699.45
622.89	1689.65
623.24	1679.93
623.59	1670.23
623.93	1660.27
624.28	1650.54
624.62	1640.76
624.97	1630.66
625.32	1620.94
625.66	1612.21
626.01	1603.72
626.35	1594.38
626.70	1584.42
627.04	1574.48
627.39	1564.41
627.73	1555.27
628.08	1546.54
628.43	1537.12
628.77	1527.97
629.12	1519.13
629.46	1511.33
629.81	1503.23
630.15	1493.88
630.50	1484.18
630.84	1473.86
631.19	1464.00
631.53	1454.82
631.88	1444.75
632.22	1434.88
632.57	1425.61
632.91	1415.55
633.26	1405.74
633.60	1396.35
633.95	1387.12
634.29	1377.64
634.64	1368.47
634.98	1358.48
635.32	1349.32
635.67	1340.95
636.01	1331.91
636.36	1322.30
636.70	1312.92
637.05	1303.59
637.39	1294.86
637.73	1286.42
638.08	1278.99
638.42	1270.84
638.77	1262.24
639.11	1254.09
639.45	1246.47
639.80	1238.01
640.14	1229.37
640.49	1220.66
640.83	1211.88
641.17	1203.88
641.52	1195.92
641.86	1187.51
642.20	1179.84
642.55	1171.23
642.89	1162.48
643.23	1153.80
643.58	1145.87
643.92	1136.90
644.26	1128.36
644.61	1120.00
644.95	1111.23
645.29	1102.09
645.64	1093.10
645.98	1084.63
646.32	1076.80
646.66	1068.33
647.01	1060.12
647.35	1052.18
647.69	1043.91
648.04	1035.77
648.38	1026.92
648.72	1018.25
649.06	1009.81
649.41	1001.59
649.75	993.75
650.09	985.97
650.43	978.05
650.78	969.76
651.12	962.10
651.46	954.64
651.80	947.33
652.14	940.21
652.49	932.82
652.83	925.51
653.17	917.96
653.51	910.33
653.85	903.18
654.20	896.02
654.54	888.56
654.88	881.28
655.22	874.14
655.56	867.29
655.90	860.54
656.25	853.84
656.59	847.02
656.93	840.07
657.27	832.96
657.61	826.02
657.95	819.89
658.29	813.99
658.64	807.94
658.98	801.55
659.32	794.99
659.66	788.71
660.00	782.49
660.34	776.35
660.68	770.32
661.02	763.97
661.36	758.02
661.70	752.28
662.05	746.69
662.39	741.19
662.73	735.72
663.07	730.40
663.41	724.84
663.75	719.11
664.09	713.44
664.43	707.97
664.77	702.64
665.11	696.79
665.45	690.98
665.79	685.14
666.13	679.50
666.47	674.03
666.81	668.60
667.15	663.17
667.49	657.99
667.83	652.70
668.17	647.47
668.51	642.33
668.85	637.34
669.19	632.51
669.53	627.44
669.87	622.31
670.21	617.45
670.55	612.79
670.89	608.37
671.23	604.06
671.57	599.65
671.91	595.37
672.25	591.28
672.58	587.08
672.92	583.08
673.26	579.09
673.60	575.18
673.94	571.41
674.28	567.77
674.62	564.11
674.96	560.38
675.30	556.88
675.64	553.23
675.97	549.61
676.31	545.96
676.65	542.40
676.99	539.03
677.33	535.19
677.67	531.48
678.01	527.61
678.34	523.95
678.68	520.49
679.02	516.92
679.36	513.18
679.70	509.51
680.04	505.94
680.37	502.49
680.71	499.15
681.05	495.90
681.39	492.67
681.73	489.44
682.06	486.45
682.40	483.30
682.74	480.07
683.08	476.87
683.42	473.67
683.75	470.65
684.09	467.55
684.43	464.75
684.77	461.83
685.10	459.05
685.44	456.14
685.78	453.18
686.12	450.34
686.45	447.61
686.79	444.92
687.13	442.33
687.46	439.70
687.80	436.98
688.14	434.11
688.48	431.44
688.81	428.75
689.15	426.11
689.49	423.50
689.82	420.96
690.16	418.34
690.50	415.88
690.83	413.38
691.17	410.89
691.51	408.39
691.84	406.11
692.18	403.80
692.52	401.55
692.85	399.36
693.19	397.21
693.52	395.07
693.86	392.84
694.20	390.59
694.53	388.41
694.87	386.25
695.21	384.13
695.54	381.90
695.88	379.72
696.21	377.45
696.55	375.28
696.88	373.18
697.22	371.19
697.56	369.26
697.89	367.29
698.23	365.45
698.56	363.62
698.90	361.82
699.23	359.96
699.57	358.03
699.90	356.16
700.24	354.32
700.58	352.53
700.91	350.83
701.25	349.26
701.58	347.68
701.92	346.04
702.25	344.39
702.59	342.80
702.92	341.19
703.26	339.63
703.59	338.10
703.93	336.84
704.26	335.37
704.60	333.84
704.93	332.38
705.26	330.88
705.60	329.41
705.93	327.87
706.27	326.49
706.60	325.23
706.94	324.00
707.27	322.56
707.61	321.21
707.94	319.85
708.27	318.30
708.61	316.81
708.94	315.41
709.28	314.11
709.61	312.83
709.94	311.63
710.28	310.43
710.61	309.24
710.95	307.80
711.28	306.73
711.61	305.52
711.95	304.35
712.28	303.12
712.61	301.89
712.95	300.80
713.28	299.72
713.61	298.55
713.95	297.37
714.28	296.32
714.61	295.24
714.95	294.20
715.28	293.19
715.61	292.13
715.95	291.15
716.28	290.20
716.61	289.22
716.95	288.20
717.28	287.21
717.61	286.24
717.94	285.29
718.28	284.23
718.61	283.32
718.94	282.37
719.27	281.50
719.61	280.70
719.94	279.81
720.27	278.84
720.60	277.97
720.94	277.14
721.27	276.37
721.60	275.68
721.93	274.91
722.27	274.23
722.60	273.58
722.93	272.84
723.26	272.13
723.59	271.42
723.93	270.78
724.26	270.15
724.59	269.51
724.92	268.90
725.25	268.32
725.59	267.76
725.92	267.31
726.25	266.71
726.58	266.09
726.91	265.47
727.24	264.91
727.57	264.34
727.91	263.73
728.24	263.18
728.57	262.58
728.90	262.07
729.23	261.45
729.56	260.99
729.89	260.45
730.22	259.89
730.55	259.35
730.89	258.80
731.22	258.24
731.55	257.68
731.88	257.14
732.21	256.57
732.54	256.00
732.87	255.39
733.20	254.95
733.53	254.47
733.86	254.07
734.19	253.61
734.52	253.18
734.85	252.87
735.18	252.37
735.51	252.00
735.84	251.54
736.17	251.17
736.50	250.65
736.83	250.49
737.16	250.09
737.49	249.74
737.82	249.29
738.15	248.92
738.48	248.50
738.81	248.07
739.14	247.67
739.47	247.28
739.80	246.90
740.13	246.52
740.46	246.13
740.79	245.69
741.12	245.29
741.45	244.90
741.78	244.46
742.11	244.22
742.44	243.77
742.77	243.46
743.10	243.09
743.43	242.72
743.75	242.12
744.08	242.05
744.41	241.66
744.74	241.32
745.07	240.93
745.40	240.68
745.73	240.47
746.06	240.15
746.39	239.87
746.71	239.54
747.04	239.16
747.37	238.84
747.70	238.55
748.03	238.25
748.36	237.99
748.68	237.68
749.01	237.28
749.34	237.03
749.67	236.72
750.00	236.45
750.33	236.33
750.65	236.10
750.98	235.58
751.31	235.36
751.64	235.13
751.97	235.01
752.29	234.73
752.62	234.39
752.95	234.12
753.28	233.85
753.60	233.61
753.93	233.49
754.26	233.29
754.59	233.00
754.91	232.77
755.24	232.48
755.57	232.22
755.90	232.03
756.22	231.78
756.55	231.56
756.88	231.28
757.20	230.93
757.53	230.68
757.86	230.48
758.19	230.25
758.51	230.04
758.84	229.70
759.17	229.47
759.49	229.30
759.82	229.24
760.15	229.06
760.47	228.88
760.80	228.63
761.13	228.44
761.45	228.24
761.78	228.08
762.11	227.92
762.43	227.77
762.76	227.59
763.08	227.44
763.41	227.30
763.74	227.18
764.06	226.98
764.39	226.81
764.71	226.60
765.04	226.43
765.37	226.27
765.69	226.15
766.02	226.03
766.34	225.85
766.67	225.61
767.00	225.48
767.32	225.43
767.65	225.41
767.97	225.28
768.30	225.18
768.62	225.01
768.95	224.86
769.27	224.70
769.60	224.60
769.92	224.40
770.25	224.24
770.57	224.05
770.90	223.94
771.22	223.79
771.55	223.69
771.87	223.61
772.20	223.48
772.52	223.54
772.85	223.67
773.17	223.55
773.50	223.45
773.82	223.32
774.15	223.09
774.47	222.84
774.80	222.74
775.12	222.64
775.45	222.56
775.77	222.49
776.09	222.41
776.42	222.32
776.74	222.32
777.07	222.21
777.39	222.14
777.72	222.04
778.04	221.99
778.36	221.92
778.69	221.83
779.01	221.76
779.33	221.50
779.66	221.17
779.98	221.09
780.31	221.02
780.63	221.04
780.95	221.00
781.28	220.96
781.60	220.84
781.92	220.78
782.25	220.72
782.57	220.64
782.89	220.56
783.22	220.49
783.54	220.37
783.86	220.35
784.19	220.30
784.51	220.31
784.83	220.26
785.16	220.18
785.48	220.14
785.80	220.11
786.12	220.05
