SpectraSuite Data File
++++++++++++++++++++++++++++++++++++
Date: Tue Jan 29 16:40:23 EST 2013
User: group
Dark Spectrum Present: No
Reference Spectrum Present: No
Number of Sampled Component Spectra: 1
Spectrometers: USB2E7196
Integration Time (usec): 65000 (USB2E7196)
Spectra Averaged: 100 (USB2E7196)
Boxcar Smoothing: 10 (USB2E7196)
Correct for Electrical Dark: No (USB2E7196)
Strobe/Lamp Enabled: No (USB2E7196)
Correct for Detector Non-linearity: No (USB2E7196)
Correct for Stray Light: No (USB2E7196)
Number of Pixels in Processed Spectrum: 2048
>>>>>Begin Processed Spectral Data<<<<<
339.09	0.00
339.48	201.47
339.86	203.07
340.24	204.17
340.63	206.46
341.01	209.99
341.39	208.50
341.78	210.12
342.16	211.78
342.54	211.41
342.93	200.86
343.31	211.01
343.69	211.57
344.07	212.03
344.46	212.51
344.84	212.89
345.22	213.13
345.60	213.43
345.99	213.63
346.37	213.79
346.75	213.94
347.13	214.01
347.52	214.11
347.90	214.21
348.28	214.29
348.66	214.40
349.05	214.36
349.43	214.45
349.81	214.50
350.19	214.54
350.57	214.62
350.96	214.74
351.34	214.83
351.72	214.95
352.10	215.08
352.48	215.13
352.87	215.19
353.25	215.24
353.63	215.28
354.01	215.37
354.39	215.41
354.77	215.46
355.15	215.61
355.54	215.66
355.92	215.68
356.30	215.73
356.68	215.93
357.06	216.04
357.44	216.09
357.82	216.12
358.20	216.24
358.58	216.34
358.97	216.42
359.35	216.55
359.73	216.62
360.11	216.69
360.49	216.76
360.87	216.81
361.25	216.89
361.63	217.04
362.01	217.11
362.39	217.15
362.77	217.20
363.15	217.22
363.53	217.28
363.91	217.34
364.29	217.39
364.67	217.20
365.05	217.21
365.43	217.27
365.81	217.35
366.19	217.43
366.57	217.49
366.95	217.43
367.33	217.37
367.71	217.39
368.09	217.42
368.47	217.43
368.85	217.40
369.23	217.39
369.61	217.29
369.99	217.32
370.37	217.33
370.75	217.47
371.13	217.40
371.51	217.34
371.89	217.32
372.27	217.29
372.65	217.26
373.03	217.23
373.41	217.16
373.78	217.12
374.16	216.99
374.54	216.87
374.92	216.86
375.30	216.82
375.68	216.75
376.06	216.71
376.44	216.65
376.82	216.66
377.19	216.60
377.57	216.54
377.95	216.43
378.33	216.36
378.71	216.15
379.09	216.15
379.47	216.14
379.84	216.08
380.22	216.04
380.60	215.97
380.98	215.92
381.36	215.87
381.73	215.77
382.11	215.73
382.49	215.73
382.87	215.67
383.25	215.66
383.62	215.84
384.00	215.74
384.38	215.70
384.76	215.70
385.13	215.77
385.51	215.73
385.89	215.65
386.27	215.63
386.64	215.64
387.02	215.57
387.40	215.50
387.78	215.48
388.15	215.43
388.53	215.43
388.91	215.38
389.29	215.40
389.66	215.45
390.04	215.43
390.42	215.43
390.79	215.40
391.17	215.38
391.55	215.12
391.92	215.15
392.30	215.17
392.68	215.08
393.05	215.06
393.43	215.07
393.81	215.12
394.18	215.08
394.56	215.06
394.94	215.14
395.31	215.13
395.69	215.20
396.06	215.28
396.44	215.30
396.82	215.32
397.19	215.43
397.57	215.40
397.95	215.44
398.32	215.43
398.70	215.50
399.07	215.60
399.45	215.67
399.82	215.70
400.20	215.74
400.58	215.81
400.95	215.79
401.33	215.92
401.70	216.13
402.08	216.23
402.45	216.33
402.83	216.49
403.20	216.62
403.58	216.68
403.95	216.80
404.33	216.99
404.71	217.14
405.08	217.37
405.46	217.54
405.83	217.75
406.21	217.92
406.58	218.17
406.96	218.37
407.33	218.62
407.70	218.94
408.08	219.37
408.45	219.75
408.83	220.14
409.20	220.46
409.58	220.74
409.95	221.21
410.33	221.72
410.70	222.09
411.08	222.64
411.45	223.21
411.82	223.78
412.20	224.45
412.57	225.31
412.95	225.91
413.32	226.77
413.69	227.62
414.07	228.53
414.44	229.52
414.82	230.52
415.19	231.72
415.56	232.89
415.94	234.09
416.31	235.49
416.68	236.91
417.06	238.49
417.43	240.03
417.81	241.75
418.18	243.53
418.55	245.51
418.93	247.55
419.30	249.70
419.67	251.94
420.04	254.24
420.42	256.59
420.79	259.43
421.16	262.23
421.54	265.13
421.91	268.14
422.28	271.24
422.66	274.57
423.03	277.84
423.40	281.23
423.77	284.80
424.15	288.47
424.52	292.32
424.89	296.49
425.26	300.63
425.64	304.59
426.01	308.87
426.38	313.31
426.75	317.89
427.13	322.65
427.50	327.59
427.87	332.81
428.24	338.12
428.61	343.09
428.99	348.64
429.36	354.70
429.73	360.63
430.10	366.48
430.47	372.56
430.85	378.86
431.22	385.53
431.59	392.69
431.96	399.53
432.33	407.04
432.70	414.32
433.08	422.83
433.45	430.88
433.82	438.97
434.19	447.94
434.56	456.66
434.93	464.99
435.30	473.38
435.68	482.51
436.05	491.48
436.42	500.42
436.79	508.56
437.16	517.30
437.53	526.62
437.90	535.88
438.27	544.93
438.64	554.15
439.01	562.79
439.38	570.41
439.75	577.74
440.13	586.22
440.50	594.22
440.87	600.64
441.24	607.33
441.61	614.60
441.98	619.99
442.35	626.30
442.72	632.65
443.09	638.76
443.46	642.48
443.83	645.02
444.20	647.18
444.57	650.42
444.94	651.93
445.31	653.32
445.68	654.61
446.05	655.17
446.42	654.41
446.79	653.50
447.16	652.54
447.53	651.75
447.90	648.37
448.27	645.05
448.64	640.50
449.01	637.14
449.37	631.36
449.74	625.72
450.11	618.84
450.48	611.44
450.85	603.93
451.22	597.46
451.59	591.30
451.96	585.48
452.33	577.52
452.70	570.37
453.07	561.94
453.43	553.33
453.80	545.04
454.17	537.00
454.54	529.37
454.91	521.06
455.28	513.09
455.65	505.66
456.02	498.11
456.38	491.67
456.75	483.76
457.12	477.13
457.49	470.49
457.86	464.29
458.23	458.89
458.59	452.95
458.96	446.93
459.33	441.59
459.70	436.19
460.07	431.89
460.43	426.94
460.80	422.30
461.17	418.30
461.54	414.03
461.91	410.02
462.27	405.87
462.64	402.39
463.01	398.58
463.38	394.86
463.74	391.20
464.11	387.93
464.48	385.12
464.85	381.95
465.21	379.55
465.58	376.86
465.95	373.70
466.32	371.06
466.68	368.41
467.05	365.81
467.42	363.24
467.78	360.56
468.15	358.05
468.52	356.17
468.88	353.64
469.25	351.44
469.62	349.61
469.98	347.65
470.35	345.83
470.72	344.14
471.08	342.29
471.45	340.72
471.82	339.26
472.18	337.55
472.55	336.37
472.92	334.93
473.28	333.75
473.65	332.59
474.02	331.42
474.38	330.55
474.75	329.76
475.11	328.94
475.48	328.37
475.85	327.87
476.21	327.30
476.58	327.01
476.94	326.75
477.31	326.47
477.67	326.22
478.04	326.06
478.41	326.03
478.77	326.24
479.14	326.17
479.50	326.22
479.87	326.51
480.23	326.82
480.60	327.07
480.96	327.32
481.33	327.94
481.69	328.49
482.06	329.00
482.42	329.49
482.79	330.07
483.15	330.85
483.52	331.78
483.88	332.69
484.25	333.61
484.61	334.63
484.98	335.63
485.34	336.97
485.71	338.34
486.07	339.72
486.44	341.06
486.80	342.74
487.17	344.43
487.53	346.28
487.90	348.16
488.26	350.22
488.62	352.39
488.99	354.43
489.35	356.63
489.72	358.97
490.08	361.52
490.44	364.11
490.81	366.79
491.17	369.49
491.54	372.46
491.90	375.50
492.26	378.74
492.63	382.15
492.99	385.65
493.36	389.34
493.72	393.23
494.08	397.23
494.45	401.43
494.81	405.81
495.17	410.24
495.54	414.99
495.90	419.79
496.26	424.72
496.63	429.90
496.99	435.29
497.35	440.95
497.72	446.74
498.08	452.69
498.44	458.86
498.80	465.30
499.17	471.81
499.53	478.48
499.89	485.39
500.26	492.45
500.62	499.48
500.98	506.89
501.34	514.40
501.71	522.16
502.07	530.00
502.43	538.03
502.79	546.14
503.16	554.49
503.52	563.09
503.88	571.84
504.24	580.87
504.60	589.98
504.97	599.23
505.33	608.58
505.69	618.49
506.05	628.38
506.41	638.23
506.78	648.32
507.14	658.59
507.50	669.04
507.86	679.69
508.22	690.49
508.59	701.13
508.95	712.25
509.31	723.50
509.67	735.00
510.03	746.40
510.39	758.24
510.75	770.11
511.12	782.03
511.48	794.14
511.84	806.40
512.20	818.80
512.56	831.42
512.92	844.23
513.28	856.89
513.64	869.65
514.00	882.57
514.37	895.58
514.73	908.80
515.09	921.90
515.45	934.91
515.81	948.14
516.17	961.64
516.53	974.92
516.89	988.09
517.25	1001.26
517.61	1014.86
517.97	1028.23
518.33	1041.47
518.69	1055.16
519.05	1069.03
519.41	1082.74
519.77	1096.66
520.13	1110.13
520.49	1123.33
520.85	1136.76
521.21	1150.22
521.57	1163.90
521.93	1176.99
522.29	1190.83
522.65	1204.54
523.01	1218.21
523.37	1231.46
523.73	1244.85
524.09	1258.07
524.45	1271.63
524.81	1285.20
525.17	1298.66
525.53	1311.94
525.89	1325.33
526.25	1338.54
526.61	1351.45
526.97	1364.64
527.33	1377.66
527.68	1391.13
528.04	1404.76
528.40	1418.05
528.76	1431.37
529.12	1444.40
529.48	1457.94
529.84	1470.33
530.20	1483.08
530.56	1495.81
530.91	1509.06
531.27	1522.01
531.63	1534.86
531.99	1547.72
532.35	1560.17
532.71	1572.72
533.07	1585.80
533.42	1598.18
533.78	1610.39
534.14	1622.55
534.50	1633.97
534.86	1645.73
535.21	1656.77
535.57	1668.32
535.93	1679.51
536.29	1690.79
536.65	1702.35
537.00	1713.40
537.36	1724.87
537.72	1735.98
538.08	1747.47
538.44	1758.63
538.79	1769.80
539.15	1780.84
539.51	1791.71
539.87	1803.05
540.22	1813.98
540.58	1824.94
540.94	1835.97
541.29	1846.43
541.65	1856.40
542.01	1866.99
542.37	1877.07
542.72	1887.36
543.08	1897.31
543.44	1908.00
543.79	1917.37
544.15	1926.94
544.51	1937.04
544.87	1947.03
545.22	1956.37
545.58	1965.39
545.94	1974.25
546.29	1982.92
546.65	1991.34
547.01	1999.72
547.36	2007.63
547.72	2015.34
548.07	2022.99
548.43	2030.78
548.79	2038.63
549.14	2046.77
549.50	2055.27
549.86	2063.27
550.21	2070.71
550.57	2078.54
550.92	2085.42
551.28	2093.05
551.64	2100.46
551.99	2108.05
552.35	2115.22
552.70	2122.09
553.06	2128.78
553.41	2135.15
553.77	2141.62
554.13	2148.02
554.48	2155.03
554.84	2161.98
555.19	2168.61
555.55	2175.19
555.90	2181.54
556.26	2188.44
556.61	2194.46
556.97	2199.31
557.32	2205.03
557.68	2211.64
558.03	2217.37
558.39	2222.82
558.74	2228.84
559.10	2234.30
559.45	2239.78
559.81	2245.36
560.16	2250.94
560.52	2256.76
560.87	2263.12
561.23	2269.10
561.58	2275.87
561.94	2281.17
562.29	2285.92
562.64	2291.99
563.00	2297.57
563.35	2302.92
563.71	2308.51
564.06	2314.24
564.42	2320.14
564.77	2325.27
565.12	2330.32
565.48	2335.40
565.83	2340.79
566.19	2346.08
566.54	2351.41
566.89	2355.94
567.25	2360.39
567.60	2366.08
567.96	2371.40
568.31	2375.88
568.66	2380.06
569.02	2383.80
569.37	2387.28
569.72	2391.69
570.08	2395.07
570.43	2398.13
570.78	2401.39
571.14	2404.10
571.49	2407.10
571.84	2410.63
572.20	2413.42
572.55	2416.23
572.90	2418.34
573.26	2421.04
573.61	2423.48
573.96	2425.56
574.31	2427.57
574.67	2429.45
575.02	2430.05
575.37	2431.27
575.72	2431.91
576.08	2433.38
576.43	2433.61
576.78	2434.12
577.13	2435.53
577.49	2436.68
577.84	2437.67
578.19	2438.80
578.54	2439.12
578.90	2439.75
579.25	2439.45
579.60	2439.31
579.95	2438.49
580.30	2438.51
580.66	2437.61
581.01	2435.76
581.36	2433.15
581.71	2431.65
582.06	2430.43
582.42	2429.49
582.77	2427.03
583.12	2425.33
583.47	2423.72
583.82	2422.90
584.17	2421.45
584.53	2419.29
584.88	2417.04
585.23	2414.97
585.58	2412.54
585.93	2410.47
586.28	2408.06
586.63	2405.44
586.98	2403.07
587.34	2401.05
587.69	2398.53
588.04	2396.49
588.39	2394.95
588.74	2392.49
589.09	2389.61
589.44	2386.33
589.79	2383.75
590.14	2381.75
590.49	2378.93
590.84	2374.91
591.19	2371.55
591.54	2368.34
591.89	2364.15
592.25	2360.80
592.60	2356.39
592.95	2352.12
593.30	2347.79
593.65	2343.40
594.00	2338.85
594.35	2335.82
594.70	2331.14
595.05	2326.45
595.40	2320.71
595.75	2314.82
596.10	2311.11
596.45	2306.13
596.80	2301.34
597.15	2295.99
597.50	2289.97
597.85	2284.82
598.19	2279.61
598.54	2273.95
598.89	2268.62
599.24	2263.96
599.59	2257.76
599.94	2251.91
600.29	2245.97
600.64	2240.07
600.99	2233.22
601.34	2227.81
601.69	2220.81
602.04	2214.40
602.39	2207.76
602.74	2201.81
603.08	2196.30
603.43	2189.78
603.78	2182.90
604.13	2175.84
604.48	2168.57
604.83	2162.36
605.18	2156.15
605.53	2149.31
605.87	2142.17
606.22	2135.34
606.57	2127.49
606.92	2119.46
607.27	2112.52
607.62	2105.85
607.96	2098.89
608.31	2092.29
608.66	2084.35
609.01	2076.52
609.36	2069.21
609.70	2061.34
610.05	2053.39
610.40	2044.93
610.75	2036.56
611.10	2028.85
611.44	2019.99
611.79	2011.34
612.14	2001.44
612.49	1990.71
612.83	1981.35
613.18	1972.08
613.53	1962.74
613.88	1953.02
614.22	1944.49
614.57	1934.71
614.92	1924.09
615.27	1913.70
615.61	1903.63
615.96	1894.04
616.31	1884.43
616.65	1875.08
617.00	1865.53
617.35	1855.89
617.70	1846.27
618.04	1836.29
618.39	1826.09
618.74	1816.37
619.08	1806.65
619.43	1797.95
619.78	1789.69
620.12	1780.91
620.47	1771.29
620.82	1760.88
621.16	1751.15
621.51	1741.22
621.85	1731.28
622.20	1721.06
622.55	1710.46
622.89	1700.51
623.24	1690.77
623.59	1681.08
623.93	1670.93
624.28	1661.08
624.62	1651.16
624.97	1641.04
625.32	1631.25
625.66	1622.41
626.01	1613.71
626.35	1604.45
626.70	1594.37
627.04	1584.32
627.39	1574.33
627.73	1565.10
628.08	1556.18
628.43	1546.59
628.77	1537.38
629.12	1528.44
629.46	1520.54
629.81	1512.24
630.15	1502.75
630.50	1493.09
630.84	1482.65
631.19	1472.81
631.53	1463.62
631.88	1453.44
632.22	1443.36
632.57	1434.03
632.91	1423.96
633.26	1414.16
633.60	1404.56
633.95	1395.36
634.29	1386.02
634.64	1376.69
634.98	1366.80
635.32	1357.58
635.67	1349.10
636.01	1339.89
636.36	1330.25
636.70	1320.72
637.05	1311.37
637.39	1302.55
637.73	1293.94
638.08	1286.43
638.42	1278.21
638.77	1269.42
639.11	1261.15
639.45	1253.38
639.80	1244.83
640.14	1236.16
640.49	1227.34
640.83	1218.55
641.17	1210.44
641.52	1202.28
641.86	1193.73
642.20	1185.83
642.55	1177.29
642.89	1168.48
643.23	1159.79
643.58	1151.74
643.92	1142.78
644.26	1134.15
644.61	1125.76
644.95	1117.03
645.29	1107.85
645.64	1098.70
645.98	1090.07
646.32	1082.19
646.66	1073.74
647.01	1065.42
647.35	1057.30
647.69	1048.86
648.04	1040.63
648.38	1031.78
648.72	1022.97
649.06	1014.58
649.41	1006.35
649.75	998.38
650.09	990.52
650.43	982.54
650.78	974.16
651.12	966.39
651.46	958.96
651.80	951.70
652.14	944.35
652.49	936.80
652.83	929.44
653.17	921.85
653.51	914.19
653.85	906.90
654.20	899.65
654.54	892.18
654.88	885.04
655.22	877.85
655.56	870.75
655.90	863.94
656.25	857.22
656.59	850.32
656.93	843.28
657.27	836.18
657.61	829.18
657.95	823.18
658.29	817.26
658.64	811.07
658.98	804.58
659.32	797.98
659.66	791.74
660.00	785.46
660.34	779.41
660.68	773.29
661.02	766.93
661.36	761.00
661.70	755.16
662.05	749.44
662.39	743.83
662.73	738.44
663.07	733.08
663.41	727.41
663.75	721.65
664.09	715.99
664.43	710.44
664.77	705.03
665.11	699.12
665.45	693.24
665.79	687.45
666.13	681.75
666.47	676.24
666.81	670.71
667.15	665.27
667.49	659.98
667.83	654.71
668.17	649.43
668.51	644.25
668.85	639.26
669.19	634.40
669.53	629.35
669.87	624.22
670.21	619.41
670.55	614.68
670.89	610.23
671.23	605.88
671.57	601.52
671.91	597.20
672.25	593.11
672.58	588.93
672.92	584.86
673.26	580.81
673.60	576.85
673.94	572.97
674.28	569.40
674.62	565.71
674.96	561.94
675.30	558.37
675.64	554.64
675.97	551.02
676.31	547.35
676.65	543.78
676.99	540.31
677.33	536.39
677.67	532.70
678.01	528.85
678.34	525.14
678.68	521.60
679.02	518.02
679.36	514.21
679.70	510.47
680.04	506.89
680.37	503.43
680.71	500.15
681.05	496.94
681.39	493.63
681.73	490.43
682.06	487.37
682.40	484.31
682.74	481.04
683.08	477.84
683.42	474.58
683.75	471.48
684.09	468.42
684.43	465.65
684.77	462.73
685.10	459.81
685.44	456.83
685.78	453.89
686.12	451.03
686.45	448.32
686.79	445.62
687.13	443.01
687.46	440.37
687.80	437.59
688.14	434.74
688.48	432.05
688.81	429.27
689.15	426.67
689.49	424.00
689.82	421.47
690.16	418.81
690.50	416.33
690.83	413.80
691.17	411.24
691.51	408.71
691.84	406.36
692.18	404.07
692.52	401.87
692.85	399.65
693.19	397.47
693.52	395.22
693.86	393.01
694.20	390.76
694.53	388.63
694.87	386.50
695.21	384.33
695.54	382.13
695.88	379.95
696.21	377.68
696.55	375.55
696.88	373.48
697.22	371.48
697.56	369.56
697.89	367.67
698.23	365.85
698.56	364.01
698.90	362.20
699.23	360.29
699.57	358.38
699.90	356.53
700.24	354.70
700.58	352.93
700.91	351.30
701.25	349.75
701.58	348.05
701.92	346.38
702.25	344.74
702.59	343.08
702.92	341.51
703.26	339.96
703.59	338.39
703.93	337.09
704.26	335.63
704.60	334.10
704.93	332.58
705.26	331.04
705.60	329.54
705.93	328.04
706.27	326.69
706.60	325.39
706.94	324.11
707.27	322.73
707.61	321.35
707.94	319.93
708.27	318.38
708.61	316.95
708.94	315.54
709.28	314.25
709.61	312.99
709.94	311.78
710.28	310.58
710.61	309.37
710.95	307.96
711.28	306.88
711.61	305.65
711.95	304.51
712.28	303.30
712.61	302.08
712.95	301.00
713.28	299.96
713.61	298.77
713.95	297.57
714.28	296.55
714.61	295.49
714.95	294.44
715.28	293.39
715.61	292.36
715.95	291.38
716.28	290.39
716.61	289.43
716.95	288.38
717.28	287.39
717.61	286.42
717.94	285.45
718.28	284.41
718.61	283.54
718.94	282.64
719.27	281.79
719.61	280.99
719.94	280.11
720.27	279.12
720.60	278.27
720.94	277.50
721.27	276.70
721.60	276.00
721.93	275.28
722.27	274.63
722.60	273.95
722.93	273.28
723.26	272.62
723.59	271.92
723.93	271.29
724.26	270.60
724.59	269.94
724.92	269.35
725.25	268.78
725.59	268.19
725.92	267.61
726.25	267.04
726.58	266.43
726.91	265.83
727.24	265.29
727.57	264.76
727.91	264.12
728.24	263.54
728.57	262.94
728.90	262.37
729.23	261.76
729.56	261.30
729.89	260.72
730.22	260.13
730.55	259.56
730.89	259.01
731.22	258.49
731.55	258.01
731.88	257.46
732.21	256.90
732.54	256.34
732.87	255.83
733.20	255.31
733.53	254.84
733.86	254.36
734.19	253.87
734.52	253.44
734.85	253.17
735.18	252.70
735.51	252.28
735.84	251.85
736.17	251.45
736.50	250.91
736.83	250.71
737.16	250.32
737.49	249.94
737.82	249.51
738.15	249.12
738.48	248.67
738.81	248.30
739.14	247.84
739.47	247.47
739.80	247.09
740.13	246.73
740.46	246.33
740.79	245.93
741.12	245.58
741.45	245.17
741.78	244.69
742.11	244.39
742.44	244.02
742.77	243.69
743.10	243.34
743.43	242.97
743.75	242.43
744.08	242.33
744.41	241.99
744.74	241.66
745.07	241.30
745.40	241.02
745.73	240.80
746.06	240.53
746.39	240.22
746.71	239.87
747.04	239.52
747.37	239.22
747.70	238.96
748.03	238.64
748.36	238.34
748.68	238.02
749.01	237.67
749.34	237.37
749.67	237.04
750.00	236.75
750.33	236.62
750.65	236.36
750.98	235.84
751.31	235.59
751.64	235.36
751.97	235.25
752.29	234.99
752.62	234.60
752.95	234.29
753.28	234.01
753.60	233.79
753.93	233.63
754.26	233.42
754.59	233.10
754.91	232.82
755.24	232.58
755.57	232.34
755.90	232.11
756.22	231.87
756.55	231.64
756.88	231.38
757.20	231.04
757.53	230.78
757.86	230.56
758.19	230.35
758.51	230.10
758.84	229.76
759.17	229.56
759.49	229.39
759.82	229.32
760.15	229.13
760.47	228.92
760.80	228.65
761.13	228.47
761.45	228.31
761.78	228.17
762.11	228.00
762.43	227.83
762.76	227.66
763.08	227.55
763.41	227.42
763.74	227.29
764.06	227.13
764.39	226.95
764.71	226.81
765.04	226.68
765.37	226.54
765.69	226.43
766.02	226.27
766.34	226.11
766.67	225.89
767.00	225.79
767.32	225.76
767.65	225.75
767.97	225.62
768.30	225.50
768.62	225.33
768.95	225.21
769.27	225.08
769.60	224.98
769.92	224.84
770.25	224.69
770.57	224.51
770.90	224.38
771.22	224.24
771.55	224.10
771.87	223.95
772.20	223.85
772.52	223.88
772.85	224.01
773.17	223.92
773.50	223.78
773.82	223.63
774.15	223.42
774.47	223.18
774.80	223.06
775.12	222.95
775.45	222.86
775.77	222.77
776.09	222.70
776.42	222.62
776.74	222.55
777.07	222.45
777.39	222.40
777.72	222.30
778.04	222.25
778.36	222.17
778.69	222.07
779.01	221.99
779.33	221.73
779.66	221.41
779.98	221.31
780.31	221.25
780.63	221.31
780.95	221.30
781.28	221.25
781.60	221.16
781.92	221.04
782.25	220.96
782.57	220.88
782.89	220.75
783.22	220.63
783.54	220.53
783.86	220.49
784.19	220.39
784.51	220.41
784.83	220.35
785.16	220.29
785.48	220.25
785.80	220.18
786.12	220.16
