SpectraSuite Data File
++++++++++++++++++++++++++++++++++++
Date: Tue Jan 29 16:08:22 EST 2013
User: group
Dark Spectrum Present: No
Reference Spectrum Present: No
Number of Sampled Component Spectra: 1
Spectrometers: USB2E7196
Integration Time (usec): 65000 (USB2E7196)
Spectra Averaged: 100 (USB2E7196)
Boxcar Smoothing: 10 (USB2E7196)
Correct for Electrical Dark: No (USB2E7196)
Strobe/Lamp Enabled: No (USB2E7196)
Correct for Detector Non-linearity: No (USB2E7196)
Correct for Stray Light: No (USB2E7196)
Number of Pixels in Processed Spectrum: 2048
>>>>>Begin Processed Spectral Data<<<<<
339.09	0.00
339.48	202.77
339.86	205.09
340.24	205.74
340.63	206.61
341.01	211.98
341.39	210.12
341.78	211.27
342.16	213.23
342.54	213.25
342.93	202.20
343.31	212.42
343.69	212.97
344.07	213.40
344.46	213.86
344.84	214.30
345.22	214.45
345.60	214.70
345.99	214.92
346.37	215.06
346.75	215.15
347.13	215.25
347.52	215.31
347.90	215.43
348.28	215.45
348.66	215.53
349.05	215.51
349.43	215.56
349.81	215.58
350.19	215.66
350.57	215.72
350.96	215.82
351.34	215.89
351.72	215.99
352.10	216.09
352.48	216.15
352.87	216.19
353.25	216.23
353.63	216.30
354.01	216.33
354.39	216.40
354.77	216.46
355.15	216.59
355.54	216.62
355.92	216.60
356.30	216.69
356.68	216.86
357.06	216.93
357.44	216.94
357.82	217.00
358.20	217.06
358.58	217.10
358.97	217.15
359.35	217.24
359.73	217.30
360.11	217.33
360.49	217.36
360.87	217.39
361.25	217.46
361.63	217.55
362.01	217.61
362.39	217.60
362.77	217.63
363.15	217.63
363.53	217.65
363.91	217.66
364.29	217.65
364.67	217.49
365.05	217.52
365.43	217.54
365.81	217.57
366.19	217.67
366.57	217.77
366.95	217.75
367.33	217.73
367.71	217.74
368.09	217.76
368.47	217.76
368.85	217.75
369.23	217.77
369.61	217.70
369.99	217.76
370.37	217.78
370.75	217.85
371.13	217.79
371.51	217.76
371.89	217.79
372.27	217.78
372.65	217.78
373.03	217.75
373.41	217.74
373.78	217.72
374.16	217.53
374.54	217.42
374.92	217.34
375.30	217.29
375.68	217.21
376.06	217.20
376.44	217.15
376.82	217.11
377.19	217.07
377.57	217.02
377.95	216.91
378.33	216.86
378.71	216.72
379.09	216.70
379.47	216.67
379.84	216.63
380.22	216.55
380.60	216.46
380.98	216.42
381.36	216.38
381.73	216.31
382.11	216.33
382.49	216.31
382.87	216.28
383.25	216.25
383.62	216.50
384.00	216.42
384.38	216.42
384.76	216.43
385.13	216.45
385.51	216.40
385.89	216.33
386.27	216.31
386.64	216.29
387.02	216.23
387.40	216.18
387.78	216.12
388.15	216.12
388.53	216.09
388.91	216.03
389.29	215.99
389.66	215.99
390.04	215.94
390.42	215.96
390.79	215.93
391.17	215.91
391.55	215.61
391.92	215.60
392.30	215.59
392.68	215.54
393.05	215.52
393.43	215.54
393.81	215.55
394.18	215.50
394.56	215.51
394.94	215.56
395.31	215.55
395.69	215.64
396.06	215.64
396.44	215.68
396.82	215.70
397.19	215.84
397.57	215.84
397.95	215.90
398.32	215.85
398.70	215.94
399.07	216.01
399.45	216.09
399.82	216.15
400.20	216.22
400.58	216.30
400.95	216.30
401.33	216.40
401.70	216.64
402.08	216.74
402.45	216.83
402.83	216.96
403.20	217.09
403.58	217.17
403.95	217.33
404.33	217.49
404.71	217.65
405.08	217.88
405.46	218.08
405.83	218.26
406.21	218.47
406.58	218.68
406.96	218.89
407.33	219.13
407.70	219.44
408.08	219.88
408.45	220.22
408.83	220.60
409.20	220.90
409.58	221.15
409.95	221.59
410.33	222.09
410.70	222.52
411.08	223.05
411.45	223.63
411.82	224.19
412.20	224.85
412.57	225.64
412.95	226.20
413.32	227.01
413.69	227.83
414.07	228.71
414.44	229.65
414.82	230.67
415.19	231.82
415.56	232.95
415.94	234.05
416.31	235.38
416.68	236.72
417.06	238.30
417.43	239.80
417.81	241.48
418.18	243.15
418.55	245.02
418.93	247.03
419.30	249.03
419.67	251.18
420.04	253.41
420.42	255.69
420.79	258.41
421.16	261.08
421.54	263.92
421.91	266.80
422.28	269.82
422.66	272.97
423.03	276.10
423.40	279.30
423.77	282.82
424.15	286.37
424.52	290.11
424.89	294.15
425.26	298.10
425.64	301.85
426.01	305.98
426.38	310.28
426.75	314.59
427.13	319.17
427.50	323.97
427.87	328.97
428.24	333.99
428.61	338.80
428.99	344.21
429.36	349.99
429.73	355.72
430.10	361.38
430.47	367.26
430.85	373.37
431.22	379.90
431.59	386.76
431.96	393.29
432.33	400.55
432.70	407.53
433.08	415.74
433.45	423.56
433.82	431.30
434.19	439.93
434.56	448.34
434.93	456.38
435.30	464.37
435.68	473.18
436.05	481.86
436.42	490.47
436.79	498.30
437.16	506.75
437.53	515.63
437.90	524.46
438.27	533.09
438.64	542.00
439.01	550.27
439.38	557.59
439.75	564.73
440.13	572.91
440.50	580.58
440.87	586.79
441.24	593.17
441.61	600.27
441.98	605.47
442.35	611.60
442.72	617.68
443.09	623.50
443.46	627.14
443.83	629.55
444.20	631.63
444.57	634.68
444.94	636.04
445.31	637.43
445.68	638.74
446.05	639.29
446.42	638.54
446.79	637.62
447.16	636.54
447.53	635.77
447.90	632.43
448.27	629.24
448.64	624.72
449.01	621.47
449.37	615.76
449.74	610.22
450.11	603.55
450.48	596.45
450.85	589.24
451.22	582.97
451.59	577.06
451.96	571.47
452.33	563.84
452.70	557.00
453.07	548.82
453.43	540.57
453.80	532.60
454.17	524.89
454.54	517.53
454.91	509.69
455.28	502.02
455.65	494.92
456.02	487.72
456.38	481.65
456.75	474.12
457.12	467.84
457.49	461.60
457.86	455.60
458.23	450.45
458.59	444.80
458.96	438.99
459.33	433.90
459.70	428.73
460.07	424.63
460.43	419.97
460.80	415.58
461.17	411.74
461.54	407.71
461.91	403.83
462.27	399.85
462.64	396.55
463.01	392.87
463.38	389.30
463.74	385.69
464.11	382.57
464.48	379.83
464.85	376.81
465.21	374.49
465.58	371.99
465.95	368.94
466.32	366.43
466.68	363.95
467.05	361.41
467.42	358.97
467.78	356.40
468.15	353.91
468.52	352.11
468.88	349.72
469.25	347.61
469.62	345.88
469.98	344.09
470.35	342.34
470.72	340.75
471.08	339.04
471.45	337.64
471.82	336.20
472.18	334.63
472.55	333.52
472.92	332.18
473.28	331.03
473.65	329.92
474.02	328.88
474.38	328.03
474.75	327.35
475.11	326.57
475.48	326.04
475.85	325.61
476.21	325.17
476.58	324.84
476.94	324.62
477.31	324.36
477.67	324.09
478.04	323.96
478.41	323.98
478.77	324.15
479.14	324.11
479.50	324.25
479.87	324.55
480.23	324.85
480.60	325.13
480.96	325.48
481.33	326.09
481.69	326.62
482.06	327.14
482.42	327.64
482.79	328.25
483.15	329.04
483.52	330.05
483.88	330.91
484.25	331.85
484.61	332.89
484.98	333.96
485.34	335.29
485.71	336.65
486.07	338.02
486.44	339.31
486.80	340.94
487.17	342.61
487.53	344.44
487.90	346.32
488.26	348.32
488.62	350.43
488.99	352.45
489.35	354.62
489.72	357.03
490.08	359.54
490.44	362.10
490.81	364.81
491.17	367.49
491.54	370.49
491.90	373.52
492.26	376.68
492.63	380.09
492.99	383.59
493.36	387.28
493.72	391.17
494.08	395.19
494.45	399.35
494.81	403.74
495.17	408.23
495.54	412.93
495.90	417.75
496.26	422.66
496.63	427.88
496.99	433.26
497.35	438.86
497.72	444.60
498.08	450.53
498.44	456.54
498.80	462.93
499.17	469.34
499.53	476.00
499.89	482.96
500.26	489.85
500.62	496.90
500.98	504.21
501.34	511.63
501.71	519.38
502.07	527.14
502.43	535.07
502.79	543.16
503.16	551.43
503.52	560.04
503.88	568.74
504.24	577.64
504.60	586.59
504.97	595.72
505.33	604.97
505.69	614.77
506.05	624.69
506.41	634.42
506.78	644.53
507.14	654.75
507.50	665.10
507.86	675.75
508.22	686.41
508.59	697.10
508.95	708.16
509.31	719.39
509.67	730.80
510.03	742.19
510.39	753.85
510.75	765.64
511.12	777.39
511.48	789.45
511.84	801.67
512.20	813.90
512.56	826.44
512.92	839.14
513.28	851.62
513.64	864.18
514.00	877.04
514.37	889.85
514.73	902.84
515.09	915.68
515.45	928.39
515.81	941.28
516.17	954.55
516.53	967.60
516.89	980.54
517.25	993.51
517.61	1006.83
517.97	1020.02
518.33	1032.99
518.69	1046.42
519.05	1059.95
519.41	1073.27
519.77	1087.08
520.13	1100.21
520.49	1113.22
520.85	1126.42
521.21	1139.64
521.57	1152.93
521.93	1165.90
522.29	1179.39
522.65	1192.78
523.01	1206.25
523.37	1219.19
523.73	1232.23
524.09	1245.16
524.45	1258.26
524.81	1271.60
525.17	1284.68
525.53	1297.74
525.89	1310.80
526.25	1323.64
526.61	1336.08
526.97	1349.02
527.33	1361.60
527.68	1374.77
528.04	1387.95
528.40	1400.85
528.76	1413.80
529.12	1426.46
529.48	1439.36
529.84	1451.32
530.20	1463.79
530.56	1476.06
530.91	1489.19
531.27	1501.75
531.63	1514.23
531.99	1526.80
532.35	1538.74
532.71	1550.87
533.07	1563.26
533.42	1575.17
533.78	1587.00
534.14	1598.85
534.50	1609.78
534.86	1621.09
535.21	1631.71
535.57	1642.85
535.93	1653.82
536.29	1664.70
536.65	1675.82
537.00	1686.56
537.36	1697.69
537.72	1708.41
538.08	1719.43
538.44	1730.04
538.79	1740.73
539.15	1751.18
539.51	1761.46
539.87	1772.51
540.22	1782.98
540.58	1793.64
540.94	1804.11
541.29	1814.05
541.65	1823.50
542.01	1833.74
542.37	1843.38
542.72	1853.29
543.08	1862.97
543.44	1873.09
543.79	1882.13
544.15	1891.37
544.51	1901.07
544.87	1910.60
545.22	1919.47
545.58	1928.09
545.94	1936.57
546.29	1944.88
546.65	1953.27
547.01	1961.45
547.36	1968.95
547.72	1976.39
548.07	1983.63
548.43	1991.20
548.79	1998.80
549.14	2006.80
549.50	2014.99
549.86	2022.76
550.21	2029.79
550.57	2037.08
550.92	2043.63
551.28	2050.95
551.64	2057.89
551.99	2065.17
552.35	2072.17
552.70	2078.94
553.06	2085.44
553.41	2091.59
553.77	2097.82
554.13	2103.91
554.48	2110.73
554.84	2117.46
555.19	2124.00
555.55	2130.43
555.90	2136.65
556.26	2143.20
556.61	2148.91
556.97	2153.56
557.32	2159.30
557.68	2165.73
558.03	2171.54
558.39	2176.70
558.74	2182.44
559.10	2188.06
559.45	2193.50
559.81	2198.93
560.16	2204.39
560.52	2210.20
560.87	2216.60
561.23	2222.47
561.58	2229.09
561.94	2234.10
562.29	2239.02
562.64	2244.99
563.00	2250.57
563.35	2256.19
563.71	2262.12
564.06	2267.85
564.42	2273.85
564.77	2278.93
565.12	2284.18
565.48	2289.34
565.83	2295.12
566.19	2300.72
566.54	2306.03
566.89	2310.75
567.25	2315.31
567.60	2320.89
567.96	2326.20
568.31	2330.79
568.66	2335.18
569.02	2339.08
569.37	2342.88
569.72	2347.21
570.08	2350.85
570.43	2353.95
570.78	2357.08
571.14	2359.78
571.49	2363.04
571.84	2366.60
572.20	2369.56
572.55	2372.65
572.90	2374.80
573.26	2377.69
573.61	2380.10
573.96	2382.43
574.31	2384.41
574.67	2386.54
575.02	2387.62
575.37	2389.04
575.72	2389.88
576.08	2391.50
576.43	2391.74
576.78	2392.62
577.13	2394.55
577.49	2395.73
577.84	2397.24
578.19	2398.83
578.54	2399.55
578.90	2400.68
579.25	2400.78
579.60	2400.98
579.95	2400.42
580.30	2400.94
580.66	2400.39
581.01	2398.95
581.36	2396.97
581.71	2395.93
582.06	2395.08
582.42	2394.38
582.77	2392.49
583.12	2391.20
583.47	2390.25
583.82	2389.89
584.17	2388.79
584.53	2386.65
584.88	2384.89
585.23	2383.00
585.58	2380.87
585.93	2378.89
586.28	2376.76
586.63	2374.64
586.98	2372.56
587.34	2370.84
587.69	2368.72
588.04	2366.76
588.39	2365.55
588.74	2363.22
589.09	2360.65
589.44	2357.69
589.79	2355.49
590.14	2353.79
590.49	2351.16
590.84	2347.37
591.19	2344.60
591.54	2341.44
591.89	2337.60
592.25	2334.46
592.60	2330.59
592.95	2326.65
593.30	2322.70
593.65	2318.38
594.00	2314.05
594.35	2311.12
594.70	2306.52
595.05	2301.97
595.40	2296.79
595.75	2291.37
596.10	2287.71
596.45	2282.91
596.80	2278.40
597.15	2273.20
597.50	2267.32
597.85	2262.36
598.19	2257.32
598.54	2251.65
598.89	2246.72
599.24	2242.41
599.59	2236.35
599.94	2230.64
600.29	2224.81
600.64	2219.04
600.99	2212.53
601.34	2207.23
601.69	2200.36
602.04	2194.19
602.39	2187.77
602.74	2181.72
603.08	2176.21
603.43	2169.85
603.78	2163.16
604.13	2156.25
604.48	2149.23
604.83	2143.28
605.18	2137.02
605.53	2130.03
605.87	2122.98
606.22	2116.21
606.57	2108.16
606.92	2100.58
607.27	2093.70
607.62	2087.07
607.96	2080.12
608.31	2073.62
608.66	2065.87
609.01	2058.39
609.36	2051.32
609.70	2043.67
610.05	2036.08
610.40	2027.83
610.75	2019.64
611.10	2012.23
611.44	2003.43
611.79	1994.90
612.14	1985.04
612.49	1974.69
612.83	1965.70
613.18	1956.63
613.53	1947.37
613.88	1938.10
614.22	1929.48
614.57	1919.55
614.92	1909.18
615.27	1899.13
615.61	1889.28
615.96	1879.73
616.31	1870.30
616.65	1860.92
617.00	1851.01
617.35	1841.32
617.70	1831.64
618.04	1821.60
618.39	1811.09
618.74	1801.39
619.08	1791.63
619.43	1782.82
619.78	1774.62
620.12	1765.78
620.47	1755.95
620.82	1745.72
621.16	1735.91
621.51	1725.95
621.85	1716.13
622.20	1705.58
622.55	1694.96
622.89	1685.00
623.24	1675.24
623.59	1665.35
623.93	1655.20
624.28	1645.55
624.62	1635.38
624.97	1625.09
625.32	1615.43
625.66	1606.75
626.01	1597.88
626.35	1588.45
626.70	1578.42
627.04	1568.25
627.39	1558.30
627.73	1549.10
628.08	1540.00
628.43	1530.38
628.77	1521.06
629.12	1512.21
629.46	1504.45
629.81	1496.12
630.15	1486.64
630.50	1476.86
630.84	1466.38
631.19	1456.45
631.53	1446.97
631.88	1436.91
632.22	1426.95
632.57	1417.60
632.91	1407.42
633.26	1397.66
633.60	1388.04
633.95	1378.65
634.29	1369.33
634.64	1359.81
634.98	1350.01
635.32	1340.80
635.67	1332.17
636.01	1322.91
636.36	1313.12
636.70	1303.54
637.05	1294.18
637.39	1285.16
637.73	1276.58
638.08	1269.02
638.42	1260.78
638.77	1252.07
639.11	1243.85
639.45	1235.95
639.80	1227.31
640.14	1218.71
640.49	1209.89
640.83	1201.16
641.17	1193.13
641.52	1184.75
641.86	1176.27
642.20	1168.33
642.55	1159.72
642.89	1150.89
643.23	1142.32
643.58	1134.26
643.92	1125.22
644.26	1116.57
644.61	1108.17
644.95	1099.35
645.29	1090.14
645.64	1081.01
645.98	1072.67
646.32	1064.68
646.66	1056.15
647.01	1047.73
647.35	1039.50
647.69	1031.10
648.04	1022.76
648.38	1013.83
648.72	1005.14
649.06	996.68
649.41	988.47
649.75	980.44
650.09	972.55
650.43	964.44
650.78	956.25
651.12	948.66
651.46	941.23
651.80	933.92
652.14	926.61
652.49	919.09
652.83	911.84
653.17	904.11
653.51	896.59
653.85	889.39
654.20	882.17
654.54	874.77
654.88	867.63
655.22	860.58
655.56	853.68
655.90	846.90
656.25	840.34
656.59	833.42
656.93	826.55
657.27	819.48
657.61	812.64
657.95	806.57
658.29	800.76
658.64	794.56
658.98	788.18
659.32	781.67
659.66	775.51
660.00	769.22
660.34	763.22
660.68	757.09
661.02	750.89
661.36	745.10
661.70	739.32
662.05	733.70
662.39	728.21
662.73	722.90
663.07	717.62
663.41	712.01
663.75	706.42
664.09	700.82
664.43	695.49
664.77	690.29
665.11	684.42
665.45	678.56
665.79	672.88
666.13	667.23
666.47	661.77
666.81	656.42
667.15	651.13
667.49	646.03
667.83	640.79
668.17	635.62
668.51	630.49
668.85	625.62
669.19	620.84
669.53	615.89
669.87	610.92
670.21	606.25
670.55	601.56
670.89	597.24
671.23	592.98
671.57	588.70
671.91	584.45
672.25	580.47
672.58	576.29
672.92	572.32
673.26	568.48
673.60	564.67
673.94	560.84
674.28	557.24
674.62	553.48
674.96	549.87
675.30	546.40
675.64	542.88
675.97	539.36
676.31	535.78
676.65	532.28
676.99	528.80
677.33	524.97
677.67	521.41
678.01	517.53
678.34	513.93
678.68	510.41
679.02	506.77
679.36	503.10
679.70	499.63
680.04	496.10
680.37	492.72
680.71	489.52
681.05	486.39
681.39	483.18
681.73	480.08
682.06	477.08
682.40	474.03
682.74	470.86
683.08	467.74
683.42	464.63
683.75	461.68
684.09	458.65
684.43	455.93
684.77	453.02
685.10	450.26
685.44	447.40
685.78	444.53
686.12	441.83
686.45	439.16
686.79	436.51
687.13	434.06
687.46	431.50
687.80	428.81
688.14	426.09
688.48	423.58
688.81	420.96
689.15	418.45
689.49	415.83
689.82	413.36
690.16	410.81
690.50	408.37
690.83	405.88
691.17	403.46
691.51	401.06
691.84	398.85
692.18	396.72
692.52	394.49
692.85	392.45
693.19	390.34
693.52	388.21
693.86	386.07
694.20	383.94
694.53	381.82
694.87	379.70
695.21	377.58
695.54	375.40
695.88	373.32
696.21	371.16
696.55	369.13
696.88	367.13
697.22	365.21
697.56	363.40
697.89	361.54
698.23	359.83
698.56	358.08
698.90	356.35
699.23	354.45
699.57	352.67
699.90	350.86
700.24	349.10
700.58	347.37
700.91	345.77
701.25	344.23
701.58	342.64
701.92	341.09
702.25	339.55
702.59	337.99
702.92	336.50
703.26	335.04
703.59	333.64
703.93	332.42
704.26	331.00
704.60	329.49
704.93	328.08
705.26	326.58
705.60	325.14
705.93	323.68
706.27	322.43
706.60	321.21
706.94	319.99
707.27	318.63
707.61	317.33
707.94	316.00
708.27	314.52
708.61	313.11
708.94	311.82
709.28	310.59
709.61	309.37
709.94	308.22
710.28	307.04
710.61	305.79
710.95	304.37
711.28	303.33
711.61	302.20
711.95	301.09
712.28	299.93
712.61	298.79
712.95	297.77
713.28	296.75
713.61	295.59
713.95	294.48
714.28	293.46
714.61	292.42
714.95	291.41
715.28	290.40
715.61	289.46
715.95	288.52
716.28	287.55
716.61	286.63
716.95	285.65
717.28	284.73
717.61	283.82
717.94	282.98
718.28	281.95
718.61	281.10
718.94	280.22
719.27	279.43
719.61	278.62
719.94	277.73
720.27	276.79
720.60	275.96
720.94	275.18
721.27	274.45
721.60	273.84
721.93	273.13
722.27	272.50
722.60	271.82
722.93	271.12
723.26	270.46
723.59	269.78
723.93	269.17
724.26	268.53
724.59	267.92
724.92	267.34
725.25	266.86
725.59	266.24
725.92	265.72
726.25	265.13
726.58	264.58
726.91	264.04
727.24	263.47
727.57	262.92
727.91	262.32
728.24	261.75
728.57	261.17
728.90	260.61
729.23	260.01
729.56	259.57
729.89	259.06
730.22	258.56
730.55	258.03
730.89	257.48
731.22	256.94
731.55	256.40
731.88	255.87
732.21	255.30
732.54	254.82
732.87	254.28
733.20	253.82
733.53	253.37
733.86	252.92
734.19	252.49
734.52	252.09
734.85	251.81
735.18	251.37
735.51	250.97
735.84	250.59
736.17	250.29
736.50	249.78
736.83	249.63
737.16	249.26
737.49	248.91
737.82	248.50
738.15	248.17
738.48	247.82
738.81	247.41
739.14	247.02
739.47	246.66
739.80	246.32
740.13	246.00
740.46	245.59
740.79	245.22
741.12	244.90
741.45	244.54
741.78	244.13
742.11	243.89
742.44	243.53
742.77	243.23
743.10	242.85
743.43	242.49
743.75	241.93
744.08	241.85
744.41	241.49
744.74	241.18
745.07	240.83
745.40	240.55
745.73	240.35
746.06	240.03
746.39	239.75
746.71	239.43
747.04	239.08
747.37	238.81
747.70	238.53
748.03	238.22
748.36	237.97
748.68	237.63
749.01	237.29
749.34	236.99
749.67	236.69
750.00	236.44
750.33	236.35
750.65	236.12
750.98	235.57
751.31	235.33
751.64	235.10
751.97	234.99
752.29	234.74
752.62	234.41
752.95	234.21
753.28	233.93
753.60	233.69
753.93	233.53
754.26	233.27
754.59	233.00
754.91	232.79
755.24	232.56
755.57	232.34
755.90	232.13
756.22	231.94
756.55	231.73
756.88	231.47
757.20	231.12
757.53	230.86
757.86	230.65
758.19	230.47
758.51	230.26
758.84	229.94
759.17	229.73
759.49	229.59
759.82	229.48
760.15	229.33
760.47	229.15
760.80	228.90
761.13	228.77
761.45	228.60
761.78	228.42
762.11	228.25
762.43	228.10
762.76	227.96
763.08	227.76
763.41	227.61
763.74	227.47
764.06	227.30
764.39	227.16
764.71	227.04
765.04	226.87
765.37	226.74
765.69	226.62
766.02	226.48
766.34	226.27
766.67	226.06
767.00	225.94
767.32	225.90
767.65	225.90
767.97	225.76
768.30	225.65
768.62	225.54
768.95	225.40
769.27	225.25
769.60	225.15
769.92	225.01
770.25	224.86
770.57	224.72
770.90	224.63
771.22	224.48
771.55	224.36
771.87	224.25
772.20	224.13
772.52	224.18
772.85	224.32
773.17	224.25
773.50	224.14
773.82	224.02
774.15	223.83
774.47	223.60
774.80	223.47
775.12	223.37
775.45	223.24
775.77	223.14
776.09	223.08
776.42	222.96
776.74	222.95
777.07	222.82
777.39	222.74
777.72	222.65
778.04	222.57
778.36	222.48
778.69	222.42
779.01	222.37
779.33	222.11
779.66	221.78
779.98	221.68
780.31	221.63
780.63	221.63
780.95	221.62
781.28	221.57
781.60	221.50
781.92	221.42
782.25	221.35
782.57	221.30
782.89	221.22
783.22	221.13
783.54	221.04
783.86	221.04
784.19	220.97
784.51	220.95
784.83	220.87
785.16	220.79
785.48	220.70
785.80	220.61
786.12	220.58
