SpectraSuite Data File
++++++++++++++++++++++++++++++++++++
Date: Tue Jan 29 16:53:34 EST 2013
User: group
Dark Spectrum Present: No
Reference Spectrum Present: No
Number of Sampled Component Spectra: 1
Spectrometers: USB2E7196
Integration Time (usec): 65000 (USB2E7196)
Spectra Averaged: 100 (USB2E7196)
Boxcar Smoothing: 10 (USB2E7196)
Correct for Electrical Dark: No (USB2E7196)
Strobe/Lamp Enabled: No (USB2E7196)
Correct for Detector Non-linearity: No (USB2E7196)
Correct for Stray Light: No (USB2E7196)
Number of Pixels in Processed Spectrum: 2048
>>>>>Begin Processed Spectral Data<<<<<
339.09	0.00
339.48	201.19
339.86	202.82
340.24	204.40
340.63	205.35
341.01	209.93
341.39	208.02
341.78	209.49
342.16	211.50
342.54	211.23
342.93	200.63
343.31	210.75
343.69	211.30
344.07	211.77
344.46	212.20
344.84	212.61
345.22	212.81
345.60	213.14
345.99	213.35
346.37	213.49
346.75	213.63
347.13	213.70
347.52	213.76
347.90	213.96
348.28	214.01
348.66	214.11
349.05	214.06
349.43	214.14
349.81	214.19
350.19	214.25
350.57	214.33
350.96	214.44
351.34	214.55
351.72	214.63
352.10	214.77
352.48	214.84
352.87	214.88
353.25	214.94
353.63	214.95
354.01	215.02
354.39	215.12
354.77	215.19
355.15	215.31
355.54	215.35
355.92	215.34
356.30	215.41
356.68	215.61
357.06	215.74
357.44	215.77
357.82	215.83
358.20	215.92
358.58	215.94
358.97	216.00
359.35	216.12
359.73	216.26
360.11	216.29
360.49	216.37
360.87	216.47
361.25	216.53
361.63	216.65
362.01	216.74
362.39	216.75
362.77	216.81
363.15	216.84
363.53	216.89
363.91	216.93
364.29	216.95
364.67	216.79
365.05	216.76
365.43	216.83
365.81	216.91
366.19	217.00
366.57	217.14
366.95	217.12
367.33	217.10
367.71	217.10
368.09	217.17
368.47	217.15
368.85	217.12
369.23	217.16
369.61	217.10
369.99	217.15
370.37	217.14
370.75	217.23
371.13	217.18
371.51	217.14
371.89	217.15
372.27	217.14
372.65	217.10
373.03	217.06
373.41	216.97
373.78	216.91
374.16	216.77
374.54	216.66
374.92	216.60
375.30	216.52
375.68	216.43
376.06	216.36
376.44	216.33
376.82	216.29
377.19	216.23
377.57	216.18
377.95	216.05
378.33	215.99
378.71	215.81
379.09	215.79
379.47	215.76
379.84	215.67
380.22	215.59
380.60	215.49
380.98	215.49
381.36	215.48
381.73	215.39
382.11	215.42
382.49	215.37
382.87	215.33
383.25	215.31
383.62	215.50
384.00	215.42
384.38	215.36
384.76	215.37
385.13	215.43
385.51	215.39
385.89	215.34
386.27	215.32
386.64	215.34
387.02	215.30
387.40	215.24
387.78	215.22
388.15	215.22
388.53	215.22
388.91	215.20
389.29	215.14
389.66	215.17
390.04	215.12
390.42	215.14
390.79	215.13
391.17	215.12
391.55	214.89
391.92	214.89
392.30	214.93
392.68	214.86
393.05	214.81
393.43	214.81
393.81	214.82
394.18	214.79
394.56	214.77
394.94	214.83
395.31	214.80
395.69	214.89
396.06	214.92
396.44	214.99
396.82	214.98
397.19	215.10
397.57	215.09
397.95	215.14
398.32	215.11
398.70	215.16
399.07	215.22
399.45	215.25
399.82	215.32
400.20	215.33
400.58	215.40
400.95	215.36
401.33	215.47
401.70	215.72
402.08	215.82
402.45	215.88
402.83	215.99
403.20	216.14
403.58	216.20
403.95	216.36
404.33	216.51
404.71	216.65
405.08	216.91
405.46	217.08
405.83	217.27
406.21	217.45
406.58	217.70
406.96	217.93
407.33	218.21
407.70	218.50
408.08	218.98
408.45	219.35
408.83	219.79
409.20	220.13
409.58	220.37
409.95	220.84
410.33	221.36
410.70	221.78
411.08	222.29
411.45	222.83
411.82	223.40
412.20	224.07
412.57	224.91
412.95	225.47
413.32	226.33
413.69	227.14
414.07	228.06
414.44	229.01
414.82	230.04
415.19	231.20
415.56	232.39
415.94	233.57
416.31	234.98
416.68	236.40
417.06	238.01
417.43	239.56
417.81	241.31
418.18	243.07
418.55	245.03
418.93	247.12
419.30	249.29
419.67	251.54
420.04	253.83
420.42	256.18
420.79	259.06
421.16	261.86
421.54	264.80
421.91	267.80
422.28	270.95
422.66	274.30
423.03	277.60
423.40	280.98
423.77	284.59
424.15	288.27
424.52	292.09
424.89	296.29
425.26	300.39
425.64	304.26
426.01	308.59
426.38	313.12
426.75	317.67
427.13	322.39
427.50	327.39
427.87	332.60
428.24	337.87
428.61	342.85
428.99	348.40
429.36	354.48
429.73	360.38
430.10	366.28
430.47	372.32
430.85	378.63
431.22	385.38
431.59	392.54
431.96	399.38
432.33	406.95
432.70	414.25
433.08	422.82
433.45	430.97
433.82	439.03
434.19	447.91
434.56	456.66
434.93	465.04
435.30	473.32
435.68	482.52
436.05	491.50
436.42	500.48
436.79	508.69
437.16	517.46
437.53	526.76
437.90	535.95
438.27	545.00
438.64	554.25
439.01	562.77
439.38	570.35
439.75	577.71
440.13	586.13
440.50	594.04
440.87	600.51
441.24	607.21
441.61	614.63
441.98	620.05
442.35	626.45
442.72	632.82
443.09	638.98
443.46	642.71
443.83	645.31
444.20	647.52
444.57	650.72
444.94	652.25
445.31	653.80
445.68	655.24
446.05	655.83
446.42	655.11
446.79	654.24
447.16	653.19
447.53	652.44
447.90	649.15
448.27	646.00
448.64	641.37
449.01	638.00
449.37	632.09
449.74	626.48
450.11	619.46
450.48	612.09
450.85	604.59
451.22	598.12
451.59	591.96
451.96	586.08
452.33	578.09
452.70	570.91
453.07	562.41
453.43	553.74
453.80	545.44
454.17	537.41
454.54	529.71
454.91	521.51
455.28	513.47
455.65	506.04
456.02	498.38
456.38	491.98
456.75	484.03
457.12	477.36
457.49	470.75
457.86	464.56
458.23	459.09
458.59	453.05
458.96	446.97
459.33	441.58
459.70	436.19
460.07	431.92
460.43	426.96
460.80	422.30
461.17	418.24
461.54	414.01
461.91	409.93
462.27	405.85
462.64	402.38
463.01	398.58
463.38	394.84
463.74	391.15
464.11	387.86
464.48	385.03
464.85	381.92
465.21	379.44
465.58	376.82
465.95	373.65
466.32	371.06
466.68	368.45
467.05	365.89
467.42	363.35
467.78	360.67
468.15	358.11
468.52	356.22
468.88	353.74
469.25	351.49
469.62	349.66
469.98	347.64
470.35	345.82
470.72	344.09
471.08	342.23
471.45	340.72
471.82	339.13
472.18	337.47
472.55	336.26
472.92	334.86
473.28	333.63
473.65	332.46
474.02	331.30
474.38	330.40
474.75	329.64
475.11	328.80
475.48	328.19
475.85	327.71
476.21	327.14
476.58	326.76
476.94	326.54
477.31	326.24
477.67	326.01
478.04	325.84
478.41	325.83
478.77	325.98
479.14	325.86
479.50	326.00
479.87	326.28
480.23	326.54
480.60	326.74
480.96	326.98
481.33	327.59
481.69	328.19
482.06	328.74
482.42	329.17
482.79	329.72
483.15	330.46
483.52	331.40
483.88	332.25
484.25	333.17
484.61	334.20
484.98	335.22
485.34	336.55
485.71	337.96
486.07	339.39
486.44	340.74
486.80	342.35
487.17	344.04
487.53	345.85
487.90	347.75
488.26	349.85
488.62	352.05
488.99	354.10
489.35	356.18
489.72	358.54
490.08	361.07
490.44	363.65
490.81	366.38
491.17	369.04
491.54	372.05
491.90	375.12
492.26	378.36
492.63	381.79
492.99	385.26
493.36	388.92
493.72	392.79
494.08	396.78
494.45	401.02
494.81	405.37
495.17	409.81
495.54	414.58
495.90	419.34
496.26	424.19
496.63	429.35
496.99	434.78
497.35	440.28
497.72	446.02
498.08	451.93
498.44	457.97
498.80	464.43
499.17	470.96
499.53	477.59
499.89	484.48
500.26	491.39
500.62	498.45
500.98	505.80
501.34	513.13
501.71	520.93
502.07	528.68
502.43	536.69
502.79	544.81
503.16	553.08
503.52	561.67
503.88	570.37
504.24	579.39
504.60	588.50
504.97	597.77
505.33	607.08
505.69	616.89
506.05	626.80
506.41	636.65
506.78	646.67
507.14	656.89
507.50	667.29
507.86	677.99
508.22	688.73
508.59	699.30
508.95	710.31
509.31	721.42
509.67	732.85
510.03	744.19
510.39	755.88
510.75	767.65
511.12	779.48
511.48	791.56
511.84	803.61
512.20	815.80
512.56	828.37
512.92	841.15
513.28	853.80
513.64	866.50
514.00	879.29
514.37	892.20
514.73	905.30
515.09	918.33
515.45	931.30
515.81	944.36
516.17	957.81
516.53	971.11
516.89	984.24
517.25	997.42
517.61	1010.99
517.97	1024.36
518.33	1037.61
518.69	1051.14
519.05	1064.91
519.41	1078.73
519.77	1092.69
520.13	1105.95
520.49	1119.14
520.85	1132.53
521.21	1145.79
521.57	1159.50
521.93	1172.59
522.29	1186.34
522.65	1199.92
523.01	1213.50
523.37	1226.71
523.73	1240.00
524.09	1253.26
524.45	1266.69
524.81	1280.21
525.17	1293.61
525.53	1306.82
525.89	1320.07
526.25	1333.36
526.61	1346.20
526.97	1359.31
527.33	1372.34
527.68	1385.86
528.04	1399.35
528.40	1412.47
528.76	1425.86
529.12	1438.77
529.48	1452.20
529.84	1464.48
530.20	1477.18
530.56	1489.70
530.91	1502.92
531.27	1515.88
531.63	1528.55
531.99	1541.44
532.35	1553.75
532.71	1566.15
533.07	1579.10
533.42	1591.51
533.78	1603.57
534.14	1615.65
534.50	1626.92
534.86	1638.47
535.21	1649.54
535.57	1661.14
535.93	1672.50
536.29	1683.68
536.65	1695.28
537.00	1706.19
537.36	1717.67
537.72	1728.77
538.08	1740.41
538.44	1751.49
538.79	1762.56
539.15	1773.67
539.51	1784.65
539.87	1795.95
540.22	1806.81
540.58	1817.81
540.94	1828.64
541.29	1839.02
541.65	1848.89
542.01	1859.35
542.37	1869.50
542.72	1879.63
543.08	1889.48
543.44	1899.93
543.79	1909.27
544.15	1918.59
544.51	1928.80
544.87	1938.73
545.22	1948.15
545.58	1957.00
545.94	1965.99
546.29	1974.65
546.65	1983.08
547.01	1991.23
547.36	1998.90
547.72	2006.82
548.07	2014.46
548.43	2022.25
548.79	2030.20
549.14	2038.30
549.50	2046.95
549.86	2054.98
550.21	2062.51
550.57	2070.25
550.92	2077.13
551.28	2084.70
551.64	2092.03
551.99	2099.46
552.35	2106.60
552.70	2113.45
553.06	2120.15
553.41	2126.44
553.77	2132.95
554.13	2139.44
554.48	2146.42
554.84	2153.68
555.19	2160.12
555.55	2166.57
555.90	2172.77
556.26	2179.50
556.61	2185.80
556.97	2190.65
557.32	2196.23
557.68	2202.53
558.03	2208.31
558.39	2213.69
558.74	2219.70
559.10	2225.27
559.45	2230.74
559.81	2236.27
560.16	2241.77
560.52	2247.56
560.87	2253.86
561.23	2259.53
561.58	2266.00
561.94	2271.20
562.29	2275.76
562.64	2281.63
563.00	2287.28
563.35	2293.00
563.71	2298.62
564.06	2304.06
564.42	2309.86
564.77	2314.92
565.12	2320.11
565.48	2324.96
565.83	2330.31
566.19	2335.39
566.54	2340.54
566.89	2344.96
567.25	2349.54
567.60	2355.11
567.96	2360.18
568.31	2364.62
568.66	2368.91
569.02	2372.68
569.37	2376.28
569.72	2380.67
570.08	2384.00
570.43	2386.93
570.78	2389.88
571.14	2392.24
571.49	2395.38
571.84	2398.87
572.20	2401.57
572.55	2404.49
572.90	2406.78
573.26	2409.44
573.61	2411.90
573.96	2414.06
574.31	2415.91
574.67	2417.63
575.02	2418.18
575.37	2419.50
575.72	2420.04
576.08	2421.37
576.43	2421.39
576.78	2421.63
577.13	2423.00
577.49	2424.07
577.84	2424.72
578.19	2425.81
578.54	2426.33
578.90	2426.63
579.25	2426.09
579.60	2425.88
579.95	2424.91
580.30	2424.72
580.66	2423.81
581.01	2421.96
581.36	2419.27
581.71	2417.87
582.06	2416.39
582.42	2415.32
582.77	2412.88
583.12	2411.04
583.47	2409.35
583.82	2408.58
584.17	2407.13
584.53	2404.92
584.88	2402.65
585.23	2400.75
585.58	2398.21
585.93	2396.01
586.28	2393.75
586.63	2391.20
586.98	2388.88
587.34	2386.70
587.69	2384.03
588.04	2381.73
588.39	2380.30
588.74	2377.78
589.09	2374.68
589.44	2371.44
589.79	2368.84
590.14	2366.65
590.49	2363.52
590.84	2359.69
591.19	2356.24
591.54	2352.89
591.89	2348.55
592.25	2345.17
592.60	2340.80
592.95	2336.55
593.30	2332.20
593.65	2327.77
594.00	2323.43
594.35	2320.19
594.70	2315.34
595.05	2310.82
595.40	2305.33
595.75	2299.28
596.10	2295.59
596.45	2290.67
596.80	2285.90
597.15	2280.67
597.50	2274.69
597.85	2269.88
598.19	2264.62
598.54	2258.85
598.89	2253.65
599.24	2248.98
599.59	2242.85
599.94	2236.88
600.29	2230.88
600.64	2225.03
600.99	2218.13
601.34	2212.36
601.69	2205.32
602.04	2198.85
602.39	2192.20
602.74	2186.21
603.08	2180.79
603.43	2174.30
603.78	2167.52
604.13	2160.51
604.48	2153.12
604.83	2147.06
605.18	2140.72
605.53	2133.68
605.87	2126.65
606.22	2119.69
606.57	2111.95
606.92	2103.89
607.27	2097.07
607.62	2090.43
607.96	2083.44
608.31	2077.01
608.66	2069.32
609.01	2061.84
609.36	2054.85
609.70	2047.13
610.05	2039.21
610.40	2030.87
610.75	2022.44
611.10	2014.69
611.44	2005.74
611.79	1997.03
612.14	1987.05
612.49	1976.48
612.83	1967.24
613.18	1958.05
613.53	1948.83
613.88	1939.16
614.22	1930.71
614.57	1920.89
614.92	1910.33
615.27	1899.99
615.61	1889.74
615.96	1880.16
616.31	1870.57
616.65	1861.21
617.00	1851.41
617.35	1841.90
617.70	1832.14
618.04	1822.26
618.39	1812.15
618.74	1802.69
619.08	1793.13
619.43	1784.50
619.78	1776.34
620.12	1767.72
620.47	1758.26
620.82	1748.07
621.16	1738.41
621.51	1728.54
621.85	1718.85
622.20	1708.72
622.55	1698.36
622.89	1688.65
623.24	1678.92
623.59	1669.10
623.93	1659.04
624.28	1649.45
624.62	1639.48
624.97	1629.40
625.32	1619.63
625.66	1610.92
626.01	1602.22
626.35	1593.02
626.70	1583.14
627.04	1573.18
627.39	1563.16
627.73	1554.11
628.08	1545.26
628.43	1535.75
628.77	1526.75
629.12	1518.01
629.46	1510.27
629.81	1502.06
630.15	1492.81
630.50	1483.25
630.84	1473.14
631.19	1463.45
631.53	1454.24
631.88	1444.21
632.22	1434.39
632.57	1425.11
632.91	1415.03
633.26	1405.33
633.60	1395.90
633.95	1386.73
634.29	1377.31
634.64	1368.14
634.98	1358.10
635.32	1348.90
635.67	1340.58
636.01	1331.38
636.36	1321.77
636.70	1312.30
637.05	1302.92
637.39	1294.11
637.73	1285.58
638.08	1278.01
638.42	1269.91
638.77	1261.29
639.11	1253.10
639.45	1245.39
639.80	1237.09
640.14	1228.62
640.49	1219.86
640.83	1211.15
641.17	1203.01
641.52	1194.99
641.86	1186.55
642.20	1178.92
642.55	1170.39
642.89	1161.58
643.23	1153.05
643.58	1145.05
643.92	1136.10
644.26	1127.62
644.61	1119.15
644.95	1110.49
645.29	1101.40
645.64	1092.39
645.98	1083.95
646.32	1076.21
646.66	1067.79
647.01	1059.57
647.35	1051.50
647.69	1043.30
648.04	1035.15
648.38	1026.44
648.72	1017.80
649.06	1009.44
649.41	1001.25
649.75	993.41
650.09	985.81
650.43	977.87
650.78	969.52
651.12	961.98
651.46	954.60
651.80	947.42
652.14	940.11
652.49	932.65
652.83	925.38
653.17	917.84
653.51	910.24
653.85	903.00
654.20	895.74
654.54	888.41
654.88	881.19
655.22	873.95
655.56	867.07
655.90	860.26
656.25	853.62
656.59	846.79
656.93	839.80
657.27	832.65
657.61	825.67
657.95	819.69
658.29	813.74
658.64	807.69
658.98	801.31
659.32	794.81
659.66	788.66
660.00	782.36
660.34	776.22
660.68	770.10
661.02	763.81
661.36	757.89
661.70	752.03
662.05	746.47
662.39	741.03
662.73	735.54
663.07	730.22
663.41	724.60
663.75	718.91
664.09	713.26
664.43	707.81
664.77	702.52
665.11	696.65
665.45	690.71
665.79	684.86
666.13	679.23
666.47	673.86
666.81	668.38
667.15	662.99
667.49	657.84
667.83	652.61
668.17	647.43
668.51	642.33
668.85	637.41
669.19	632.47
669.53	627.53
669.87	622.42
670.21	617.67
670.55	613.02
670.89	608.59
671.23	604.27
671.57	599.88
671.91	595.56
672.25	591.42
672.58	587.38
672.92	583.34
673.26	579.40
673.60	575.37
673.94	571.60
674.28	567.97
674.62	564.24
674.96	560.46
675.30	556.89
675.64	553.21
675.97	549.63
676.31	546.01
676.65	542.33
676.99	538.99
677.33	535.12
677.67	531.48
678.01	527.56
678.34	523.93
678.68	520.34
679.02	516.72
679.36	512.98
679.70	509.31
680.04	505.70
680.37	502.25
680.71	498.94
681.05	495.69
681.39	492.38
681.73	489.18
682.06	486.14
682.40	483.11
682.74	479.94
683.08	476.69
683.42	473.49
683.75	470.44
684.09	467.35
684.43	464.54
684.77	461.59
685.10	458.76
685.44	455.84
685.78	452.91
686.12	450.14
686.45	447.46
686.79	444.75
687.13	442.20
687.46	439.50
687.80	436.80
688.14	433.95
688.48	431.27
688.81	428.56
689.15	426.04
689.49	423.35
689.82	420.73
690.16	418.11
690.50	415.62
690.83	413.13
691.17	410.58
691.51	408.08
691.84	405.75
692.18	403.49
692.52	401.24
692.85	399.11
693.19	396.96
693.52	394.77
693.86	392.52
694.20	390.30
694.53	388.13
694.87	385.99
695.21	383.81
695.54	381.69
695.88	379.53
696.21	377.22
696.55	375.03
696.88	372.96
697.22	370.95
697.56	369.04
697.89	367.14
698.23	365.35
698.56	363.55
698.90	361.73
699.23	359.83
699.57	357.93
699.90	356.02
700.24	354.13
700.58	352.35
700.91	350.66
701.25	349.09
701.58	347.48
701.92	345.82
702.25	344.17
702.59	342.49
702.92	340.94
703.26	339.38
703.59	337.95
703.93	336.68
704.26	335.22
704.60	333.70
704.93	332.14
705.26	330.60
705.60	329.06
705.93	327.53
706.27	326.18
706.60	324.87
706.94	323.66
707.27	322.27
707.61	320.88
707.94	319.52
708.27	317.99
708.61	316.52
708.94	315.12
709.28	313.86
709.61	312.56
709.94	311.29
710.28	310.06
710.61	308.85
710.95	307.44
711.28	306.39
711.61	305.16
711.95	304.07
712.28	302.83
712.61	301.68
712.95	300.62
713.28	299.55
713.61	298.37
713.95	297.13
714.28	296.11
714.61	295.07
714.95	294.03
715.28	293.03
715.61	292.02
715.95	291.05
716.28	290.06
716.61	289.16
716.95	288.13
717.28	287.16
717.61	286.15
717.94	285.21
718.28	284.12
718.61	283.24
718.94	282.29
719.27	281.42
719.61	280.59
719.94	279.69
720.27	278.72
720.60	277.86
720.94	277.06
721.27	276.28
721.60	275.58
721.93	274.86
722.27	274.17
722.60	273.49
722.93	272.75
723.26	272.03
723.59	271.31
723.93	270.68
724.26	270.02
724.59	269.35
724.92	268.77
725.25	268.23
725.59	267.64
725.92	267.11
726.25	266.55
726.58	265.94
726.91	265.36
727.24	264.84
727.57	264.27
727.91	263.66
728.24	263.07
728.57	262.44
728.90	261.86
729.23	261.22
729.56	260.74
729.89	260.20
730.22	259.65
730.55	259.09
730.89	258.56
731.22	258.05
731.55	257.55
731.88	257.02
732.21	256.45
732.54	255.89
732.87	255.36
733.20	254.86
733.53	254.38
733.86	253.93
734.19	253.39
734.52	252.95
734.85	252.67
735.18	252.20
735.51	251.84
735.84	251.41
736.17	251.05
736.50	250.51
736.83	250.35
737.16	249.98
737.49	249.61
737.82	249.15
738.15	248.76
738.48	248.34
738.81	247.94
739.14	247.52
739.47	247.14
739.80	246.76
740.13	246.41
740.46	245.99
740.79	245.56
741.12	245.20
741.45	244.81
741.78	244.35
742.11	244.06
742.44	243.67
742.77	243.39
743.10	243.03
743.43	242.73
743.75	242.12
744.08	242.01
744.41	241.64
744.74	241.31
745.07	240.91
745.40	240.62
745.73	240.35
746.06	240.02
746.39	239.73
746.71	239.41
747.04	239.04
747.37	238.74
747.70	238.50
748.03	238.19
748.36	237.94
748.68	237.63
749.01	237.28
749.34	237.02
749.67	236.68
750.00	236.39
750.33	236.21
750.65	235.98
750.98	235.45
751.31	235.21
751.64	235.03
751.97	234.92
752.29	234.64
752.62	234.30
752.95	234.05
753.28	233.78
753.60	233.52
753.93	233.35
754.26	233.11
754.59	232.80
754.91	232.60
755.24	232.36
755.57	232.11
755.90	231.88
756.22	231.60
756.55	231.39
756.88	231.13
757.20	230.79
757.53	230.53
757.86	230.33
758.19	230.11
758.51	229.83
758.84	229.52
759.17	229.32
759.49	229.15
759.82	229.06
760.15	228.89
760.47	228.71
760.80	228.44
761.13	228.31
761.45	228.12
761.78	227.93
762.11	227.74
762.43	227.57
762.76	227.41
763.08	227.27
763.41	227.10
763.74	226.97
764.06	226.79
764.39	226.65
764.71	226.47
765.04	226.31
765.37	226.18
765.69	226.03
766.02	225.89
766.34	225.71
766.67	225.48
767.00	225.37
767.32	225.35
767.65	225.39
767.97	225.24
768.30	225.12
768.62	224.98
768.95	224.84
769.27	224.71
769.60	224.60
769.92	224.45
770.25	224.29
770.57	224.12
770.90	224.00
771.22	223.86
771.55	223.78
771.87	223.68
772.20	223.54
772.52	223.59
772.85	223.71
773.17	223.62
773.50	223.49
773.82	223.36
774.15	223.17
774.47	222.95
774.80	222.80
775.12	222.70
775.45	222.62
775.77	222.53
776.09	222.43
776.42	222.34
776.74	222.31
777.07	222.21
777.39	222.15
777.72	222.07
778.04	222.02
778.36	221.92
778.69	221.83
779.01	221.79
779.33	221.55
779.66	221.28
779.98	221.20
780.31	221.13
780.63	221.13
780.95	221.05
781.28	220.96
781.60	220.90
781.92	220.83
782.25	220.73
782.57	220.67
782.89	220.62
783.22	220.53
783.54	220.43
783.86	220.36
784.19	220.28
784.51	220.29
784.83	220.18
785.16	220.11
785.48	220.08
785.80	220.01
786.12	219.94
