SpectraSuite Data File
++++++++++++++++++++++++++++++++++++
Date: Tue Jan 29 15:56:04 EST 2013
User: group
Dark Spectrum Present: No
Reference Spectrum Present: No
Number of Sampled Component Spectra: 1
Spectrometers: USB2E7196
Integration Time (usec): 65000 (USB2E7196)
Spectra Averaged: 100 (USB2E7196)
Boxcar Smoothing: 10 (USB2E7196)
Correct for Electrical Dark: No (USB2E7196)
Strobe/Lamp Enabled: No (USB2E7196)
Correct for Detector Non-linearity: No (USB2E7196)
Correct for Stray Light: No (USB2E7196)
Number of Pixels in Processed Spectrum: 2048
>>>>>Begin Processed Spectral Data<<<<<
339.09	0.00
339.48	202.54
339.86	203.59
340.24	205.61
340.63	206.91
341.01	211.63
341.39	210.03
341.78	211.45
342.16	212.91
342.54	213.09
342.93	201.91
343.31	212.11
343.69	212.66
344.07	213.18
344.46	213.64
344.84	214.02
345.22	214.21
345.60	214.47
345.99	214.68
346.37	214.79
346.75	214.88
347.13	214.97
347.52	215.06
347.90	215.19
348.28	215.25
348.66	215.37
349.05	215.32
349.43	215.37
349.81	215.43
350.19	215.48
350.57	215.57
350.96	215.66
351.34	215.77
351.72	215.88
352.10	215.97
352.48	216.04
352.87	216.12
353.25	216.17
353.63	216.21
354.01	216.23
354.39	216.30
354.77	216.39
355.15	216.53
355.54	216.57
355.92	216.58
356.30	216.66
356.68	216.84
357.06	216.96
357.44	217.02
357.82	217.11
358.20	217.19
358.58	217.24
358.97	217.29
359.35	217.39
359.73	217.52
360.11	217.57
360.49	217.63
360.87	217.68
361.25	217.74
361.63	217.87
362.01	217.96
362.39	217.99
362.77	218.04
363.15	218.05
363.53	218.12
363.91	218.16
364.29	218.20
364.67	218.03
365.05	218.02
365.43	218.07
365.81	218.10
366.19	218.23
366.57	218.32
366.95	218.34
367.33	218.28
367.71	218.25
368.09	218.31
368.47	218.29
368.85	218.24
369.23	218.31
369.61	218.23
369.99	218.30
370.37	218.32
370.75	218.43
371.13	218.38
371.51	218.34
371.89	218.33
372.27	218.29
372.65	218.31
373.03	218.30
373.41	218.23
373.78	218.20
374.16	218.02
374.54	217.96
374.92	217.91
375.30	217.88
375.68	217.81
376.06	217.74
376.44	217.70
376.82	217.72
377.19	217.66
377.57	217.63
377.95	217.50
378.33	217.43
378.71	217.28
379.09	217.24
379.47	217.23
379.84	217.14
380.22	217.07
380.60	216.96
380.98	216.92
381.36	216.88
381.73	216.79
382.11	216.83
382.49	216.75
382.87	216.68
383.25	216.64
383.62	216.83
384.00	216.77
384.38	216.76
384.76	216.75
385.13	216.78
385.51	216.72
385.89	216.67
386.27	216.67
386.64	216.65
387.02	216.59
387.40	216.53
387.78	216.56
388.15	216.56
388.53	216.54
388.91	216.49
389.29	216.45
389.66	216.51
390.04	216.46
390.42	216.46
390.79	216.48
391.17	216.46
391.55	216.21
391.92	216.21
392.30	216.19
392.68	216.11
393.05	216.07
393.43	216.08
393.81	216.09
394.18	216.04
394.56	216.04
394.94	216.09
395.31	216.10
395.69	216.15
396.06	216.16
396.44	216.20
396.82	216.21
397.19	216.34
397.57	216.30
397.95	216.34
398.32	216.33
398.70	216.38
399.07	216.43
399.45	216.46
399.82	216.51
400.20	216.55
400.58	216.65
400.95	216.63
401.33	216.75
401.70	216.98
402.08	217.08
402.45	217.17
402.83	217.30
403.20	217.37
403.58	217.43
403.95	217.58
404.33	217.74
404.71	217.91
405.08	218.15
405.46	218.32
405.83	218.51
406.21	218.72
406.58	218.91
406.96	219.16
407.33	219.47
407.70	219.74
408.08	220.22
408.45	220.55
408.83	220.93
409.20	221.25
409.58	221.49
409.95	221.95
410.33	222.41
410.70	222.85
411.08	223.40
411.45	223.97
411.82	224.56
412.20	225.18
412.57	226.01
412.95	226.54
413.32	227.38
413.69	228.19
414.07	229.06
414.44	230.02
414.82	230.99
415.19	232.10
415.56	233.26
415.94	234.38
416.31	235.70
416.68	237.03
417.06	238.57
417.43	240.05
417.81	241.73
418.18	243.44
418.55	245.28
418.93	247.25
419.30	249.28
419.67	251.34
420.04	253.57
420.42	255.83
420.79	258.53
421.16	261.19
421.54	263.94
421.91	266.85
422.28	269.84
422.66	273.00
423.03	276.14
423.40	279.37
423.77	282.83
424.15	286.35
424.52	290.01
424.89	294.01
425.26	297.95
425.64	301.68
426.01	305.77
426.38	310.09
426.75	314.45
427.13	318.96
427.50	323.77
427.87	328.73
428.24	333.74
428.61	338.51
428.99	343.84
429.36	349.62
429.73	355.23
430.10	360.86
430.47	366.67
430.85	372.70
431.22	379.07
431.59	385.88
431.96	392.40
432.33	399.67
432.70	406.63
433.08	414.81
433.45	422.53
433.82	430.25
434.19	438.78
434.56	447.11
434.93	455.13
435.30	463.01
435.68	471.83
436.05	480.41
436.42	488.99
436.79	496.77
437.16	505.17
437.53	514.13
437.90	522.83
438.27	531.42
438.64	540.27
439.01	548.54
439.38	555.75
439.75	562.85
440.13	570.92
440.50	578.48
440.87	584.57
441.24	590.87
441.61	597.85
441.98	602.95
442.35	609.02
442.72	615.02
443.09	620.86
443.46	624.33
443.83	626.70
444.20	628.77
444.57	631.75
444.94	633.09
445.31	634.35
445.68	635.70
446.05	636.31
446.42	635.52
446.79	634.50
447.16	633.51
447.53	632.72
447.90	629.44
448.27	626.34
448.64	621.94
449.01	618.70
449.37	613.12
449.74	607.66
450.11	600.96
450.48	593.86
450.85	586.75
451.22	580.57
451.59	574.70
451.96	569.10
452.33	561.55
452.70	554.80
453.07	546.73
453.43	538.54
453.80	530.59
454.17	522.95
454.54	515.78
454.91	507.92
455.28	500.32
455.65	493.30
456.02	486.15
456.38	480.13
456.75	472.73
457.12	466.40
457.49	460.24
457.86	454.42
458.23	449.34
458.59	443.66
458.96	437.94
459.33	432.92
459.70	427.77
460.07	423.76
460.43	419.08
460.80	414.72
461.17	410.89
461.54	406.91
461.91	403.06
462.27	399.07
462.64	395.82
463.01	392.18
463.38	388.61
463.74	385.03
464.11	381.91
464.48	379.18
464.85	376.22
465.21	373.86
465.58	371.32
465.95	368.29
466.32	365.77
466.68	363.28
467.05	360.82
467.42	358.41
467.78	355.80
468.15	353.40
468.52	351.57
468.88	349.21
469.25	347.08
469.62	345.41
469.98	343.59
470.35	341.89
470.72	340.30
471.08	338.64
471.45	337.23
471.82	335.79
472.18	334.22
472.55	333.10
472.92	331.79
473.28	330.68
473.65	329.62
474.02	328.63
474.38	327.83
474.75	327.13
475.11	326.35
475.48	325.86
475.85	325.42
476.21	324.97
476.58	324.65
476.94	324.46
477.31	324.18
477.67	323.98
478.04	323.86
478.41	323.84
478.77	323.99
479.14	323.96
479.50	324.09
479.87	324.41
480.23	324.72
480.60	325.03
480.96	325.30
481.33	325.93
481.69	326.48
482.06	326.99
482.42	327.50
482.79	328.14
483.15	328.93
483.52	329.90
483.88	330.77
484.25	331.69
484.61	332.69
484.98	333.73
485.34	335.01
485.71	336.38
486.07	337.80
486.44	339.13
486.80	340.72
487.17	342.35
487.53	344.18
487.90	346.07
488.26	348.10
488.62	350.28
488.99	352.33
489.35	354.49
489.72	356.85
490.08	359.34
490.44	361.94
490.81	364.63
491.17	367.36
491.54	370.39
491.90	373.44
492.26	376.67
492.63	380.09
492.99	383.62
493.36	387.26
493.72	391.14
494.08	395.12
494.45	399.37
494.81	403.78
495.17	408.21
495.54	412.91
495.90	417.68
496.26	422.55
496.63	427.68
496.99	433.01
497.35	438.58
497.72	444.35
498.08	450.18
498.44	456.27
498.80	462.65
499.17	469.08
499.53	475.70
499.89	482.57
500.26	489.43
500.62	496.48
500.98	503.80
501.34	511.23
501.71	519.02
502.07	526.81
502.43	534.76
502.79	542.80
503.16	551.09
503.52	559.63
503.88	568.35
504.24	577.32
504.60	586.36
504.97	595.55
505.33	604.79
505.69	614.63
506.05	624.38
506.41	634.13
506.78	644.21
507.14	654.53
507.50	664.94
507.86	675.66
508.22	686.38
508.59	697.00
508.95	708.03
509.31	719.19
509.67	730.57
510.03	741.97
510.39	753.73
510.75	765.65
511.12	777.54
511.48	789.55
511.84	801.64
512.20	813.89
512.56	826.48
512.92	839.17
513.28	851.71
513.64	864.42
514.00	877.15
514.37	889.97
514.73	902.91
515.09	915.69
515.45	928.43
515.81	941.26
516.17	954.55
516.53	967.61
516.89	980.54
517.25	993.45
517.61	1006.71
517.97	1019.87
518.33	1032.67
518.69	1046.07
519.05	1059.53
519.41	1072.95
519.77	1086.64
520.13	1099.78
520.49	1112.72
520.85	1125.86
521.21	1138.98
521.57	1152.48
521.93	1165.37
522.29	1178.79
522.65	1192.22
523.01	1205.62
523.37	1218.56
523.73	1231.52
524.09	1244.29
524.45	1257.42
524.81	1270.70
525.17	1283.84
525.53	1296.75
525.89	1309.79
526.25	1322.50
526.61	1335.07
526.97	1347.91
527.33	1360.44
527.68	1373.49
528.04	1386.66
528.40	1399.44
528.76	1412.37
529.12	1424.86
529.48	1437.76
529.84	1449.73
530.20	1462.17
530.56	1474.54
530.91	1487.60
531.27	1500.10
531.63	1512.69
531.99	1525.21
532.35	1537.01
532.71	1549.04
533.07	1561.48
533.42	1573.41
533.78	1585.25
534.14	1596.96
534.50	1607.84
534.86	1619.03
535.21	1629.50
535.57	1640.58
535.93	1651.52
536.29	1662.26
536.65	1673.20
537.00	1683.67
537.36	1694.61
537.72	1705.24
538.08	1716.08
538.44	1726.54
538.79	1737.29
539.15	1747.69
539.51	1757.95
539.87	1768.96
540.22	1779.32
540.58	1789.84
540.94	1800.20
541.29	1810.00
541.65	1819.40
542.01	1829.56
542.37	1839.33
542.72	1849.12
543.08	1858.56
543.44	1868.69
543.79	1877.76
544.15	1887.00
544.51	1896.76
544.87	1906.20
545.22	1915.03
545.58	1923.49
545.94	1932.01
546.29	1939.95
546.65	1947.91
547.01	1955.67
547.36	1962.96
547.72	1970.43
548.07	1977.75
548.43	1985.19
548.79	1992.72
549.14	2000.60
549.50	2008.68
549.86	2016.21
550.21	2023.38
550.57	2030.79
550.92	2037.23
551.28	2044.36
551.64	2051.34
551.99	2058.63
552.35	2065.59
552.70	2072.22
553.06	2078.81
553.41	2084.79
553.77	2091.25
554.13	2097.61
554.48	2104.54
554.84	2111.42
555.19	2117.67
555.55	2123.90
555.90	2130.07
556.26	2136.73
556.61	2142.35
556.97	2147.07
557.32	2152.81
557.68	2159.00
558.03	2164.48
558.39	2169.62
558.74	2175.53
559.10	2180.98
559.45	2186.35
559.81	2191.88
560.16	2197.44
560.52	2203.13
560.87	2209.67
561.23	2215.77
561.58	2222.31
561.94	2227.55
562.29	2232.41
562.64	2238.75
563.00	2244.40
563.35	2250.02
563.71	2255.78
564.06	2261.58
564.42	2267.52
564.77	2272.66
565.12	2277.88
565.48	2283.28
565.83	2288.98
566.19	2294.49
566.54	2299.98
566.89	2304.65
567.25	2309.28
567.60	2314.96
567.96	2320.30
568.31	2324.84
568.66	2329.02
569.02	2332.97
569.37	2336.82
569.72	2341.30
570.08	2344.83
570.43	2348.15
570.78	2351.26
571.14	2354.07
571.49	2357.34
571.84	2361.04
572.20	2363.94
572.55	2367.21
572.90	2369.50
573.26	2372.70
573.61	2375.18
573.96	2377.42
574.31	2379.60
574.67	2381.67
575.02	2382.52
575.37	2384.01
575.72	2384.90
576.08	2386.50
576.43	2386.87
576.78	2387.64
577.13	2389.43
577.49	2390.63
577.84	2391.98
578.19	2393.74
578.54	2394.53
578.90	2395.72
579.25	2395.98
579.60	2396.23
579.95	2395.71
580.30	2396.24
580.66	2395.66
581.01	2394.46
581.36	2392.49
581.71	2391.48
582.06	2390.81
582.42	2390.38
582.77	2388.57
583.12	2387.44
583.47	2386.48
583.82	2386.26
584.17	2385.31
584.53	2383.46
584.88	2381.71
585.23	2380.09
585.58	2378.07
585.93	2376.14
586.28	2374.22
586.63	2372.10
586.98	2370.27
587.34	2368.71
587.69	2366.63
588.04	2364.85
588.39	2363.56
588.74	2361.48
589.09	2359.06
589.44	2356.12
589.79	2353.81
590.14	2352.22
590.49	2349.56
590.84	2345.95
591.19	2343.11
591.54	2340.01
591.89	2336.20
592.25	2333.25
592.60	2329.22
592.95	2325.34
593.30	2321.51
593.65	2317.06
594.00	2312.70
594.35	2309.77
594.70	2305.11
595.05	2300.61
595.40	2295.28
595.75	2289.84
596.10	2286.15
596.45	2281.45
596.80	2276.98
597.15	2272.04
597.50	2266.09
597.85	2261.36
598.19	2256.31
598.54	2250.70
598.89	2245.71
599.24	2241.31
599.59	2235.25
599.94	2229.68
600.29	2223.77
600.64	2217.96
600.99	2211.56
601.34	2206.34
601.69	2199.52
602.04	2193.42
602.39	2187.00
602.74	2181.14
603.08	2175.64
603.43	2169.46
603.78	2162.71
604.13	2155.76
604.48	2148.62
604.83	2142.70
605.18	2136.20
605.53	2129.34
605.87	2122.35
606.22	2115.56
606.57	2107.77
606.92	2099.90
607.27	2093.01
607.62	2086.51
607.96	2079.58
608.31	2073.22
608.66	2065.58
609.01	2058.09
609.36	2051.12
609.70	2043.36
610.05	2035.72
610.40	2027.53
610.75	2019.20
611.10	2011.63
611.44	2002.98
611.79	1994.37
612.14	1984.45
612.49	1974.23
612.83	1965.13
613.18	1956.03
613.53	1946.85
613.88	1937.36
614.22	1928.95
614.57	1919.01
614.92	1908.62
615.27	1898.57
615.61	1888.58
615.96	1878.83
616.31	1869.44
616.65	1860.09
617.00	1850.43
617.35	1840.73
617.70	1831.05
618.04	1821.03
618.39	1810.80
618.74	1801.09
619.08	1791.49
619.43	1782.73
619.78	1774.55
620.12	1765.92
620.47	1756.12
620.82	1745.83
621.16	1736.06
621.51	1725.97
621.85	1716.27
622.20	1705.73
622.55	1695.10
622.89	1685.20
623.24	1675.54
623.59	1665.56
623.93	1655.35
624.28	1645.62
624.62	1635.48
624.97	1625.15
625.32	1615.44
625.66	1606.61
626.01	1597.69
626.35	1588.19
626.70	1578.09
627.04	1567.84
627.39	1557.69
627.73	1548.46
628.08	1539.47
628.43	1529.89
628.77	1520.70
629.12	1511.79
629.46	1503.97
629.81	1495.58
630.15	1485.93
630.50	1476.07
630.84	1465.56
631.19	1455.67
631.53	1446.22
631.88	1436.00
632.22	1426.02
632.57	1416.60
632.91	1406.35
633.26	1396.55
633.60	1387.02
633.95	1377.74
634.29	1368.34
634.64	1359.04
634.98	1349.15
635.32	1339.73
635.67	1331.15
636.01	1322.06
636.36	1312.15
636.70	1302.53
637.05	1293.16
637.39	1284.20
637.73	1275.60
638.08	1268.09
638.42	1259.83
638.77	1251.07
639.11	1242.85
639.45	1234.99
639.80	1226.30
640.14	1217.62
640.49	1208.75
640.83	1199.96
641.17	1191.83
641.52	1183.57
641.86	1174.84
642.20	1166.85
642.55	1158.25
642.89	1149.29
643.23	1140.46
643.58	1132.46
643.92	1123.39
644.26	1114.72
644.61	1106.32
644.95	1097.43
645.29	1088.13
645.64	1078.95
645.98	1070.45
646.32	1062.50
646.66	1053.94
647.01	1045.55
647.35	1037.40
647.69	1029.07
648.04	1020.63
648.38	1011.67
648.72	1002.85
649.06	994.36
649.41	986.22
649.75	978.25
650.09	970.42
650.43	962.36
650.78	954.07
651.12	946.54
651.46	939.19
651.80	931.91
652.14	924.64
652.49	917.11
652.83	909.80
653.17	902.16
653.51	894.55
653.85	887.34
654.20	880.26
654.54	872.73
654.88	865.46
655.22	858.31
655.56	851.42
655.90	844.72
656.25	838.24
656.59	831.41
656.93	824.44
657.27	817.37
657.61	810.51
657.95	804.50
658.29	798.60
658.64	792.52
658.98	786.10
659.32	779.60
659.66	773.45
660.00	767.19
660.34	761.24
660.68	755.18
661.02	748.99
661.36	743.09
661.70	737.40
662.05	731.83
662.39	726.46
662.73	721.15
663.07	715.82
663.41	710.20
663.75	704.55
664.09	699.02
664.43	693.71
664.77	688.47
665.11	682.69
665.45	676.82
665.79	670.99
666.13	665.38
666.47	660.04
666.81	654.67
667.15	649.32
667.49	644.07
667.83	638.91
668.17	633.64
668.51	628.52
668.85	623.69
669.19	618.82
669.53	613.82
669.87	608.78
670.21	604.07
670.55	599.40
670.89	595.00
671.23	590.73
671.57	586.38
671.91	582.09
672.25	577.95
672.58	573.87
672.92	569.93
673.26	566.04
673.60	562.13
673.94	558.38
674.28	554.85
674.62	551.22
674.96	547.47
675.30	544.08
675.64	540.52
675.97	537.01
676.31	533.49
676.65	530.01
676.99	526.63
677.33	522.87
677.67	519.31
678.01	515.51
678.34	511.95
678.68	508.47
679.02	504.88
679.36	501.25
679.70	497.71
680.04	494.24
680.37	490.87
680.71	487.69
681.05	484.61
681.39	481.47
681.73	478.37
682.06	475.42
682.40	472.36
682.74	469.20
683.08	466.03
683.42	462.95
683.75	460.07
684.09	457.12
684.43	454.38
684.77	451.48
685.10	448.72
685.44	445.79
685.78	442.94
686.12	440.28
686.45	437.63
686.79	434.99
687.13	432.51
687.46	429.96
687.80	427.28
688.14	424.45
688.48	421.88
688.81	419.29
689.15	416.82
689.49	414.26
689.82	411.81
690.16	409.30
690.50	406.92
690.83	404.42
691.17	401.99
691.51	399.59
691.84	397.46
692.18	395.35
692.52	393.26
692.85	391.20
693.19	389.15
693.52	387.06
693.86	384.93
694.20	382.78
694.53	380.71
694.87	378.58
695.21	376.55
695.54	374.43
695.88	372.38
696.21	370.23
696.55	368.18
696.88	366.21
697.22	364.28
697.56	362.39
697.89	360.58
698.23	358.87
698.56	357.14
698.90	355.38
699.23	353.46
699.57	351.68
699.90	349.88
700.24	348.09
700.58	346.43
700.91	344.83
701.25	343.32
701.58	341.75
701.92	340.20
702.25	338.67
702.59	337.09
702.92	335.57
703.26	334.05
703.59	332.64
703.93	331.41
704.26	330.04
704.60	328.59
704.93	327.18
705.26	325.70
705.60	324.28
705.93	322.84
706.27	321.60
706.60	320.38
706.94	319.21
707.27	317.85
707.61	316.52
707.94	315.21
708.27	313.71
708.61	312.30
708.94	311.03
709.28	309.77
709.61	308.56
709.94	307.41
710.28	306.23
710.61	305.11
710.95	303.72
711.28	302.65
711.61	301.51
711.95	300.40
712.28	299.24
712.61	298.09
712.95	297.07
713.28	296.07
713.61	294.92
713.95	293.78
714.28	292.80
714.61	291.77
714.95	290.77
715.28	289.82
715.61	288.85
715.95	287.91
716.28	287.00
716.61	286.12
716.95	285.13
717.28	284.29
717.61	283.29
717.94	282.45
718.28	281.49
718.61	280.65
718.94	279.79
719.27	278.96
719.61	278.18
719.94	277.36
720.27	276.45
720.60	275.68
720.94	274.90
721.27	274.18
721.60	273.57
721.93	272.89
722.27	272.29
722.60	271.66
722.93	270.99
723.26	270.39
723.59	269.69
723.93	269.11
724.26	268.48
724.59	267.89
724.92	267.34
725.25	266.81
725.59	266.27
725.92	265.72
726.25	265.23
726.58	264.65
726.91	264.06
727.24	263.52
727.57	262.99
727.91	262.43
728.24	261.89
728.57	261.30
728.90	260.76
729.23	260.15
729.56	259.72
729.89	259.21
730.22	258.63
730.55	258.09
730.89	257.57
731.22	257.05
731.55	256.57
731.88	256.02
732.21	255.46
732.54	254.94
732.87	254.45
733.20	253.95
733.53	253.51
733.86	253.04
734.19	252.58
734.52	252.15
734.85	251.87
735.18	251.39
735.51	251.04
735.84	250.63
736.17	250.29
736.50	249.76
736.83	249.60
737.16	249.23
737.49	248.88
737.82	248.49
738.15	248.13
738.48	247.74
738.81	247.39
739.14	247.04
739.47	246.69
739.80	246.34
740.13	246.02
740.46	245.60
740.79	245.24
741.12	244.88
741.45	244.52
741.78	244.12
742.11	243.93
742.44	243.53
742.77	243.24
743.10	242.85
743.43	242.55
743.75	242.00
744.08	241.94
744.41	241.61
744.74	241.30
745.07	240.93
745.40	240.64
745.73	240.40
746.06	240.12
746.39	239.82
746.71	239.49
747.04	239.16
747.37	238.88
747.70	238.63
748.03	238.35
748.36	238.10
748.68	237.79
749.01	237.41
749.34	237.13
749.67	236.88
750.00	236.66
750.33	236.53
750.65	236.29
750.98	235.79
751.31	235.52
751.64	235.29
751.97	235.19
752.29	234.93
752.62	234.58
752.95	234.32
753.28	234.08
753.60	233.84
753.93	233.67
754.26	233.49
754.59	233.25
754.91	233.03
755.24	232.80
755.57	232.54
755.90	232.34
756.22	232.14
756.55	231.90
756.88	231.65
757.20	231.31
757.53	231.05
757.86	230.85
758.19	230.67
758.51	230.48
758.84	230.19
759.17	229.98
759.49	229.82
759.82	229.73
760.15	229.57
760.47	229.43
760.80	229.15
761.13	228.99
761.45	228.81
761.78	228.65
762.11	228.46
762.43	228.30
762.76	228.12
763.08	227.98
763.41	227.78
763.74	227.66
764.06	227.51
764.39	227.38
764.71	227.24
765.04	227.12
765.37	226.97
765.69	226.82
766.02	226.73
766.34	226.58
766.67	226.39
767.00	226.28
767.32	226.23
767.65	226.28
767.97	226.13
768.30	225.99
768.62	225.86
768.95	225.73
769.27	225.60
769.60	225.48
769.92	225.33
770.25	225.22
770.57	225.06
770.90	224.92
771.22	224.75
771.55	224.64
771.87	224.51
772.20	224.38
772.52	224.43
772.85	224.55
773.17	224.47
773.50	224.33
773.82	224.24
774.15	224.06
774.47	223.86
774.80	223.74
775.12	223.68
775.45	223.56
775.77	223.49
776.09	223.46
776.42	223.40
776.74	223.36
777.07	223.28
777.39	223.19
777.72	223.10
778.04	223.09
778.36	222.98
778.69	222.92
779.01	222.86
779.33	222.62
779.66	222.29
779.98	222.20
780.31	222.13
780.63	222.12
780.95	222.06
781.28	221.98
781.60	221.91
781.92	221.83
782.25	221.79
782.57	221.72
782.89	221.64
783.22	221.56
783.54	221.48
783.86	221.41
784.19	221.33
784.51	221.33
784.83	221.22
785.16	221.16
785.48	221.09
785.80	221.04
786.12	221.00
