SpectraSuite Data File
++++++++++++++++++++++++++++++++++++
Date: Tue Jan 29 16:27:20 EST 2013
User: group
Dark Spectrum Present: No
Reference Spectrum Present: No
Number of Sampled Component Spectra: 1
Spectrometers: USB2E7196
Integration Time (usec): 65000 (USB2E7196)
Spectra Averaged: 100 (USB2E7196)
Boxcar Smoothing: 10 (USB2E7196)
Correct for Electrical Dark: No (USB2E7196)
Strobe/Lamp Enabled: No (USB2E7196)
Correct for Detector Non-linearity: No (USB2E7196)
Correct for Stray Light: No (USB2E7196)
Number of Pixels in Processed Spectrum: 2048
>>>>>Begin Processed Spectral Data<<<<<
339.09	0.00
339.48	202.06
339.86	203.70
340.24	204.99
340.63	206.25
341.01	211.31
341.39	209.21
341.78	210.82
342.16	212.00
342.54	212.25
342.93	201.62
343.31	211.80
343.69	212.37
344.07	212.87
344.46	213.32
344.84	213.74
345.22	213.90
345.60	214.18
345.99	214.38
346.37	214.51
346.75	214.62
347.13	214.70
347.52	214.78
347.90	214.86
348.28	214.86
348.66	214.94
349.05	214.91
349.43	214.96
349.81	215.00
350.19	215.06
350.57	215.13
350.96	215.23
351.34	215.32
351.72	215.38
352.10	215.47
352.48	215.53
352.87	215.60
353.25	215.65
353.63	215.67
354.01	215.72
354.39	215.79
354.77	215.84
355.15	215.93
355.54	215.97
355.92	215.91
356.30	216.00
356.68	216.17
357.06	216.24
357.44	216.26
357.82	216.32
358.20	216.39
358.58	216.45
358.97	216.48
359.35	216.57
359.73	216.67
360.11	216.69
360.49	216.74
360.87	216.73
361.25	216.81
361.63	216.92
362.01	216.98
362.39	217.02
362.77	217.09
363.15	217.12
363.53	217.14
363.91	217.19
364.29	217.17
364.67	216.99
365.05	216.98
365.43	217.04
365.81	217.07
366.19	217.17
366.57	217.20
366.95	217.21
367.33	217.14
367.71	217.10
368.09	217.16
368.47	217.14
368.85	217.13
369.23	217.15
369.61	217.06
369.99	217.11
370.37	217.10
370.75	217.16
371.13	217.12
371.51	217.07
371.89	217.08
372.27	217.07
372.65	217.08
373.03	217.07
373.41	217.02
373.78	216.91
374.16	216.74
374.54	216.68
374.92	216.61
375.30	216.58
375.68	216.51
376.06	216.44
376.44	216.41
376.82	216.42
377.19	216.33
377.57	216.25
377.95	216.17
378.33	216.13
378.71	215.97
379.09	215.94
379.47	215.94
379.84	215.86
380.22	215.81
380.60	215.72
380.98	215.67
381.36	215.61
381.73	215.59
382.11	215.59
382.49	215.54
382.87	215.50
383.25	215.45
383.62	215.70
384.00	215.64
384.38	215.60
384.76	215.58
385.13	215.64
385.51	215.61
385.89	215.55
386.27	215.54
386.64	215.56
387.02	215.52
387.40	215.45
387.78	215.47
388.15	215.47
388.53	215.42
388.91	215.38
389.29	215.36
389.66	215.36
390.04	215.33
390.42	215.38
390.79	215.36
391.17	215.36
391.55	215.11
391.92	215.09
392.30	215.13
392.68	215.12
393.05	215.09
393.43	215.12
393.81	215.12
394.18	215.05
394.56	215.04
394.94	215.09
395.31	215.10
395.69	215.14
396.06	215.18
396.44	215.24
396.82	215.26
397.19	215.38
397.57	215.39
397.95	215.47
398.32	215.43
398.70	215.51
399.07	215.59
399.45	215.61
399.82	215.67
400.20	215.70
400.58	215.77
400.95	215.77
401.33	215.86
401.70	216.07
402.08	216.18
402.45	216.28
402.83	216.43
403.20	216.52
403.58	216.63
403.95	216.76
404.33	216.91
404.71	217.06
405.08	217.33
405.46	217.54
405.83	217.70
406.21	217.93
406.58	218.14
406.96	218.36
407.33	218.69
407.70	218.99
408.08	219.43
408.45	219.77
408.83	220.19
409.20	220.55
409.58	220.82
409.95	221.28
410.33	221.75
410.70	222.16
411.08	222.76
411.45	223.34
411.82	223.93
412.20	224.64
412.57	225.47
412.95	226.02
413.32	226.81
413.69	227.67
414.07	228.56
414.44	229.56
414.82	230.59
415.19	231.72
415.56	232.90
415.94	234.08
416.31	235.48
416.68	236.89
417.06	238.50
417.43	240.07
417.81	241.80
418.18	243.59
418.55	245.54
418.93	247.55
419.30	249.66
419.67	251.88
420.04	254.17
420.42	256.57
420.79	259.42
421.16	262.21
421.54	265.09
421.91	268.11
422.28	271.24
422.66	274.53
423.03	277.80
423.40	281.12
423.77	284.70
424.15	288.39
424.52	292.21
424.89	296.32
425.26	300.40
425.64	304.27
426.01	308.57
426.38	313.05
426.75	317.60
427.13	322.30
427.50	327.23
427.87	332.45
428.24	337.60
428.61	342.54
428.99	348.06
429.36	354.07
429.73	359.95
430.10	365.73
430.47	371.81
430.85	378.11
431.22	384.81
431.59	391.89
431.96	398.66
432.33	406.13
432.70	413.39
433.08	421.87
433.45	429.93
433.82	437.89
434.19	446.70
434.56	455.32
434.93	463.66
435.30	471.94
435.68	481.02
436.05	490.03
436.42	498.89
436.79	507.00
437.16	515.69
437.53	524.89
437.90	534.05
438.27	542.96
438.64	552.05
439.01	560.58
439.38	568.13
439.75	575.47
440.13	583.83
440.50	591.76
440.87	598.11
441.24	604.74
441.61	612.01
441.98	617.34
442.35	623.64
442.72	629.90
443.09	635.93
443.46	639.58
443.83	642.07
444.20	644.31
444.57	647.44
444.94	648.94
445.31	650.43
445.68	651.82
446.05	652.43
446.42	651.69
446.79	650.75
447.16	649.68
447.53	648.84
447.90	645.56
448.27	642.32
448.64	637.81
449.01	634.48
449.37	628.63
449.74	623.09
450.11	616.20
450.48	608.84
450.85	601.45
451.22	595.09
451.59	588.93
451.96	583.08
452.33	575.22
452.70	568.07
453.07	559.55
453.43	550.99
453.80	542.74
454.17	534.80
454.54	527.26
454.91	519.10
455.28	511.18
455.65	503.79
456.02	496.23
456.38	489.85
456.75	482.01
457.12	475.45
457.49	468.92
457.86	462.78
458.23	457.46
458.59	451.50
458.96	445.47
459.33	440.25
459.70	434.88
460.07	430.68
460.43	425.86
460.80	421.31
461.17	417.30
461.54	413.06
461.91	409.02
462.27	404.87
462.64	401.48
463.01	397.71
463.38	394.03
463.74	390.39
464.11	387.18
464.48	384.32
464.85	381.25
465.21	378.81
465.58	376.19
465.95	373.00
466.32	370.39
466.68	367.80
467.05	365.13
467.42	362.63
467.78	359.92
468.15	357.37
468.52	355.46
468.88	353.00
469.25	350.81
469.62	349.00
469.98	347.11
470.35	345.29
470.72	343.57
471.08	341.72
471.45	340.23
471.82	338.67
472.18	337.00
472.55	335.81
472.92	334.47
473.28	333.24
473.65	332.06
474.02	331.02
474.38	330.10
474.75	329.41
475.11	328.58
475.48	328.09
475.85	327.61
476.21	327.17
476.58	326.80
476.94	326.60
477.31	326.33
477.67	326.04
478.04	325.94
478.41	325.97
478.77	326.15
479.14	326.10
479.50	326.27
479.87	326.61
480.23	326.92
480.60	327.16
480.96	327.48
481.33	328.10
481.69	328.65
482.06	329.16
482.42	329.62
482.79	330.21
483.15	330.92
483.52	331.86
483.88	332.72
484.25	333.64
484.61	334.67
484.98	335.72
485.34	337.05
485.71	338.37
486.07	339.74
486.44	341.06
486.80	342.64
487.17	344.30
487.53	346.08
487.90	347.93
488.26	349.97
488.62	352.13
488.99	354.20
489.35	356.37
489.72	358.81
490.08	361.35
490.44	363.87
490.81	366.61
491.17	369.31
491.54	372.25
491.90	375.29
492.26	378.50
492.63	381.93
492.99	385.41
493.36	389.03
493.72	392.95
494.08	397.02
494.45	401.29
494.81	405.68
495.17	410.18
495.54	414.89
495.90	419.71
496.26	424.63
496.63	429.82
496.99	435.23
497.35	440.79
497.72	446.57
498.08	452.59
498.44	458.75
498.80	465.21
499.17	471.83
499.53	478.62
499.89	485.55
500.26	492.56
500.62	499.72
500.98	507.27
501.34	514.73
501.71	522.57
502.07	530.42
502.43	538.49
502.79	546.65
503.16	555.13
503.52	563.85
503.88	572.63
504.24	581.68
504.60	590.81
504.97	600.09
505.33	609.44
505.69	619.39
506.05	629.30
506.41	639.19
506.78	649.23
507.14	659.54
507.50	670.01
507.86	680.78
508.22	691.57
508.59	702.31
508.95	713.48
509.31	724.81
509.67	736.33
510.03	747.72
510.39	759.59
510.75	771.59
511.12	783.52
511.48	795.76
511.84	808.12
512.20	820.46
512.56	833.23
512.92	846.23
513.28	858.94
513.64	871.80
514.00	884.83
514.37	897.89
514.73	911.12
515.09	924.33
515.45	937.36
515.81	950.55
516.17	964.01
516.53	977.34
516.89	990.53
517.25	1003.83
517.61	1017.53
517.97	1031.03
518.33	1044.20
518.69	1057.94
519.05	1071.74
519.41	1085.49
519.77	1099.58
520.13	1113.02
520.49	1126.17
520.85	1139.63
521.21	1153.05
521.57	1166.77
521.93	1180.05
522.29	1193.89
522.65	1207.63
523.01	1221.40
523.37	1234.76
523.73	1248.08
524.09	1261.36
524.45	1274.85
524.81	1288.47
525.17	1302.11
525.53	1315.43
525.89	1328.87
526.25	1342.06
526.61	1355.06
526.97	1368.29
527.33	1381.24
527.68	1394.86
528.04	1408.53
528.40	1421.75
528.76	1435.16
529.12	1448.19
529.48	1461.70
529.84	1474.07
530.20	1486.94
530.56	1499.68
530.91	1513.09
531.27	1526.14
531.63	1539.17
531.99	1552.17
532.35	1564.67
532.71	1577.12
533.07	1590.13
533.42	1602.56
533.78	1614.73
534.14	1626.91
534.50	1638.11
534.86	1649.87
535.21	1660.75
535.57	1672.51
535.93	1683.99
536.29	1695.28
536.65	1706.85
537.00	1717.77
537.36	1729.23
537.72	1740.28
538.08	1751.79
538.44	1762.82
538.79	1774.12
539.15	1784.92
539.51	1795.76
539.87	1807.01
540.22	1817.93
540.58	1828.90
540.94	1839.89
541.29	1850.22
541.65	1860.14
542.01	1870.93
542.37	1881.06
542.72	1891.43
543.08	1901.10
543.44	1911.70
543.79	1921.06
544.15	1930.57
544.51	1940.70
544.87	1950.72
545.22	1959.95
545.58	1968.90
545.94	1977.86
546.29	1986.28
546.65	1994.75
547.01	2002.99
547.36	2010.77
547.72	2018.43
548.07	2026.07
548.43	2033.87
548.79	2041.97
549.14	2050.14
549.50	2058.57
549.86	2066.56
550.21	2073.89
550.57	2081.76
550.92	2088.57
551.28	2096.16
551.64	2103.49
551.99	2111.16
552.35	2118.47
552.70	2125.40
553.06	2132.08
553.41	2138.50
553.77	2145.17
554.13	2151.65
554.48	2158.83
554.84	2165.93
555.19	2172.60
555.55	2179.05
555.90	2185.44
556.26	2192.19
556.61	2198.26
556.97	2203.15
557.32	2208.97
557.68	2215.57
558.03	2221.26
558.39	2226.70
558.74	2232.71
559.10	2238.29
559.45	2243.94
559.81	2249.43
560.16	2255.08
560.52	2261.08
560.87	2267.36
561.23	2273.19
561.58	2279.92
561.94	2285.20
562.29	2290.06
562.64	2296.25
563.00	2302.08
563.35	2307.63
563.71	2313.46
564.06	2319.29
564.42	2325.40
564.77	2330.56
565.12	2335.85
565.48	2341.01
565.83	2346.45
566.19	2351.84
566.54	2357.40
566.89	2361.80
567.25	2366.42
567.60	2372.25
567.96	2377.43
568.31	2382.05
568.66	2386.50
569.02	2390.46
569.37	2394.26
569.72	2398.72
570.08	2402.22
570.43	2405.37
570.78	2408.54
571.14	2411.11
571.49	2414.19
571.84	2417.83
572.20	2420.78
572.55	2423.84
572.90	2426.31
573.26	2429.26
573.61	2431.99
573.96	2433.99
574.31	2436.18
574.67	2437.98
575.02	2438.63
575.37	2440.04
575.72	2440.84
576.08	2442.28
576.43	2442.40
576.78	2442.86
577.13	2444.41
577.49	2445.54
577.84	2446.68
578.19	2448.11
578.54	2448.78
578.90	2449.49
579.25	2449.28
579.60	2449.15
579.95	2448.41
580.30	2448.41
580.66	2447.70
581.01	2445.95
581.36	2443.70
581.71	2442.27
582.06	2441.35
582.42	2440.59
582.77	2438.34
583.12	2436.77
583.47	2435.39
583.82	2434.88
584.17	2433.55
584.53	2431.40
584.88	2429.32
585.23	2427.29
585.58	2424.82
585.93	2422.70
586.28	2420.52
586.63	2418.07
586.98	2415.87
587.34	2413.79
587.69	2411.35
588.04	2409.28
588.39	2407.75
588.74	2405.25
589.09	2402.60
589.44	2399.30
589.79	2396.71
590.14	2394.84
590.49	2392.03
590.84	2388.15
591.19	2384.99
591.54	2381.83
591.89	2377.74
592.25	2374.50
592.60	2370.26
592.95	2366.11
593.30	2361.96
593.65	2357.53
594.00	2353.06
594.35	2350.06
594.70	2345.51
595.05	2340.99
595.40	2335.40
595.75	2329.63
596.10	2325.89
596.45	2320.79
596.80	2316.19
597.15	2311.09
597.50	2304.94
597.85	2299.86
598.19	2294.60
598.54	2288.66
598.89	2283.24
599.24	2278.77
599.59	2272.52
599.94	2266.61
600.29	2260.67
600.64	2254.72
600.99	2247.85
601.34	2242.38
601.69	2235.41
602.04	2228.87
602.39	2222.07
602.74	2216.05
603.08	2210.58
603.43	2204.09
603.78	2197.34
604.13	2190.27
604.48	2182.83
604.83	2176.82
605.18	2170.55
605.53	2163.62
605.87	2156.68
606.22	2149.93
606.57	2141.89
606.92	2133.95
607.27	2126.94
607.62	2120.34
607.96	2113.23
608.31	2106.88
608.66	2099.01
609.01	2091.31
609.36	2084.09
609.70	2076.51
610.05	2068.63
610.40	2060.18
610.75	2051.75
611.10	2044.04
611.44	2035.10
611.79	2026.34
612.14	2016.21
612.49	2005.41
612.83	1995.99
613.18	1986.71
613.53	1977.29
613.88	1967.62
614.22	1958.99
614.57	1949.23
614.92	1938.39
615.27	1928.04
615.61	1917.78
615.96	1907.94
616.31	1898.32
616.65	1888.90
617.00	1879.00
617.35	1869.20
617.70	1859.40
618.04	1849.40
618.39	1838.98
618.74	1829.14
619.08	1819.34
619.43	1810.57
619.78	1802.27
620.12	1793.57
620.47	1783.79
620.82	1773.36
621.16	1763.54
621.51	1753.49
621.85	1743.52
622.20	1733.33
622.55	1722.81
622.89	1712.79
623.24	1703.21
623.59	1693.27
623.93	1683.07
624.28	1673.23
624.62	1663.21
624.97	1652.83
625.32	1642.91
625.66	1634.02
626.01	1625.29
626.35	1615.98
626.70	1605.80
627.04	1595.72
627.39	1585.54
627.73	1576.14
628.08	1567.18
628.43	1557.50
628.77	1548.26
629.12	1539.34
629.46	1531.31
629.81	1522.88
630.15	1513.29
630.50	1503.27
630.84	1492.76
631.19	1482.82
631.53	1473.30
631.88	1462.97
632.22	1452.93
632.57	1443.54
632.91	1433.47
633.26	1423.48
633.60	1413.83
633.95	1404.52
634.29	1394.89
634.64	1385.53
634.98	1375.57
635.32	1366.13
635.67	1357.61
636.01	1348.24
636.36	1338.39
636.70	1328.69
637.05	1319.17
637.39	1310.05
637.73	1301.32
638.08	1293.65
638.42	1285.37
638.77	1276.61
639.11	1268.31
639.45	1260.43
639.80	1251.80
640.14	1242.83
640.49	1233.85
640.83	1224.89
641.17	1216.60
641.52	1208.48
641.86	1199.79
642.20	1191.89
642.55	1183.22
642.89	1174.14
643.23	1165.33
643.58	1157.07
643.92	1148.01
644.26	1139.26
644.61	1130.79
644.95	1121.96
645.29	1112.64
645.64	1103.32
645.98	1094.75
646.32	1086.70
646.66	1078.13
647.01	1069.67
647.35	1061.58
647.69	1053.18
648.04	1044.82
648.38	1035.92
648.72	1027.00
649.06	1018.44
649.41	1010.13
649.75	1002.08
650.09	994.21
650.43	986.13
650.78	977.79
651.12	969.95
651.46	962.45
651.80	955.14
652.14	947.75
652.49	940.10
652.83	932.72
653.17	924.90
653.51	917.19
653.85	909.77
654.20	902.39
654.54	894.83
654.88	887.51
655.22	880.28
655.56	873.22
655.90	866.30
656.25	859.59
656.59	852.57
656.93	845.48
657.27	838.20
657.61	831.18
657.95	824.96
658.29	819.02
658.64	812.84
658.98	806.30
659.32	799.70
659.66	793.42
660.00	787.05
660.34	780.99
660.68	774.78
661.02	768.44
661.36	762.45
661.70	756.52
662.05	750.80
662.39	745.23
662.73	739.77
663.07	734.35
663.41	728.67
663.75	722.85
664.09	717.10
664.43	711.65
664.77	706.20
665.11	700.32
665.45	694.38
665.79	688.51
666.13	682.72
666.47	677.15
666.81	671.65
667.15	666.20
667.49	660.92
667.83	655.66
668.17	650.32
668.51	645.12
668.85	640.18
669.19	635.26
669.53	630.10
669.87	624.92
670.21	620.08
670.55	615.29
670.89	610.78
671.23	606.38
671.57	601.92
671.91	597.51
672.25	593.30
672.58	589.06
672.92	584.97
673.26	581.02
673.60	577.10
673.94	573.21
674.28	569.53
674.62	565.74
674.96	561.93
675.30	558.37
675.64	554.71
675.97	550.98
676.31	547.30
676.65	543.69
676.99	540.24
677.33	536.38
677.67	532.69
678.01	528.79
678.34	525.12
678.68	521.55
679.02	517.98
679.36	514.24
679.70	510.52
680.04	506.85
680.37	503.39
680.71	500.06
681.05	496.84
681.39	493.51
681.73	490.33
682.06	487.24
682.40	484.14
682.74	480.90
683.08	477.73
683.42	474.51
683.75	471.50
684.09	468.43
684.43	465.62
684.77	462.68
685.10	459.82
685.44	456.90
685.78	453.98
686.12	451.16
686.45	448.39
686.79	445.69
687.13	443.15
687.46	440.44
687.80	437.67
688.14	434.79
688.48	432.12
688.81	429.38
689.15	426.75
689.49	424.06
689.82	421.48
690.16	418.82
690.50	416.33
690.83	413.76
691.17	411.16
691.51	408.62
691.84	406.30
692.18	404.04
692.52	401.79
692.85	399.58
693.19	397.39
693.52	395.22
693.86	392.99
694.20	390.76
694.53	388.60
694.87	386.38
695.21	384.23
695.54	382.05
695.88	379.85
696.21	377.60
696.55	375.43
696.88	373.32
697.22	371.34
697.56	369.38
697.89	367.48
698.23	365.69
698.56	363.83
698.90	362.01
699.23	360.11
699.57	358.19
699.90	356.32
700.24	354.50
700.58	352.72
700.91	351.04
701.25	349.42
701.58	347.79
701.92	346.15
702.25	344.52
702.59	342.85
702.92	341.28
703.26	339.71
703.59	338.25
703.93	336.97
704.26	335.47
704.60	333.97
704.93	332.47
705.26	330.94
705.60	329.48
705.93	327.94
706.27	326.59
706.60	325.32
706.94	324.07
707.27	322.64
707.61	321.27
707.94	319.90
708.27	318.39
708.61	316.93
708.94	315.50
709.28	314.16
709.61	312.91
709.94	311.65
710.28	310.42
710.61	309.21
710.95	307.77
711.28	306.69
711.61	305.48
711.95	304.33
712.28	303.13
712.61	301.92
712.95	300.86
713.28	299.80
713.61	298.61
713.95	297.42
714.28	296.35
714.61	295.29
714.95	294.31
715.28	293.27
715.61	292.23
715.95	291.29
716.28	290.31
716.61	289.38
716.95	288.39
717.28	287.40
717.61	286.43
717.94	285.52
718.28	284.44
718.61	283.56
718.94	282.64
719.27	281.77
719.61	280.94
719.94	280.07
720.27	279.08
720.60	278.21
720.94	277.43
721.27	276.68
721.60	275.98
721.93	275.18
722.27	274.49
722.60	273.81
722.93	273.08
723.26	272.41
723.59	271.64
723.93	270.98
724.26	270.31
724.59	269.64
724.92	269.07
725.25	268.55
725.59	267.96
725.92	267.42
726.25	266.85
726.58	266.27
726.91	265.65
727.24	265.14
727.57	264.57
727.91	263.91
728.24	263.35
728.57	262.74
728.90	262.20
729.23	261.59
729.56	261.16
729.89	260.65
730.22	260.06
730.55	259.54
730.89	259.02
731.22	258.50
731.55	257.99
731.88	257.41
732.21	256.84
732.54	256.28
732.87	255.76
733.20	255.26
733.53	254.78
733.86	254.34
734.19	253.84
734.52	253.41
734.85	253.15
735.18	252.65
735.51	252.25
735.84	251.82
736.17	251.47
736.50	250.92
736.83	250.74
737.16	250.39
737.49	250.02
737.82	249.59
738.15	249.25
738.48	248.87
738.81	248.48
739.14	248.05
739.47	247.68
739.80	247.27
740.13	246.91
740.46	246.48
740.79	246.06
741.12	245.66
741.45	245.31
741.78	244.85
742.11	244.58
742.44	244.20
742.77	243.90
743.10	243.51
743.43	243.19
743.75	242.59
744.08	242.49
744.41	242.12
744.74	241.77
745.07	241.37
745.40	241.07
745.73	240.84
746.06	240.53
746.39	240.22
746.71	239.92
747.04	239.56
747.37	239.23
747.70	238.93
748.03	238.66
748.36	238.37
748.68	238.03
749.01	237.65
749.34	237.33
749.67	237.01
750.00	236.75
750.33	236.59
750.65	236.35
750.98	235.80
751.31	235.55
751.64	235.33
751.97	235.20
752.29	234.91
752.62	234.53
752.95	234.31
753.28	234.03
753.60	233.76
753.93	233.61
754.26	233.44
754.59	233.16
754.91	232.88
755.24	232.63
755.57	232.41
755.90	232.20
756.22	231.96
756.55	231.73
756.88	231.47
757.20	231.11
757.53	230.86
757.86	230.66
758.19	230.48
758.51	230.25
758.84	229.93
759.17	229.73
759.49	229.58
759.82	229.49
760.15	229.34
760.47	229.17
760.80	228.91
761.13	228.78
761.45	228.60
761.78	228.42
762.11	228.24
762.43	228.05
762.76	227.90
763.08	227.77
763.41	227.60
763.74	227.48
764.06	227.33
764.39	227.17
764.71	227.03
765.04	226.88
765.37	226.71
765.69	226.57
766.02	226.42
766.34	226.26
766.67	226.02
767.00	225.92
767.32	225.89
767.65	225.87
767.97	225.70
768.30	225.63
768.62	225.50
768.95	225.33
769.27	225.21
769.60	225.10
769.92	224.95
770.25	224.81
770.57	224.65
770.90	224.53
771.22	224.40
771.55	224.26
771.87	224.14
772.20	223.99
772.52	224.06
772.85	224.19
773.17	224.09
773.50	224.00
773.82	223.86
774.15	223.65
774.47	223.44
774.80	223.32
775.12	223.16
775.45	223.09
775.77	223.00
776.09	222.92
776.42	222.81
776.74	222.79
777.07	222.67
777.39	222.56
777.72	222.49
778.04	222.42
778.36	222.34
778.69	222.26
779.01	222.22
779.33	221.94
779.66	221.64
779.98	221.53
780.31	221.44
780.63	221.43
780.95	221.39
781.28	221.34
781.60	221.25
781.92	221.20
782.25	221.12
782.57	221.09
782.89	221.03
783.22	220.92
783.54	220.78
783.86	220.75
784.19	220.69
784.51	220.69
784.83	220.59
785.16	220.51
785.48	220.46
785.80	220.44
786.12	220.41
