SpectraSuite Data File
++++++++++++++++++++++++++++++++++++
Date: Tue Jan 29 16:18:19 EST 2013
User: group
Dark Spectrum Present: No
Reference Spectrum Present: No
Number of Sampled Component Spectra: 1
Spectrometers: USB2E7196
Integration Time (usec): 65000 (USB2E7196)
Spectra Averaged: 100 (USB2E7196)
Boxcar Smoothing: 10 (USB2E7196)
Correct for Electrical Dark: No (USB2E7196)
Strobe/Lamp Enabled: No (USB2E7196)
Correct for Detector Non-linearity: No (USB2E7196)
Correct for Stray Light: No (USB2E7196)
Number of Pixels in Processed Spectrum: 2048
>>>>>Begin Processed Spectral Data<<<<<
339.09	0.00
339.48	202.84
339.86	204.45
340.24	205.06
340.63	206.92
341.01	210.79
341.39	209.14
341.78	211.05
342.16	212.15
342.54	212.30
342.93	201.53
343.31	211.72
343.69	212.24
344.07	212.68
344.46	213.14
344.84	213.52
345.22	213.69
345.60	213.94
345.99	214.14
346.37	214.28
346.75	214.41
347.13	214.48
347.52	214.58
347.90	214.67
348.28	214.72
348.66	214.80
349.05	214.76
349.43	214.81
349.81	214.92
350.19	214.99
350.57	215.10
350.96	215.21
351.34	215.31
351.72	215.41
352.10	215.52
352.48	215.57
352.87	215.63
353.25	215.74
353.63	215.82
354.01	215.90
354.39	215.99
354.77	216.06
355.15	216.20
355.54	216.25
355.92	216.23
356.30	216.31
356.68	216.49
357.06	216.60
357.44	216.65
357.82	216.68
358.20	216.77
358.58	216.82
358.97	216.92
359.35	217.03
359.73	217.12
360.11	217.17
360.49	217.25
360.87	217.31
361.25	217.36
361.63	217.49
362.01	217.54
362.39	217.54
362.77	217.58
363.15	217.59
363.53	217.65
363.91	217.73
364.29	217.77
364.67	217.62
365.05	217.63
365.43	217.68
365.81	217.73
366.19	217.87
366.57	217.95
366.95	217.91
367.33	217.84
367.71	217.85
368.09	217.91
368.47	217.90
368.85	217.90
369.23	217.92
369.61	217.84
369.99	217.88
370.37	217.92
370.75	218.01
371.13	217.95
371.51	217.89
371.89	217.86
372.27	217.80
372.65	217.76
373.03	217.73
373.41	217.69
373.78	217.65
374.16	217.48
374.54	217.38
374.92	217.34
375.30	217.30
375.68	217.22
376.06	217.18
376.44	217.13
376.82	217.09
377.19	217.02
377.57	216.99
377.95	216.87
378.33	216.80
378.71	216.62
379.09	216.61
379.47	216.58
379.84	216.53
380.22	216.49
380.60	216.43
380.98	216.41
381.36	216.36
381.73	216.29
382.11	216.28
382.49	216.25
382.87	216.17
383.25	216.16
383.62	216.37
384.00	216.28
384.38	216.24
384.76	216.25
385.13	216.30
385.51	216.23
385.89	216.19
386.27	216.17
386.64	216.20
387.02	216.14
387.40	216.08
387.78	216.06
388.15	216.03
388.53	215.98
388.91	215.93
389.29	215.91
389.66	215.90
390.04	215.84
390.42	215.83
390.79	215.83
391.17	215.83
391.55	215.55
391.92	215.55
392.30	215.59
392.68	215.54
393.05	215.54
393.43	215.58
393.81	215.60
394.18	215.55
394.56	215.54
394.94	215.61
395.31	215.65
395.69	215.70
396.06	215.78
396.44	215.82
396.82	215.82
397.19	215.92
397.57	215.94
397.95	216.02
398.32	216.01
398.70	216.07
399.07	216.16
399.45	216.21
399.82	216.25
400.20	216.26
400.58	216.30
400.95	216.26
401.33	216.34
401.70	216.54
402.08	216.62
402.45	216.73
402.83	216.84
403.20	216.94
403.58	217.00
403.95	217.12
404.33	217.28
404.71	217.44
405.08	217.72
405.46	217.87
405.83	218.06
406.21	218.28
406.58	218.49
406.96	218.67
407.33	218.95
407.70	219.21
408.08	219.67
408.45	220.00
408.83	220.38
409.20	220.70
409.58	220.99
409.95	221.45
410.33	221.91
410.70	222.33
411.08	222.89
411.45	223.47
411.82	224.05
412.20	224.69
412.57	225.50
412.95	226.04
413.32	226.86
413.69	227.67
414.07	228.53
414.44	229.49
414.82	230.47
415.19	231.59
415.56	232.76
415.94	233.89
416.31	235.26
416.68	236.56
417.06	238.11
417.43	239.58
417.81	241.25
418.18	242.93
418.55	244.82
418.93	246.74
419.30	248.78
419.67	250.96
420.04	253.20
420.42	255.50
420.79	258.22
421.16	260.91
421.54	263.68
421.91	266.58
422.28	269.61
422.66	272.82
423.03	275.99
423.40	279.25
423.77	282.75
424.15	286.30
424.52	290.06
424.89	294.10
425.26	298.03
425.64	301.83
426.01	305.97
426.38	310.27
426.75	314.71
427.13	319.27
427.50	324.02
427.87	329.05
428.24	334.09
428.61	338.91
428.99	344.23
429.36	350.05
429.73	355.80
430.10	361.44
430.47	367.32
430.85	373.40
431.22	379.83
431.59	386.71
431.96	393.34
432.33	400.62
432.70	407.60
433.08	415.87
433.45	423.67
433.82	431.49
434.19	440.09
434.56	448.44
434.93	456.54
435.30	464.55
435.68	473.34
436.05	481.97
436.42	490.56
436.79	498.39
437.16	506.81
437.53	515.75
437.90	524.63
438.27	533.28
438.64	542.11
439.01	550.31
439.38	557.56
439.75	564.58
440.13	572.67
440.50	580.41
440.87	586.62
441.24	592.96
441.61	600.01
441.98	605.17
442.35	611.33
442.72	617.42
443.09	623.22
443.46	626.87
443.83	629.38
444.20	631.53
444.57	634.64
444.94	636.07
445.31	637.37
445.68	638.66
446.05	639.17
446.42	638.43
446.79	637.59
447.16	636.56
447.53	635.80
447.90	632.62
448.27	629.39
448.64	624.89
449.01	621.72
449.37	615.98
449.74	610.51
450.11	603.82
450.48	596.59
450.85	589.44
451.22	583.20
451.59	577.22
451.96	571.56
452.33	563.90
452.70	557.04
453.07	548.89
453.43	540.53
453.80	532.56
454.17	524.90
454.54	517.55
454.91	509.70
455.28	502.03
455.65	494.86
456.02	487.61
456.38	481.48
456.75	473.87
457.12	467.57
457.49	461.32
457.86	455.34
458.23	450.24
458.59	444.53
458.96	438.75
459.33	433.59
459.70	428.41
460.07	424.38
460.43	419.70
460.80	415.30
461.17	411.55
461.54	407.51
461.91	403.64
462.27	399.74
462.64	396.44
463.01	392.78
463.38	389.26
463.74	385.72
464.11	382.60
464.48	379.89
464.85	376.88
465.21	374.57
465.58	372.06
465.95	369.01
466.32	366.50
466.68	364.00
467.05	361.53
467.42	359.13
467.78	356.53
468.15	354.07
468.52	352.28
468.88	349.82
469.25	347.74
469.62	346.03
469.98	344.18
470.35	342.39
470.72	340.77
471.08	339.02
471.45	337.62
471.82	336.18
472.18	334.58
472.55	333.44
472.92	332.12
473.28	330.99
473.65	329.91
474.02	328.79
474.38	327.94
474.75	327.22
475.11	326.42
475.48	325.91
475.85	325.44
476.21	324.92
476.58	324.62
476.94	324.39
477.31	324.09
477.67	323.81
478.04	323.72
478.41	323.71
478.77	323.87
479.14	323.79
479.50	323.91
479.87	324.19
480.23	324.56
480.60	324.79
480.96	325.09
481.33	325.73
481.69	326.30
482.06	326.81
482.42	327.30
482.79	327.90
483.15	328.65
483.52	329.60
483.88	330.51
484.25	331.45
484.61	332.46
484.98	333.47
485.34	334.78
485.71	336.15
486.07	337.55
486.44	338.94
486.80	340.55
487.17	342.24
487.53	344.05
487.90	345.88
488.26	347.88
488.62	349.97
488.99	351.94
489.35	354.11
489.72	356.43
490.08	358.97
490.44	361.52
490.81	364.24
491.17	366.91
491.54	369.87
491.90	372.93
492.26	376.13
492.63	379.55
492.99	383.05
493.36	386.71
493.72	390.55
494.08	394.53
494.45	398.71
494.81	403.10
495.17	407.60
495.54	412.26
495.90	417.05
496.26	422.00
496.63	427.22
496.99	432.65
497.35	438.23
497.72	444.00
498.08	449.89
498.44	455.96
498.80	462.37
499.17	468.84
499.53	475.50
499.89	482.38
500.26	489.37
500.62	496.46
500.98	503.78
501.34	511.24
501.71	518.93
502.07	526.71
502.43	534.64
502.79	542.68
503.16	551.06
503.52	559.58
503.88	568.16
504.24	577.03
504.60	586.00
504.97	595.17
505.33	604.43
505.69	614.21
506.05	624.01
506.41	633.82
506.78	643.83
507.14	654.03
507.50	664.30
507.86	674.87
508.22	685.48
508.59	696.09
508.95	707.02
509.31	718.15
509.67	729.46
510.03	740.86
510.39	752.50
510.75	764.22
511.12	776.06
511.48	788.10
511.84	800.29
512.20	812.49
512.56	824.91
512.92	837.47
513.28	850.00
513.64	862.57
514.00	875.16
514.37	887.95
514.73	900.86
515.09	913.77
515.45	926.49
515.81	939.47
516.17	952.65
516.53	965.73
516.89	978.72
517.25	991.74
517.61	1004.96
517.97	1018.12
518.33	1031.02
518.69	1044.37
519.05	1057.83
519.41	1071.19
519.77	1084.79
520.13	1098.00
520.49	1111.05
520.85	1124.20
521.21	1137.22
521.57	1150.68
521.93	1163.50
522.29	1176.98
522.65	1190.37
523.01	1203.72
523.37	1216.56
523.73	1229.59
524.09	1242.45
524.45	1255.52
524.81	1268.66
525.17	1281.69
525.53	1294.63
525.89	1307.76
526.25	1320.46
526.61	1332.97
526.97	1345.74
527.33	1358.36
527.68	1371.42
528.04	1384.54
528.40	1397.24
528.76	1410.42
529.12	1422.99
529.48	1435.88
529.84	1447.83
530.20	1460.21
530.56	1472.45
530.91	1485.42
531.27	1497.93
531.63	1510.35
531.99	1522.76
532.35	1534.70
532.71	1546.73
533.07	1559.19
533.42	1570.89
533.78	1582.70
534.14	1594.54
534.50	1605.58
534.86	1616.95
535.21	1627.46
535.57	1638.62
535.93	1649.70
536.29	1660.38
536.65	1671.45
537.00	1682.15
537.36	1693.17
537.72	1703.77
538.08	1714.85
538.44	1725.34
538.79	1736.14
539.15	1746.72
539.51	1757.10
539.87	1768.00
540.22	1778.51
540.58	1789.03
540.94	1799.54
541.29	1809.41
541.65	1818.78
542.01	1828.84
542.37	1838.52
542.72	1848.36
543.08	1857.74
543.44	1867.76
543.79	1876.72
544.15	1885.91
544.51	1895.70
544.87	1905.23
545.22	1914.28
545.58	1922.91
545.94	1931.55
546.29	1939.61
546.65	1947.76
547.01	1955.71
547.36	1963.22
547.72	1970.66
548.07	1978.14
548.43	1985.60
548.79	1993.42
549.14	2001.27
549.50	2009.38
549.86	2016.98
550.21	2024.23
550.57	2031.85
550.92	2038.49
551.28	2045.76
551.64	2052.86
551.99	2060.12
552.35	2067.02
552.70	2073.64
553.06	2079.99
553.41	2086.23
553.77	2092.71
554.13	2098.91
554.48	2105.93
554.84	2112.91
555.19	2119.45
555.55	2125.82
555.90	2132.07
556.26	2138.65
556.61	2144.60
556.97	2149.39
557.32	2155.12
557.68	2161.44
558.03	2167.04
558.39	2172.19
558.74	2178.05
559.10	2183.52
559.45	2188.91
559.81	2194.45
560.16	2199.94
560.52	2205.90
560.87	2212.08
561.23	2217.70
561.58	2224.13
561.94	2229.28
562.29	2233.95
562.64	2239.92
563.00	2245.39
563.35	2250.97
563.71	2256.75
564.06	2262.41
564.42	2268.46
564.77	2273.58
565.12	2278.80
565.48	2283.96
565.83	2289.53
566.19	2294.96
566.54	2300.31
566.89	2304.93
567.25	2309.36
567.60	2315.10
567.96	2320.22
568.31	2324.81
568.66	2329.25
569.02	2333.40
569.37	2337.11
569.72	2341.49
570.08	2345.03
570.43	2348.25
570.78	2351.40
571.14	2353.73
571.49	2356.88
571.84	2360.41
572.20	2363.38
572.55	2366.49
572.90	2368.87
573.26	2371.82
573.61	2374.54
573.96	2376.77
574.31	2378.87
574.67	2380.94
575.02	2381.83
575.37	2383.26
575.72	2384.18
576.08	2385.89
576.43	2386.07
576.78	2386.80
577.13	2388.61
577.49	2389.94
577.84	2391.12
578.19	2392.63
578.54	2393.74
578.90	2394.69
579.25	2394.71
579.60	2394.82
579.95	2394.18
580.30	2394.34
580.66	2393.69
581.01	2392.08
581.36	2389.99
581.71	2388.90
582.06	2387.95
582.42	2387.35
582.77	2385.34
583.12	2383.89
583.47	2382.57
583.82	2382.23
584.17	2380.97
584.53	2378.86
584.88	2376.82
585.23	2375.13
585.58	2373.01
585.93	2370.96
586.28	2368.86
586.63	2366.50
586.98	2364.43
587.34	2362.70
587.69	2360.45
588.04	2358.69
588.39	2357.47
588.74	2355.03
589.09	2352.35
589.44	2349.33
589.79	2346.94
590.14	2345.22
590.49	2342.53
590.84	2338.94
591.19	2336.02
591.54	2333.07
591.89	2329.32
592.25	2326.34
592.60	2322.29
592.95	2318.37
593.30	2314.48
593.65	2310.40
594.00	2306.26
594.35	2303.50
594.70	2298.89
595.05	2294.42
595.40	2289.14
595.75	2283.59
596.10	2280.19
596.45	2275.61
596.80	2271.37
597.15	2266.23
597.50	2260.47
597.85	2255.67
598.19	2250.66
598.54	2245.01
598.89	2239.86
599.24	2235.45
599.59	2229.51
599.94	2223.79
600.29	2217.88
600.64	2212.02
600.99	2205.24
601.34	2199.76
601.69	2192.77
602.04	2186.71
602.39	2180.24
602.74	2174.19
603.08	2168.72
603.43	2162.28
603.78	2155.54
604.13	2148.47
604.48	2141.40
604.83	2135.49
605.18	2129.27
605.53	2122.41
605.87	2115.43
606.22	2108.69
606.57	2100.83
606.92	2092.76
607.27	2085.87
607.62	2079.31
607.96	2072.35
608.31	2066.07
608.66	2058.46
609.01	2050.89
609.36	2043.68
609.70	2036.05
610.05	2028.33
610.40	2020.06
610.75	2011.77
611.10	2004.07
611.44	1995.21
611.79	1986.50
612.14	1976.37
612.49	1965.81
612.83	1956.52
613.18	1947.30
613.53	1938.15
613.88	1928.69
614.22	1920.34
614.57	1910.58
614.92	1900.18
615.27	1890.07
615.61	1879.92
615.96	1870.41
616.31	1861.01
616.65	1851.70
617.00	1842.00
617.35	1832.40
617.70	1822.71
618.04	1812.70
618.39	1802.59
618.74	1793.08
619.08	1783.52
619.43	1774.94
619.78	1766.87
620.12	1758.33
620.47	1748.80
620.82	1738.46
621.16	1728.69
621.51	1718.80
621.85	1708.99
622.20	1698.57
622.55	1687.98
622.89	1678.18
623.24	1668.44
623.59	1658.62
623.93	1648.53
624.28	1638.86
624.62	1628.84
624.97	1618.66
625.32	1608.94
625.66	1600.09
626.01	1591.35
626.35	1581.98
626.70	1571.95
627.04	1561.93
627.39	1551.75
627.73	1542.43
628.08	1533.52
628.43	1523.98
628.77	1514.77
629.12	1505.99
629.46	1498.31
629.81	1490.05
630.15	1480.62
630.50	1470.87
630.84	1460.36
631.19	1450.50
631.53	1441.22
631.88	1431.07
632.22	1421.10
632.57	1411.83
632.91	1401.81
633.26	1392.03
633.60	1382.58
633.95	1373.31
634.29	1363.86
634.64	1354.74
634.98	1344.94
635.32	1335.66
635.67	1327.21
636.01	1318.00
636.36	1308.21
636.70	1298.63
637.05	1289.32
637.39	1280.36
637.73	1271.87
638.08	1264.43
638.42	1256.31
638.77	1247.61
639.11	1239.54
639.45	1231.79
639.80	1223.33
640.14	1214.62
640.49	1205.78
640.83	1197.07
641.17	1189.07
641.52	1180.95
641.86	1172.31
642.20	1164.45
642.55	1155.98
642.89	1147.23
643.23	1138.52
643.58	1130.58
643.92	1121.71
644.26	1113.13
644.61	1104.83
644.95	1096.02
645.29	1086.77
645.64	1077.60
645.98	1069.11
646.32	1061.18
646.66	1052.72
647.01	1044.35
647.35	1036.28
647.69	1028.05
648.04	1019.74
648.38	1010.90
648.72	1002.12
649.06	993.66
649.41	985.56
649.75	977.63
650.09	969.74
650.43	961.85
650.78	953.51
651.12	945.89
651.46	938.62
651.80	931.39
652.14	924.14
652.49	916.76
652.83	909.58
653.17	902.00
653.51	894.46
653.85	887.31
654.20	880.28
654.54	872.85
654.88	865.58
655.22	858.50
655.56	851.59
655.90	844.94
656.25	838.50
656.59	831.68
656.93	824.78
657.27	817.79
657.61	810.95
657.95	804.93
658.29	799.09
658.64	792.96
658.98	786.55
659.32	780.13
659.66	773.95
660.00	767.61
660.34	761.62
660.68	755.62
661.02	749.39
661.36	743.44
661.70	737.83
662.05	732.38
662.39	726.94
662.73	721.60
663.07	716.29
663.41	710.77
663.75	705.19
664.09	699.55
664.43	694.16
664.77	688.95
665.11	683.27
665.45	677.40
665.79	671.60
666.13	666.02
666.47	660.61
666.81	655.33
667.15	650.10
667.49	645.01
667.83	639.85
668.17	634.65
668.51	629.63
668.85	624.72
669.19	619.90
669.53	614.96
669.87	609.95
670.21	605.22
670.55	600.56
670.89	596.18
671.23	591.97
671.57	587.70
671.91	583.44
672.25	579.35
672.58	575.30
672.92	571.35
673.26	567.52
673.60	563.68
673.94	559.83
674.28	556.27
674.62	552.56
674.96	548.80
675.30	545.36
675.64	541.77
675.97	538.28
676.31	534.73
676.65	531.20
676.99	527.82
677.33	524.10
677.67	520.50
678.01	516.71
678.34	513.12
678.68	509.62
679.02	506.07
679.36	502.44
679.70	498.90
680.04	495.39
680.37	491.97
680.71	488.76
681.05	485.69
681.39	482.45
681.73	479.34
682.06	476.42
682.40	473.42
682.74	470.30
683.08	467.12
683.42	464.02
683.75	461.07
684.09	458.09
684.43	455.40
684.77	452.54
685.10	449.74
685.44	446.85
685.78	444.01
686.12	441.28
686.45	438.56
686.79	435.90
687.13	433.47
687.46	430.93
687.80	428.31
688.14	425.52
688.48	422.98
688.81	420.38
689.15	417.90
689.49	415.33
689.82	412.85
690.16	410.36
690.50	407.94
690.83	405.48
691.17	403.01
691.51	400.54
691.84	398.37
692.18	396.26
692.52	394.12
692.85	392.08
693.19	389.97
693.52	387.92
693.86	385.80
694.20	383.66
694.53	381.57
694.87	379.42
695.21	377.34
695.54	375.30
695.88	373.15
696.21	370.97
696.55	368.95
696.88	366.92
697.22	364.97
697.56	363.13
697.89	361.32
698.23	359.62
698.56	357.87
698.90	356.11
699.23	354.21
699.57	352.38
699.90	350.56
700.24	348.83
700.58	347.17
700.91	345.47
701.25	343.94
701.58	342.38
701.92	340.84
702.25	339.28
702.59	337.70
702.92	336.26
703.26	334.72
703.59	333.25
703.93	332.05
704.26	330.68
704.60	329.17
704.93	327.71
705.26	326.25
705.60	324.83
705.93	323.35
706.27	322.06
706.60	320.83
706.94	319.63
707.27	318.24
707.61	316.89
707.94	315.65
708.27	314.17
708.61	312.74
708.94	311.40
709.28	310.11
709.61	308.89
709.94	307.70
710.28	306.52
710.61	305.37
710.95	303.99
711.28	302.94
711.61	301.82
711.95	300.74
712.28	299.58
712.61	298.45
712.95	297.47
713.28	296.46
713.61	295.36
713.95	294.18
714.28	293.24
714.61	292.20
714.95	291.16
715.28	290.19
715.61	289.21
715.95	288.29
716.28	287.40
716.61	286.44
716.95	285.47
717.28	284.59
717.61	283.67
717.94	282.82
718.28	281.79
718.61	280.96
718.94	280.06
719.27	279.22
719.61	278.43
719.94	277.54
720.27	276.64
720.60	275.83
720.94	275.09
721.27	274.38
721.60	273.69
721.93	273.02
722.27	272.38
722.60	271.71
722.93	271.02
723.26	270.35
723.59	269.69
723.93	269.07
724.26	268.44
724.59	267.80
724.92	267.18
725.25	266.65
725.59	266.04
725.92	265.53
726.25	265.00
726.58	264.40
726.91	263.79
727.24	263.23
727.57	262.69
727.91	262.13
728.24	261.54
728.57	260.98
728.90	260.42
729.23	259.85
729.56	259.46
729.89	258.93
730.22	258.40
730.55	257.83
730.89	257.32
731.22	256.78
731.55	256.27
731.88	255.74
732.21	255.19
732.54	254.68
732.87	254.18
733.20	253.69
733.53	253.25
733.86	252.85
734.19	252.41
734.52	252.02
734.85	251.70
735.18	251.24
735.51	250.89
735.84	250.52
736.17	250.11
736.50	249.60
736.83	249.45
737.16	249.10
737.49	248.77
737.82	248.39
738.15	248.05
738.48	247.70
738.81	247.33
739.14	246.94
739.47	246.60
739.80	246.25
740.13	245.93
740.46	245.57
740.79	245.18
741.12	244.79
741.45	244.43
741.78	244.01
742.11	243.77
742.44	243.40
742.77	243.09
743.10	242.77
743.43	242.42
743.75	241.85
744.08	241.77
744.41	241.43
744.74	241.08
745.07	240.72
745.40	240.41
745.73	240.17
746.06	239.88
746.39	239.60
746.71	239.28
747.04	238.93
747.37	238.60
747.70	238.33
748.03	238.10
748.36	237.83
748.68	237.53
749.01	237.16
749.34	236.87
749.67	236.58
750.00	236.31
750.33	236.17
750.65	236.00
750.98	235.47
751.31	235.21
751.64	235.01
751.97	234.91
752.29	234.69
752.62	234.34
752.95	234.09
753.28	233.82
753.60	233.57
753.93	233.42
754.26	233.21
754.59	232.95
754.91	232.69
755.24	232.43
755.57	232.20
755.90	231.99
756.22	231.77
756.55	231.56
756.88	231.32
757.20	230.99
757.53	230.64
757.86	230.46
758.19	230.27
758.51	230.04
758.84	229.69
759.17	229.45
759.49	229.28
759.82	229.17
760.15	229.00
760.47	228.86
760.80	228.59
761.13	228.42
761.45	228.23
761.78	228.06
762.11	227.89
762.43	227.72
762.76	227.56
763.08	227.43
763.41	227.23
763.74	227.10
764.06	226.98
764.39	226.88
764.71	226.70
765.04	226.54
765.37	226.39
765.69	226.26
766.02	226.14
766.34	226.04
766.67	225.84
767.00	225.73
767.32	225.71
767.65	225.69
767.97	225.56
768.30	225.47
768.62	225.34
768.95	225.20
769.27	225.06
769.60	224.97
769.92	224.80
770.25	224.68
770.57	224.53
770.90	224.38
771.22	224.28
771.55	224.18
771.87	224.08
772.20	223.98
772.52	224.06
772.85	224.17
773.17	224.04
773.50	223.94
773.82	223.84
774.15	223.63
774.47	223.43
774.80	223.33
775.12	223.21
775.45	223.11
775.77	223.02
776.09	222.96
776.42	222.86
776.74	222.84
777.07	222.75
777.39	222.68
777.72	222.61
778.04	222.54
778.36	222.43
778.69	222.36
779.01	222.27
779.33	222.00
779.66	221.72
779.98	221.62
780.31	221.55
780.63	221.53
780.95	221.48
781.28	221.42
781.60	221.33
781.92	221.27
782.25	221.23
782.57	221.17
782.89	221.11
783.22	221.06
783.54	220.97
783.86	220.94
784.19	220.84
784.51	220.83
784.83	220.73
785.16	220.69
785.48	220.62
785.80	220.57
786.12	220.55
