SpectraSuite Data File
++++++++++++++++++++++++++++++++++++
Date: Tue Jan 29 16:49:33 EST 2013
User: group
Dark Spectrum Present: No
Reference Spectrum Present: No
Number of Sampled Component Spectra: 1
Spectrometers: USB2E7196
Integration Time (usec): 65000 (USB2E7196)
Spectra Averaged: 100 (USB2E7196)
Boxcar Smoothing: 10 (USB2E7196)
Correct for Electrical Dark: No (USB2E7196)
Strobe/Lamp Enabled: No (USB2E7196)
Correct for Detector Non-linearity: No (USB2E7196)
Correct for Stray Light: No (USB2E7196)
Number of Pixels in Processed Spectrum: 2048
>>>>>Begin Processed Spectral Data<<<<<
339.09	0.00
339.48	201.48
339.86	202.72
340.24	204.45
340.63	205.55
341.01	210.57
341.39	209.14
341.78	210.56
342.16	211.75
342.54	211.93
342.93	201.03
343.31	211.20
343.69	211.78
344.07	212.25
344.46	212.71
344.84	213.10
345.22	213.25
345.60	213.50
345.99	213.67
346.37	213.76
346.75	213.90
347.13	213.97
347.52	214.07
347.90	214.17
348.28	214.19
348.66	214.23
349.05	214.20
349.43	214.26
349.81	214.29
350.19	214.35
350.57	214.46
350.96	214.52
351.34	214.60
351.72	214.69
352.10	214.80
352.48	214.84
352.87	214.91
353.25	214.99
353.63	215.05
354.01	215.10
354.39	215.19
354.77	215.22
355.15	215.35
355.54	215.40
355.92	215.41
356.30	215.48
356.68	215.69
357.06	215.75
357.44	215.78
357.82	215.84
358.20	215.93
358.58	215.95
358.97	216.02
359.35	216.12
359.73	216.22
360.11	216.30
360.49	216.38
360.87	216.42
361.25	216.46
361.63	216.60
362.01	216.65
362.39	216.69
362.77	216.78
363.15	216.78
363.53	216.78
363.91	216.82
364.29	216.86
364.67	216.71
365.05	216.74
365.43	216.77
365.81	216.82
366.19	216.91
366.57	216.99
366.95	216.99
367.33	216.95
367.71	216.92
368.09	216.94
368.47	216.92
368.85	216.92
369.23	216.97
369.61	216.86
369.99	216.95
370.37	216.97
370.75	217.02
371.13	216.94
371.51	216.90
371.89	216.89
372.27	216.89
372.65	216.88
373.03	216.84
373.41	216.82
373.78	216.75
374.16	216.61
374.54	216.53
374.92	216.46
375.30	216.42
375.68	216.34
376.06	216.30
376.44	216.25
376.82	216.20
377.19	216.17
377.57	216.11
377.95	215.97
378.33	215.88
378.71	215.74
379.09	215.78
379.47	215.76
379.84	215.68
380.22	215.58
380.60	215.51
380.98	215.48
381.36	215.42
381.73	215.36
382.11	215.35
382.49	215.33
382.87	215.29
383.25	215.25
383.62	215.45
384.00	215.37
384.38	215.36
384.76	215.38
385.13	215.42
385.51	215.40
385.89	215.35
386.27	215.34
386.64	215.32
387.02	215.23
387.40	215.20
387.78	215.19
388.15	215.17
388.53	215.10
388.91	215.04
389.29	215.01
389.66	215.03
390.04	215.00
390.42	215.00
390.79	214.99
391.17	214.96
391.55	214.74
391.92	214.74
392.30	214.72
392.68	214.63
393.05	214.56
393.43	214.52
393.81	214.51
394.18	214.48
394.56	214.48
394.94	214.53
395.31	214.52
395.69	214.61
396.06	214.65
396.44	214.76
396.82	214.78
397.19	214.93
397.57	214.94
397.95	214.99
398.32	214.92
398.70	214.98
399.07	215.06
399.45	215.10
399.82	215.16
400.20	215.20
400.58	215.29
400.95	215.28
401.33	215.42
401.70	215.65
402.08	215.74
402.45	215.83
402.83	215.99
403.20	216.10
403.58	216.17
403.95	216.31
404.33	216.45
404.71	216.62
405.08	216.86
405.46	217.04
405.83	217.22
406.21	217.48
406.58	217.68
406.96	217.90
407.33	218.18
407.70	218.47
408.08	218.93
408.45	219.29
408.83	219.71
409.20	220.08
409.58	220.36
409.95	220.86
410.33	221.34
410.70	221.78
411.08	222.32
411.45	222.91
411.82	223.50
412.20	224.16
412.57	224.99
412.95	225.58
413.32	226.42
413.69	227.28
414.07	228.15
414.44	229.18
414.82	230.23
415.19	231.39
415.56	232.58
415.94	233.79
416.31	235.24
416.68	236.64
417.06	238.26
417.43	239.84
417.81	241.56
418.18	243.39
418.55	245.32
418.93	247.37
419.30	249.49
419.67	251.77
420.04	254.09
420.42	256.46
420.79	259.31
421.16	262.10
421.54	265.02
421.91	268.06
422.28	271.14
422.66	274.48
423.03	277.77
423.40	281.18
423.77	284.80
424.15	288.44
424.52	292.31
424.89	296.48
425.26	300.57
425.64	304.51
426.01	308.78
426.38	313.24
426.75	317.81
427.13	322.55
427.50	327.54
427.87	332.76
428.24	337.98
428.61	342.97
428.99	348.50
429.36	354.50
429.73	360.41
430.10	366.32
430.47	372.35
430.85	378.69
431.22	385.43
431.59	392.62
431.96	399.50
432.33	407.03
432.70	414.32
433.08	422.90
433.45	430.93
433.82	439.03
434.19	447.94
434.56	456.68
434.93	465.03
435.30	473.35
435.68	482.55
436.05	491.56
436.42	500.51
436.79	508.76
437.16	517.58
437.53	526.88
437.90	536.12
438.27	545.18
438.64	554.44
439.01	562.93
439.38	570.52
439.75	577.88
440.13	586.32
440.50	594.29
440.87	600.71
441.24	607.40
441.61	614.69
441.98	620.17
442.35	626.53
442.72	632.92
443.09	639.03
443.46	642.77
443.83	645.38
444.20	647.58
444.57	650.70
444.94	652.21
445.31	653.73
445.68	655.10
446.05	655.68
446.42	654.96
446.79	654.14
447.16	652.99
447.53	652.24
447.90	648.98
448.27	645.70
448.64	641.10
449.01	637.80
449.37	631.94
449.74	626.21
450.11	619.28
450.48	611.84
450.85	604.30
451.22	597.83
451.59	591.60
451.96	585.77
452.33	577.89
452.70	570.78
453.07	562.22
453.43	553.60
453.80	545.31
454.17	537.28
454.54	529.62
454.91	521.42
455.28	513.37
455.65	505.89
456.02	498.33
456.38	491.93
456.75	483.97
457.12	477.35
457.49	470.80
457.86	464.60
458.23	459.19
458.59	453.25
458.96	447.17
459.33	441.85
459.70	436.38
460.07	432.07
460.43	427.08
460.80	422.51
461.17	418.48
461.54	414.17
461.91	410.06
462.27	405.93
462.64	402.53
463.01	398.73
463.38	395.01
463.74	391.34
464.11	388.08
464.48	385.26
464.85	382.15
465.21	379.75
465.58	377.09
465.95	373.98
466.32	371.39
466.68	368.75
467.05	366.15
467.42	363.61
467.78	360.92
468.15	358.34
468.52	356.41
468.88	353.86
469.25	351.65
469.62	349.83
469.98	347.86
470.35	346.03
470.72	344.28
471.08	342.43
471.45	340.90
471.82	339.36
472.18	337.69
472.55	336.43
472.92	335.01
473.28	333.82
473.65	332.61
474.02	331.43
474.38	330.55
474.75	329.79
475.11	328.97
475.48	328.36
475.85	327.93
476.21	327.40
476.58	327.04
476.94	326.83
477.31	326.52
477.67	326.26
478.04	326.07
478.41	326.06
478.77	326.23
479.14	326.17
479.50	326.28
479.87	326.59
480.23	326.92
480.60	327.09
480.96	327.32
481.33	327.92
481.69	328.47
482.06	329.01
482.42	329.47
482.79	330.06
483.15	330.90
483.52	331.82
483.88	332.69
484.25	333.62
484.61	334.60
484.98	335.63
485.34	336.94
485.71	338.33
486.07	339.76
486.44	341.10
486.80	342.70
487.17	344.35
487.53	346.17
487.90	348.06
488.26	350.14
488.62	352.27
488.99	354.33
489.35	356.47
489.72	358.86
490.08	361.37
490.44	363.97
490.81	366.64
491.17	369.33
491.54	372.30
491.90	375.33
492.26	378.61
492.63	382.00
492.99	385.43
493.36	389.08
493.72	392.92
494.08	396.88
494.45	401.08
494.81	405.43
495.17	409.82
495.54	414.56
495.90	419.34
496.26	424.26
496.63	429.45
496.99	434.89
497.35	440.36
497.72	446.14
498.08	452.03
498.44	458.12
498.80	464.55
499.17	471.09
499.53	477.81
499.89	484.66
500.26	491.61
500.62	498.75
500.98	506.18
501.34	513.65
501.71	521.42
502.07	529.20
502.43	537.18
502.79	545.42
503.16	553.76
503.52	562.37
503.88	571.14
504.24	580.07
504.60	589.11
504.97	598.42
505.33	607.67
505.69	617.54
506.05	627.41
506.41	637.34
506.78	647.35
507.14	657.59
507.50	668.00
507.86	678.72
508.22	689.39
508.59	699.95
508.95	710.97
509.31	722.16
509.67	733.66
510.03	744.98
510.39	756.55
510.75	768.29
511.12	780.15
511.48	792.20
511.84	804.44
512.20	816.73
512.56	829.40
512.92	842.29
513.28	854.83
513.64	867.54
514.00	880.34
514.37	893.25
514.73	906.35
515.09	919.40
515.45	932.34
515.81	945.38
516.17	958.85
516.53	972.09
516.89	985.25
517.25	998.40
517.61	1011.99
517.97	1025.49
518.33	1038.75
518.69	1052.30
519.05	1066.07
519.41	1079.78
519.77	1093.67
520.13	1106.89
520.49	1120.05
520.85	1133.47
521.21	1146.87
521.57	1160.51
521.93	1173.65
522.29	1187.35
522.65	1200.90
523.01	1214.48
523.37	1227.72
523.73	1241.11
524.09	1254.33
524.45	1267.76
524.81	1281.30
525.17	1294.77
525.53	1307.98
525.89	1321.34
526.25	1334.50
526.61	1347.40
526.97	1360.51
527.33	1373.51
527.68	1387.00
528.04	1400.60
528.40	1413.75
528.76	1427.19
529.12	1440.17
529.48	1453.45
529.84	1465.82
530.20	1478.82
530.56	1491.47
530.91	1504.82
531.27	1517.68
531.63	1530.43
531.99	1543.22
532.35	1555.57
532.71	1567.94
533.07	1580.97
533.42	1593.24
533.78	1605.34
534.14	1617.45
534.50	1628.65
534.86	1640.42
535.21	1651.37
535.57	1662.92
535.93	1674.23
536.29	1685.20
536.65	1696.76
537.00	1707.85
537.36	1719.40
537.72	1730.33
538.08	1741.86
538.44	1752.87
538.79	1763.98
539.15	1775.16
539.51	1786.01
539.87	1797.37
540.22	1808.38
540.58	1819.26
540.94	1830.21
541.29	1840.74
541.65	1850.51
542.01	1861.09
542.37	1871.17
542.72	1881.36
543.08	1891.10
543.44	1901.76
543.79	1911.17
544.15	1920.76
544.51	1930.91
544.87	1940.81
545.22	1950.18
545.58	1959.17
545.94	1968.15
546.29	1976.76
546.65	1985.16
547.01	1993.54
547.36	2001.24
547.72	2008.94
548.07	2016.63
548.43	2024.50
548.79	2032.39
549.14	2040.70
549.50	2049.31
549.86	2057.20
550.21	2064.87
550.57	2072.74
550.92	2079.60
551.28	2087.26
551.64	2094.37
551.99	2101.86
552.35	2108.98
552.70	2115.86
553.06	2122.51
553.41	2128.75
553.77	2135.27
554.13	2141.71
554.48	2148.70
554.84	2155.92
555.19	2162.42
555.55	2168.81
555.90	2175.00
556.26	2181.88
556.61	2187.96
556.97	2192.87
557.32	2198.67
557.68	2205.00
558.03	2210.82
558.39	2216.14
558.74	2222.10
559.10	2227.66
559.45	2233.19
559.81	2238.75
560.16	2244.25
560.52	2250.12
560.87	2256.67
561.23	2262.50
561.58	2269.01
561.94	2274.29
562.29	2278.77
562.64	2284.89
563.00	2290.59
563.35	2296.10
563.71	2301.66
564.06	2307.30
564.42	2312.99
564.77	2317.91
565.12	2323.20
565.48	2328.09
565.83	2333.66
566.19	2338.78
566.54	2343.98
566.89	2348.47
567.25	2352.87
567.60	2358.51
567.96	2363.52
568.31	2367.74
568.66	2372.03
569.02	2375.90
569.37	2379.58
569.72	2383.93
570.08	2387.27
570.43	2390.21
570.78	2393.43
571.14	2395.92
571.49	2399.06
571.84	2402.57
572.20	2405.40
572.55	2408.15
572.90	2410.31
573.26	2412.83
573.61	2415.31
573.96	2417.46
574.31	2419.24
574.67	2421.10
575.02	2421.56
575.37	2422.97
575.72	2423.60
576.08	2424.87
576.43	2424.77
576.78	2424.97
577.13	2426.27
577.49	2427.21
577.84	2428.12
578.19	2428.93
578.54	2429.33
578.90	2429.66
579.25	2429.38
579.60	2429.15
579.95	2428.24
580.30	2428.23
580.66	2427.43
581.01	2425.68
581.36	2423.09
581.71	2421.64
582.06	2420.30
582.42	2419.29
582.77	2416.75
583.12	2414.89
583.47	2413.31
583.82	2412.62
584.17	2411.09
584.53	2408.82
584.88	2406.64
585.23	2404.65
585.58	2402.36
585.93	2400.13
586.28	2397.75
586.63	2395.03
586.98	2392.80
587.34	2390.66
587.69	2387.92
588.04	2385.50
588.39	2383.90
588.74	2381.33
589.09	2378.37
589.44	2375.03
589.79	2372.36
590.14	2370.17
590.49	2367.35
590.84	2363.39
591.19	2360.07
591.54	2356.82
591.89	2352.86
592.25	2349.53
592.60	2345.12
592.95	2340.89
593.30	2336.69
593.65	2332.21
594.00	2327.88
594.35	2324.66
594.70	2319.82
595.05	2315.21
595.40	2309.67
595.75	2303.66
596.10	2299.87
596.45	2295.13
596.80	2290.55
597.15	2285.33
597.50	2279.36
597.85	2274.44
598.19	2269.17
598.54	2263.23
598.89	2257.88
599.24	2253.21
599.59	2246.98
599.94	2241.04
600.29	2235.00
600.64	2228.95
600.99	2222.15
601.34	2216.56
601.69	2209.60
602.04	2203.28
602.39	2196.67
602.74	2190.51
603.08	2184.93
603.43	2178.40
603.78	2171.46
604.13	2164.39
604.48	2157.12
604.83	2151.11
605.18	2144.85
605.53	2137.95
605.87	2130.89
606.22	2124.12
606.57	2116.06
606.92	2108.01
607.27	2101.22
607.62	2094.55
607.96	2087.63
608.31	2081.22
608.66	2073.42
609.01	2065.62
609.36	2058.35
609.70	2050.60
610.05	2042.88
610.40	2034.75
610.75	2026.53
611.10	2018.78
611.44	2009.76
611.79	2001.10
612.14	1991.15
612.49	1980.38
612.83	1971.02
613.18	1961.83
613.53	1952.46
613.88	1943.02
614.22	1934.53
614.57	1924.61
614.92	1914.08
615.27	1903.87
615.61	1893.66
615.96	1884.02
616.31	1874.52
616.65	1865.22
617.00	1855.58
617.35	1846.01
617.70	1836.34
618.04	1826.32
618.39	1816.16
618.74	1806.72
619.08	1797.17
619.43	1788.41
619.78	1780.20
620.12	1771.74
620.47	1762.26
620.82	1752.03
621.16	1742.33
621.51	1732.40
621.85	1722.68
622.20	1712.43
622.55	1701.94
622.89	1692.03
623.24	1682.42
623.59	1672.60
623.93	1662.59
624.28	1652.89
624.62	1642.92
624.97	1632.76
625.32	1623.06
625.66	1614.25
626.01	1605.46
626.35	1596.10
626.70	1586.30
627.04	1576.36
627.39	1566.21
627.73	1557.10
628.08	1548.39
628.43	1538.85
628.77	1529.75
629.12	1520.85
629.46	1513.11
629.81	1504.90
630.15	1495.58
630.50	1485.77
630.84	1475.58
631.19	1465.70
631.53	1456.49
631.88	1446.40
632.22	1436.44
632.57	1427.10
632.91	1417.09
633.26	1407.42
633.60	1397.98
633.95	1388.76
634.29	1379.29
634.64	1370.15
634.98	1360.20
635.32	1350.93
635.67	1342.70
636.01	1333.60
636.36	1324.03
636.70	1314.57
637.05	1305.24
637.39	1296.43
637.73	1288.03
638.08	1280.51
638.42	1272.48
638.77	1263.81
639.11	1255.79
639.45	1248.04
639.80	1239.70
640.14	1231.01
640.49	1222.21
640.83	1213.36
641.17	1205.17
641.52	1197.20
641.86	1188.66
642.20	1180.84
642.55	1172.21
642.89	1163.32
643.23	1154.74
643.58	1146.67
643.92	1137.76
644.26	1129.17
644.61	1120.83
644.95	1112.05
645.29	1102.95
645.64	1093.85
645.98	1085.39
646.32	1077.48
646.66	1069.07
647.01	1060.83
647.35	1052.82
647.69	1044.54
648.04	1036.45
648.38	1027.72
648.72	1019.01
649.06	1010.66
649.41	1002.58
649.75	994.83
650.09	987.03
650.43	979.00
650.78	970.72
651.12	963.01
651.46	955.63
651.80	948.50
652.14	941.27
652.49	933.74
652.83	926.48
653.17	918.85
653.51	911.20
653.85	904.01
654.20	896.76
654.54	889.40
654.88	882.20
655.22	875.00
655.56	868.02
655.90	861.19
656.25	854.48
656.59	847.50
656.93	840.50
657.27	833.43
657.61	826.49
657.95	820.41
658.29	814.55
658.64	808.44
658.98	801.92
659.32	795.37
659.66	789.11
660.00	782.83
660.34	776.75
660.68	770.66
661.02	764.35
661.36	758.37
661.70	752.55
662.05	746.95
662.39	741.47
662.73	736.05
663.07	730.75
663.41	725.22
663.75	719.62
664.09	713.89
664.43	708.45
664.77	703.09
665.11	697.34
665.45	691.41
665.79	685.59
666.13	679.85
666.47	674.33
666.81	668.91
667.15	663.49
667.49	658.32
667.83	653.12
668.17	647.91
668.51	642.82
668.85	637.87
669.19	632.99
669.53	627.94
669.87	622.85
670.21	618.05
670.55	613.29
670.89	608.84
671.23	604.58
671.57	600.16
671.91	595.89
672.25	591.72
672.58	587.65
672.92	583.60
673.26	579.70
673.60	575.86
673.94	572.11
674.28	568.48
674.62	564.70
674.96	560.93
675.30	557.27
675.64	553.63
675.97	550.07
676.31	546.44
676.65	542.84
676.99	539.46
677.33	535.58
677.67	531.96
678.01	528.03
678.34	524.32
678.68	520.77
679.02	517.19
679.36	513.44
679.70	509.73
680.04	506.15
680.37	502.70
680.71	499.34
681.05	496.09
681.39	492.81
681.73	489.63
682.06	486.55
682.40	483.52
682.74	480.28
683.08	477.02
683.42	473.75
683.75	470.69
684.09	467.53
684.43	464.76
684.77	461.78
685.10	458.94
685.44	456.00
685.78	453.07
686.12	450.21
686.45	447.45
686.79	444.80
687.13	442.22
687.46	439.53
687.80	436.82
688.14	433.92
688.48	431.29
688.81	428.55
689.15	425.95
689.49	423.30
689.82	420.77
690.16	418.14
690.50	415.70
690.83	413.23
691.17	410.68
691.51	408.16
691.84	405.89
692.18	403.64
692.52	401.44
692.85	399.29
693.19	397.17
693.52	395.05
693.86	392.79
694.20	390.63
694.53	388.50
694.87	386.30
695.21	384.16
695.54	381.92
695.88	379.75
696.21	377.52
696.55	375.38
696.88	373.27
697.22	371.28
697.56	369.32
697.89	367.40
698.23	365.64
698.56	363.82
698.90	362.02
699.23	360.10
699.57	358.19
699.90	356.30
700.24	354.43
700.58	352.60
700.91	350.89
701.25	349.22
701.58	347.58
701.92	345.94
702.25	344.31
702.59	342.66
702.92	341.10
703.26	339.50
703.59	337.99
703.93	336.69
704.26	335.25
704.60	333.75
704.93	332.24
705.26	330.72
705.60	329.22
705.93	327.67
706.27	326.34
706.60	325.04
706.94	323.80
707.27	322.39
707.61	321.03
707.94	319.67
708.27	318.19
708.61	316.73
708.94	315.38
709.28	314.07
709.61	312.84
709.94	311.65
710.28	310.43
710.61	309.21
710.95	307.76
711.28	306.65
711.61	305.45
711.95	304.29
712.28	303.09
712.61	301.90
712.95	300.80
713.28	299.79
713.61	298.66
713.95	297.47
714.28	296.45
714.61	295.38
714.95	294.36
715.28	293.28
715.61	292.22
715.95	291.25
716.28	290.29
716.61	289.34
716.95	288.31
717.28	287.37
717.61	286.38
717.94	285.47
718.28	284.42
718.61	283.54
718.94	282.64
719.27	281.77
719.61	280.91
719.94	280.06
720.27	279.02
720.60	278.13
720.94	277.31
721.27	276.52
721.60	275.81
721.93	275.09
722.27	274.50
722.60	273.82
722.93	273.09
723.26	272.44
723.59	271.71
723.93	271.06
724.26	270.42
724.59	269.78
724.92	269.19
725.25	268.62
725.59	268.01
725.92	267.45
726.25	266.85
726.58	266.30
726.91	265.70
727.24	265.16
727.57	264.55
727.91	263.93
728.24	263.35
728.57	262.75
728.90	262.15
729.23	261.47
729.56	261.04
729.89	260.45
730.22	259.84
730.55	259.27
730.89	258.70
731.22	258.17
731.55	257.66
731.88	257.10
732.21	256.54
732.54	255.99
732.87	255.47
733.20	255.02
733.53	254.52
733.86	254.05
734.19	253.57
734.52	253.18
734.85	252.88
735.18	252.44
735.51	252.08
735.84	251.68
736.17	251.32
736.50	250.79
736.83	250.65
737.16	250.27
737.49	249.89
737.82	249.47
738.15	249.07
738.48	248.67
738.81	248.30
739.14	247.89
739.47	247.48
739.80	247.10
740.13	246.71
740.46	246.26
740.79	245.85
741.12	245.48
741.45	245.06
741.78	244.57
742.11	244.29
742.44	243.89
742.77	243.57
743.10	243.19
743.43	242.83
743.75	242.24
744.08	242.17
744.41	241.82
744.74	241.46
745.07	241.08
745.40	240.77
745.73	240.51
746.06	240.17
746.39	239.89
746.71	239.54
747.04	239.22
747.37	238.94
747.70	238.67
748.03	238.36
748.36	238.10
748.68	237.85
749.01	237.47
749.34	237.21
749.67	236.90
750.00	236.63
750.33	236.49
750.65	236.25
750.98	235.70
751.31	235.48
751.64	235.27
751.97	235.18
752.29	234.90
752.62	234.56
752.95	234.29
753.28	233.99
753.60	233.74
753.93	233.55
754.26	233.30
754.59	233.02
754.91	232.77
755.24	232.56
755.57	232.24
755.90	232.00
756.22	231.72
756.55	231.44
756.88	231.21
757.20	230.87
757.53	230.59
757.86	230.37
758.19	230.14
758.51	229.89
758.84	229.58
759.17	229.39
759.49	229.23
759.82	229.18
760.15	229.05
760.47	228.88
760.80	228.61
761.13	228.46
761.45	228.26
761.78	228.08
762.11	227.87
762.43	227.72
762.76	227.58
763.08	227.43
763.41	227.28
763.74	227.12
764.06	226.94
764.39	226.77
764.71	226.60
765.04	226.42
765.37	226.27
765.69	226.10
766.02	225.96
766.34	225.80
766.67	225.56
767.00	225.44
767.32	225.37
767.65	225.32
767.97	225.19
768.30	225.06
768.62	224.93
768.95	224.80
769.27	224.63
769.60	224.49
769.92	224.34
770.25	224.19
770.57	224.06
770.90	223.95
771.22	223.82
771.55	223.76
771.87	223.64
772.20	223.52
772.52	223.54
772.85	223.65
773.17	223.53
773.50	223.41
773.82	223.27
774.15	223.07
774.47	222.87
774.80	222.71
775.12	222.63
775.45	222.54
775.77	222.44
776.09	222.40
776.42	222.33
776.74	222.33
777.07	222.23
777.39	222.12
777.72	222.01
778.04	221.96
778.36	221.84
778.69	221.75
779.01	221.72
779.33	221.47
779.66	221.14
779.98	221.05
780.31	221.00
780.63	221.05
780.95	220.99
781.28	220.94
781.60	220.86
781.92	220.78
782.25	220.68
782.57	220.62
782.89	220.54
783.22	220.48
783.54	220.34
783.86	220.29
784.19	220.20
784.51	220.20
784.83	220.12
785.16	220.05
785.48	220.02
785.80	219.93
786.12	219.90
