SpectraSuite Data File
++++++++++++++++++++++++++++++++++++
Date: Tue Jan 29 16:44:31 EST 2013
User: group
Dark Spectrum Present: No
Reference Spectrum Present: No
Number of Sampled Component Spectra: 1
Spectrometers: USB2E7196
Integration Time (usec): 65000 (USB2E7196)
Spectra Averaged: 100 (USB2E7196)
Boxcar Smoothing: 10 (USB2E7196)
Correct for Electrical Dark: No (USB2E7196)
Strobe/Lamp Enabled: No (USB2E7196)
Correct for Detector Non-linearity: No (USB2E7196)
Correct for Stray Light: No (USB2E7196)
Number of Pixels in Processed Spectrum: 2048
>>>>>Begin Processed Spectral Data<<<<<
339.09	0.00
339.48	201.27
339.86	203.26
340.24	204.52
340.63	205.92
341.01	210.35
341.39	208.35
341.78	210.13
342.16	211.78
342.54	212.09
342.93	200.97
343.31	211.15
343.69	211.71
344.07	212.19
344.46	212.66
344.84	213.10
345.22	213.27
345.60	213.58
345.99	213.79
346.37	213.95
346.75	214.06
347.13	214.18
347.52	214.24
347.90	214.36
348.28	214.42
348.66	214.50
349.05	214.45
349.43	214.53
349.81	214.58
350.19	214.64
350.57	214.69
350.96	214.79
351.34	214.86
351.72	215.00
352.10	215.06
352.48	215.12
352.87	215.13
353.25	215.23
353.63	215.28
354.01	215.35
354.39	215.40
354.77	215.46
355.15	215.59
355.54	215.65
355.92	215.66
356.30	215.72
356.68	215.89
357.06	215.99
357.44	215.99
357.82	216.05
358.20	216.13
358.58	216.18
358.97	216.24
359.35	216.34
359.73	216.41
360.11	216.50
360.49	216.57
360.87	216.61
361.25	216.62
361.63	216.72
362.01	216.78
362.39	216.79
362.77	216.85
363.15	216.84
363.53	216.87
363.91	216.89
364.29	216.90
364.67	216.73
365.05	216.75
365.43	216.80
365.81	216.82
366.19	216.89
366.57	216.97
366.95	216.96
367.33	216.91
367.71	216.92
368.09	216.93
368.47	216.91
368.85	216.90
369.23	216.97
369.61	216.87
369.99	216.90
370.37	216.89
370.75	217.00
371.13	216.94
371.51	216.89
371.89	216.90
372.27	216.91
372.65	216.92
373.03	216.91
373.41	216.88
373.78	216.86
374.16	216.72
374.54	216.63
374.92	216.57
375.30	216.53
375.68	216.45
376.06	216.42
376.44	216.39
376.82	216.37
377.19	216.33
377.57	216.29
377.95	216.16
378.33	216.16
378.71	215.93
379.09	215.93
379.47	215.92
379.84	215.85
380.22	215.79
380.60	215.70
380.98	215.62
381.36	215.53
381.73	215.45
382.11	215.48
382.49	215.45
382.87	215.38
383.25	215.33
383.62	215.51
384.00	215.41
384.38	215.36
384.76	215.35
385.13	215.37
385.51	215.35
385.89	215.26
386.27	215.22
386.64	215.25
387.02	215.16
387.40	215.08
387.78	215.04
388.15	215.03
388.53	215.05
388.91	215.02
389.29	215.04
389.66	215.10
390.04	215.06
390.42	215.09
390.79	215.11
391.17	215.12
391.55	214.91
391.92	214.93
392.30	214.95
392.68	214.89
393.05	214.84
393.43	214.83
393.81	214.90
394.18	214.86
394.56	214.87
394.94	214.95
395.31	214.95
395.69	215.05
396.06	215.08
396.44	215.08
396.82	215.07
397.19	215.17
397.57	215.13
397.95	215.17
398.32	215.14
398.70	215.20
399.07	215.29
399.45	215.32
399.82	215.36
400.20	215.38
400.58	215.46
400.95	215.46
401.33	215.59
401.70	215.80
402.08	215.91
402.45	215.99
402.83	216.13
403.20	216.27
403.58	216.34
403.95	216.51
404.33	216.68
404.71	216.84
405.08	217.09
405.46	217.26
405.83	217.46
406.21	217.64
406.58	217.86
406.96	218.06
407.33	218.33
407.70	218.64
408.08	219.11
408.45	219.49
408.83	219.91
409.20	220.24
409.58	220.50
409.95	220.97
410.33	221.46
410.70	221.90
411.08	222.48
411.45	223.06
411.82	223.63
412.20	224.34
412.57	225.19
412.95	225.78
413.32	226.62
413.69	227.48
414.07	228.38
414.44	229.38
414.82	230.43
415.19	231.62
415.56	232.80
415.94	233.99
416.31	235.40
416.68	236.78
417.06	238.40
417.43	239.97
417.81	241.71
418.18	243.56
418.55	245.48
418.93	247.49
419.30	249.61
419.67	251.86
420.04	254.16
420.42	256.56
420.79	259.39
421.16	262.22
421.54	265.14
421.91	268.19
422.28	271.33
422.66	274.63
423.03	277.88
423.40	281.29
423.77	284.89
424.15	288.55
424.52	292.44
424.89	296.64
425.26	300.75
425.64	304.64
426.01	308.89
426.38	313.40
426.75	317.95
427.13	322.63
427.50	327.63
427.87	332.87
428.24	338.09
428.61	343.10
428.99	348.60
429.36	354.67
429.73	360.62
430.10	366.44
430.47	372.55
430.85	378.95
431.22	385.68
431.59	392.85
431.96	399.67
432.33	407.15
432.70	414.44
433.08	422.94
433.45	431.06
433.82	439.12
434.19	448.00
434.56	456.78
434.93	465.19
435.30	473.52
435.68	482.60
436.05	491.59
436.42	500.53
436.79	508.74
437.16	517.43
437.53	526.67
437.90	535.87
438.27	544.82
438.64	554.05
439.01	562.61
439.38	570.21
439.75	577.58
440.13	586.03
440.50	594.00
440.87	600.50
441.24	607.16
441.61	614.55
441.98	619.99
442.35	626.32
442.72	632.67
443.09	638.72
443.46	642.51
443.83	645.09
444.20	647.35
444.57	650.55
444.94	652.04
445.31	653.55
445.68	654.99
446.05	655.67
446.42	654.85
446.79	653.87
447.16	652.76
447.53	652.03
447.90	648.72
448.27	645.48
448.64	640.86
449.01	637.57
449.37	631.65
449.74	625.95
450.11	619.04
450.48	611.67
450.85	604.13
451.22	597.67
451.59	591.45
451.96	585.56
452.33	577.65
452.70	570.56
453.07	562.02
453.43	553.34
453.80	544.95
454.17	536.95
454.54	529.37
454.91	521.19
455.28	513.15
455.65	505.75
456.02	498.14
456.38	491.79
456.75	483.82
457.12	477.19
457.49	470.63
457.86	464.41
458.23	458.96
458.59	453.07
458.96	447.02
459.33	441.72
459.70	436.30
460.07	432.01
460.43	427.11
460.80	422.53
461.17	418.52
461.54	414.36
461.91	410.33
462.27	406.22
462.64	402.76
463.01	398.95
463.38	395.18
463.74	391.47
464.11	388.16
464.48	385.36
464.85	382.28
465.21	379.88
465.58	377.22
465.95	374.09
466.32	371.46
466.68	368.87
467.05	366.28
467.42	363.69
467.78	360.99
468.15	358.43
468.52	356.51
468.88	354.01
469.25	351.78
469.62	349.96
469.98	348.00
470.35	346.19
470.72	344.48
471.08	342.70
471.45	341.22
471.82	339.71
472.18	337.98
472.55	336.71
472.92	335.27
473.28	334.05
473.65	332.87
474.02	331.72
474.38	330.80
474.75	330.01
475.11	329.20
475.48	328.57
475.85	328.03
476.21	327.49
476.58	327.12
476.94	326.88
477.31	326.54
477.67	326.25
478.04	326.06
478.41	326.02
478.77	326.12
479.14	325.99
479.50	326.12
479.87	326.41
480.23	326.73
480.60	327.01
480.96	327.26
481.33	327.82
481.69	328.36
482.06	328.86
482.42	329.34
482.79	329.95
483.15	330.74
483.52	331.71
483.88	332.61
484.25	333.55
484.61	334.53
484.98	335.64
485.34	336.94
485.71	338.32
486.07	339.72
486.44	341.10
486.80	342.75
487.17	344.39
487.53	346.25
487.90	348.14
488.26	350.17
488.62	352.33
488.99	354.42
489.35	356.64
489.72	359.02
490.08	361.54
490.44	364.10
490.81	366.83
491.17	369.53
491.54	372.51
491.90	375.52
492.26	378.79
492.63	382.15
492.99	385.64
493.36	389.30
493.72	393.19
494.08	397.15
494.45	401.35
494.81	405.67
495.17	410.06
495.54	414.78
495.90	419.56
496.26	424.49
496.63	429.72
496.99	435.06
497.35	440.65
497.72	446.47
498.08	452.41
498.44	458.47
498.80	464.95
499.17	471.44
499.53	478.12
499.89	485.01
500.26	492.02
500.62	499.13
500.98	506.50
501.34	513.95
501.71	521.73
502.07	529.57
502.43	537.60
502.79	545.81
503.16	554.22
503.52	562.78
503.88	571.50
504.24	580.45
504.60	589.53
504.97	598.78
505.33	608.08
505.69	617.97
506.05	627.92
506.41	637.75
506.78	647.84
507.14	658.14
507.50	668.62
507.86	679.27
508.22	690.02
508.59	700.72
508.95	711.86
509.31	723.05
509.67	734.49
510.03	745.90
510.39	757.59
510.75	769.52
511.12	781.48
511.48	793.60
511.84	805.86
512.20	818.23
512.56	830.81
512.92	843.68
513.28	856.36
513.64	869.10
514.00	882.00
514.37	895.04
514.73	908.16
515.09	921.28
515.45	934.23
515.81	947.34
516.17	960.75
516.53	974.05
516.89	987.27
517.25	1000.46
517.61	1014.10
517.97	1027.49
518.33	1040.57
518.69	1054.14
519.05	1067.92
519.41	1081.56
519.77	1095.47
520.13	1108.84
520.49	1121.95
520.85	1135.26
521.21	1148.64
521.57	1162.37
521.93	1175.44
522.29	1189.18
522.65	1202.71
523.01	1216.46
523.37	1229.78
523.73	1243.20
524.09	1256.40
524.45	1269.93
524.81	1283.54
525.17	1296.94
525.53	1310.24
525.89	1323.58
526.25	1336.75
526.61	1349.68
526.97	1362.95
527.33	1375.96
527.68	1389.53
528.04	1403.08
528.40	1416.36
528.76	1429.83
529.12	1442.74
529.48	1456.15
529.84	1468.66
530.20	1481.50
530.56	1494.13
530.91	1507.39
531.27	1520.26
531.63	1533.00
531.99	1545.83
532.35	1558.10
532.71	1570.51
533.07	1583.54
533.42	1595.87
533.78	1608.11
534.14	1620.20
534.50	1631.51
534.86	1643.26
535.21	1654.32
535.57	1666.01
535.93	1677.38
536.29	1688.50
536.65	1700.12
537.00	1711.21
537.36	1722.61
537.72	1733.70
538.08	1745.14
538.44	1756.29
538.79	1767.46
539.15	1778.61
539.51	1789.44
539.87	1800.83
540.22	1811.83
540.58	1822.70
540.94	1833.78
541.29	1844.20
541.65	1854.13
542.01	1864.81
542.37	1875.04
542.72	1885.20
543.08	1895.06
543.44	1905.59
543.79	1914.88
544.15	1924.34
544.51	1934.28
544.87	1944.23
545.22	1953.51
545.58	1962.46
545.94	1971.31
546.29	1979.91
546.65	1988.15
547.01	1996.46
547.36	2004.30
547.72	2012.19
548.07	2019.88
548.43	2027.64
548.79	2035.52
549.14	2043.73
549.50	2052.14
549.86	2059.87
550.21	2067.33
550.57	2075.09
550.92	2082.00
551.28	2089.66
551.64	2096.94
551.99	2104.54
552.35	2111.72
552.70	2118.89
553.06	2125.54
553.41	2131.94
553.77	2138.47
554.13	2145.12
554.48	2152.17
554.84	2159.25
555.19	2165.67
555.55	2172.16
555.90	2178.48
556.26	2185.29
556.61	2191.35
556.97	2196.18
557.32	2201.94
557.68	2208.43
558.03	2214.19
558.39	2219.63
558.74	2225.56
559.10	2231.14
559.45	2236.77
559.81	2242.28
560.16	2247.57
560.52	2253.57
560.87	2259.91
561.23	2265.69
561.58	2272.26
561.94	2277.43
562.29	2282.13
562.64	2288.03
563.00	2293.63
563.35	2299.17
563.71	2304.91
564.06	2310.54
564.42	2316.50
564.77	2321.66
565.12	2326.79
565.48	2331.63
565.83	2336.99
566.19	2342.36
566.54	2347.63
566.89	2352.02
567.25	2356.56
567.60	2362.27
567.96	2367.22
568.31	2371.68
568.66	2375.94
569.02	2379.76
569.37	2383.38
569.72	2387.64
570.08	2391.32
570.43	2394.37
570.78	2397.38
571.14	2399.87
571.49	2402.91
571.84	2406.32
572.20	2409.18
572.55	2412.14
572.90	2414.54
573.26	2417.08
573.61	2419.53
573.96	2421.54
574.31	2423.60
574.67	2425.49
575.02	2426.18
575.37	2427.60
575.72	2428.08
576.08	2429.56
576.43	2429.59
576.78	2430.09
577.13	2431.57
577.49	2432.53
577.84	2433.43
578.19	2434.58
578.54	2434.92
578.90	2435.31
579.25	2435.03
579.60	2434.80
579.95	2433.93
580.30	2433.76
580.66	2432.98
581.01	2431.17
581.36	2428.74
581.71	2427.11
582.06	2425.78
582.42	2424.64
582.77	2422.12
583.12	2420.56
583.47	2418.97
583.82	2418.22
584.17	2416.64
584.53	2414.39
584.88	2412.23
585.23	2410.31
585.58	2407.85
585.93	2405.74
586.28	2403.49
586.63	2400.82
586.98	2398.44
587.34	2396.23
587.69	2393.68
588.04	2391.40
588.39	2389.77
588.74	2387.11
589.09	2384.22
589.44	2380.85
589.79	2378.21
590.14	2376.25
590.49	2373.26
590.84	2369.18
591.19	2365.78
591.54	2362.62
591.89	2358.40
592.25	2354.90
592.60	2350.54
592.95	2346.31
593.30	2342.03
593.65	2337.73
594.00	2333.24
594.35	2329.97
594.70	2325.11
595.05	2320.52
595.40	2315.16
595.75	2309.36
596.10	2305.69
596.45	2300.89
596.80	2296.25
597.15	2291.07
597.50	2284.98
597.85	2279.91
598.19	2274.65
598.54	2268.87
598.89	2263.54
599.24	2258.96
599.59	2252.76
599.94	2246.79
600.29	2240.74
600.64	2234.81
600.99	2227.81
601.34	2222.25
601.69	2215.40
602.04	2209.05
602.39	2202.27
602.74	2196.03
603.08	2190.31
603.43	2183.71
603.78	2176.64
604.13	2169.48
604.48	2162.12
604.83	2156.05
605.18	2149.85
605.53	2143.02
605.87	2136.08
606.22	2129.18
606.57	2121.09
606.92	2113.00
607.27	2106.09
607.62	2099.47
607.96	2092.57
608.31	2086.13
608.66	2078.45
609.01	2070.91
609.36	2063.73
609.70	2056.01
610.05	2048.21
610.40	2040.00
610.75	2031.70
611.10	2024.06
611.44	2015.20
611.79	2006.46
612.14	1996.50
612.49	1985.77
612.83	1976.35
613.18	1967.03
613.53	1957.71
613.88	1948.21
614.22	1939.55
614.57	1929.77
614.92	1919.17
615.27	1908.68
615.61	1898.54
615.96	1888.78
616.31	1879.08
616.65	1869.72
617.00	1860.14
617.35	1850.50
617.70	1840.80
618.04	1830.90
618.39	1820.80
618.74	1811.15
619.08	1801.56
619.43	1792.84
619.78	1784.59
620.12	1776.06
620.47	1766.53
620.82	1756.27
621.16	1746.61
621.51	1736.90
621.85	1727.06
622.20	1716.85
622.55	1706.47
622.89	1696.62
623.24	1686.96
623.59	1677.07
623.93	1666.93
624.28	1657.11
624.62	1647.10
624.97	1636.90
625.32	1627.01
625.66	1618.05
626.01	1609.35
626.35	1599.93
626.70	1589.88
627.04	1579.81
627.39	1569.72
627.73	1560.43
628.08	1551.62
628.43	1542.12
628.77	1532.97
629.12	1524.09
629.46	1516.27
629.81	1507.99
630.15	1498.69
630.50	1488.92
630.84	1478.70
631.19	1468.95
631.53	1459.84
631.88	1449.87
632.22	1439.93
632.57	1430.74
632.91	1420.74
633.26	1410.94
633.60	1401.61
633.95	1392.51
634.29	1383.17
634.64	1373.97
634.98	1364.20
635.32	1354.92
635.67	1346.45
636.01	1337.17
636.36	1327.51
636.70	1318.02
637.05	1308.63
637.39	1299.69
637.73	1291.21
638.08	1283.59
638.42	1275.49
638.77	1266.61
639.11	1258.34
639.45	1250.60
639.80	1242.01
640.14	1233.33
640.49	1224.52
640.83	1215.64
641.17	1207.44
641.52	1199.30
641.86	1190.76
642.20	1182.92
642.55	1174.23
642.89	1165.41
643.23	1156.91
643.58	1148.80
643.92	1139.92
644.26	1131.33
644.61	1122.99
644.95	1114.22
645.29	1105.07
645.64	1095.95
645.98	1087.47
646.32	1079.63
646.66	1071.09
647.01	1062.88
647.35	1054.80
647.69	1046.66
648.04	1038.46
648.38	1029.69
648.72	1021.00
649.06	1012.58
649.41	1004.38
649.75	996.55
650.09	988.73
650.43	980.67
650.78	972.43
651.12	964.63
651.46	957.22
651.80	949.87
652.14	942.61
652.49	935.09
652.83	927.77
653.17	920.22
653.51	912.55
653.85	905.39
654.20	898.14
654.54	890.68
654.88	883.34
655.22	876.14
655.56	869.19
655.90	862.43
656.25	855.79
656.59	848.89
656.93	841.93
657.27	834.72
657.61	827.78
657.95	821.68
658.29	815.83
658.64	809.71
658.98	803.27
659.32	796.68
659.66	790.52
660.00	784.20
660.34	778.12
660.68	772.08
661.02	765.69
661.36	759.68
661.70	753.93
662.05	748.28
662.39	742.80
662.73	737.35
663.07	731.95
663.41	726.28
663.75	720.51
664.09	714.74
664.43	709.34
664.77	704.00
665.11	698.17
665.45	692.19
665.79	686.33
666.13	680.64
666.47	675.13
666.81	669.69
667.15	664.29
667.49	659.04
667.83	653.74
668.17	648.50
668.51	643.43
668.85	638.50
669.19	633.66
669.53	628.68
669.87	623.53
670.21	618.76
670.55	614.01
670.89	609.58
671.23	605.29
671.57	600.88
671.91	596.58
672.25	592.47
672.58	588.37
672.92	584.31
673.26	580.38
673.60	576.49
673.94	572.59
674.28	569.00
674.62	565.28
674.96	561.53
675.30	557.96
675.64	554.21
675.97	550.62
676.31	546.93
676.65	543.26
676.99	539.86
677.33	535.98
677.67	532.35
678.01	528.47
678.34	524.85
678.68	521.31
679.02	517.71
679.36	513.93
679.70	510.24
680.04	506.60
680.37	503.10
680.71	499.76
681.05	496.50
681.39	493.11
681.73	489.86
682.06	486.83
682.40	483.75
682.74	480.57
683.08	477.24
683.42	474.04
683.75	471.06
684.09	467.95
684.43	465.14
684.77	462.17
685.10	459.30
685.44	456.32
685.78	453.40
686.12	450.59
686.45	447.84
686.79	445.17
687.13	442.68
687.46	440.08
687.80	437.33
688.14	434.49
688.48	431.83
688.81	429.17
689.15	426.48
689.49	423.79
689.82	421.23
690.16	418.62
690.50	416.17
690.83	413.58
691.17	411.05
691.51	408.51
691.84	406.22
692.18	403.95
692.52	401.72
692.85	399.57
693.19	397.38
693.52	395.22
693.86	392.98
694.20	390.75
694.53	388.56
694.87	386.36
695.21	384.22
695.54	382.08
695.88	379.84
696.21	377.65
696.55	375.50
696.88	373.43
697.22	371.45
697.56	369.48
697.89	367.52
698.23	365.68
698.56	363.86
698.90	362.02
699.23	360.09
699.57	358.16
699.90	356.24
700.24	354.40
700.58	352.58
700.91	350.87
701.25	349.26
701.58	347.64
701.92	346.02
702.25	344.40
702.59	342.71
702.92	341.20
703.26	339.59
703.59	338.13
703.93	336.86
704.26	335.40
704.60	333.91
704.93	332.41
705.26	330.91
705.60	329.42
705.93	327.91
706.27	326.61
706.60	325.31
706.94	324.06
707.27	322.64
707.61	321.33
707.94	319.98
708.27	318.46
708.61	317.02
708.94	315.67
709.28	314.37
709.61	313.14
709.94	311.89
710.28	310.64
710.61	309.42
710.95	307.97
711.28	306.89
711.61	305.67
711.95	304.54
712.28	303.33
712.61	302.15
712.95	301.11
713.28	300.03
713.61	298.89
713.95	297.75
714.28	296.74
714.61	295.65
714.95	294.59
715.28	293.54
715.61	292.48
715.95	291.47
716.28	290.47
716.61	289.46
716.95	288.43
717.28	287.54
717.61	286.56
717.94	285.61
718.28	284.55
718.61	283.64
718.94	282.70
719.27	281.85
719.61	281.02
719.94	280.12
720.27	279.16
720.60	278.26
720.94	277.41
721.27	276.66
721.60	275.93
721.93	275.23
722.27	274.59
722.60	273.95
722.93	273.24
723.26	272.59
723.59	271.88
723.93	271.25
724.26	270.54
724.59	269.87
724.92	269.31
725.25	268.76
725.59	268.16
725.92	267.60
726.25	267.03
726.58	266.41
726.91	265.79
727.24	265.28
727.57	264.74
727.91	264.13
728.24	263.54
728.57	262.94
728.90	262.37
729.23	261.75
729.56	261.25
729.89	260.72
730.22	260.10
730.55	259.55
730.89	259.01
731.22	258.49
731.55	258.00
731.88	257.43
732.21	256.86
732.54	256.34
732.87	255.83
733.20	255.32
733.53	254.85
733.86	254.42
734.19	253.85
734.52	253.40
734.85	253.11
735.18	252.65
735.51	252.25
735.84	251.79
736.17	251.40
736.50	250.86
736.83	250.67
737.16	250.32
737.49	249.97
737.82	249.56
738.15	249.18
738.48	248.79
738.81	248.40
739.14	247.99
739.47	247.60
739.80	247.22
740.13	246.84
740.46	246.43
740.79	245.99
741.12	245.64
741.45	245.26
741.78	244.80
742.11	244.52
742.44	244.12
742.77	243.83
743.10	243.44
743.43	243.10
743.75	242.46
744.08	242.38
744.41	242.00
744.74	241.66
745.07	241.31
745.40	240.99
745.73	240.71
746.06	240.44
746.39	240.12
746.71	239.74
747.04	239.42
747.37	239.09
747.70	238.82
748.03	238.50
748.36	238.23
748.68	237.89
749.01	237.53
749.34	237.25
749.67	236.91
750.00	236.64
750.33	236.52
750.65	236.34
750.98	235.80
751.31	235.57
751.64	235.36
751.97	235.18
752.29	234.89
752.62	234.57
752.95	234.28
753.28	234.01
753.60	233.81
753.93	233.66
754.26	233.44
754.59	233.15
754.91	232.91
755.24	232.66
755.57	232.47
755.90	232.24
756.22	232.01
756.55	231.79
756.88	231.57
757.20	231.19
757.53	230.94
757.86	230.73
758.19	230.51
758.51	230.24
758.84	229.94
759.17	229.78
759.49	229.63
759.82	229.54
760.15	229.37
760.47	229.17
760.80	228.87
761.13	228.74
761.45	228.55
761.78	228.35
762.11	228.18
762.43	227.96
762.76	227.72
763.08	227.58
763.41	227.44
763.74	227.28
764.06	227.13
764.39	226.95
764.71	226.78
765.04	226.66
765.37	226.53
765.69	226.42
766.02	226.25
766.34	226.08
766.67	225.86
767.00	225.76
767.32	225.73
767.65	225.72
767.97	225.54
768.30	225.44
768.62	225.33
768.95	225.18
769.27	225.05
769.60	225.02
769.92	224.87
770.25	224.69
770.57	224.50
770.90	224.38
771.22	224.23
771.55	224.13
771.87	224.01
772.20	223.84
772.52	223.87
772.85	224.02
773.17	223.91
773.50	223.79
773.82	223.63
774.15	223.41
774.47	223.20
774.80	223.08
775.12	222.97
775.45	222.83
775.77	222.74
776.09	222.64
776.42	222.54
776.74	222.51
777.07	222.42
777.39	222.35
777.72	222.26
778.04	222.21
778.36	222.12
778.69	221.99
779.01	221.98
779.33	221.71
779.66	221.38
779.98	221.29
780.31	221.21
780.63	221.27
780.95	221.22
781.28	221.12
781.60	221.04
781.92	220.99
782.25	220.93
782.57	220.87
782.89	220.80
783.22	220.70
783.54	220.59
783.86	220.52
784.19	220.48
784.51	220.46
784.83	220.36
785.16	220.32
785.48	220.28
785.80	220.21
786.12	220.19
