SpectraSuite Data File
++++++++++++++++++++++++++++++++++++
Date: Tue Jan 29 16:45:38 EST 2013
User: group
Dark Spectrum Present: No
Reference Spectrum Present: No
Number of Sampled Component Spectra: 1
Spectrometers: USB2E7196
Integration Time (usec): 65000 (USB2E7196)
Spectra Averaged: 100 (USB2E7196)
Boxcar Smoothing: 10 (USB2E7196)
Correct for Electrical Dark: No (USB2E7196)
Strobe/Lamp Enabled: No (USB2E7196)
Correct for Detector Non-linearity: No (USB2E7196)
Correct for Stray Light: No (USB2E7196)
Number of Pixels in Processed Spectrum: 2048
>>>>>Begin Processed Spectral Data<<<<<
339.09	0.00
339.48	201.23
339.86	203.14
340.24	204.26
340.63	206.51
341.01	210.00
341.39	208.29
341.78	210.58
342.16	211.22
342.54	211.35
342.93	200.81
343.31	210.94
343.69	211.50
344.07	211.97
344.46	212.43
344.84	212.79
345.22	213.00
345.60	213.29
345.99	213.47
346.37	213.60
346.75	213.72
347.13	213.81
347.52	213.90
347.90	214.04
348.28	214.08
348.66	214.19
349.05	214.17
349.43	214.22
349.81	214.28
350.19	214.35
350.57	214.44
350.96	214.55
351.34	214.67
351.72	214.78
352.10	214.89
352.48	214.96
352.87	215.04
353.25	215.08
353.63	215.11
354.01	215.18
354.39	215.26
354.77	215.33
355.15	215.48
355.54	215.50
355.92	215.48
356.30	215.54
356.68	215.72
357.06	215.81
357.44	215.87
357.82	215.91
358.20	216.03
358.58	216.10
358.97	216.14
359.35	216.24
359.73	216.35
360.11	216.39
360.49	216.46
360.87	216.50
361.25	216.60
361.63	216.74
362.01	216.79
362.39	216.84
362.77	216.91
363.15	216.89
363.53	216.93
363.91	216.97
364.29	216.98
364.67	216.78
365.05	216.80
365.43	216.81
365.81	216.88
366.19	216.96
366.57	217.02
366.95	217.02
367.33	216.99
367.71	216.98
368.09	217.03
368.47	217.00
368.85	216.98
369.23	216.99
369.61	216.92
369.99	216.94
370.37	216.95
370.75	217.04
371.13	216.97
371.51	216.95
371.89	216.96
372.27	216.96
372.65	216.99
373.03	216.95
373.41	216.92
373.78	216.87
374.16	216.69
374.54	216.62
374.92	216.59
375.30	216.56
375.68	216.50
376.06	216.45
376.44	216.38
376.82	216.36
377.19	216.30
377.57	216.24
377.95	216.16
378.33	216.08
378.71	215.94
379.09	215.95
379.47	215.92
379.84	215.84
380.22	215.74
380.60	215.64
380.98	215.60
381.36	215.51
381.73	215.44
382.11	215.47
382.49	215.41
382.87	215.34
383.25	215.30
383.62	215.51
384.00	215.44
384.38	215.42
384.76	215.43
385.13	215.48
385.51	215.45
385.89	215.39
386.27	215.35
386.64	215.31
387.02	215.27
387.40	215.20
387.78	215.19
388.15	215.20
388.53	215.18
388.91	215.13
389.29	215.12
389.66	215.12
390.04	215.10
390.42	215.13
390.79	215.15
391.17	215.14
391.55	214.85
391.92	214.83
392.30	214.87
392.68	214.78
393.05	214.75
393.43	214.74
393.81	214.77
394.18	214.76
394.56	214.79
394.94	214.84
395.31	214.81
395.69	214.84
396.06	214.91
396.44	214.91
396.82	214.92
397.19	215.05
397.57	215.05
397.95	215.06
398.32	215.04
398.70	215.06
399.07	215.13
399.45	215.17
399.82	215.24
400.20	215.24
400.58	215.32
400.95	215.28
401.33	215.40
401.70	215.60
402.08	215.69
402.45	215.74
402.83	215.87
403.20	216.02
403.58	216.13
403.95	216.28
404.33	216.46
404.71	216.63
405.08	216.89
405.46	217.11
405.83	217.32
406.21	217.55
406.58	217.79
406.96	218.00
407.33	218.27
407.70	218.57
408.08	219.09
408.45	219.47
408.83	219.90
409.20	220.21
409.58	220.49
409.95	220.96
410.33	221.45
410.70	221.86
411.08	222.45
411.45	223.04
411.82	223.59
412.20	224.28
412.57	225.12
412.95	225.69
413.32	226.49
413.69	227.32
414.07	228.22
414.44	229.21
414.82	230.21
415.19	231.42
415.56	232.62
415.94	233.76
416.31	235.15
416.68	236.55
417.06	238.21
417.43	239.77
417.81	241.54
418.18	243.32
418.55	245.26
418.93	247.30
419.30	249.38
419.67	251.65
420.04	253.98
420.42	256.40
420.79	259.24
421.16	262.04
421.54	264.97
421.91	267.98
422.28	271.08
422.66	274.44
423.03	277.69
423.40	281.12
423.77	284.73
424.15	288.44
424.52	292.27
424.89	296.45
425.26	300.56
425.64	304.50
426.01	308.85
426.38	313.37
426.75	317.87
427.13	322.63
427.50	327.68
427.87	332.89
428.24	338.07
428.61	343.11
428.99	348.63
429.36	354.66
429.73	360.55
430.10	366.46
430.47	372.52
430.85	378.88
431.22	385.56
431.59	392.68
431.96	399.51
432.33	407.03
432.70	414.30
433.08	422.82
433.45	430.85
433.82	438.86
434.19	447.72
434.56	456.45
434.93	464.85
435.30	473.12
435.68	482.20
436.05	491.21
436.42	500.09
436.79	508.27
437.16	517.07
437.53	526.39
437.90	535.57
438.27	544.58
438.64	553.77
439.01	562.36
439.38	570.02
439.75	577.37
440.13	585.85
440.50	593.83
440.87	600.30
441.24	606.98
441.61	614.30
441.98	619.72
442.35	626.07
442.72	632.37
443.09	638.42
443.46	642.20
443.83	644.75
444.20	646.95
444.57	650.18
444.94	651.60
445.31	653.06
445.68	654.43
446.05	655.05
446.42	654.33
446.79	653.32
447.16	652.28
447.53	651.57
447.90	648.27
448.27	645.04
448.64	640.36
449.01	637.02
449.37	631.20
449.74	625.56
450.11	618.66
450.48	611.22
450.85	603.71
451.22	597.25
451.59	591.08
451.96	585.29
452.33	577.39
452.70	570.34
453.07	561.82
453.43	553.22
453.80	544.87
454.17	536.85
454.54	529.32
454.91	521.05
455.28	513.02
455.65	505.51
456.02	497.90
456.38	491.56
456.75	483.67
457.12	477.08
457.49	470.54
457.86	464.35
458.23	459.01
458.59	453.09
458.96	447.06
459.33	441.74
459.70	436.31
460.07	431.99
460.43	427.08
460.80	422.52
461.17	418.51
461.54	414.28
461.91	410.22
462.27	406.07
462.64	402.62
463.01	398.85
463.38	395.17
463.74	391.45
464.11	388.25
464.48	385.38
464.85	382.27
465.21	379.82
465.58	377.15
465.95	374.01
466.32	371.36
466.68	368.73
467.05	366.13
467.42	363.58
467.78	360.84
468.15	358.27
468.52	356.30
468.88	353.80
469.25	351.58
469.62	349.74
469.98	347.83
470.35	346.02
470.72	344.23
471.08	342.40
471.45	340.90
471.82	339.32
472.18	337.66
472.55	336.42
472.92	335.01
473.28	333.79
473.65	332.61
474.02	331.49
474.38	330.60
474.75	329.85
475.11	328.99
475.48	328.43
475.85	327.89
476.21	327.40
476.58	327.04
476.94	326.80
477.31	326.50
477.67	326.15
478.04	326.00
478.41	325.96
478.77	326.12
479.14	326.11
479.50	326.22
479.87	326.51
480.23	326.82
480.60	327.06
480.96	327.35
481.33	327.96
481.69	328.53
482.06	329.03
482.42	329.50
482.79	330.13
483.15	330.94
483.52	331.93
483.88	332.83
484.25	333.74
484.61	334.77
484.98	335.82
485.34	337.20
485.71	338.55
486.07	339.99
486.44	341.30
486.80	342.91
487.17	344.57
487.53	346.40
487.90	348.26
488.26	350.30
488.62	352.46
488.99	354.47
489.35	356.69
489.72	359.10
490.08	361.65
490.44	364.20
490.81	366.91
491.17	369.57
491.54	372.53
491.90	375.61
492.26	378.86
492.63	382.27
492.99	385.70
493.36	389.35
493.72	393.18
494.08	397.18
494.45	401.38
494.81	405.74
495.17	410.18
495.54	414.88
495.90	419.67
496.26	424.60
496.63	429.79
496.99	435.19
497.35	440.72
497.72	446.47
498.08	452.39
498.44	458.48
498.80	464.93
499.17	471.47
499.53	478.17
499.89	485.03
500.26	492.03
500.62	499.12
500.98	506.54
501.34	514.03
501.71	521.78
502.07	529.62
502.43	537.59
502.79	545.75
503.16	554.09
503.52	562.69
503.88	571.38
504.24	580.39
504.60	589.46
504.97	598.69
505.33	607.95
505.69	617.89
506.05	627.70
506.41	637.52
506.78	647.55
507.14	657.76
507.50	668.23
507.86	678.97
508.22	689.71
508.59	700.36
508.95	711.39
509.31	722.68
509.67	734.03
510.03	745.42
510.39	757.15
510.75	769.04
511.12	780.95
511.48	792.95
511.84	805.09
512.20	817.40
512.56	830.09
512.92	843.01
513.28	855.56
513.64	868.40
514.00	881.27
514.37	894.20
514.73	907.26
515.09	920.26
515.45	933.08
515.81	946.22
516.17	959.66
516.53	972.96
516.89	986.00
517.25	999.29
517.61	1012.82
517.97	1026.28
518.33	1039.47
518.69	1053.03
519.05	1066.92
519.41	1080.66
519.77	1094.64
520.13	1107.93
520.49	1120.98
520.85	1134.49
521.21	1147.80
521.57	1161.58
521.93	1174.70
522.29	1188.51
522.65	1202.29
523.01	1216.01
523.37	1229.21
523.73	1242.57
524.09	1255.81
524.45	1269.34
524.81	1282.84
525.17	1296.35
525.53	1309.55
525.89	1322.90
526.25	1336.17
526.61	1349.09
526.97	1362.29
527.33	1375.25
527.68	1388.77
528.04	1402.51
528.40	1415.62
528.76	1429.13
529.12	1442.00
529.48	1455.41
529.84	1467.79
530.20	1480.57
530.56	1493.16
530.91	1506.56
531.27	1519.38
531.63	1532.18
531.99	1544.93
532.35	1557.27
532.71	1569.74
533.07	1582.68
533.42	1594.96
533.78	1607.09
534.14	1619.24
534.50	1630.52
534.86	1642.25
535.21	1653.15
535.57	1664.73
535.93	1676.02
536.29	1687.19
536.65	1698.80
537.00	1709.82
537.36	1721.48
537.72	1732.69
538.08	1744.29
538.44	1755.18
538.79	1766.40
539.15	1777.51
539.51	1788.66
539.87	1800.07
540.22	1810.99
540.58	1822.13
540.94	1833.15
541.29	1843.56
541.65	1853.39
542.01	1863.90
542.37	1873.97
542.72	1884.20
543.08	1893.95
543.44	1904.51
543.79	1913.81
544.15	1923.38
544.51	1933.57
544.87	1943.36
545.22	1952.37
545.58	1961.24
545.94	1970.29
546.29	1978.92
546.65	1987.28
547.01	1995.44
547.36	2003.17
547.72	2011.05
548.07	2018.65
548.43	2026.48
548.79	2034.31
549.14	2042.47
549.50	2050.98
549.86	2058.93
550.21	2066.60
550.57	2074.42
550.92	2081.37
551.28	2088.92
551.64	2096.09
551.99	2103.55
552.35	2110.78
552.70	2117.80
553.06	2124.60
553.41	2130.95
553.77	2137.51
554.13	2143.81
554.48	2150.91
554.84	2158.10
555.19	2164.69
555.55	2171.10
555.90	2177.39
556.26	2184.23
556.61	2190.46
556.97	2195.48
557.32	2201.36
557.68	2207.71
558.03	2213.55
558.39	2218.90
558.74	2225.05
559.10	2230.55
559.45	2236.06
559.81	2241.60
560.16	2247.12
560.52	2252.95
560.87	2259.25
561.23	2264.90
561.58	2271.56
561.94	2276.76
562.29	2281.46
562.64	2287.36
563.00	2292.93
563.35	2298.47
563.71	2304.20
564.06	2309.78
564.42	2315.54
564.77	2320.60
565.12	2325.74
565.48	2330.69
565.83	2336.11
566.19	2341.26
566.54	2346.68
566.89	2351.19
567.25	2355.60
567.60	2361.30
567.96	2366.38
568.31	2370.86
568.66	2375.32
569.02	2379.23
569.37	2382.90
569.72	2387.14
570.08	2390.53
570.43	2393.70
570.78	2396.79
571.14	2399.15
571.49	2402.22
571.84	2405.67
572.20	2408.49
572.55	2411.39
572.90	2413.73
573.26	2416.48
573.61	2419.05
573.96	2421.15
574.31	2423.20
574.67	2425.04
575.02	2425.68
575.37	2427.13
575.72	2427.67
576.08	2428.99
576.43	2429.00
576.78	2429.16
577.13	2430.53
577.49	2431.64
577.84	2432.53
578.19	2433.64
578.54	2434.16
578.90	2434.58
579.25	2434.34
579.60	2433.97
579.95	2433.06
580.30	2432.69
580.66	2431.82
581.01	2430.04
581.36	2427.39
581.71	2425.81
582.06	2424.53
582.42	2423.52
582.77	2420.88
583.12	2419.21
583.47	2417.61
583.82	2416.88
584.17	2415.55
584.53	2413.37
584.88	2411.13
585.23	2409.01
585.58	2406.50
585.93	2404.37
586.28	2402.17
586.63	2399.54
586.98	2397.23
587.34	2395.10
587.69	2392.59
588.04	2390.23
588.39	2388.56
588.74	2386.01
589.09	2383.01
589.44	2379.64
589.79	2376.94
590.14	2374.96
590.49	2371.92
590.84	2367.87
591.19	2364.51
591.54	2361.18
591.89	2356.91
592.25	2353.49
592.60	2349.04
592.95	2344.93
593.30	2340.62
593.65	2336.11
594.00	2331.62
594.35	2328.52
594.70	2323.80
595.05	2319.39
595.40	2313.96
595.75	2308.05
596.10	2304.35
596.45	2299.52
596.80	2294.89
597.15	2289.64
597.50	2283.61
597.85	2278.67
598.19	2273.51
598.54	2267.67
598.89	2262.41
599.24	2257.87
599.59	2251.68
599.94	2246.00
600.29	2239.99
600.64	2234.07
600.99	2227.07
601.34	2221.54
601.69	2214.53
602.04	2208.16
602.39	2201.19
602.74	2195.02
603.08	2189.41
603.43	2182.85
603.78	2176.01
604.13	2168.93
604.48	2161.58
604.83	2155.41
605.18	2149.18
605.53	2142.28
605.87	2135.28
606.22	2128.49
606.57	2120.62
606.92	2112.69
607.27	2105.61
607.62	2098.84
607.96	2091.80
608.31	2085.55
608.66	2077.83
609.01	2070.11
609.36	2062.87
609.70	2055.39
610.05	2047.63
610.40	2039.31
610.75	2030.88
611.10	2023.14
611.44	2014.18
611.79	2005.47
612.14	1995.48
612.49	1984.77
612.83	1975.36
613.18	1966.04
613.53	1956.69
613.88	1947.01
614.22	1938.40
614.57	1928.57
614.92	1918.00
615.27	1907.79
615.61	1897.68
615.96	1887.92
616.31	1878.39
616.65	1869.04
617.00	1859.22
617.35	1849.61
617.70	1840.01
618.04	1830.06
618.39	1819.99
618.74	1810.51
619.08	1801.03
619.43	1792.41
619.78	1784.23
620.12	1775.69
620.47	1766.24
620.82	1755.82
621.16	1746.11
621.51	1736.15
621.85	1726.28
622.20	1716.15
622.55	1705.63
622.89	1695.68
623.24	1686.13
623.59	1676.43
623.93	1666.36
624.28	1656.69
624.62	1646.69
624.97	1636.49
625.32	1626.73
625.66	1617.84
626.01	1609.02
626.35	1599.68
626.70	1589.79
627.04	1579.78
627.39	1569.65
627.73	1560.40
628.08	1551.62
628.43	1542.12
628.77	1532.95
629.12	1524.25
629.46	1516.51
629.81	1508.30
630.15	1498.90
630.50	1489.14
630.84	1478.64
631.19	1468.85
631.53	1459.65
631.88	1449.40
632.22	1439.42
632.57	1430.18
632.91	1420.15
633.26	1410.48
633.60	1400.86
633.95	1391.60
634.29	1382.20
634.64	1372.98
634.98	1363.22
635.32	1354.01
635.67	1345.61
636.01	1336.40
636.36	1326.65
636.70	1317.04
637.05	1307.69
637.39	1298.78
637.73	1290.22
638.08	1282.84
638.42	1274.66
638.77	1265.88
639.11	1257.82
639.45	1250.12
639.80	1241.68
640.14	1232.94
640.49	1224.05
640.83	1215.36
641.17	1207.18
641.52	1199.12
641.86	1190.63
642.20	1182.73
642.55	1174.11
642.89	1165.32
643.23	1156.80
643.58	1148.68
643.92	1139.67
644.26	1131.01
644.61	1122.68
644.95	1113.86
645.29	1104.69
645.64	1095.59
645.98	1087.16
646.32	1079.18
646.66	1070.70
647.01	1062.42
647.35	1054.37
647.69	1046.11
648.04	1037.92
648.38	1029.14
648.72	1020.37
649.06	1012.03
649.41	1003.81
649.75	995.91
650.09	988.04
650.43	980.10
650.78	971.84
651.12	964.22
651.46	956.79
651.80	949.51
652.14	942.25
652.49	934.71
652.83	927.38
653.17	919.70
653.51	912.22
653.85	904.98
654.20	897.73
654.54	890.30
654.88	883.07
655.22	875.91
655.56	868.91
655.90	862.05
656.25	855.35
656.59	848.46
656.93	841.44
657.27	834.39
657.61	827.35
657.95	821.30
658.29	815.41
658.64	809.37
658.98	802.97
659.32	796.43
659.66	790.12
660.00	783.82
660.34	777.80
660.68	771.61
661.02	765.25
661.36	759.29
661.70	753.48
662.05	747.86
662.39	742.30
662.73	736.94
663.07	731.65
663.41	725.96
663.75	720.32
664.09	714.60
664.43	709.12
664.77	703.79
665.11	697.98
665.45	692.02
665.79	686.15
666.13	680.41
666.47	674.99
666.81	669.55
667.15	664.14
667.49	658.91
667.83	653.66
668.17	648.40
668.51	643.28
668.85	638.30
669.19	633.33
669.53	628.30
669.87	623.11
670.21	618.26
670.55	613.57
670.89	609.07
671.23	604.77
671.57	600.41
671.91	596.12
672.25	591.92
672.58	587.79
672.92	583.74
673.26	579.84
673.60	575.87
673.94	572.13
674.28	568.54
674.62	564.76
674.96	561.04
675.30	557.53
675.64	553.88
675.97	550.31
676.31	546.72
676.65	543.10
676.99	539.69
677.33	535.86
677.67	532.22
678.01	528.39
678.34	524.77
678.68	521.23
679.02	517.64
679.36	513.97
679.70	510.30
680.04	506.75
680.37	503.23
680.71	499.85
681.05	496.62
681.39	493.34
681.73	490.10
682.06	487.04
682.40	484.01
682.74	480.75
683.08	477.49
683.42	474.27
683.75	471.21
684.09	468.18
684.43	465.35
684.77	462.38
685.10	459.45
685.44	456.48
685.78	453.48
686.12	450.63
686.45	447.81
686.79	445.13
687.13	442.48
687.46	439.82
687.80	437.16
688.14	434.23
688.48	431.50
688.81	428.80
689.15	426.19
689.49	423.43
689.82	420.93
690.16	418.30
690.50	415.82
690.83	413.33
691.17	410.75
691.51	408.21
691.84	405.96
692.18	403.73
692.52	401.52
692.85	399.36
693.19	397.25
693.52	395.16
693.86	392.92
694.20	390.71
694.53	388.54
694.87	386.34
695.21	384.22
695.54	382.02
695.88	379.83
696.21	377.58
696.55	375.48
696.88	373.34
697.22	371.34
697.56	369.43
697.89	367.49
698.23	365.68
698.56	363.88
698.90	362.10
699.23	360.16
699.57	358.27
699.90	356.37
700.24	354.49
700.58	352.63
700.91	350.91
701.25	349.28
701.58	347.65
701.92	346.00
702.25	344.37
702.59	342.76
702.92	341.22
703.26	339.67
703.59	338.12
703.93	336.83
704.26	335.39
704.60	333.86
704.93	332.35
705.26	330.82
705.60	329.32
705.93	327.75
706.27	326.41
706.60	325.12
706.94	323.92
707.27	322.52
707.61	321.17
707.94	319.83
708.27	318.32
708.61	316.82
708.94	315.43
709.28	314.12
709.61	312.81
709.94	311.59
710.28	310.35
710.61	309.18
710.95	307.76
711.28	306.66
711.61	305.48
711.95	304.32
712.28	303.09
712.61	301.90
712.95	300.85
713.28	299.80
713.61	298.59
713.95	297.43
714.28	296.42
714.61	295.36
714.95	294.30
715.28	293.30
715.61	292.34
715.95	291.38
716.28	290.38
716.61	289.45
716.95	288.40
717.28	287.44
717.61	286.44
717.94	285.55
718.28	284.51
718.61	283.58
718.94	282.66
719.27	281.85
719.61	281.04
719.94	280.12
720.27	279.12
720.60	278.27
720.94	277.41
721.27	276.59
721.60	275.86
721.93	275.16
722.27	274.54
722.60	273.84
722.93	273.12
723.26	272.50
723.59	271.77
723.93	271.17
724.26	270.51
724.59	269.89
724.92	269.26
725.25	268.68
725.59	268.08
725.92	267.54
726.25	266.94
726.58	266.32
726.91	265.72
727.24	265.16
727.57	264.57
727.91	263.96
728.24	263.43
728.57	262.84
728.90	262.30
729.23	261.64
729.56	261.17
729.89	260.60
730.22	260.02
730.55	259.46
730.89	258.91
731.22	258.35
731.55	257.79
731.88	257.23
732.21	256.68
732.54	256.13
732.87	255.60
733.20	255.11
733.53	254.66
733.86	254.22
734.19	253.70
734.52	253.29
734.85	252.99
735.18	252.50
735.51	252.13
735.84	251.64
736.17	251.22
736.50	250.65
736.83	250.48
737.16	250.10
737.49	249.74
737.82	249.33
738.15	248.98
738.48	248.59
738.81	248.21
739.14	247.80
739.47	247.43
739.80	247.01
740.13	246.65
740.46	246.20
740.79	245.77
741.12	245.43
741.45	245.03
741.78	244.59
742.11	244.27
742.44	243.85
742.77	243.55
743.10	243.20
743.43	242.88
743.75	242.30
744.08	242.21
744.41	241.82
744.74	241.45
745.07	241.05
745.40	240.77
745.73	240.53
746.06	240.19
746.39	239.89
746.71	239.57
747.04	239.17
747.37	238.89
747.70	238.66
748.03	238.32
748.36	238.07
748.68	237.75
749.01	237.40
749.34	237.13
749.67	236.86
750.00	236.60
750.33	236.47
750.65	236.22
750.98	235.73
751.31	235.49
751.64	235.25
751.97	235.14
752.29	234.86
752.62	234.48
752.95	234.23
753.28	233.93
753.60	233.70
753.93	233.55
754.26	233.33
754.59	233.03
754.91	232.80
755.24	232.53
755.57	232.30
755.90	232.08
756.22	231.83
756.55	231.54
756.88	231.29
757.20	230.94
757.53	230.71
757.86	230.46
758.19	230.25
758.51	230.04
758.84	229.73
759.17	229.53
759.49	229.38
759.82	229.30
760.15	229.18
760.47	229.00
760.80	228.72
761.13	228.58
761.45	228.36
761.78	228.19
762.11	228.00
762.43	227.79
762.76	227.59
763.08	227.43
763.41	227.29
763.74	227.16
764.06	227.00
764.39	226.83
764.71	226.70
765.04	226.53
765.37	226.37
765.69	226.21
766.02	226.07
766.34	225.91
766.67	225.65
767.00	225.54
767.32	225.50
767.65	225.49
767.97	225.32
768.30	225.22
768.62	225.08
768.95	224.93
769.27	224.83
769.60	224.78
769.92	224.63
770.25	224.46
770.57	224.27
770.90	224.13
771.22	224.00
771.55	223.84
771.87	223.75
772.20	223.61
772.52	223.65
772.85	223.79
773.17	223.68
773.50	223.59
773.82	223.44
774.15	223.22
774.47	222.98
774.80	222.87
775.12	222.77
775.45	222.68
775.77	222.65
776.09	222.54
776.42	222.43
776.74	222.40
777.07	222.28
777.39	222.21
777.72	222.14
778.04	222.02
778.36	221.95
778.69	221.88
779.01	221.85
779.33	221.59
779.66	221.27
779.98	221.20
780.31	221.13
780.63	221.16
780.95	221.11
781.28	221.07
781.60	220.99
781.92	220.92
782.25	220.85
782.57	220.73
782.89	220.65
783.22	220.55
783.54	220.45
783.86	220.46
784.19	220.36
784.51	220.35
784.83	220.32
785.16	220.26
785.48	220.18
785.80	220.11
786.12	220.07
