SpectraSuite Data File
++++++++++++++++++++++++++++++++++++
Date: Tue Jan 29 16:42:50 EST 2013
User: group
Dark Spectrum Present: No
Reference Spectrum Present: No
Number of Sampled Component Spectra: 1
Spectrometers: USB2E7196
Integration Time (usec): 65000 (USB2E7196)
Spectra Averaged: 100 (USB2E7196)
Boxcar Smoothing: 10 (USB2E7196)
Correct for Electrical Dark: No (USB2E7196)
Strobe/Lamp Enabled: No (USB2E7196)
Correct for Detector Non-linearity: No (USB2E7196)
Correct for Stray Light: No (USB2E7196)
Number of Pixels in Processed Spectrum: 2048
>>>>>Begin Processed Spectral Data<<<<<
339.09	0.00
339.48	201.52
339.86	203.12
340.24	203.91
340.63	205.68
341.01	210.38
341.39	208.14
341.78	210.42
342.16	211.03
342.54	211.40
342.93	200.81
343.31	210.94
343.69	211.48
344.07	211.95
344.46	212.40
344.84	212.83
345.22	212.99
345.60	213.28
345.99	213.46
346.37	213.63
346.75	213.74
347.13	213.84
347.52	213.92
347.90	214.03
348.28	214.08
348.66	214.13
349.05	214.10
349.43	214.16
349.81	214.24
350.19	214.29
350.57	214.36
350.96	214.45
351.34	214.57
351.72	214.71
352.10	214.82
352.48	214.94
352.87	215.01
353.25	215.08
353.63	215.14
354.01	215.21
354.39	215.29
354.77	215.39
355.15	215.52
355.54	215.58
355.92	215.62
356.30	215.71
356.68	215.91
357.06	216.01
357.44	216.07
357.82	216.12
358.20	216.23
358.58	216.28
358.97	216.35
359.35	216.45
359.73	216.55
360.11	216.64
360.49	216.69
360.87	216.71
361.25	216.83
361.63	216.97
362.01	217.03
362.39	217.05
362.77	217.14
363.15	217.15
363.53	217.21
363.91	217.24
364.29	217.28
364.67	217.16
365.05	217.16
365.43	217.19
365.81	217.25
366.19	217.35
366.57	217.47
366.95	217.48
367.33	217.44
367.71	217.42
368.09	217.44
368.47	217.45
368.85	217.41
369.23	217.39
369.61	217.30
369.99	217.34
370.37	217.34
370.75	217.38
371.13	217.30
371.51	217.25
371.89	217.22
372.27	217.20
372.65	217.16
373.03	217.16
373.41	217.14
373.78	217.08
374.16	216.95
374.54	216.81
374.92	216.77
375.30	216.75
375.68	216.68
376.06	216.64
376.44	216.58
376.82	216.57
377.19	216.52
377.57	216.47
377.95	216.40
378.33	216.36
378.71	216.22
379.09	216.23
379.47	216.19
379.84	216.10
380.22	216.03
380.60	215.93
380.98	215.86
381.36	215.79
381.73	215.72
382.11	215.69
382.49	215.66
382.87	215.56
383.25	215.51
383.62	215.71
384.00	215.59
384.38	215.57
384.76	215.56
385.13	215.61
385.51	215.59
385.89	215.53
386.27	215.51
386.64	215.51
387.02	215.44
387.40	215.41
387.78	215.43
388.15	215.40
388.53	215.40
388.91	215.39
389.29	215.38
389.66	215.37
390.04	215.33
390.42	215.36
390.79	215.40
391.17	215.39
391.55	215.10
391.92	215.15
392.30	215.16
392.68	215.13
393.05	215.10
393.43	215.09
393.81	215.08
394.18	215.05
394.56	215.04
394.94	215.11
395.31	215.09
395.69	215.17
396.06	215.20
396.44	215.26
396.82	215.27
397.19	215.39
397.57	215.41
397.95	215.47
398.32	215.40
398.70	215.42
399.07	215.48
399.45	215.58
399.82	215.60
400.20	215.63
400.58	215.70
400.95	215.68
401.33	215.79
401.70	216.01
402.08	216.07
402.45	216.17
402.83	216.30
403.20	216.45
403.58	216.53
403.95	216.68
404.33	216.81
404.71	216.97
405.08	217.20
405.46	217.37
405.83	217.55
406.21	217.82
406.58	218.04
406.96	218.29
407.33	218.56
407.70	218.85
408.08	219.31
408.45	219.67
408.83	220.08
409.20	220.41
409.58	220.69
409.95	221.19
410.33	221.67
410.70	222.08
411.08	222.63
411.45	223.16
411.82	223.74
412.20	224.44
412.57	225.26
412.95	225.88
413.32	226.72
413.69	227.60
414.07	228.46
414.44	229.51
414.82	230.52
415.19	231.69
415.56	232.91
415.94	234.08
416.31	235.51
416.68	236.90
417.06	238.56
417.43	240.10
417.81	241.82
418.18	243.59
418.55	245.57
418.93	247.59
419.30	249.76
419.67	252.00
420.04	254.30
420.42	256.70
420.79	259.49
421.16	262.27
421.54	265.19
421.91	268.20
422.28	271.28
422.66	274.59
423.03	277.85
423.40	281.19
423.77	284.80
424.15	288.51
424.52	292.38
424.89	296.54
425.26	300.62
425.64	304.50
426.01	308.80
426.38	313.27
426.75	317.81
427.13	322.53
427.50	327.54
427.87	332.80
428.24	338.02
428.61	343.07
428.99	348.61
429.36	354.68
429.73	360.58
430.10	366.46
430.47	372.58
430.85	378.96
431.22	385.72
431.59	392.88
431.96	399.68
432.33	407.17
432.70	414.46
433.08	423.01
433.45	431.15
433.82	439.19
434.19	448.15
434.56	456.94
434.93	465.30
435.30	473.62
435.68	482.73
436.05	491.76
436.42	500.61
436.79	508.78
437.16	517.53
437.53	526.86
437.90	536.03
438.27	544.97
438.64	554.15
439.01	562.74
439.38	570.32
439.75	577.68
440.13	586.15
440.50	594.08
440.87	600.48
441.24	607.14
441.61	614.56
441.98	619.96
442.35	626.27
442.72	632.61
443.09	638.66
443.46	642.45
443.83	644.97
444.20	647.29
444.57	650.44
444.94	651.86
445.31	653.31
445.68	654.73
446.05	655.36
446.42	654.68
446.79	653.69
447.16	652.62
447.53	651.81
447.90	648.47
448.27	645.21
448.64	640.64
449.01	637.35
449.37	631.38
449.74	625.75
450.11	618.84
450.48	611.48
450.85	604.00
451.22	597.48
451.59	591.37
451.96	585.43
452.33	577.57
452.70	570.51
453.07	561.99
453.43	553.36
453.80	545.03
454.17	536.96
454.54	529.37
454.91	521.17
455.28	513.24
455.65	505.84
456.02	498.34
456.38	491.92
456.75	483.94
457.12	477.32
457.49	470.71
457.86	464.49
458.23	458.97
458.59	453.00
458.96	446.98
459.33	441.55
459.70	436.18
460.07	431.90
460.43	426.98
460.80	422.40
461.17	418.36
461.54	414.18
461.91	410.11
462.27	405.96
462.64	402.54
463.01	398.67
463.38	394.92
463.74	391.15
464.11	387.94
464.48	385.12
464.85	382.02
465.21	379.61
465.58	376.93
465.95	373.83
466.32	371.21
466.68	368.61
467.05	366.02
467.42	363.42
467.78	360.72
468.15	358.15
468.52	356.22
468.88	353.73
469.25	351.49
469.62	349.68
469.98	347.74
470.35	345.88
470.72	344.19
471.08	342.41
471.45	340.90
471.82	339.33
472.18	337.66
472.55	336.45
472.92	335.03
473.28	333.82
473.65	332.70
474.02	331.60
474.38	330.69
474.75	329.96
475.11	329.14
475.48	328.54
475.85	328.02
476.21	327.52
476.58	327.16
476.94	326.90
477.31	326.55
477.67	326.29
478.04	326.09
478.41	326.03
478.77	326.16
479.14	326.14
479.50	326.31
479.87	326.61
480.23	326.90
480.60	327.08
480.96	327.38
481.33	327.92
481.69	328.45
482.06	328.97
482.42	329.41
482.79	330.03
483.15	330.81
483.52	331.80
483.88	332.65
484.25	333.59
484.61	334.60
484.98	335.69
485.34	336.98
485.71	338.36
486.07	339.83
486.44	341.10
486.80	342.71
487.17	344.36
487.53	346.17
487.90	348.07
488.26	350.16
488.62	352.32
488.99	354.34
489.35	356.55
489.72	358.95
490.08	361.49
490.44	364.05
490.81	366.78
491.17	369.50
491.54	372.49
491.90	375.56
492.26	378.79
492.63	382.19
492.99	385.70
493.36	389.38
493.72	393.21
494.08	397.21
494.45	401.37
494.81	405.76
495.17	410.21
495.54	414.90
495.90	419.73
496.26	424.61
496.63	429.85
496.99	435.24
497.35	440.77
497.72	446.62
498.08	452.61
498.44	458.76
498.80	465.18
499.17	471.67
499.53	478.33
499.89	485.23
500.26	492.19
500.62	499.26
500.98	506.70
501.34	514.20
501.71	521.99
502.07	529.80
502.43	537.80
502.79	545.96
503.16	554.35
503.52	562.94
503.88	571.72
504.24	580.62
504.60	589.68
504.97	598.92
505.33	608.15
505.69	617.91
506.05	627.73
506.41	637.62
506.78	647.71
507.14	658.02
507.50	668.58
507.86	679.23
508.22	690.03
508.59	700.67
508.95	711.67
509.31	722.94
509.67	734.44
510.03	745.82
510.39	757.63
510.75	769.44
511.12	781.36
511.48	793.48
511.84	805.77
512.20	818.14
512.56	830.89
512.92	843.67
513.28	856.36
513.64	869.17
514.00	882.03
514.37	895.02
514.73	908.14
515.09	921.09
515.45	934.16
515.81	947.25
516.17	960.70
516.53	974.10
516.89	987.21
517.25	1000.46
517.61	1014.10
517.97	1027.51
518.33	1040.66
518.69	1054.28
519.05	1068.06
519.41	1081.79
519.77	1095.72
520.13	1108.90
520.49	1122.16
520.85	1135.69
521.21	1149.10
521.57	1162.81
521.93	1175.90
522.29	1189.74
522.65	1203.49
523.01	1217.05
523.37	1230.26
523.73	1243.65
524.09	1256.77
524.45	1270.41
524.81	1284.06
525.17	1297.55
525.53	1310.79
525.89	1324.19
526.25	1337.37
526.61	1350.22
526.97	1363.43
527.33	1376.48
527.68	1390.14
528.04	1403.84
528.40	1417.02
528.76	1430.51
529.12	1443.43
529.48	1456.85
529.84	1469.10
530.20	1481.75
530.56	1494.56
530.91	1507.97
531.27	1520.93
531.63	1533.84
531.99	1546.61
532.35	1558.88
532.71	1571.23
533.07	1584.32
533.42	1596.65
533.78	1608.86
534.14	1621.03
534.50	1632.39
534.86	1643.97
535.21	1654.84
535.57	1666.29
535.93	1677.61
536.29	1688.59
536.65	1700.19
537.00	1711.34
537.36	1722.88
537.72	1734.19
538.08	1745.63
538.44	1756.74
538.79	1768.00
539.15	1779.12
539.51	1789.99
539.87	1801.36
540.22	1812.37
540.58	1823.28
540.94	1834.44
541.29	1844.78
541.65	1854.66
542.01	1865.26
542.37	1875.49
542.72	1885.83
543.08	1895.68
543.44	1906.38
543.79	1915.85
544.15	1925.45
544.51	1935.52
544.87	1945.49
545.22	1954.65
545.58	1963.65
545.94	1972.60
546.29	1981.04
546.65	1989.37
547.01	1997.73
547.36	2005.48
547.72	2013.33
548.07	2020.99
548.43	2028.87
548.79	2036.94
549.14	2045.19
549.50	2053.66
549.86	2061.64
550.21	2069.10
550.57	2076.83
550.92	2083.55
551.28	2091.04
551.64	2098.21
551.99	2105.61
552.35	2112.78
552.70	2119.74
553.06	2126.42
553.41	2132.72
553.77	2139.38
554.13	2145.75
554.48	2152.76
554.84	2159.96
555.19	2166.46
555.55	2173.01
555.90	2179.17
556.26	2185.98
556.61	2192.10
556.97	2196.95
557.32	2202.69
557.68	2209.23
558.03	2215.08
558.39	2220.60
558.74	2226.65
559.10	2232.39
559.45	2238.17
559.81	2243.74
560.16	2249.37
560.52	2255.22
560.87	2261.62
561.23	2267.43
561.58	2274.08
561.94	2279.32
562.29	2283.87
562.64	2289.96
563.00	2295.61
563.35	2301.12
563.71	2306.60
564.06	2312.25
564.42	2318.29
564.77	2323.40
565.12	2328.49
565.48	2333.49
565.83	2338.82
566.19	2344.19
566.54	2349.36
566.89	2353.66
567.25	2358.10
567.60	2363.73
567.96	2368.79
568.31	2373.29
568.66	2377.51
569.02	2381.48
569.37	2385.26
569.72	2389.66
570.08	2392.93
570.43	2395.84
570.78	2398.91
571.14	2401.46
571.49	2404.46
571.84	2407.71
572.20	2410.43
572.55	2413.39
572.90	2415.64
573.26	2418.37
573.61	2420.84
573.96	2422.96
574.31	2425.11
574.67	2426.91
575.02	2427.45
575.37	2428.85
575.72	2429.31
576.08	2430.67
576.43	2430.52
576.78	2430.69
577.13	2432.11
577.49	2433.30
577.84	2434.34
578.19	2435.45
578.54	2436.03
578.90	2436.56
579.25	2436.36
579.60	2436.32
579.95	2435.43
580.30	2435.37
580.66	2434.50
581.01	2432.59
581.36	2429.99
581.71	2428.45
582.06	2427.23
582.42	2426.31
582.77	2423.83
583.12	2422.11
583.47	2420.54
583.82	2420.01
584.17	2418.70
584.53	2416.45
584.88	2414.16
585.23	2412.20
585.58	2409.83
585.93	2407.58
586.28	2405.14
586.63	2402.54
586.98	2400.12
587.34	2398.01
587.69	2395.49
588.04	2393.27
588.39	2391.70
588.74	2389.20
589.09	2386.19
589.44	2382.87
589.79	2380.14
590.14	2378.18
590.49	2375.22
590.84	2371.26
591.19	2367.99
591.54	2364.64
591.89	2360.50
592.25	2357.24
592.60	2352.83
592.95	2348.62
593.30	2344.36
593.65	2340.08
594.00	2335.63
594.35	2332.61
594.70	2327.89
595.05	2323.27
595.40	2317.75
595.75	2311.97
596.10	2308.23
596.45	2303.33
596.80	2298.66
597.15	2293.50
597.50	2287.39
597.85	2282.47
598.19	2277.25
598.54	2271.29
598.89	2265.90
599.24	2261.40
599.59	2255.02
599.94	2249.02
600.29	2243.08
600.64	2237.13
600.99	2230.24
601.34	2224.69
601.69	2217.50
602.04	2211.09
602.39	2204.35
602.74	2198.18
603.08	2192.67
603.43	2186.15
603.78	2179.30
604.13	2172.25
604.48	2164.92
604.83	2158.82
605.18	2152.62
605.53	2145.76
605.87	2138.74
606.22	2131.98
606.57	2123.90
606.92	2116.00
607.27	2109.09
607.62	2102.41
607.96	2095.25
608.31	2088.90
608.66	2081.13
609.01	2073.56
609.36	2066.44
609.70	2058.73
610.05	2050.84
610.40	2042.49
610.75	2033.98
611.10	2026.28
611.44	2017.34
611.79	2008.54
612.14	1998.48
612.49	1987.66
612.83	1978.26
613.18	1968.98
613.53	1959.67
613.88	1950.00
614.22	1941.36
614.57	1931.57
614.92	1920.86
615.27	1910.68
615.61	1900.37
615.96	1890.62
616.31	1881.02
616.65	1871.42
617.00	1861.75
617.35	1852.23
617.70	1842.52
618.04	1832.60
618.39	1822.52
618.74	1812.97
619.08	1803.40
619.43	1794.81
619.78	1786.77
620.12	1778.16
620.47	1768.60
620.82	1758.27
621.16	1748.60
621.51	1738.71
621.85	1728.90
622.20	1718.67
622.55	1708.28
622.89	1698.41
623.24	1688.85
623.59	1679.07
623.93	1669.02
624.28	1659.19
624.62	1649.14
624.97	1638.84
625.32	1629.15
625.66	1620.23
626.01	1611.48
626.35	1602.26
626.70	1592.23
627.04	1582.25
627.39	1572.07
627.73	1562.79
628.08	1553.88
628.43	1544.44
628.77	1535.30
629.12	1526.51
629.46	1518.67
629.81	1510.30
630.15	1500.91
630.50	1490.97
630.84	1480.51
631.19	1470.71
631.53	1461.44
631.88	1451.33
632.22	1441.52
632.57	1432.22
632.91	1422.16
633.26	1412.38
633.60	1402.76
633.95	1393.51
634.29	1383.88
634.64	1374.74
634.98	1364.83
635.32	1355.63
635.67	1347.09
636.01	1337.87
636.36	1328.02
636.70	1318.61
637.05	1309.25
637.39	1300.40
637.73	1291.85
638.08	1284.38
638.42	1276.33
638.77	1267.65
639.11	1259.49
639.45	1251.68
639.80	1243.22
640.14	1234.51
640.49	1225.68
640.83	1216.96
641.17	1208.86
641.52	1200.81
641.86	1192.17
642.20	1184.41
642.55	1175.83
642.89	1167.02
643.23	1158.39
643.58	1150.33
643.92	1141.43
644.26	1132.83
644.61	1124.41
644.95	1115.73
645.29	1106.58
645.64	1097.37
645.98	1088.87
646.32	1080.89
646.66	1072.25
647.01	1063.95
647.35	1055.91
647.69	1047.59
648.04	1039.31
648.38	1030.52
648.72	1021.84
649.06	1013.58
649.41	1005.32
649.75	997.30
650.09	989.49
650.43	981.42
650.78	973.16
651.12	965.37
651.46	957.93
651.80	950.71
652.14	943.47
652.49	935.93
652.83	928.61
653.17	921.01
653.51	913.44
653.85	906.29
654.20	899.00
654.54	891.51
654.88	884.38
655.22	877.20
655.56	870.15
655.90	863.32
656.25	856.51
656.59	849.68
656.93	842.69
657.27	835.56
657.61	828.56
657.95	822.49
658.29	816.49
658.64	810.38
658.98	803.90
659.32	797.35
659.66	791.12
660.00	784.78
660.34	778.60
660.68	772.49
661.02	766.06
661.36	760.01
661.70	754.16
662.05	748.39
662.39	742.84
662.73	737.42
663.07	731.99
663.41	726.45
663.75	720.74
664.09	715.08
664.43	709.68
664.77	704.39
665.11	698.56
665.45	692.64
665.79	686.78
666.13	681.09
666.47	675.52
666.81	670.00
667.15	664.60
667.49	659.38
667.83	654.09
668.17	648.90
668.51	643.86
668.85	638.87
669.19	633.99
669.53	628.94
669.87	623.79
670.21	619.00
670.55	614.22
670.89	609.71
671.23	605.40
671.57	600.95
671.91	596.64
672.25	592.41
672.58	588.28
672.92	584.25
673.26	580.26
673.60	576.37
673.94	572.57
674.28	568.91
674.62	565.29
674.96	561.55
675.30	558.01
675.64	554.31
675.97	550.69
676.31	546.98
676.65	543.39
676.99	539.93
677.33	536.05
677.67	532.37
678.01	528.51
678.34	524.83
678.68	521.27
679.02	517.63
679.36	513.94
679.70	510.26
680.04	506.67
680.37	503.22
680.71	499.89
681.05	496.62
681.39	493.37
681.73	490.11
682.06	487.03
682.40	483.90
682.74	480.70
683.08	477.47
683.42	474.30
683.75	471.23
684.09	468.16
684.43	465.31
684.77	462.34
685.10	459.47
685.44	456.52
685.78	453.63
686.12	450.78
686.45	448.04
686.79	445.36
687.13	442.79
687.46	440.16
687.80	437.44
688.14	434.64
688.48	431.95
688.81	429.23
689.15	426.59
689.49	423.93
689.82	421.34
690.16	418.73
690.50	416.22
690.83	413.68
691.17	411.11
691.51	408.60
691.84	406.28
692.18	403.99
692.52	401.75
692.85	399.56
693.19	397.42
693.52	395.17
693.86	392.90
694.20	390.66
694.53	388.50
694.87	386.26
695.21	384.08
695.54	381.90
695.88	379.75
696.21	377.52
696.55	375.41
696.88	373.33
697.22	371.33
697.56	369.42
697.89	367.54
698.23	365.76
698.56	364.03
698.90	362.27
699.23	360.34
699.57	358.45
699.90	356.56
700.24	354.74
700.58	352.98
700.91	351.30
701.25	349.70
701.58	348.03
701.92	346.43
702.25	344.79
702.59	343.07
702.92	341.48
703.26	339.96
703.59	338.46
703.93	337.19
704.26	335.73
704.60	334.15
704.93	332.64
705.26	331.13
705.60	329.59
705.93	328.01
706.27	326.67
706.60	325.36
706.94	324.10
707.27	322.67
707.61	321.36
707.94	320.00
708.27	318.47
708.61	316.98
708.94	315.57
709.28	314.29
709.61	313.09
709.94	311.82
710.28	310.55
710.61	309.36
710.95	307.85
711.28	306.74
711.61	305.59
711.95	304.42
712.28	303.18
712.61	301.99
712.95	301.00
713.28	299.94
713.61	298.79
713.95	297.64
714.28	296.60
714.61	295.53
714.95	294.46
715.28	293.42
715.61	292.42
715.95	291.45
716.28	290.49
716.61	289.49
716.95	288.51
717.28	287.58
717.61	286.56
717.94	285.67
718.28	284.64
718.61	283.75
718.94	282.81
719.27	281.99
719.61	281.09
719.94	280.17
720.27	279.16
720.60	278.29
720.94	277.42
721.27	276.68
721.60	275.96
721.93	275.25
722.27	274.62
722.60	273.93
722.93	273.24
723.26	272.55
723.59	271.84
723.93	271.21
724.26	270.54
724.59	269.90
724.92	269.28
725.25	268.71
725.59	268.11
725.92	267.61
726.25	267.01
726.58	266.44
726.91	265.81
727.24	265.30
727.57	264.73
727.91	264.10
728.24	263.48
728.57	262.84
728.90	262.25
729.23	261.65
729.56	261.16
729.89	260.58
730.22	259.98
730.55	259.46
730.89	258.89
731.22	258.36
731.55	257.82
731.88	257.32
732.21	256.76
732.54	256.21
732.87	255.66
733.20	255.15
733.53	254.66
733.86	254.21
734.19	253.73
734.52	253.28
734.85	252.99
735.18	252.52
735.51	252.18
735.84	251.77
736.17	251.34
736.50	250.84
736.83	250.69
737.16	250.33
737.49	249.93
737.82	249.52
738.15	249.12
738.48	248.76
738.81	248.31
739.14	247.91
739.47	247.52
739.80	247.16
740.13	246.83
740.46	246.44
740.79	246.05
741.12	245.63
741.45	245.29
741.78	244.85
742.11	244.55
742.44	244.16
742.77	243.84
743.10	243.48
743.43	243.13
743.75	242.53
744.08	242.43
744.41	242.04
744.74	241.68
745.07	241.31
745.40	240.97
745.73	240.68
746.06	240.35
746.39	240.05
746.71	239.72
747.04	239.33
747.37	239.01
747.70	238.72
748.03	238.40
748.36	238.09
748.68	237.78
749.01	237.44
749.34	237.15
749.67	236.84
750.00	236.55
750.33	236.44
750.65	236.21
750.98	235.66
751.31	235.43
751.64	235.19
751.97	235.07
752.29	234.84
752.62	234.53
752.95	234.30
753.28	234.01
753.60	233.74
753.93	233.57
754.26	233.38
754.59	233.08
754.91	232.86
755.24	232.61
755.57	232.34
755.90	232.12
756.22	231.85
756.55	231.59
756.88	231.34
757.20	230.95
757.53	230.64
757.86	230.42
758.19	230.23
758.51	229.99
758.84	229.70
759.17	229.46
759.49	229.30
759.82	229.23
760.15	229.08
760.47	228.88
760.80	228.62
761.13	228.47
761.45	228.31
761.78	228.13
762.11	227.95
762.43	227.80
762.76	227.63
763.08	227.50
763.41	227.40
763.74	227.26
764.06	227.10
764.39	226.98
764.71	226.84
765.04	226.67
765.37	226.56
765.69	226.38
766.02	226.23
766.34	226.11
766.67	225.87
767.00	225.76
767.32	225.76
767.65	225.75
767.97	225.58
768.30	225.49
768.62	225.39
768.95	225.24
769.27	225.13
769.60	225.04
769.92	224.88
770.25	224.69
770.57	224.54
770.90	224.43
771.22	224.29
771.55	224.22
771.87	224.10
772.20	223.97
772.52	224.04
772.85	224.16
773.17	224.01
773.50	223.90
773.82	223.75
774.15	223.54
774.47	223.34
774.80	223.21
775.12	223.08
775.45	222.97
775.77	222.89
776.09	222.80
776.42	222.69
776.74	222.67
777.07	222.57
777.39	222.50
777.72	222.38
778.04	222.35
778.36	222.21
778.69	222.14
779.01	222.05
779.33	221.80
779.66	221.48
779.98	221.42
780.31	221.34
780.63	221.35
780.95	221.33
781.28	221.26
781.60	221.19
781.92	221.11
782.25	221.07
782.57	220.98
782.89	220.87
783.22	220.80
783.54	220.68
783.86	220.67
784.19	220.58
784.51	220.60
784.83	220.49
785.16	220.46
785.48	220.40
785.80	220.36
786.12	220.31
