SpectraSuite Data File
++++++++++++++++++++++++++++++++++++
Date: Tue Jan 29 16:18:12 EST 2013
User: group
Dark Spectrum Present: No
Reference Spectrum Present: No
Number of Sampled Component Spectra: 1
Spectrometers: USB2E7196
Integration Time (usec): 65000 (USB2E7196)
Spectra Averaged: 100 (USB2E7196)
Boxcar Smoothing: 10 (USB2E7196)
Correct for Electrical Dark: No (USB2E7196)
Strobe/Lamp Enabled: No (USB2E7196)
Correct for Detector Non-linearity: No (USB2E7196)
Correct for Stray Light: No (USB2E7196)
Number of Pixels in Processed Spectrum: 2048
>>>>>Begin Processed Spectral Data<<<<<
339.09	0.00
339.48	202.06
339.86	203.87
340.24	205.63
340.63	206.08
341.01	210.66
341.39	209.00
341.78	210.48
342.16	211.70
342.54	211.90
342.93	201.32
343.31	211.49
343.69	212.04
344.07	212.50
344.46	212.96
344.84	213.38
345.22	213.58
345.60	213.89
345.99	214.10
346.37	214.25
346.75	214.38
347.13	214.45
347.52	214.55
347.90	214.64
348.28	214.68
348.66	214.80
349.05	214.79
349.43	214.85
349.81	214.91
350.19	214.97
350.57	215.08
350.96	215.17
351.34	215.32
351.72	215.41
352.10	215.55
352.48	215.59
352.87	215.64
353.25	215.71
353.63	215.72
354.01	215.76
354.39	215.84
354.77	215.93
355.15	216.09
355.54	216.16
355.92	216.20
356.30	216.28
356.68	216.48
357.06	216.56
357.44	216.59
357.82	216.63
358.20	216.70
358.58	216.75
358.97	216.82
359.35	216.90
359.73	217.00
360.11	217.04
360.49	217.12
360.87	217.19
361.25	217.26
361.63	217.43
362.01	217.53
362.39	217.59
362.77	217.67
363.15	217.67
363.53	217.70
363.91	217.73
364.29	217.79
364.67	217.61
365.05	217.65
365.43	217.71
365.81	217.78
366.19	217.88
366.57	217.95
366.95	217.95
367.33	217.89
367.71	217.90
368.09	217.96
368.47	217.94
368.85	217.91
369.23	217.94
369.61	217.84
369.99	217.89
370.37	217.90
370.75	217.93
371.13	217.88
371.51	217.83
371.89	217.84
372.27	217.80
372.65	217.81
373.03	217.80
373.41	217.73
373.78	217.68
374.16	217.54
374.54	217.48
374.92	217.43
375.30	217.42
375.68	217.33
376.06	217.30
376.44	217.25
376.82	217.25
377.19	217.20
377.57	217.14
377.95	217.02
378.33	216.96
378.71	216.80
379.09	216.80
379.47	216.82
379.84	216.74
380.22	216.68
380.60	216.59
380.98	216.50
381.36	216.44
381.73	216.37
382.11	216.37
382.49	216.30
382.87	216.23
383.25	216.20
383.62	216.42
384.00	216.30
384.38	216.24
384.76	216.24
385.13	216.28
385.51	216.27
385.89	216.19
386.27	216.15
386.64	216.16
387.02	216.10
387.40	216.02
387.78	215.98
388.15	215.95
388.53	215.93
388.91	215.89
389.29	215.88
389.66	215.87
390.04	215.81
390.42	215.88
390.79	215.90
391.17	215.87
391.55	215.62
391.92	215.63
392.30	215.64
392.68	215.61
393.05	215.53
393.43	215.51
393.81	215.54
394.18	215.54
394.56	215.53
394.94	215.58
395.31	215.58
395.69	215.68
396.06	215.73
396.44	215.77
396.82	215.79
397.19	215.90
397.57	215.90
397.95	215.96
398.32	215.87
398.70	215.93
399.07	215.98
399.45	215.99
399.82	216.05
400.20	216.10
400.58	216.13
400.95	216.14
401.33	216.25
401.70	216.42
402.08	216.52
402.45	216.61
402.83	216.72
403.20	216.82
403.58	216.89
403.95	217.05
404.33	217.21
404.71	217.36
405.08	217.64
405.46	217.84
405.83	218.04
406.21	218.26
406.58	218.47
406.96	218.72
407.33	218.98
407.70	219.26
408.08	219.71
408.45	220.08
408.83	220.46
409.20	220.79
409.58	221.09
409.95	221.52
410.33	222.00
410.70	222.43
411.08	222.99
411.45	223.53
411.82	224.10
412.20	224.75
412.57	225.54
412.95	226.08
413.32	226.86
413.69	227.66
414.07	228.57
414.44	229.51
414.82	230.48
415.19	231.64
415.56	232.78
415.94	233.91
416.31	235.24
416.68	236.60
417.06	238.14
417.43	239.65
417.81	241.35
418.18	243.06
418.55	244.92
418.93	246.85
419.30	248.93
419.67	251.06
420.04	253.29
420.42	255.57
420.79	258.32
421.16	261.02
421.54	263.84
421.91	266.75
422.28	269.77
422.66	272.99
423.03	276.10
423.40	279.32
423.77	282.76
424.15	286.32
424.52	289.99
424.89	294.05
425.26	297.99
425.64	301.72
426.01	305.87
426.38	310.18
426.75	314.62
427.13	319.14
427.50	323.95
427.87	328.96
428.24	334.00
428.61	338.79
428.99	344.12
429.36	349.89
429.73	355.54
430.10	361.20
430.47	367.05
430.85	373.13
431.22	379.64
431.59	386.59
431.96	393.18
432.33	400.43
432.70	407.39
433.08	415.66
433.45	423.43
433.82	431.19
434.19	439.79
434.56	448.22
434.93	456.31
435.30	464.28
435.68	473.08
436.05	481.74
436.42	490.32
436.79	498.20
437.16	506.66
437.53	515.61
437.90	524.40
438.27	533.05
438.64	541.97
439.01	550.23
439.38	557.52
439.75	564.59
440.13	572.72
440.50	580.47
440.87	586.54
441.24	592.98
441.61	600.07
441.98	605.29
442.35	611.35
442.72	617.36
443.09	623.30
443.46	626.87
443.83	629.34
444.20	631.52
444.57	634.55
444.94	636.01
445.31	637.40
445.68	638.77
446.05	639.40
446.42	638.66
446.79	637.72
447.16	636.68
447.53	635.90
447.90	632.74
448.27	629.50
448.64	625.03
449.01	621.78
449.37	616.01
449.74	610.54
450.11	603.87
450.48	596.82
450.85	589.46
451.22	583.23
451.59	577.30
451.96	571.61
452.33	564.00
452.70	557.09
453.07	548.89
453.43	540.56
453.80	532.50
454.17	524.80
454.54	517.47
454.91	509.51
455.28	501.80
455.65	494.61
456.02	487.39
456.38	481.38
456.75	473.87
457.12	467.62
457.49	461.32
457.86	455.41
458.23	450.22
458.59	444.63
458.96	438.84
459.33	433.74
459.70	428.61
460.07	424.53
460.43	419.83
460.80	415.44
461.17	411.66
461.54	407.61
461.91	403.73
462.27	399.81
462.64	396.56
463.01	392.95
463.38	389.38
463.74	385.82
464.11	382.67
464.48	379.89
464.85	376.87
465.21	374.51
465.58	371.96
465.95	368.93
466.32	366.38
466.68	363.88
467.05	361.34
467.42	358.89
467.78	356.31
468.15	353.84
468.52	352.03
468.88	349.61
469.25	347.49
469.62	345.74
469.98	343.88
470.35	342.12
470.72	340.53
471.08	338.82
471.45	337.37
471.82	335.89
472.18	334.30
472.55	333.14
472.92	331.81
473.28	330.65
473.65	329.58
474.02	328.50
474.38	327.66
474.75	326.98
475.11	326.15
475.48	325.58
475.85	325.11
476.21	324.59
476.58	324.26
476.94	324.06
477.31	323.83
477.67	323.61
478.04	323.50
478.41	323.46
478.77	323.60
479.14	323.61
479.50	323.75
479.87	324.06
480.23	324.42
480.60	324.68
480.96	324.94
481.33	325.50
481.69	326.07
482.06	326.59
482.42	327.08
482.79	327.69
483.15	328.50
483.52	329.47
483.88	330.40
484.25	331.32
484.61	332.32
484.98	333.32
485.34	334.61
485.71	336.01
486.07	337.42
486.44	338.79
486.80	340.39
487.17	342.05
487.53	343.85
487.90	345.64
488.26	347.67
488.62	349.80
488.99	351.82
489.35	353.92
489.72	356.29
490.08	358.78
490.44	361.40
490.81	364.11
491.17	366.80
491.54	369.80
491.90	372.87
492.26	376.12
492.63	379.48
492.99	382.95
493.36	386.60
493.72	390.47
494.08	394.42
494.45	398.55
494.81	402.90
495.17	407.35
495.54	412.06
495.90	416.88
496.26	421.83
496.63	427.07
496.99	432.56
497.35	438.13
497.72	443.94
498.08	449.83
498.44	455.90
498.80	462.31
499.17	468.72
499.53	475.40
499.89	482.29
500.26	489.28
500.62	496.34
500.98	503.65
501.34	511.09
501.71	518.86
502.07	526.70
502.43	534.62
502.79	542.68
503.16	551.02
503.52	559.50
503.88	568.12
504.24	576.99
504.60	585.98
504.97	595.15
505.33	604.30
505.69	614.07
506.05	623.89
506.41	633.68
506.78	643.75
507.14	653.87
507.50	664.17
507.86	674.82
508.22	685.42
508.59	696.04
508.95	706.97
509.31	718.11
509.67	729.44
510.03	740.86
510.39	752.57
510.75	764.35
511.12	776.26
511.48	788.22
511.84	800.38
512.20	812.55
512.56	825.07
512.92	837.77
513.28	850.26
513.64	862.80
514.00	875.40
514.37	888.20
514.73	901.12
515.09	914.03
515.45	926.70
515.81	939.63
516.17	952.82
516.53	965.91
516.89	978.74
517.25	991.71
517.61	1005.02
517.97	1018.09
518.33	1030.94
518.69	1044.19
519.05	1057.72
519.41	1071.15
519.77	1084.75
520.13	1097.83
520.49	1110.76
520.85	1123.97
521.21	1137.17
521.57	1150.76
521.93	1163.57
522.29	1177.12
522.65	1190.46
523.01	1203.78
523.37	1216.79
523.73	1229.80
524.09	1242.69
524.45	1255.90
524.81	1269.12
525.17	1282.18
525.53	1295.14
525.89	1308.20
526.25	1320.96
526.61	1333.45
526.97	1346.13
527.33	1358.81
527.68	1371.88
528.04	1385.08
528.40	1397.78
528.76	1410.71
529.12	1423.16
529.48	1436.17
529.84	1448.06
530.20	1460.37
530.56	1472.74
530.91	1485.58
531.27	1498.20
531.63	1510.64
531.99	1523.01
532.35	1534.91
532.71	1547.02
533.07	1559.59
533.42	1571.45
533.78	1583.29
534.14	1595.03
534.50	1606.01
534.86	1617.20
535.21	1627.76
535.57	1638.95
535.93	1649.95
536.29	1660.68
536.65	1671.77
537.00	1682.34
537.36	1693.31
537.72	1703.99
538.08	1714.90
538.44	1725.40
538.79	1735.88
539.15	1746.35
539.51	1756.70
539.87	1767.68
540.22	1778.01
540.58	1788.43
540.94	1798.98
541.29	1808.76
541.65	1818.16
542.01	1828.46
542.37	1838.09
542.72	1847.82
543.08	1857.08
543.44	1867.13
543.79	1876.21
544.15	1885.46
544.51	1895.04
544.87	1904.62
545.22	1913.53
545.58	1922.13
545.94	1930.86
546.29	1939.20
546.65	1947.36
547.01	1955.52
547.36	1962.98
547.72	1970.55
548.07	1977.95
548.43	1985.52
548.79	1993.37
549.14	2001.37
549.50	2009.41
549.86	2017.11
550.21	2024.41
550.57	2031.93
550.92	2038.58
551.28	2045.90
551.64	2052.85
551.99	2060.10
552.35	2066.96
552.70	2073.75
553.06	2080.29
553.41	2086.29
553.77	2092.66
554.13	2098.86
554.48	2105.55
554.84	2112.39
555.19	2118.63
555.55	2125.04
555.90	2131.13
556.26	2137.85
556.61	2143.65
556.97	2148.28
557.32	2154.08
557.68	2160.36
558.03	2166.09
558.39	2171.22
558.74	2177.07
559.10	2182.54
559.45	2188.02
559.81	2193.63
560.16	2199.06
560.52	2204.89
560.87	2211.28
561.23	2217.16
561.58	2223.66
561.94	2228.87
562.29	2233.61
562.64	2239.78
563.00	2245.32
563.35	2250.95
563.71	2256.58
564.06	2262.31
564.42	2268.39
564.77	2273.37
565.12	2278.53
565.48	2283.61
565.83	2289.21
566.19	2294.48
566.54	2299.87
566.89	2304.60
567.25	2309.24
567.60	2315.01
567.96	2320.07
568.31	2324.67
568.66	2328.86
569.02	2332.72
569.37	2336.44
569.72	2340.86
570.08	2344.34
570.43	2347.56
570.78	2350.57
571.14	2353.12
571.49	2356.34
571.84	2359.93
572.20	2363.01
572.55	2366.32
572.90	2368.76
573.26	2371.74
573.61	2374.39
573.96	2376.59
574.31	2378.69
574.67	2380.77
575.02	2381.61
575.37	2383.19
575.72	2384.04
576.08	2385.62
576.43	2385.99
576.78	2386.81
577.13	2388.61
577.49	2389.86
577.84	2390.97
578.19	2392.41
578.54	2393.35
578.90	2394.28
579.25	2394.22
579.60	2394.28
579.95	2393.49
580.30	2393.72
580.66	2393.18
581.01	2391.68
581.36	2389.57
581.71	2388.34
582.06	2387.36
582.42	2386.71
582.77	2384.73
583.12	2383.36
583.47	2382.17
583.82	2381.81
584.17	2380.64
584.53	2378.54
584.88	2376.74
585.23	2375.10
585.58	2373.00
585.93	2370.94
586.28	2368.84
586.63	2366.71
586.98	2364.79
587.34	2363.09
587.69	2360.87
588.04	2358.97
588.39	2357.75
588.74	2355.55
589.09	2353.06
589.44	2350.00
589.79	2347.61
590.14	2345.80
590.49	2343.07
590.84	2339.47
591.19	2336.54
591.54	2333.54
591.89	2329.89
592.25	2326.67
592.60	2322.66
592.95	2318.79
593.30	2314.86
593.65	2310.70
594.00	2306.45
594.35	2303.60
594.70	2299.02
595.05	2294.54
595.40	2289.17
595.75	2283.63
596.10	2280.15
596.45	2275.40
596.80	2271.12
597.15	2266.08
597.50	2260.26
597.85	2255.42
598.19	2250.41
598.54	2244.84
598.89	2239.64
599.24	2235.02
599.59	2229.07
599.94	2223.32
600.29	2217.44
600.64	2211.58
600.99	2204.89
601.34	2199.46
601.69	2192.49
602.04	2186.17
602.39	2179.71
602.74	2173.84
603.08	2168.36
603.43	2161.73
603.78	2155.03
604.13	2147.83
604.48	2140.71
604.83	2134.77
605.18	2128.56
605.53	2121.68
605.87	2114.62
606.22	2107.99
606.57	2100.19
606.92	2092.27
607.27	2085.46
607.62	2078.86
607.96	2071.97
608.31	2065.50
608.66	2057.85
609.01	2050.26
609.36	2043.30
609.70	2035.54
610.05	2027.73
610.40	2019.45
610.75	2011.37
611.10	2003.70
611.44	1994.94
611.79	1986.16
612.14	1976.30
612.49	1965.86
612.83	1956.66
613.18	1947.54
613.53	1938.23
613.88	1928.75
614.22	1920.42
614.57	1910.50
614.92	1900.15
615.27	1889.91
615.61	1879.98
615.96	1870.41
616.31	1860.95
616.65	1851.66
617.00	1842.07
617.35	1832.45
617.70	1822.82
618.04	1812.79
618.39	1802.72
618.74	1793.12
619.08	1783.53
619.43	1774.83
619.78	1766.59
620.12	1758.02
620.47	1748.43
620.82	1738.27
621.16	1728.56
621.51	1718.58
621.85	1708.87
622.20	1698.57
622.55	1688.15
622.89	1678.40
623.24	1668.71
623.59	1658.98
623.93	1648.80
624.28	1639.10
624.62	1629.18
624.97	1619.04
625.32	1609.33
625.66	1600.52
626.01	1591.82
626.35	1582.58
626.70	1572.50
627.04	1562.55
627.39	1552.45
627.73	1543.20
628.08	1534.20
628.43	1524.64
628.77	1515.45
629.12	1506.60
629.46	1498.83
629.81	1490.45
630.15	1480.80
630.50	1470.92
630.84	1460.51
631.19	1450.75
631.53	1441.48
631.88	1431.29
632.22	1421.26
632.57	1411.98
632.91	1401.84
633.26	1392.04
633.60	1382.59
633.95	1373.45
634.29	1363.91
634.64	1354.62
634.98	1344.83
635.32	1335.61
635.67	1327.14
636.01	1317.97
636.36	1308.28
636.70	1298.75
637.05	1289.46
637.39	1280.70
637.73	1272.31
638.08	1264.72
638.42	1256.53
638.77	1247.75
639.11	1239.62
639.45	1231.84
639.80	1223.27
640.14	1214.65
640.49	1205.88
640.83	1197.08
641.17	1189.07
641.52	1181.06
641.86	1172.56
642.20	1164.59
642.55	1155.93
642.89	1147.13
643.23	1138.48
643.58	1130.49
643.92	1121.47
644.26	1112.88
644.61	1104.45
644.95	1095.60
645.29	1086.45
645.64	1077.44
645.98	1068.96
646.32	1061.09
646.66	1052.62
647.01	1044.35
647.35	1036.28
647.69	1027.95
648.04	1019.75
648.38	1010.73
648.72	1001.94
649.06	993.57
649.41	985.49
649.75	977.69
650.09	969.85
650.43	961.92
650.78	953.70
651.12	946.05
651.46	938.66
651.80	931.40
652.14	924.17
652.49	916.67
652.83	909.34
653.17	901.75
653.51	894.16
653.85	887.01
654.20	879.83
654.54	872.45
654.88	865.27
655.22	858.15
655.56	851.29
655.90	844.64
656.25	838.11
656.59	831.31
656.93	824.41
657.27	817.38
657.61	810.46
657.95	804.40
658.29	798.63
658.64	792.59
658.98	786.24
659.32	779.75
659.66	773.69
660.00	767.45
660.34	761.51
660.68	755.46
661.02	749.22
661.36	743.38
661.70	737.62
662.05	732.17
662.39	726.75
662.73	721.47
663.07	716.10
663.41	710.55
663.75	704.88
664.09	699.30
664.43	693.99
664.77	688.82
665.11	683.11
665.45	677.25
665.79	671.59
666.13	666.02
666.47	660.64
666.81	655.26
667.15	649.97
667.49	644.87
667.83	639.71
668.17	634.59
668.51	629.56
668.85	624.75
669.19	619.85
669.53	614.90
669.87	609.86
670.21	605.22
670.55	600.56
670.89	596.24
671.23	591.96
671.57	587.73
671.91	583.45
672.25	579.37
672.58	575.29
672.92	571.26
673.26	567.41
673.60	563.61
673.94	559.88
674.28	556.27
674.62	552.63
674.96	548.95
675.30	545.49
675.64	541.90
675.97	538.42
676.31	534.95
676.65	531.37
676.99	527.97
677.33	524.18
677.67	520.62
678.01	516.81
678.34	513.23
678.68	509.71
679.02	506.21
679.36	502.55
679.70	498.97
680.04	495.45
680.37	492.09
680.71	488.85
681.05	485.73
681.39	482.58
681.73	479.42
682.06	476.50
682.40	473.45
682.74	470.31
683.08	467.07
683.42	463.90
683.75	461.00
684.09	458.05
684.43	455.31
684.77	452.41
685.10	449.65
685.44	446.78
685.78	443.89
686.12	441.16
686.45	438.54
686.79	435.91
687.13	433.46
687.46	430.86
687.80	428.26
688.14	425.46
688.48	422.90
688.81	420.32
689.15	417.73
689.49	415.15
689.82	412.72
690.16	410.20
690.50	407.80
690.83	405.31
691.17	402.84
691.51	400.38
691.84	398.20
692.18	396.05
692.52	393.97
692.85	391.92
693.19	389.86
693.52	387.75
693.86	385.67
694.20	383.49
694.53	381.44
694.87	379.32
695.21	377.25
695.54	375.16
695.88	373.03
696.21	370.91
696.55	368.84
696.88	366.81
697.22	364.91
697.56	363.05
697.89	361.25
698.23	359.55
698.56	357.84
698.90	356.08
699.23	354.21
699.57	352.36
699.90	350.54
700.24	348.74
700.58	347.02
700.91	345.37
701.25	343.89
701.58	342.33
701.92	340.72
702.25	339.16
702.59	337.58
702.92	336.13
703.26	334.61
703.59	333.18
703.93	331.96
704.26	330.55
704.60	329.08
704.93	327.66
705.26	326.17
705.60	324.74
705.93	323.26
706.27	321.96
706.60	320.72
706.94	319.53
707.27	318.14
707.61	316.83
707.94	315.49
708.27	314.01
708.61	312.56
708.94	311.24
709.28	310.00
709.61	308.79
709.94	307.59
710.28	306.42
710.61	305.25
710.95	303.85
711.28	302.79
711.61	301.66
711.95	300.56
712.28	299.42
712.61	298.21
712.95	297.20
713.28	296.21
713.61	295.08
713.95	293.95
714.28	292.99
714.61	291.94
714.95	290.99
715.28	290.03
715.61	289.05
715.95	288.13
716.28	287.18
716.61	286.25
716.95	285.29
717.28	284.41
717.61	283.50
717.94	282.63
718.28	281.67
718.61	280.84
718.94	279.97
719.27	279.15
719.61	278.43
719.94	277.58
720.27	276.61
720.60	275.81
720.94	275.02
721.27	274.25
721.60	273.61
721.93	272.88
722.27	272.23
722.60	271.62
722.93	270.92
723.26	270.30
723.59	269.60
723.93	268.98
724.26	268.32
724.59	267.68
724.92	267.10
725.25	266.53
725.59	265.94
725.92	265.42
726.25	264.85
726.58	264.29
726.91	263.72
727.24	263.22
727.57	262.66
727.91	262.05
728.24	261.57
728.57	260.99
728.90	260.48
729.23	259.91
729.56	259.47
729.89	258.96
730.22	258.39
730.55	257.90
730.89	257.36
731.22	256.84
731.55	256.31
731.88	255.80
732.21	255.32
732.54	254.78
732.87	254.26
733.20	253.80
733.53	253.31
733.86	252.88
734.19	252.40
734.52	251.97
734.85	251.70
735.18	251.21
735.51	250.81
735.84	250.38
736.17	250.01
736.50	249.44
736.83	249.27
737.16	248.88
737.49	248.51
737.82	248.14
738.15	247.79
738.48	247.47
738.81	247.05
739.14	246.58
739.47	246.23
739.80	245.85
740.13	245.52
740.46	245.16
740.79	244.79
741.12	244.45
741.45	244.09
741.78	243.65
742.11	243.42
742.44	243.08
742.77	242.77
743.10	242.42
743.43	242.11
743.75	241.58
744.08	241.50
744.41	241.14
744.74	240.79
745.07	240.43
745.40	240.15
745.73	239.97
746.06	239.72
746.39	239.41
746.71	239.09
747.04	238.75
747.37	238.42
747.70	238.15
748.03	237.86
748.36	237.64
748.68	237.36
749.01	237.03
749.34	236.74
749.67	236.44
750.00	236.21
750.33	236.12
750.65	235.85
750.98	235.38
751.31	235.16
751.64	234.96
751.97	234.85
752.29	234.59
752.62	234.26
752.95	234.02
753.28	233.77
753.60	233.53
753.93	233.38
754.26	233.18
754.59	232.93
754.91	232.71
755.24	232.42
755.57	232.23
755.90	232.01
756.22	231.76
756.55	231.56
756.88	231.27
757.20	230.92
757.53	230.65
757.86	230.46
758.19	230.23
758.51	230.03
758.84	229.73
759.17	229.52
759.49	229.35
759.82	229.28
760.15	229.16
760.47	229.01
760.80	228.78
761.13	228.64
761.45	228.40
761.78	228.25
762.11	228.10
762.43	227.91
762.76	227.71
763.08	227.60
763.41	227.44
763.74	227.33
764.06	227.17
764.39	227.07
764.71	226.88
765.04	226.74
765.37	226.56
765.69	226.40
766.02	226.29
766.34	226.13
766.67	225.90
767.00	225.81
767.32	225.78
767.65	225.73
767.97	225.61
768.30	225.54
768.62	225.43
768.95	225.29
769.27	225.17
769.60	225.06
769.92	224.90
770.25	224.77
770.57	224.61
770.90	224.49
771.22	224.33
771.55	224.26
771.87	224.15
772.20	224.05
772.52	224.13
772.85	224.25
773.17	224.14
773.50	224.03
773.82	223.89
774.15	223.69
774.47	223.49
774.80	223.36
775.12	223.25
775.45	223.15
775.77	223.06
776.09	222.98
776.42	222.90
776.74	222.90
777.07	222.78
777.39	222.72
777.72	222.60
778.04	222.57
778.36	222.49
778.69	222.45
779.01	222.39
779.33	222.18
779.66	221.86
779.98	221.78
780.31	221.74
780.63	221.73
780.95	221.68
781.28	221.59
781.60	221.52
781.92	221.47
782.25	221.39
782.57	221.32
782.89	221.25
783.22	221.18
783.54	221.04
783.86	221.01
784.19	220.94
784.51	220.99
784.83	220.89
785.16	220.82
785.48	220.76
785.80	220.68
786.12	220.60
