SpectraSuite Data File
++++++++++++++++++++++++++++++++++++
Date: Tue Jan 29 16:55:28 EST 2013
User: group
Dark Spectrum Present: No
Reference Spectrum Present: No
Number of Sampled Component Spectra: 1
Spectrometers: USB2E7196
Integration Time (usec): 65000 (USB2E7196)
Spectra Averaged: 100 (USB2E7196)
Boxcar Smoothing: 10 (USB2E7196)
Correct for Electrical Dark: No (USB2E7196)
Strobe/Lamp Enabled: No (USB2E7196)
Correct for Detector Non-linearity: No (USB2E7196)
Correct for Stray Light: No (USB2E7196)
Number of Pixels in Processed Spectrum: 2048
>>>>>Begin Processed Spectral Data<<<<<
339.09	0.00
339.48	202.15
339.86	202.98
340.24	204.42
340.63	205.39
341.01	210.30
341.39	207.93
341.78	210.15
342.16	211.35
342.54	211.76
342.93	200.73
343.31	210.89
343.69	211.40
344.07	211.86
344.46	212.32
344.84	212.74
345.22	212.93
345.60	213.23
345.99	213.45
346.37	213.58
346.75	213.68
347.13	213.75
347.52	213.83
347.90	213.96
348.28	214.00
348.66	214.06
349.05	214.03
349.43	214.12
349.81	214.19
350.19	214.25
350.57	214.34
350.96	214.41
351.34	214.51
351.72	214.59
352.10	214.69
352.48	214.73
352.87	214.79
353.25	214.83
353.63	214.90
354.01	214.94
354.39	215.02
354.77	215.10
355.15	215.21
355.54	215.24
355.92	215.24
356.30	215.29
356.68	215.51
357.06	215.59
357.44	215.62
357.82	215.67
358.20	215.73
358.58	215.76
358.97	215.84
359.35	215.93
359.73	216.06
360.11	216.12
360.49	216.22
360.87	216.27
361.25	216.34
361.63	216.44
362.01	216.48
362.39	216.52
362.77	216.58
363.15	216.61
363.53	216.67
363.91	216.72
364.29	216.78
364.67	216.61
365.05	216.62
365.43	216.65
365.81	216.71
366.19	216.81
366.57	216.90
366.95	216.89
367.33	216.82
367.71	216.79
368.09	216.83
368.47	216.80
368.85	216.77
369.23	216.80
369.61	216.71
369.99	216.74
370.37	216.74
370.75	216.82
371.13	216.73
371.51	216.69
371.89	216.66
372.27	216.62
372.65	216.62
373.03	216.62
373.41	216.58
373.78	216.53
374.16	216.38
374.54	216.30
374.92	216.24
375.30	216.20
375.68	216.16
376.06	216.09
376.44	216.05
376.82	216.04
377.19	215.99
377.57	215.93
377.95	215.87
378.33	215.79
378.71	215.61
379.09	215.62
379.47	215.56
379.84	215.50
380.22	215.47
380.60	215.35
380.98	215.29
381.36	215.25
381.73	215.18
382.11	215.20
382.49	215.18
382.87	215.14
383.25	215.13
383.62	215.29
384.00	215.22
384.38	215.20
384.76	215.19
385.13	215.25
385.51	215.24
385.89	215.14
386.27	215.12
386.64	215.11
387.02	215.06
387.40	215.06
387.78	215.04
388.15	215.04
388.53	215.02
388.91	214.99
389.29	214.96
389.66	214.96
390.04	214.91
390.42	214.92
390.79	214.91
391.17	214.89
391.55	214.67
391.92	214.69
392.30	214.71
392.68	214.66
393.05	214.59
393.43	214.62
393.81	214.66
394.18	214.67
394.56	214.71
394.94	214.75
395.31	214.73
395.69	214.80
396.06	214.80
396.44	214.88
396.82	214.88
397.19	215.02
397.57	215.04
397.95	215.12
398.32	215.06
398.70	215.14
399.07	215.21
399.45	215.26
399.82	215.30
400.20	215.35
400.58	215.42
400.95	215.42
401.33	215.51
401.70	215.76
402.08	215.84
402.45	215.90
402.83	216.05
403.20	216.16
403.58	216.25
403.95	216.45
404.33	216.57
404.71	216.75
405.08	217.01
405.46	217.18
405.83	217.37
406.21	217.59
406.58	217.83
406.96	218.07
407.33	218.36
407.70	218.66
408.08	219.09
408.45	219.47
408.83	219.88
409.20	220.24
409.58	220.49
409.95	220.96
410.33	221.46
410.70	221.88
411.08	222.42
411.45	223.02
411.82	223.59
412.20	224.28
412.57	225.12
412.95	225.71
413.32	226.55
413.69	227.35
414.07	228.28
414.44	229.24
414.82	230.24
415.19	231.37
415.56	232.58
415.94	233.80
416.31	235.20
416.68	236.54
417.06	238.13
417.43	239.67
417.81	241.43
418.18	243.19
418.55	245.15
418.93	247.23
419.30	249.37
419.67	251.62
420.04	253.93
420.42	256.28
420.79	259.09
421.16	261.93
421.54	264.89
421.91	267.90
422.28	271.05
422.66	274.41
423.03	277.69
423.40	281.09
423.77	284.70
424.15	288.40
424.52	292.30
424.89	296.49
425.26	300.59
425.64	304.45
426.01	308.77
426.38	313.27
426.75	317.80
427.13	322.51
427.50	327.49
427.87	332.77
428.24	338.01
428.61	343.03
428.99	348.53
429.36	354.55
429.73	360.47
430.10	366.38
430.47	372.41
430.85	378.74
431.22	385.46
431.59	392.64
431.96	399.47
432.33	407.05
432.70	414.32
433.08	422.90
433.45	431.10
433.82	439.13
434.19	448.12
434.56	456.89
434.93	465.27
435.30	473.55
435.68	482.66
436.05	491.75
436.42	500.76
436.79	508.97
437.16	517.84
437.53	527.17
437.90	536.38
438.27	545.44
438.64	554.69
439.01	563.32
439.38	570.89
439.75	578.27
440.13	586.74
440.50	594.83
440.87	601.36
441.24	608.04
441.61	615.44
441.98	620.79
442.35	627.17
442.72	633.59
443.09	639.78
443.46	643.53
443.83	645.99
444.20	648.17
444.57	651.37
444.94	652.83
445.31	654.27
445.68	655.66
446.05	656.30
446.42	655.58
446.79	654.67
447.16	653.62
447.53	652.88
447.90	649.54
448.27	646.22
448.64	641.48
449.01	638.20
449.37	632.39
449.74	626.75
450.11	619.80
450.48	612.36
450.85	604.81
451.22	598.38
451.59	592.21
451.96	586.37
452.33	578.47
452.70	571.33
453.07	562.83
453.43	554.20
453.80	545.89
454.17	537.83
454.54	530.17
454.91	521.98
455.28	513.95
455.65	506.47
456.02	498.87
456.38	492.52
456.75	484.55
457.12	477.81
457.49	471.20
457.86	464.96
458.23	459.55
458.59	453.63
458.96	447.48
459.33	442.17
459.70	436.73
460.07	432.41
460.43	427.41
460.80	422.74
461.17	418.70
461.54	414.40
461.91	410.33
462.27	406.14
462.64	402.63
463.01	398.79
463.38	395.05
463.74	391.34
464.11	388.01
464.48	385.13
464.85	382.06
465.21	379.60
465.58	377.00
465.95	373.83
466.32	371.16
466.68	368.58
467.05	365.98
467.42	363.40
467.78	360.70
468.15	358.14
468.52	356.25
468.88	353.72
469.25	351.48
469.62	349.68
469.98	347.75
470.35	345.92
470.72	344.24
471.08	342.42
471.45	340.90
471.82	339.37
472.18	337.67
472.55	336.41
472.92	334.97
473.28	333.69
473.65	332.48
474.02	331.33
474.38	330.43
474.75	329.64
475.11	328.80
475.48	328.19
475.85	327.72
476.21	327.21
476.58	326.80
476.94	326.57
477.31	326.28
477.67	325.97
478.04	325.76
478.41	325.68
478.77	325.86
479.14	325.77
479.50	325.91
479.87	326.20
480.23	326.51
480.60	326.78
480.96	327.08
481.33	327.67
481.69	328.24
482.06	328.74
482.42	329.17
482.79	329.74
483.15	330.52
483.52	331.46
483.88	332.35
484.25	333.35
484.61	334.34
484.98	335.35
485.34	336.69
485.71	338.05
486.07	339.51
486.44	340.84
486.80	342.48
487.17	344.16
487.53	345.98
487.90	347.87
488.26	349.94
488.62	352.08
488.99	354.15
489.35	356.33
489.72	358.69
490.08	361.29
490.44	363.90
490.81	366.63
491.17	369.36
491.54	372.33
491.90	375.35
492.26	378.59
492.63	381.98
492.99	385.45
493.36	389.11
493.72	392.92
494.08	396.94
494.45	401.12
494.81	405.52
495.17	409.94
495.54	414.55
495.90	419.30
496.26	424.22
496.63	429.38
496.99	434.79
497.35	440.37
497.72	446.10
498.08	452.00
498.44	458.04
498.80	464.43
499.17	470.93
499.53	477.63
499.89	484.55
500.26	491.52
500.62	498.59
500.98	505.99
501.34	513.44
501.71	521.13
502.07	528.92
502.43	536.82
502.79	544.93
503.16	553.31
503.52	561.96
503.88	570.63
504.24	579.54
504.60	588.57
504.97	597.76
505.33	607.05
505.69	616.88
506.05	626.75
506.41	636.59
506.78	646.61
507.14	656.84
507.50	667.16
507.86	677.79
508.22	688.52
508.59	699.09
508.95	710.12
509.31	721.27
509.67	732.70
510.03	744.03
510.39	755.65
510.75	767.41
511.12	779.22
511.48	791.24
511.84	803.48
512.20	815.71
512.56	828.39
512.92	841.18
513.28	853.75
513.64	866.46
514.00	879.27
514.37	892.15
514.73	905.19
515.09	918.23
515.45	931.23
515.81	944.24
516.17	957.69
516.53	971.00
516.89	984.20
517.25	997.37
517.61	1010.96
517.97	1024.46
518.33	1037.73
518.69	1051.25
519.05	1065.09
519.41	1078.80
519.77	1092.84
520.13	1106.09
520.49	1119.27
520.85	1132.82
521.21	1146.13
521.57	1159.85
521.93	1172.92
522.29	1186.66
522.65	1200.26
523.01	1213.76
523.37	1227.00
523.73	1240.35
524.09	1253.56
524.45	1267.03
524.81	1280.55
525.17	1293.91
525.53	1307.06
525.89	1320.42
526.25	1333.62
526.61	1346.45
526.97	1359.53
527.33	1372.35
527.68	1385.85
528.04	1399.39
528.40	1412.35
528.76	1425.80
529.12	1438.75
529.48	1452.14
529.84	1464.39
530.20	1477.28
530.56	1489.91
530.91	1503.15
531.27	1516.10
531.63	1528.73
531.99	1541.63
532.35	1553.82
532.71	1566.28
533.07	1579.27
533.42	1591.63
533.78	1603.73
534.14	1615.77
534.50	1627.05
534.86	1638.76
535.21	1649.58
535.57	1661.19
535.93	1672.38
536.29	1683.52
536.65	1695.01
537.00	1705.98
537.36	1717.49
537.72	1728.41
538.08	1739.96
538.44	1751.12
538.79	1762.23
539.15	1773.30
539.51	1784.02
539.87	1795.51
540.22	1806.42
540.58	1817.47
540.94	1828.36
541.29	1838.79
541.65	1848.75
542.01	1859.22
542.37	1869.25
542.72	1879.60
543.08	1889.23
543.44	1899.94
543.79	1909.20
544.15	1918.67
544.51	1928.74
544.87	1938.77
545.22	1948.14
545.58	1957.06
545.94	1966.01
546.29	1974.60
546.65	1983.14
547.01	1991.39
547.36	1998.96
547.72	2006.74
548.07	2014.22
548.43	2021.99
548.79	2029.93
549.14	2038.09
549.50	2046.73
549.86	2054.75
550.21	2062.41
550.57	2070.41
550.92	2077.33
551.28	2084.93
551.64	2092.08
551.99	2099.58
552.35	2106.64
552.70	2113.57
553.06	2120.15
553.41	2126.44
553.77	2132.91
554.13	2139.16
554.48	2146.08
554.84	2153.33
555.19	2159.94
555.55	2166.26
555.90	2172.56
556.26	2179.48
556.61	2185.55
556.97	2190.31
557.32	2196.02
557.68	2202.23
558.03	2207.91
558.39	2213.19
558.74	2219.15
559.10	2224.78
559.45	2230.36
559.81	2236.04
560.16	2241.55
560.52	2247.51
560.87	2253.82
561.23	2259.56
561.58	2266.15
561.94	2271.52
562.29	2276.14
562.64	2282.02
563.00	2287.86
563.35	2293.41
563.71	2298.74
564.06	2304.47
564.42	2310.44
564.77	2315.45
565.12	2320.63
565.48	2325.57
565.83	2331.07
566.19	2336.26
566.54	2341.40
566.89	2345.86
567.25	2350.15
567.60	2355.59
567.96	2360.49
568.31	2364.92
568.66	2369.15
569.02	2372.95
569.37	2376.52
569.72	2380.78
570.08	2384.09
570.43	2387.25
570.78	2390.15
571.14	2392.63
571.49	2395.57
571.84	2398.97
572.20	2401.78
572.55	2404.49
572.90	2406.67
573.26	2409.32
573.61	2411.82
573.96	2414.09
574.31	2415.95
574.67	2417.78
575.02	2418.46
575.37	2419.92
575.72	2420.30
576.08	2421.77
576.43	2421.61
576.78	2421.78
577.13	2423.19
577.49	2424.40
577.84	2424.95
578.19	2425.97
578.54	2426.39
578.90	2426.59
579.25	2426.11
579.60	2425.94
579.95	2425.03
580.30	2424.79
580.66	2423.92
581.01	2422.03
581.36	2419.13
581.71	2417.57
582.06	2416.30
582.42	2415.29
582.77	2412.66
583.12	2410.90
583.47	2409.06
583.82	2408.44
584.17	2406.94
584.53	2404.56
584.88	2402.21
585.23	2400.17
585.58	2397.68
585.93	2395.58
586.28	2393.33
586.63	2390.64
586.98	2388.16
587.34	2386.04
587.69	2383.29
588.04	2380.93
588.39	2379.28
588.74	2376.92
589.09	2374.04
589.44	2370.39
589.79	2367.52
590.14	2365.31
590.49	2362.35
590.84	2358.47
591.19	2354.98
591.54	2351.78
591.89	2347.75
592.25	2344.31
592.60	2340.13
592.95	2335.91
593.30	2331.66
593.65	2327.21
594.00	2322.84
594.35	2319.82
594.70	2315.07
595.05	2310.83
595.40	2305.32
595.75	2299.49
596.10	2295.66
596.45	2290.60
596.80	2286.05
597.15	2280.99
597.50	2275.13
597.85	2270.24
598.19	2265.01
598.54	2259.50
598.89	2254.11
599.24	2249.25
599.59	2243.20
599.94	2237.02
600.29	2230.99
600.64	2224.84
600.99	2217.90
601.34	2212.42
601.69	2205.37
602.04	2198.91
602.39	2192.00
602.74	2185.79
603.08	2180.29
603.43	2173.80
603.78	2167.17
604.13	2160.16
604.48	2152.71
604.83	2146.60
605.18	2140.46
605.53	2133.81
605.87	2126.70
606.22	2119.97
606.57	2112.22
606.92	2104.16
607.27	2097.36
607.62	2090.78
607.96	2083.91
608.31	2077.71
608.66	2069.84
609.01	2062.14
609.36	2055.14
609.70	2047.51
610.05	2039.74
610.40	2031.33
610.75	2022.85
611.10	2015.00
611.44	2006.10
611.79	1997.52
612.14	1987.63
612.49	1976.74
612.83	1967.08
613.18	1957.50
613.53	1948.20
613.88	1938.55
614.22	1929.87
614.57	1920.13
614.92	1909.57
615.27	1899.22
615.61	1888.88
615.96	1879.31
616.31	1869.84
616.65	1860.26
617.00	1850.80
617.35	1841.17
617.70	1831.55
618.04	1821.86
618.39	1811.91
618.74	1802.42
619.08	1792.71
619.43	1784.14
619.78	1775.97
620.12	1767.51
620.47	1758.25
620.82	1748.01
621.16	1738.31
621.51	1728.52
621.85	1718.85
622.20	1708.79
622.55	1698.49
622.89	1688.60
623.24	1679.00
623.59	1669.22
623.93	1659.34
624.28	1649.36
624.62	1639.43
624.97	1629.32
625.32	1619.46
625.66	1610.34
626.01	1601.70
626.35	1592.66
626.70	1582.68
627.04	1572.95
627.39	1562.91
627.73	1553.79
628.08	1545.09
628.43	1535.81
628.77	1526.75
629.12	1517.93
629.46	1510.01
629.81	1501.84
630.15	1492.75
630.50	1483.03
630.84	1472.62
631.19	1462.85
631.53	1453.85
631.88	1443.84
632.22	1433.95
632.57	1424.79
632.91	1415.06
633.26	1405.33
633.60	1395.80
633.95	1386.67
634.29	1377.15
634.64	1367.96
634.98	1358.04
635.32	1348.87
635.67	1340.49
636.01	1331.23
636.36	1321.71
636.70	1312.28
637.05	1303.05
637.39	1294.22
637.73	1285.77
638.08	1278.26
638.42	1270.28
638.77	1261.58
639.11	1253.50
639.45	1245.94
639.80	1237.51
640.14	1228.82
640.49	1219.99
640.83	1211.24
641.17	1203.08
641.52	1195.12
641.86	1186.68
642.20	1178.98
642.55	1170.30
642.89	1161.47
643.23	1153.11
643.58	1144.98
643.92	1136.14
644.26	1127.47
644.61	1119.07
644.95	1110.31
645.29	1101.32
645.64	1092.17
645.98	1083.61
646.32	1075.65
646.66	1067.02
647.01	1058.82
647.35	1050.80
647.69	1042.61
648.04	1034.55
648.38	1025.89
648.72	1017.25
649.06	1008.93
649.41	1000.78
649.75	992.97
650.09	985.20
650.43	977.20
650.78	968.97
651.12	961.25
651.46	953.90
651.80	946.70
652.14	939.52
652.49	932.12
652.83	924.87
653.17	917.33
653.51	909.88
653.85	902.76
654.20	895.62
654.54	888.33
654.88	881.18
655.22	873.88
655.56	866.89
655.90	860.10
656.25	853.45
656.59	846.73
656.93	839.77
657.27	832.72
657.61	825.73
657.95	819.62
658.29	813.73
658.64	807.74
658.98	801.36
659.32	794.85
659.66	788.61
660.00	782.45
660.34	776.40
660.68	770.33
661.02	763.95
661.36	757.91
661.70	752.17
662.05	746.53
662.39	741.13
662.73	735.63
663.07	730.17
663.41	724.54
663.75	718.71
664.09	713.01
664.43	707.53
664.77	702.24
665.11	696.46
665.45	690.59
665.79	684.71
666.13	679.05
666.47	673.62
666.81	668.13
667.15	662.67
667.49	657.47
667.83	652.27
668.17	647.13
668.51	642.06
668.85	637.07
669.19	632.19
669.53	627.11
669.87	622.09
670.21	617.32
670.55	612.62
670.89	608.23
671.23	603.92
671.57	599.51
671.91	595.26
672.25	591.05
672.58	586.98
672.92	582.93
673.26	578.93
673.60	575.05
673.94	571.24
674.28	567.66
674.62	563.94
674.96	560.13
675.30	556.59
675.64	552.91
675.97	549.35
676.31	545.72
676.65	542.23
676.99	538.87
677.33	535.03
677.67	531.39
678.01	527.53
678.34	523.89
678.68	520.40
679.02	516.85
679.36	513.26
679.70	509.61
680.04	506.01
680.37	502.51
680.71	499.12
681.05	495.97
681.39	492.61
681.73	489.47
682.06	486.43
682.40	483.29
682.74	480.15
683.08	476.86
683.42	473.62
683.75	470.52
684.09	467.38
684.43	464.58
684.77	461.70
685.10	458.82
685.44	455.89
685.78	452.95
686.12	450.07
686.45	447.23
686.79	444.60
687.13	442.10
687.46	439.53
687.80	436.80
688.14	433.93
688.48	431.26
688.81	428.49
689.15	425.85
689.49	423.22
689.82	420.60
690.16	417.99
690.50	415.54
690.83	413.05
691.17	410.47
691.51	407.96
691.84	405.57
692.18	403.35
692.52	401.13
692.85	398.93
693.19	396.78
693.52	394.58
693.86	392.27
694.20	389.99
694.53	387.77
694.87	385.59
695.21	383.38
695.54	381.23
695.88	379.04
696.21	376.84
696.55	374.76
696.88	372.70
697.22	370.75
697.56	368.86
697.89	366.91
698.23	365.15
698.56	363.36
698.90	361.56
699.23	359.67
699.57	357.80
699.90	355.94
700.24	354.04
700.58	352.34
700.91	350.68
701.25	349.09
701.58	347.50
701.92	345.90
702.25	344.30
702.59	342.65
702.92	341.09
703.26	339.53
703.59	337.98
703.93	336.67
704.26	335.17
704.60	333.58
704.93	332.04
705.26	330.54
705.60	329.02
705.93	327.49
706.27	326.12
706.60	324.84
706.94	323.59
707.27	322.21
707.61	320.84
707.94	319.45
708.27	317.95
708.61	316.50
708.94	315.09
709.28	313.80
709.61	312.53
709.94	311.34
710.28	310.11
710.61	308.92
710.95	307.50
711.28	306.43
711.61	305.27
711.95	304.17
712.28	302.96
712.61	301.76
712.95	300.71
713.28	299.66
713.61	298.47
713.95	297.36
714.28	296.32
714.61	295.26
714.95	294.20
715.28	293.16
715.61	292.10
715.95	291.08
716.28	290.12
716.61	289.16
716.95	288.13
717.28	287.17
717.61	286.19
717.94	285.25
718.28	284.20
718.61	283.27
718.94	282.41
719.27	281.59
719.61	280.78
719.94	279.89
720.27	278.94
720.60	278.08
720.94	277.21
721.27	276.42
721.60	275.69
721.93	274.99
722.27	274.34
722.60	273.68
722.93	273.00
723.26	272.33
723.59	271.60
723.93	270.95
724.26	270.32
724.59	269.65
724.92	269.05
725.25	268.49
725.59	267.96
725.92	267.34
726.25	266.72
726.58	266.16
726.91	265.55
727.24	265.01
727.57	264.42
727.91	263.81
728.24	263.27
728.57	262.68
728.90	262.10
729.23	261.43
729.56	260.97
729.89	260.42
730.22	259.81
730.55	259.26
730.89	258.71
731.22	258.18
731.55	257.68
731.88	257.16
732.21	256.56
732.54	255.95
732.87	255.41
733.20	254.96
733.53	254.46
733.86	254.00
734.19	253.47
734.52	253.03
734.85	252.73
735.18	252.28
735.51	251.94
735.84	251.52
736.17	251.17
736.50	250.60
736.83	250.43
737.16	250.03
737.49	249.66
737.82	249.22
738.15	248.86
738.48	248.47
738.81	248.09
739.14	247.69
739.47	247.32
739.80	246.93
740.13	246.52
740.46	246.10
740.79	245.69
741.12	245.30
741.45	244.92
741.78	244.50
742.11	244.21
742.44	243.80
742.77	243.49
743.10	243.16
743.43	242.82
743.75	242.25
744.08	242.17
744.41	241.80
744.74	241.44
745.07	241.04
745.40	240.73
745.73	240.46
746.06	240.15
746.39	239.87
746.71	239.56
747.04	239.20
747.37	238.89
747.70	238.63
748.03	238.34
748.36	238.06
748.68	237.72
749.01	237.35
749.34	237.06
749.67	236.74
750.00	236.43
750.33	236.28
750.65	236.03
750.98	235.48
751.31	235.26
751.64	235.05
751.97	234.89
752.29	234.63
752.62	234.26
752.95	233.98
753.28	233.69
753.60	233.46
753.93	233.27
754.26	233.03
754.59	232.72
754.91	232.48
755.24	232.24
755.57	231.99
755.90	231.75
756.22	231.45
756.55	231.21
756.88	230.97
757.20	230.65
757.53	230.39
757.86	230.23
758.19	230.02
758.51	229.79
758.84	229.51
759.17	229.28
759.49	229.14
759.82	229.07
760.15	228.90
760.47	228.71
760.80	228.51
761.13	228.36
761.45	228.14
761.78	227.96
762.11	227.78
762.43	227.59
762.76	227.45
763.08	227.33
763.41	227.14
763.74	226.98
764.06	226.81
764.39	226.65
764.71	226.48
765.04	226.29
765.37	226.15
765.69	226.00
766.02	225.85
766.34	225.68
766.67	225.42
767.00	225.33
767.32	225.32
767.65	225.29
767.97	225.13
768.30	225.06
768.62	224.92
768.95	224.77
769.27	224.68
769.60	224.59
769.92	224.44
770.25	224.31
770.57	224.17
770.90	224.03
771.22	223.87
771.55	223.75
771.87	223.65
772.20	223.51
772.52	223.53
772.85	223.67
773.17	223.58
773.50	223.50
773.82	223.36
774.15	223.13
774.47	222.90
774.80	222.79
775.12	222.67
775.45	222.59
775.77	222.54
776.09	222.44
776.42	222.30
776.74	222.28
777.07	222.17
777.39	222.07
777.72	221.95
778.04	221.93
778.36	221.83
778.69	221.74
779.01	221.71
779.33	221.51
779.66	221.18
779.98	221.07
780.31	221.00
780.63	220.98
780.95	220.97
781.28	220.92
781.60	220.84
781.92	220.75
782.25	220.67
782.57	220.58
782.89	220.51
783.22	220.44
783.54	220.32
783.86	220.30
784.19	220.25
784.51	220.26
784.83	220.12
785.16	220.04
785.48	219.98
785.80	219.90
786.12	219.84
