SpectraSuite Data File
++++++++++++++++++++++++++++++++++++
Date: Tue Jan 29 16:42:17 EST 2013
User: group
Dark Spectrum Present: No
Reference Spectrum Present: No
Number of Sampled Component Spectra: 1
Spectrometers: USB2E7196
Integration Time (usec): 65000 (USB2E7196)
Spectra Averaged: 100 (USB2E7196)
Boxcar Smoothing: 10 (USB2E7196)
Correct for Electrical Dark: No (USB2E7196)
Strobe/Lamp Enabled: No (USB2E7196)
Correct for Detector Non-linearity: No (USB2E7196)
Correct for Stray Light: No (USB2E7196)
Number of Pixels in Processed Spectrum: 2048
>>>>>Begin Processed Spectral Data<<<<<
339.09	0.00
339.48	201.70
339.86	203.88
340.24	204.72
340.63	206.15
341.01	210.69
341.39	208.62
341.78	209.98
342.16	211.58
342.54	212.27
342.93	201.03
343.31	211.19
343.69	211.76
344.07	212.21
344.46	212.67
344.84	213.08
345.22	213.25
345.60	213.53
345.99	213.76
346.37	213.91
346.75	214.00
347.13	214.09
347.52	214.13
347.90	214.31
348.28	214.37
348.66	214.48
349.05	214.47
349.43	214.53
349.81	214.60
350.19	214.65
350.57	214.71
350.96	214.79
351.34	214.92
351.72	214.98
352.10	215.11
352.48	215.15
352.87	215.15
353.25	215.21
353.63	215.27
354.01	215.30
354.39	215.36
354.77	215.43
355.15	215.56
355.54	215.62
355.92	215.61
356.30	215.63
356.68	215.78
357.06	215.85
357.44	215.90
357.82	215.96
358.20	216.04
358.58	216.08
358.97	216.15
359.35	216.23
359.73	216.32
360.11	216.31
360.49	216.37
360.87	216.44
361.25	216.53
361.63	216.64
362.01	216.71
362.39	216.74
362.77	216.79
363.15	216.81
363.53	216.84
363.91	216.87
364.29	216.94
364.67	216.78
365.05	216.83
365.43	216.88
365.81	216.89
366.19	216.98
366.57	217.09
366.95	217.10
367.33	217.04
367.71	217.03
368.09	217.09
368.47	217.11
368.85	217.12
369.23	217.13
369.61	217.03
369.99	217.07
370.37	217.07
370.75	217.17
371.13	217.12
371.51	217.08
371.89	217.07
372.27	217.06
372.65	217.01
373.03	216.96
373.41	216.91
373.78	216.87
374.16	216.72
374.54	216.60
374.92	216.51
375.30	216.49
375.68	216.42
376.06	216.39
376.44	216.31
376.82	216.28
377.19	216.22
377.57	216.17
377.95	216.07
378.33	216.01
378.71	215.82
379.09	215.79
379.47	215.76
379.84	215.70
380.22	215.62
380.60	215.58
380.98	215.53
381.36	215.46
381.73	215.40
382.11	215.41
382.49	215.39
382.87	215.37
383.25	215.33
383.62	215.54
384.00	215.44
384.38	215.42
384.76	215.43
385.13	215.47
385.51	215.43
385.89	215.38
386.27	215.38
386.64	215.40
387.02	215.39
387.40	215.37
387.78	215.38
388.15	215.34
388.53	215.32
388.91	215.29
389.29	215.27
389.66	215.26
390.04	215.23
390.42	215.26
390.79	215.22
391.17	215.19
391.55	214.95
391.92	214.98
392.30	215.03
392.68	214.95
393.05	214.98
393.43	214.97
393.81	215.01
394.18	214.99
394.56	215.00
394.94	215.04
395.31	215.01
395.69	215.08
396.06	215.15
396.44	215.20
396.82	215.24
397.19	215.39
397.57	215.43
397.95	215.47
398.32	215.45
398.70	215.52
399.07	215.63
399.45	215.67
399.82	215.72
400.20	215.70
400.58	215.77
400.95	215.73
401.33	215.86
401.70	216.06
402.08	216.12
402.45	216.22
402.83	216.36
403.20	216.49
403.58	216.54
403.95	216.69
404.33	216.82
404.71	216.98
405.08	217.24
405.46	217.42
405.83	217.64
406.21	217.82
406.58	218.08
406.96	218.29
407.33	218.55
407.70	218.84
408.08	219.36
408.45	219.73
408.83	220.18
409.20	220.49
409.58	220.80
409.95	221.28
410.33	221.74
410.70	222.19
411.08	222.80
411.45	223.40
411.82	224.00
412.20	224.75
412.57	225.60
412.95	226.19
413.32	227.06
413.69	227.91
414.07	228.87
414.44	229.89
414.82	230.91
415.19	232.13
415.56	233.38
415.94	234.60
416.31	236.02
416.68	237.44
417.06	239.14
417.43	240.73
417.81	242.53
418.18	244.37
418.55	246.38
418.93	248.41
419.30	250.62
419.67	252.93
420.04	255.25
420.42	257.73
420.79	260.64
421.16	263.52
421.54	266.52
421.91	269.63
422.28	272.85
422.66	276.31
423.03	279.68
423.40	283.14
423.77	286.82
424.15	290.64
424.52	294.59
424.89	298.91
425.26	303.10
425.64	307.10
426.01	311.54
426.38	316.15
426.75	320.88
427.13	325.73
427.50	330.85
427.87	336.28
428.24	341.59
428.61	346.72
428.99	352.39
429.36	358.65
429.73	364.70
430.10	370.72
430.47	376.98
430.85	383.45
431.22	390.39
431.59	397.77
431.96	404.80
432.33	412.53
432.70	420.00
433.08	428.79
433.45	437.12
433.82	445.41
434.19	454.58
434.56	463.58
434.93	472.17
435.30	480.73
435.68	490.12
436.05	499.37
436.42	508.57
436.79	517.03
437.16	526.03
437.53	535.61
437.90	545.12
438.27	554.38
438.64	563.91
439.01	572.71
439.38	580.47
439.75	588.09
440.13	596.81
440.50	605.03
440.87	611.73
441.24	618.61
441.61	626.21
441.98	631.86
442.35	638.41
442.72	645.03
443.09	651.33
443.46	655.18
443.83	657.89
444.20	660.21
444.57	663.54
444.94	665.06
445.31	666.64
445.68	668.08
446.05	668.78
446.42	668.00
446.79	667.08
447.16	666.04
447.53	665.19
447.90	661.82
448.27	658.41
448.64	653.66
449.01	650.27
449.37	644.19
449.74	638.29
450.11	631.18
450.48	623.50
450.85	615.75
451.22	609.05
451.59	602.70
451.96	596.68
452.33	588.51
452.70	581.12
453.07	572.35
453.43	563.43
453.80	554.84
454.17	546.63
454.54	538.78
454.91	530.26
455.28	522.04
455.65	514.32
456.02	506.58
456.38	499.97
456.75	491.78
457.12	484.92
457.49	478.19
457.86	471.78
458.23	466.23
458.59	460.08
458.96	453.89
459.33	448.34
459.70	442.78
460.07	438.35
460.43	433.34
460.80	428.56
461.17	424.42
461.54	420.03
461.91	415.83
462.27	411.60
462.64	408.10
463.01	404.20
463.38	400.36
463.74	396.54
464.11	393.16
464.48	390.25
464.85	387.10
465.21	384.57
465.58	381.82
465.95	378.56
466.32	375.90
466.68	373.22
467.05	370.60
467.42	367.93
467.78	365.16
468.15	362.57
468.52	360.60
468.88	358.03
469.25	355.72
469.62	353.89
469.98	351.86
470.35	349.97
470.72	348.24
471.08	346.37
471.45	344.80
471.82	343.23
472.18	341.53
472.55	340.26
472.92	338.84
473.28	337.57
473.65	336.40
474.02	335.24
474.38	334.28
474.75	333.47
475.11	332.61
475.48	331.97
475.85	331.40
476.21	330.85
476.58	330.46
476.94	330.26
477.31	329.91
477.67	329.59
478.04	329.43
478.41	329.39
478.77	329.53
479.14	329.47
479.50	329.56
479.87	329.81
480.23	330.12
480.60	330.34
480.96	330.64
481.33	331.22
481.69	331.76
482.06	332.29
482.42	332.76
482.79	333.35
483.15	334.13
483.52	335.08
483.88	335.98
484.25	336.89
484.61	337.88
484.98	338.92
485.34	340.28
485.71	341.70
486.07	343.10
486.44	344.45
486.80	346.10
487.17	347.79
487.53	349.69
487.90	351.59
488.26	353.63
488.62	355.82
488.99	357.86
489.35	360.04
489.72	362.49
490.08	365.10
490.44	367.75
490.81	370.54
491.17	373.30
491.54	376.35
491.90	379.43
492.26	382.76
492.63	386.24
492.99	389.75
493.36	393.47
493.72	397.41
494.08	401.51
494.45	405.74
494.81	410.21
495.17	414.67
495.54	419.46
495.90	424.35
496.26	429.35
496.63	434.63
496.99	440.17
497.35	445.80
497.72	451.73
498.08	457.72
498.44	463.88
498.80	470.43
499.17	477.01
499.53	483.87
499.89	490.83
500.26	497.95
500.62	505.16
500.98	512.69
501.34	520.31
501.71	528.25
502.07	536.19
502.43	544.30
502.79	552.63
503.16	561.04
503.52	569.85
503.88	578.66
504.24	587.78
504.60	596.93
504.97	606.29
505.33	615.65
505.69	625.65
506.05	635.63
506.41	645.65
506.78	655.78
507.14	666.13
507.50	676.73
507.86	687.49
508.22	698.37
508.59	709.13
508.95	720.27
509.31	731.61
509.67	743.23
510.03	754.70
510.39	766.54
510.75	778.56
511.12	790.43
511.48	802.65
511.84	815.02
512.20	827.48
512.56	840.24
512.92	853.14
513.28	865.86
513.64	878.78
514.00	891.65
514.37	904.73
514.73	917.98
515.09	931.13
515.45	944.20
515.81	957.43
516.17	970.87
516.53	984.31
516.89	997.52
517.25	1010.85
517.61	1024.55
517.97	1038.06
518.33	1051.32
518.69	1065.00
519.05	1078.87
519.41	1092.74
519.77	1106.80
520.13	1120.18
520.49	1133.44
520.85	1147.04
521.21	1160.48
521.57	1174.25
521.93	1187.48
522.29	1201.38
522.65	1215.00
523.01	1228.72
523.37	1241.98
523.73	1255.51
524.09	1268.68
524.45	1282.12
524.81	1295.71
525.17	1309.29
525.53	1322.52
525.89	1336.01
526.25	1349.40
526.61	1362.41
526.97	1375.54
527.33	1388.64
527.68	1402.21
528.04	1415.97
528.40	1429.18
528.76	1442.79
529.12	1455.91
529.48	1469.41
529.84	1481.82
530.20	1494.86
530.56	1507.57
530.91	1520.97
531.27	1533.96
531.63	1546.91
531.99	1559.91
532.35	1572.21
532.71	1584.68
533.07	1597.79
533.42	1610.20
533.78	1622.31
534.14	1634.52
534.50	1645.89
534.86	1657.58
535.21	1668.59
535.57	1680.19
535.93	1691.58
536.29	1702.72
536.65	1714.32
537.00	1725.36
537.36	1736.74
537.72	1747.83
538.08	1759.44
538.44	1770.54
538.79	1781.67
539.15	1792.64
539.51	1803.53
539.87	1815.01
540.22	1825.88
540.58	1836.90
540.94	1847.94
541.29	1858.35
541.65	1868.18
542.01	1878.81
542.37	1888.89
542.72	1899.14
543.08	1908.85
543.44	1919.43
543.79	1928.68
544.15	1938.15
544.51	1948.15
544.87	1958.13
545.22	1967.47
545.58	1976.26
545.94	1985.26
546.29	1993.81
546.65	2002.45
547.01	2010.70
547.36	2018.38
547.72	2026.31
548.07	2033.93
548.43	2041.57
548.79	2049.45
549.14	2057.66
549.50	2066.18
549.86	2074.19
550.21	2081.71
550.57	2089.57
550.92	2096.41
551.28	2103.99
551.64	2111.24
551.99	2118.78
552.35	2126.08
552.70	2132.74
553.06	2139.46
553.41	2145.68
553.77	2152.21
554.13	2158.39
554.48	2165.42
554.84	2172.60
555.19	2179.08
555.55	2185.40
555.90	2191.64
556.26	2198.54
556.61	2204.58
556.97	2209.32
557.32	2215.09
557.68	2221.62
558.03	2227.42
558.39	2232.79
558.74	2238.71
559.10	2244.20
559.45	2249.74
559.81	2255.13
560.16	2260.74
560.52	2266.61
560.87	2273.04
561.23	2278.90
561.58	2285.62
561.94	2290.79
562.29	2295.40
562.64	2301.47
563.00	2307.29
563.35	2312.92
563.71	2318.57
564.06	2324.16
564.42	2330.01
564.77	2335.03
565.12	2340.21
565.48	2345.21
565.83	2350.56
566.19	2355.88
566.54	2361.31
566.89	2365.92
567.25	2370.53
567.60	2376.16
567.96	2381.22
568.31	2385.55
568.66	2389.60
569.02	2393.43
569.37	2397.19
569.72	2401.52
570.08	2404.89
570.43	2407.80
570.78	2410.92
571.14	2413.30
571.49	2416.40
571.84	2419.82
572.20	2422.52
572.55	2425.24
572.90	2427.40
573.26	2430.08
573.61	2432.71
573.96	2434.69
574.31	2436.61
574.67	2438.49
575.02	2439.08
575.37	2440.47
575.72	2441.11
576.08	2442.75
576.43	2442.72
576.78	2442.93
577.13	2444.35
577.49	2445.34
577.84	2446.28
578.19	2447.42
578.54	2447.87
578.90	2448.39
579.25	2448.05
579.60	2447.85
579.95	2447.03
580.30	2446.90
580.66	2446.21
581.01	2444.27
581.36	2441.65
581.71	2440.18
582.06	2438.73
582.42	2437.71
582.77	2435.27
583.12	2433.51
583.47	2431.82
583.82	2431.02
584.17	2429.68
584.53	2427.48
584.88	2425.32
585.23	2423.14
585.58	2420.61
585.93	2418.52
586.28	2416.05
586.63	2413.55
586.98	2411.23
587.34	2409.05
587.69	2406.50
588.04	2404.11
588.39	2402.50
588.74	2399.96
589.09	2397.00
589.44	2393.67
589.79	2391.14
590.14	2388.83
590.49	2385.83
590.84	2381.74
591.19	2378.42
591.54	2375.02
591.89	2370.79
592.25	2367.32
592.60	2363.01
592.95	2358.63
593.30	2354.30
593.65	2349.78
594.00	2345.24
594.35	2342.09
594.70	2337.26
595.05	2332.62
595.40	2327.07
595.75	2321.14
596.10	2317.32
596.45	2312.39
596.80	2307.69
597.15	2302.19
597.50	2296.23
597.85	2291.26
598.19	2286.13
598.54	2280.37
598.89	2274.97
599.24	2270.34
599.59	2264.02
599.94	2258.14
600.29	2252.17
600.64	2246.08
600.99	2239.27
601.34	2233.67
601.69	2226.68
602.04	2220.28
602.39	2213.45
602.74	2207.28
603.08	2201.71
603.43	2195.14
603.78	2188.10
604.13	2180.88
604.48	2173.51
604.83	2167.41
605.18	2161.07
605.53	2154.01
605.87	2146.89
606.22	2140.09
606.57	2132.03
606.92	2124.17
607.27	2117.15
607.62	2110.50
607.96	2103.52
608.31	2097.03
608.66	2089.30
609.01	2081.59
609.36	2074.42
609.70	2066.73
610.05	2058.89
610.40	2050.40
610.75	2041.94
611.10	2034.16
611.44	2025.34
611.79	2016.76
612.14	2006.74
612.49	1995.98
612.83	1986.59
613.18	1977.24
613.53	1967.79
613.88	1958.13
614.22	1949.30
614.57	1939.45
614.92	1928.87
615.27	1918.65
615.61	1908.33
615.96	1898.57
616.31	1888.84
616.65	1879.40
617.00	1869.72
617.35	1859.98
617.70	1850.23
618.04	1840.32
618.39	1830.29
618.74	1820.69
619.08	1811.00
619.43	1802.30
619.78	1794.05
620.12	1785.39
620.47	1775.83
620.82	1765.69
621.16	1756.00
621.51	1746.24
621.85	1736.39
622.20	1726.10
622.55	1715.39
622.89	1705.58
623.24	1695.89
623.59	1686.03
623.93	1675.81
624.28	1665.98
624.62	1655.96
624.97	1645.75
625.32	1635.93
625.66	1626.88
626.01	1618.04
626.35	1608.67
626.70	1598.61
627.04	1588.58
627.39	1578.42
627.73	1569.22
628.08	1560.21
628.43	1550.61
628.77	1541.32
629.12	1532.46
629.46	1524.61
629.81	1516.33
630.15	1506.93
630.50	1497.07
630.84	1486.72
631.19	1476.88
631.53	1467.55
631.88	1457.39
632.22	1447.44
632.57	1438.11
632.91	1428.14
633.26	1418.18
633.60	1408.58
633.95	1399.29
634.29	1389.73
634.64	1380.57
634.98	1370.50
635.32	1361.21
635.67	1352.78
636.01	1343.45
636.36	1333.69
636.70	1324.01
637.05	1314.62
637.39	1305.66
637.73	1297.10
638.08	1289.54
638.42	1281.34
638.77	1272.56
639.11	1264.34
639.45	1256.54
639.80	1247.97
640.14	1239.16
640.49	1230.37
640.83	1221.57
641.17	1213.42
641.52	1205.39
641.86	1196.75
642.20	1188.90
642.55	1180.17
642.89	1171.35
643.23	1162.76
643.58	1154.68
643.92	1145.70
644.26	1137.10
644.61	1128.66
644.95	1119.82
645.29	1110.56
645.64	1101.39
645.98	1092.80
646.32	1084.83
646.66	1076.26
647.01	1067.98
647.35	1059.80
647.69	1051.47
648.04	1043.11
648.38	1034.25
648.72	1025.44
649.06	1016.98
649.41	1008.83
649.75	1000.96
650.09	992.94
650.43	984.89
650.78	976.52
651.12	968.86
651.46	961.40
651.80	954.10
652.14	946.86
652.49	939.36
652.83	932.09
653.17	924.46
653.51	916.83
653.85	909.69
654.20	902.45
654.54	895.03
654.88	887.71
655.22	880.49
655.56	873.41
655.90	866.60
656.25	859.88
656.59	852.99
656.93	845.92
657.27	838.82
657.61	831.73
657.95	825.55
658.29	819.52
658.64	813.36
658.98	806.91
659.32	800.31
659.66	794.01
660.00	787.60
660.34	781.53
660.68	775.39
661.02	768.99
661.36	762.91
661.70	757.03
662.05	751.40
662.39	746.00
662.73	740.67
663.07	735.26
663.41	729.63
663.75	723.77
664.09	718.09
664.43	712.57
664.77	707.24
665.11	701.44
665.45	695.51
665.79	689.55
666.13	683.82
666.47	678.25
666.81	672.75
667.15	667.25
667.49	661.88
667.83	656.54
668.17	651.22
668.51	646.12
668.85	641.14
669.19	636.18
669.53	631.09
669.87	625.88
670.21	621.06
670.55	616.30
670.89	611.85
671.23	607.47
671.57	603.12
671.91	598.77
672.25	594.54
672.58	590.41
672.92	586.35
673.26	582.37
673.60	578.50
673.94	574.65
674.28	571.07
674.62	567.39
674.96	563.64
675.30	560.10
675.64	556.34
675.97	552.73
676.31	549.12
676.65	545.47
676.99	542.00
677.33	538.08
677.67	534.39
678.01	530.50
678.34	526.80
678.68	523.21
679.02	519.57
679.36	515.87
679.70	512.05
680.04	508.50
680.37	504.99
680.71	501.62
681.05	498.38
681.39	495.04
681.73	491.75
682.06	488.66
682.40	485.49
682.74	482.29
683.08	479.03
683.42	475.78
683.75	472.67
684.09	469.60
684.43	466.74
684.77	463.77
685.10	460.87
685.44	457.89
685.78	454.92
686.12	452.11
686.45	449.34
686.79	446.69
687.13	444.08
687.46	441.42
687.80	438.67
688.14	435.78
688.48	433.11
688.81	430.39
689.15	427.75
689.49	425.11
689.82	422.50
690.16	419.87
690.50	417.37
690.83	414.88
691.17	412.28
691.51	409.81
691.84	407.47
692.18	405.20
692.52	402.94
692.85	400.77
693.19	398.61
693.52	396.41
693.86	394.19
694.20	391.98
694.53	389.78
694.87	387.56
695.21	385.41
695.54	383.19
695.88	381.00
696.21	378.77
696.55	376.57
696.88	374.49
697.22	372.48
697.56	370.54
697.89	368.57
698.23	366.80
698.56	364.90
698.90	363.12
699.23	361.16
699.57	359.28
699.90	357.31
700.24	355.47
700.58	353.70
700.91	351.96
701.25	350.33
701.58	348.66
701.92	347.05
702.25	345.38
702.59	343.71
702.92	342.13
703.26	340.55
703.59	339.09
703.93	337.82
704.26	336.33
704.60	334.79
704.93	333.31
705.26	331.78
705.60	330.26
705.93	328.72
706.27	327.37
706.60	326.05
706.94	324.83
707.27	323.40
707.61	321.97
707.94	320.58
708.27	319.04
708.61	317.58
708.94	316.12
709.28	314.80
709.61	313.55
709.94	312.33
710.28	311.09
710.61	309.86
710.95	308.31
711.28	307.23
711.61	306.01
711.95	304.82
712.28	303.63
712.61	302.47
712.95	301.34
713.28	300.27
713.61	299.12
713.95	297.94
714.28	296.88
714.61	295.85
714.95	294.84
715.28	293.84
715.61	292.81
715.95	291.86
716.28	290.85
716.61	289.86
716.95	288.85
717.28	287.88
717.61	286.84
717.94	285.97
718.28	284.91
718.61	283.98
718.94	283.04
719.27	282.14
719.61	281.29
719.94	280.43
720.27	279.45
720.60	278.51
720.94	277.69
721.27	276.94
721.60	276.23
721.93	275.46
722.27	274.79
722.60	274.07
722.93	273.33
723.26	272.70
723.59	271.99
723.93	271.33
724.26	270.70
724.59	270.08
724.92	269.44
725.25	268.91
725.59	268.35
725.92	267.81
726.25	267.23
726.58	266.63
726.91	266.05
727.24	265.48
727.57	264.94
727.91	264.33
728.24	263.73
728.57	263.11
728.90	262.55
729.23	261.90
729.56	261.47
729.89	260.94
730.22	260.35
730.55	259.81
730.89	259.24
731.22	258.68
731.55	258.18
731.88	257.66
732.21	257.05
732.54	256.51
732.87	256.01
733.20	255.51
733.53	255.04
733.86	254.54
734.19	254.06
734.52	253.63
734.85	253.31
735.18	252.82
735.51	252.42
735.84	251.98
736.17	251.56
736.50	251.00
736.83	250.82
737.16	250.44
737.49	250.03
737.82	249.63
738.15	249.25
738.48	248.85
738.81	248.47
739.14	248.07
739.47	247.66
739.80	247.27
740.13	246.92
740.46	246.49
740.79	246.09
741.12	245.73
741.45	245.32
741.78	244.86
742.11	244.61
742.44	244.24
742.77	243.94
743.10	243.63
743.43	243.31
743.75	242.76
744.08	242.67
744.41	242.32
744.74	241.95
745.07	241.57
745.40	241.26
745.73	240.98
746.06	240.63
746.39	240.35
746.71	239.99
747.04	239.63
747.37	239.33
747.70	239.06
748.03	238.76
748.36	238.52
748.68	238.19
749.01	237.83
749.34	237.56
749.67	237.25
750.00	236.95
750.33	236.79
750.65	236.50
750.98	235.97
751.31	235.73
751.64	235.49
751.97	235.35
752.29	235.06
752.62	234.73
752.95	234.49
753.28	234.21
753.60	233.98
753.93	233.81
754.26	233.54
754.59	233.29
754.91	233.02
755.24	232.79
755.57	232.56
755.90	232.28
756.22	232.00
756.55	231.77
756.88	231.51
757.20	231.20
757.53	230.93
757.86	230.69
758.19	230.45
758.51	230.28
758.84	230.00
759.17	229.79
759.49	229.63
759.82	229.50
760.15	229.32
760.47	229.12
760.80	228.86
761.13	228.73
761.45	228.51
761.78	228.34
762.11	228.12
762.43	227.94
762.76	227.76
763.08	227.61
763.41	227.41
763.74	227.30
764.06	227.10
764.39	226.93
764.71	226.77
765.04	226.62
765.37	226.45
765.69	226.28
766.02	226.16
766.34	226.01
766.67	225.84
767.00	225.75
767.32	225.73
767.65	225.69
767.97	225.55
768.30	225.44
768.62	225.31
768.95	225.17
769.27	225.08
769.60	225.00
769.92	224.87
770.25	224.74
770.57	224.55
770.90	224.45
771.22	224.34
771.55	224.24
771.87	224.15
772.20	224.03
772.52	224.11
772.85	224.25
773.17	224.10
773.50	223.95
773.82	223.82
774.15	223.63
774.47	223.45
774.80	223.33
775.12	223.20
775.45	223.13
775.77	223.06
776.09	222.91
776.42	222.81
776.74	222.78
777.07	222.63
777.39	222.54
777.72	222.39
778.04	222.31
778.36	222.24
778.69	222.15
779.01	222.03
779.33	221.77
779.66	221.42
779.98	221.32
780.31	221.27
780.63	221.26
780.95	221.22
781.28	221.12
781.60	221.06
781.92	220.99
782.25	220.89
782.57	220.81
782.89	220.78
783.22	220.69
783.54	220.57
783.86	220.56
784.19	220.50
784.51	220.51
784.83	220.40
785.16	220.31
785.48	220.23
785.80	220.20
786.12	220.16
