SpectraSuite Data File
++++++++++++++++++++++++++++++++++++
Date: Tue Jan 29 16:45:52 EST 2013
User: group
Dark Spectrum Present: No
Reference Spectrum Present: No
Number of Sampled Component Spectra: 1
Spectrometers: USB2E7196
Integration Time (usec): 65000 (USB2E7196)
Spectra Averaged: 100 (USB2E7196)
Boxcar Smoothing: 10 (USB2E7196)
Correct for Electrical Dark: No (USB2E7196)
Strobe/Lamp Enabled: No (USB2E7196)
Correct for Detector Non-linearity: No (USB2E7196)
Correct for Stray Light: No (USB2E7196)
Number of Pixels in Processed Spectrum: 2048
>>>>>Begin Processed Spectral Data<<<<<
339.09	0.00
339.48	201.29
339.86	202.79
340.24	203.98
340.63	205.39
341.01	210.27
341.39	208.18
341.78	210.53
342.16	211.35
342.54	211.74
342.93	200.74
343.31	210.90
343.69	211.45
344.07	211.93
344.46	212.38
344.84	212.82
345.22	213.00
345.60	213.29
345.99	213.48
346.37	213.63
346.75	213.74
347.13	213.83
347.52	213.91
347.90	214.03
348.28	214.11
348.66	214.23
349.05	214.23
349.43	214.31
349.81	214.35
350.19	214.40
350.57	214.47
350.96	214.54
351.34	214.61
351.72	214.72
352.10	214.82
352.48	214.90
352.87	214.92
353.25	214.95
353.63	215.03
354.01	215.09
354.39	215.16
354.77	215.22
355.15	215.31
355.54	215.36
355.92	215.33
356.30	215.37
356.68	215.53
357.06	215.61
357.44	215.65
357.82	215.71
358.20	215.79
358.58	215.83
358.97	215.94
359.35	216.05
359.73	216.15
360.11	216.18
360.49	216.27
360.87	216.33
361.25	216.44
361.63	216.54
362.01	216.59
362.39	216.60
362.77	216.67
363.15	216.70
363.53	216.73
363.91	216.80
364.29	216.84
364.67	216.66
365.05	216.69
365.43	216.73
365.81	216.77
366.19	216.83
366.57	216.96
366.95	216.93
367.33	216.88
367.71	216.86
368.09	216.91
368.47	216.87
368.85	216.85
369.23	216.86
369.61	216.75
369.99	216.78
370.37	216.82
370.75	216.88
371.13	216.85
371.51	216.80
371.89	216.80
372.27	216.77
372.65	216.77
373.03	216.75
373.41	216.69
373.78	216.66
374.16	216.53
374.54	216.41
374.92	216.32
375.30	216.30
375.68	216.21
376.06	216.18
376.44	216.14
376.82	216.13
377.19	216.10
377.57	216.09
377.95	216.01
378.33	215.92
378.71	215.74
379.09	215.72
379.47	215.72
379.84	215.60
380.22	215.52
380.60	215.44
380.98	215.40
381.36	215.35
381.73	215.29
382.11	215.30
382.49	215.26
382.87	215.24
383.25	215.20
383.62	215.41
384.00	215.35
384.38	215.31
384.76	215.34
385.13	215.38
385.51	215.32
385.89	215.24
386.27	215.23
386.64	215.24
387.02	215.19
387.40	215.12
387.78	215.15
388.15	215.16
388.53	215.12
388.91	215.09
389.29	215.04
389.66	215.06
390.04	214.98
390.42	215.03
390.79	215.01
391.17	215.01
391.55	214.76
391.92	214.77
392.30	214.80
392.68	214.72
393.05	214.66
393.43	214.67
393.81	214.70
394.18	214.67
394.56	214.67
394.94	214.72
395.31	214.73
395.69	214.82
396.06	214.85
396.44	214.91
396.82	214.92
397.19	215.08
397.57	215.09
397.95	215.19
398.32	215.14
398.70	215.18
399.07	215.28
399.45	215.34
399.82	215.36
400.20	215.39
400.58	215.48
400.95	215.47
401.33	215.58
401.70	215.79
402.08	215.92
402.45	216.03
402.83	216.15
403.20	216.27
403.58	216.34
403.95	216.51
404.33	216.66
404.71	216.82
405.08	217.06
405.46	217.22
405.83	217.41
406.21	217.62
406.58	217.85
406.96	218.04
407.33	218.33
407.70	218.63
408.08	219.06
408.45	219.38
408.83	219.80
409.20	220.12
409.58	220.39
409.95	220.83
410.33	221.30
410.70	221.76
411.08	222.31
411.45	222.90
411.82	223.48
412.20	224.17
412.57	225.03
412.95	225.58
413.32	226.43
413.69	227.25
414.07	228.14
414.44	229.17
414.82	230.20
415.19	231.40
415.56	232.61
415.94	233.80
416.31	235.23
416.68	236.62
417.06	238.25
417.43	239.82
417.81	241.55
418.18	243.36
418.55	245.32
418.93	247.37
419.30	249.44
419.67	251.62
420.04	253.93
420.42	256.29
420.79	259.16
421.16	261.92
421.54	264.88
421.91	267.89
422.28	270.97
422.66	274.28
423.03	277.51
423.40	280.89
423.77	284.48
424.15	288.18
424.52	292.03
424.89	296.25
425.26	300.32
425.64	304.28
426.01	308.58
426.38	313.05
426.75	317.58
427.13	322.36
427.50	327.37
427.87	332.58
428.24	337.79
428.61	342.76
428.99	348.31
429.36	354.30
429.73	360.27
430.10	366.21
430.47	372.30
430.85	378.66
431.22	385.40
431.59	392.55
431.96	399.38
432.33	406.91
432.70	414.19
433.08	422.73
433.45	430.77
433.82	438.79
434.19	447.71
434.56	456.51
434.93	464.85
435.30	473.19
435.68	482.35
436.05	491.40
436.42	500.38
436.79	508.55
437.16	517.38
437.53	526.61
437.90	535.83
438.27	544.83
438.64	554.05
439.01	562.62
439.38	570.23
439.75	577.62
440.13	586.07
440.50	594.01
440.87	600.47
441.24	607.11
441.61	614.46
441.98	619.90
442.35	626.18
442.72	632.58
443.09	638.65
443.46	642.41
443.83	644.97
444.20	647.14
444.57	650.39
444.94	651.81
445.31	653.31
445.68	654.67
446.05	655.26
446.42	654.50
446.79	653.51
447.16	652.43
447.53	651.67
447.90	648.38
448.27	645.16
448.64	640.48
449.01	637.24
449.37	631.38
449.74	625.67
450.11	618.81
450.48	611.41
450.85	603.92
451.22	597.45
451.59	591.27
451.96	585.45
452.33	577.52
452.70	570.44
453.07	561.95
453.43	553.28
453.80	544.98
454.17	536.95
454.54	529.44
454.91	521.24
455.28	513.20
455.65	505.73
456.02	498.14
456.38	491.80
456.75	483.79
457.12	477.18
457.49	470.64
457.86	464.39
458.23	458.96
458.59	453.03
458.96	446.98
459.33	441.58
459.70	436.13
460.07	431.87
460.43	426.93
460.80	422.30
461.17	418.27
461.54	414.07
461.91	410.04
462.27	405.85
462.64	402.38
463.01	398.57
463.38	394.87
463.74	391.14
464.11	387.90
464.48	385.13
464.85	382.03
465.21	379.60
465.58	376.95
465.95	373.81
466.32	371.19
466.68	368.60
467.05	365.99
467.42	363.49
467.78	360.78
468.15	358.21
468.52	356.32
468.88	353.82
469.25	351.57
469.62	349.76
469.98	347.79
470.35	346.01
470.72	344.30
471.08	342.48
471.45	340.96
471.82	339.41
472.18	337.67
472.55	336.42
472.92	335.00
473.28	333.76
473.65	332.57
474.02	331.42
474.38	330.48
474.75	329.76
475.11	328.89
475.48	328.34
475.85	327.88
476.21	327.33
476.58	326.97
476.94	326.72
477.31	326.42
477.67	326.13
478.04	325.92
478.41	325.91
478.77	326.07
479.14	326.01
479.50	326.16
479.87	326.47
480.23	326.75
480.60	326.95
480.96	327.21
481.33	327.80
481.69	328.36
482.06	328.89
482.42	329.36
482.79	329.98
483.15	330.75
483.52	331.70
483.88	332.61
484.25	333.54
484.61	334.57
484.98	335.53
485.34	336.83
485.71	338.20
486.07	339.62
486.44	340.87
486.80	342.50
487.17	344.19
487.53	346.03
487.90	347.92
488.26	349.97
488.62	352.16
488.99	354.19
489.35	356.35
489.72	358.74
490.08	361.28
490.44	363.84
490.81	366.56
491.17	369.25
491.54	372.23
491.90	375.25
492.26	378.51
492.63	381.96
492.99	385.49
493.36	389.16
493.72	393.06
494.08	397.09
494.45	401.24
494.81	405.61
495.17	410.08
495.54	414.81
495.90	419.61
496.26	424.56
496.63	429.80
496.99	435.19
497.35	440.76
497.72	446.52
498.08	452.45
498.44	458.50
498.80	464.93
499.17	471.46
499.53	478.17
499.89	485.05
500.26	492.04
500.62	499.05
500.98	506.43
501.34	513.87
501.71	521.63
502.07	529.45
502.43	537.40
502.79	545.57
503.16	553.95
503.52	562.60
503.88	571.28
504.24	580.18
504.60	589.25
504.97	598.43
505.33	607.75
505.69	617.60
506.05	627.45
506.41	637.23
506.78	647.28
507.14	657.53
507.50	667.94
507.86	678.61
508.22	689.45
508.59	700.15
508.95	711.26
509.31	722.52
509.67	733.97
510.03	745.38
510.39	757.03
510.75	768.79
511.12	780.63
511.48	792.71
511.84	804.98
512.20	817.35
512.56	830.05
512.92	842.91
513.28	855.55
513.64	868.32
514.00	881.29
514.37	894.27
514.73	907.46
515.09	920.52
515.45	933.56
515.81	946.59
516.17	959.96
516.53	973.13
516.89	986.36
517.25	999.64
517.61	1013.23
517.97	1026.70
518.33	1039.86
518.69	1053.44
519.05	1067.24
519.41	1080.98
519.77	1094.93
520.13	1108.24
520.49	1121.35
520.85	1134.77
521.21	1148.14
521.57	1161.81
521.93	1174.88
522.29	1188.56
522.65	1202.29
523.01	1215.90
523.37	1229.15
523.73	1242.58
524.09	1255.87
524.45	1269.33
524.81	1282.87
525.17	1296.11
525.53	1309.40
525.89	1322.90
526.25	1336.15
526.61	1349.05
526.97	1362.20
527.33	1375.15
527.68	1388.66
528.04	1402.25
528.40	1415.48
528.76	1428.92
529.12	1441.85
529.48	1455.34
529.84	1467.78
530.20	1480.56
530.56	1493.21
530.91	1506.40
531.27	1519.24
531.63	1531.93
531.99	1544.73
532.35	1557.00
532.71	1569.55
533.07	1582.44
533.42	1594.76
533.78	1607.06
534.14	1619.15
534.50	1630.38
534.86	1642.01
535.21	1652.94
535.57	1664.45
535.93	1675.74
536.29	1686.94
536.65	1698.44
537.00	1709.37
537.36	1720.74
537.72	1731.76
538.08	1743.28
538.44	1754.48
538.79	1765.74
539.15	1776.90
539.51	1787.68
539.87	1799.11
540.22	1810.12
540.58	1821.08
540.94	1832.08
541.29	1842.27
541.65	1852.22
542.01	1862.86
542.37	1873.06
542.72	1883.36
543.08	1893.31
543.44	1903.94
543.79	1913.31
544.15	1922.84
544.51	1932.93
544.87	1942.96
545.22	1952.27
545.58	1961.13
545.94	1970.13
546.29	1978.54
546.65	1986.99
547.01	1995.41
547.36	2003.27
547.72	2011.03
548.07	2018.75
548.43	2026.53
548.79	2034.59
549.14	2042.89
549.50	2051.58
549.86	2059.54
550.21	2067.27
550.57	2075.04
550.92	2081.78
551.28	2089.30
551.64	2096.60
551.99	2104.14
552.35	2111.34
552.70	2118.22
553.06	2125.02
553.41	2131.24
553.77	2137.93
554.13	2144.35
554.48	2151.41
554.84	2158.52
555.19	2165.13
555.55	2171.52
555.90	2177.78
556.26	2184.58
556.61	2190.54
556.97	2195.20
557.32	2200.96
557.68	2207.15
558.03	2212.90
558.39	2218.35
558.74	2224.35
559.10	2229.84
559.45	2235.21
559.81	2240.73
560.16	2246.41
560.52	2252.23
560.87	2258.65
561.23	2264.57
561.58	2271.21
561.94	2276.48
562.29	2281.14
562.64	2287.14
563.00	2292.93
563.35	2298.45
563.71	2304.11
564.06	2309.73
564.42	2315.69
564.77	2320.69
565.12	2325.95
565.48	2330.98
565.83	2336.55
566.19	2341.81
566.54	2347.16
566.89	2351.95
567.25	2356.50
567.60	2362.09
567.96	2367.05
568.31	2371.57
568.66	2375.70
569.02	2379.49
569.37	2383.08
569.72	2387.30
570.08	2390.64
570.43	2393.54
570.78	2396.63
571.14	2399.11
571.49	2402.18
571.84	2405.66
572.20	2408.54
572.55	2411.37
572.90	2413.58
573.26	2416.16
573.61	2418.57
573.96	2420.64
574.31	2422.49
574.67	2424.17
575.02	2424.74
575.37	2426.10
575.72	2426.76
576.08	2428.18
576.43	2428.12
576.78	2428.42
577.13	2429.76
577.49	2430.82
577.84	2431.64
578.19	2432.72
578.54	2433.13
578.90	2433.53
579.25	2433.16
579.60	2432.84
579.95	2431.84
580.30	2431.72
580.66	2430.86
581.01	2429.20
581.36	2426.59
581.71	2424.86
582.06	2423.50
582.42	2422.61
582.77	2420.16
583.12	2418.29
583.47	2416.67
583.82	2415.93
584.17	2414.48
584.53	2412.31
584.88	2410.19
585.23	2408.28
585.58	2405.92
585.93	2403.78
586.28	2401.64
586.63	2398.90
586.98	2396.55
587.34	2394.50
587.69	2391.92
588.04	2389.65
588.39	2388.02
588.74	2385.53
589.09	2382.77
589.44	2379.50
589.79	2376.78
590.14	2374.85
590.49	2371.82
590.84	2367.85
591.19	2364.50
591.54	2361.11
591.89	2356.98
592.25	2353.59
592.60	2349.26
592.95	2345.00
593.30	2340.73
593.65	2336.02
594.00	2331.63
594.35	2328.51
594.70	2323.69
595.05	2319.17
595.40	2313.59
595.75	2307.63
596.10	2303.80
596.45	2298.96
596.80	2294.33
597.15	2289.05
597.50	2282.95
597.85	2278.00
598.19	2272.69
598.54	2266.91
598.89	2261.56
599.24	2256.92
599.59	2250.72
599.94	2244.73
600.29	2238.68
600.64	2232.60
600.99	2225.80
601.34	2220.35
601.69	2213.39
602.04	2207.00
602.39	2200.24
602.74	2194.21
603.08	2188.64
603.43	2182.21
603.78	2175.32
604.13	2168.29
604.48	2160.89
604.83	2154.79
605.18	2148.47
605.53	2141.71
605.87	2134.72
606.22	2128.13
606.57	2120.26
606.92	2112.18
607.27	2105.29
607.62	2098.73
607.96	2091.77
608.31	2085.52
608.66	2077.66
609.01	2070.04
609.36	2062.94
609.70	2055.24
610.05	2047.40
610.40	2039.04
610.75	2030.61
611.10	2022.77
611.44	2013.87
611.79	2005.17
612.14	1995.26
612.49	1984.61
612.83	1975.04
613.18	1965.64
613.53	1956.19
613.88	1946.59
614.22	1937.97
614.57	1928.17
614.92	1917.56
615.27	1907.24
615.61	1896.91
615.96	1887.38
616.31	1877.68
616.65	1868.27
617.00	1858.59
617.35	1848.94
617.70	1839.29
618.04	1829.42
618.39	1819.39
618.74	1809.74
619.08	1800.09
619.43	1791.42
619.78	1783.26
620.12	1774.66
620.47	1765.22
620.82	1754.96
621.16	1745.07
621.51	1735.26
621.85	1725.41
622.20	1715.04
622.55	1704.63
622.89	1694.75
623.24	1685.02
623.59	1675.26
623.93	1665.28
624.28	1655.57
624.62	1645.60
624.97	1635.49
625.32	1625.73
625.66	1616.94
626.01	1608.35
626.35	1599.17
626.70	1589.21
627.04	1579.27
627.39	1569.25
627.73	1560.16
628.08	1551.35
628.43	1541.97
628.77	1532.77
629.12	1523.98
629.46	1516.24
629.81	1507.93
630.15	1498.65
630.50	1488.94
630.84	1478.62
631.19	1468.73
631.53	1459.57
631.88	1449.39
632.22	1439.47
632.57	1430.18
632.91	1420.03
633.26	1410.15
633.60	1400.66
633.95	1391.47
634.29	1381.98
634.64	1372.85
634.98	1362.78
635.32	1353.56
635.67	1345.11
636.01	1335.89
636.36	1326.30
636.70	1316.84
637.05	1307.67
637.39	1298.79
637.73	1290.18
638.08	1282.67
638.42	1274.66
638.77	1265.87
639.11	1257.82
639.45	1250.04
639.80	1241.56
640.14	1232.88
640.49	1224.13
640.83	1215.32
641.17	1207.15
641.52	1199.11
641.86	1190.48
642.20	1182.77
642.55	1174.13
642.89	1165.35
643.23	1156.82
643.58	1148.70
643.92	1139.73
644.26	1131.00
644.61	1122.52
644.95	1113.77
645.29	1104.66
645.64	1095.44
645.98	1086.89
646.32	1078.96
646.66	1070.47
647.01	1062.16
647.35	1054.15
647.69	1045.94
648.04	1037.66
648.38	1028.89
648.72	1020.12
649.06	1011.84
649.41	1003.61
649.75	995.72
650.09	987.89
650.43	979.94
650.78	971.62
651.12	963.96
651.46	956.59
651.80	949.44
652.14	942.19
652.49	934.72
652.83	927.42
653.17	919.73
653.51	912.11
653.85	904.87
654.20	897.71
654.54	890.29
654.88	882.97
655.22	875.80
655.56	868.82
655.90	862.00
656.25	855.27
656.59	848.41
656.93	841.42
657.27	834.28
657.61	827.23
657.95	821.10
658.29	815.19
658.64	809.07
658.98	802.61
659.32	796.15
659.66	789.86
660.00	783.56
660.34	777.56
660.68	771.45
661.02	765.12
661.36	759.12
661.70	753.32
662.05	747.71
662.39	742.22
662.73	736.76
663.07	731.38
663.41	725.77
663.75	720.06
664.09	714.28
664.43	708.86
664.77	703.55
665.11	697.81
665.45	691.88
665.79	686.05
666.13	680.34
666.47	674.78
666.81	669.30
667.15	663.92
667.49	658.74
667.83	653.52
668.17	648.23
668.51	643.07
668.85	638.15
669.19	633.30
669.53	628.28
669.87	623.13
670.21	618.42
670.55	613.68
670.89	609.21
671.23	604.95
671.57	600.59
671.91	596.30
672.25	592.12
672.58	588.02
672.92	583.93
673.26	580.00
673.60	576.09
673.94	572.29
674.28	568.66
674.62	564.92
674.96	561.14
675.30	557.69
675.64	553.98
675.97	550.30
676.31	546.64
676.65	543.03
676.99	539.61
677.33	535.71
677.67	532.09
678.01	528.25
678.34	524.57
678.68	520.95
679.02	517.34
679.36	513.65
679.70	509.95
680.04	506.38
680.37	502.89
680.71	499.54
681.05	496.35
681.39	493.05
681.73	489.78
682.06	486.64
682.40	483.44
682.74	480.25
683.08	477.02
683.42	473.74
683.75	470.68
684.09	467.61
684.43	464.78
684.77	461.81
685.10	458.89
685.44	455.93
685.78	453.01
686.12	450.14
686.45	447.38
686.79	444.69
687.13	442.12
687.46	439.50
687.80	436.79
688.14	433.88
688.48	431.18
688.81	428.47
689.15	425.95
689.49	423.35
689.82	420.84
690.16	418.24
690.50	415.80
690.83	413.31
691.17	410.71
691.51	408.24
691.84	405.93
692.18	403.73
692.52	401.53
692.85	399.35
693.19	397.24
693.52	395.02
693.86	392.72
694.20	390.48
694.53	388.33
694.87	386.12
695.21	383.93
695.54	381.70
695.88	379.53
696.21	377.32
696.55	375.19
696.88	373.07
697.22	371.05
697.56	369.12
697.89	367.21
698.23	365.46
698.56	363.60
698.90	361.80
699.23	359.85
699.57	357.99
699.90	356.13
700.24	354.26
700.58	352.48
700.91	350.85
701.25	349.30
701.58	347.61
701.92	346.00
702.25	344.43
702.59	342.82
702.92	341.28
703.26	339.67
703.59	338.15
703.93	336.86
704.26	335.41
704.60	333.87
704.93	332.37
705.26	330.86
705.60	329.38
705.93	327.83
706.27	326.48
706.60	325.17
706.94	323.86
707.27	322.46
707.61	321.08
707.94	319.70
708.27	318.18
708.61	316.71
708.94	315.34
709.28	314.01
709.61	312.75
709.94	311.49
710.28	310.24
710.61	309.04
710.95	307.60
711.28	306.48
711.61	305.29
711.95	304.12
712.28	302.90
712.61	301.69
712.95	300.63
713.28	299.57
713.61	298.39
713.95	297.26
714.28	296.22
714.61	295.19
714.95	294.15
715.28	293.08
715.61	292.08
715.95	291.08
716.28	290.12
716.61	289.10
716.95	288.11
717.28	287.20
717.61	286.22
717.94	285.32
718.28	284.26
718.61	283.35
718.94	282.46
719.27	281.60
719.61	280.78
719.94	279.88
720.27	278.90
720.60	278.07
720.94	277.23
721.27	276.45
721.60	275.73
721.93	275.00
722.27	274.37
722.60	273.67
722.93	272.93
723.26	272.24
723.59	271.58
723.93	270.90
724.26	270.20
724.59	269.57
724.92	269.00
725.25	268.49
725.59	267.91
725.92	267.35
726.25	266.76
726.58	266.19
726.91	265.60
727.24	265.07
727.57	264.45
727.91	263.85
728.24	263.28
728.57	262.68
728.90	262.11
729.23	261.46
729.56	261.02
729.89	260.48
730.22	259.90
730.55	259.33
730.89	258.81
731.22	258.31
731.55	257.81
731.88	257.26
732.21	256.68
732.54	256.11
732.87	255.62
733.20	255.13
733.53	254.61
733.86	254.16
734.19	253.65
734.52	253.24
734.85	252.98
735.18	252.49
735.51	252.11
735.84	251.64
736.17	251.28
736.50	250.71
736.83	250.51
737.16	250.13
737.49	249.78
737.82	249.36
738.15	248.94
738.48	248.51
738.81	248.10
739.14	247.68
739.47	247.32
739.80	246.92
740.13	246.57
740.46	246.17
740.79	245.77
741.12	245.43
741.45	245.07
741.78	244.57
742.11	244.31
742.44	243.91
742.77	243.67
743.10	243.29
743.43	242.98
743.75	242.41
744.08	242.34
744.41	241.96
744.74	241.58
745.07	241.21
745.40	240.90
745.73	240.62
746.06	240.32
746.39	239.99
746.71	239.61
747.04	239.25
747.37	238.93
747.70	238.68
748.03	238.34
748.36	238.05
748.68	237.77
749.01	237.39
749.34	237.11
749.67	236.72
750.00	236.46
750.33	236.32
750.65	236.07
750.98	235.51
751.31	235.28
751.64	235.08
751.97	234.97
752.29	234.68
752.62	234.36
752.95	234.10
753.28	233.82
753.60	233.60
753.93	233.46
754.26	233.23
754.59	232.94
754.91	232.72
755.24	232.47
755.57	232.19
755.90	231.95
756.22	231.72
756.55	231.51
756.88	231.21
757.20	230.88
757.53	230.65
757.86	230.42
758.19	230.20
758.51	229.97
758.84	229.66
759.17	229.50
759.49	229.34
759.82	229.24
760.15	229.08
760.47	228.88
760.80	228.61
761.13	228.46
761.45	228.23
761.78	228.03
762.11	227.85
762.43	227.66
762.76	227.52
763.08	227.39
763.41	227.27
763.74	227.15
764.06	226.99
764.39	226.84
764.71	226.69
765.04	226.51
765.37	226.33
765.69	226.17
766.02	225.99
766.34	225.81
766.67	225.58
767.00	225.45
767.32	225.43
767.65	225.41
767.97	225.25
768.30	225.16
768.62	225.03
768.95	224.86
769.27	224.72
769.60	224.60
769.92	224.42
770.25	224.22
770.57	224.07
770.90	223.98
771.22	223.84
771.55	223.74
771.87	223.63
772.20	223.54
772.52	223.64
772.85	223.78
773.17	223.68
773.50	223.58
773.82	223.48
774.15	223.25
774.47	223.05
774.80	222.92
775.12	222.82
775.45	222.71
775.77	222.67
776.09	222.63
776.42	222.53
776.74	222.47
777.07	222.38
777.39	222.30
777.72	222.17
778.04	222.10
778.36	222.01
778.69	221.92
779.01	221.83
779.33	221.54
779.66	221.24
779.98	221.14
780.31	221.05
780.63	221.05
780.95	221.01
781.28	220.90
781.60	220.82
781.92	220.74
782.25	220.65
782.57	220.59
782.89	220.51
783.22	220.45
783.54	220.32
783.86	220.31
784.19	220.23
784.51	220.21
784.83	220.13
785.16	220.04
785.48	220.00
785.80	219.90
786.12	219.85
