SpectraSuite Data File
++++++++++++++++++++++++++++++++++++
Date: Tue Jan 29 16:10:29 EST 2013
User: group
Dark Spectrum Present: No
Reference Spectrum Present: No
Number of Sampled Component Spectra: 1
Spectrometers: USB2E7196
Integration Time (usec): 65000 (USB2E7196)
Spectra Averaged: 100 (USB2E7196)
Boxcar Smoothing: 10 (USB2E7196)
Correct for Electrical Dark: No (USB2E7196)
Strobe/Lamp Enabled: No (USB2E7196)
Correct for Detector Non-linearity: No (USB2E7196)
Correct for Stray Light: No (USB2E7196)
Number of Pixels in Processed Spectrum: 2048
>>>>>Begin Processed Spectral Data<<<<<
339.09	0.00
339.48	202.66
339.86	203.64
340.24	205.35
340.63	207.10
341.01	211.32
341.39	209.61
341.78	211.18
342.16	212.79
342.54	212.90
342.93	201.78
343.31	211.98
343.69	212.52
344.07	213.01
344.46	213.47
344.84	213.86
345.22	214.05
345.60	214.33
345.99	214.55
346.37	214.68
346.75	214.80
347.13	214.90
347.52	214.98
347.90	215.13
348.28	215.16
348.66	215.27
349.05	215.27
349.43	215.39
349.81	215.47
350.19	215.53
350.57	215.60
350.96	215.71
351.34	215.83
351.72	215.93
352.10	216.08
352.48	216.14
352.87	216.20
353.25	216.27
353.63	216.32
354.01	216.35
354.39	216.43
354.77	216.51
355.15	216.63
355.54	216.69
355.92	216.67
356.30	216.77
356.68	216.93
357.06	216.98
357.44	217.00
357.82	217.05
358.20	217.15
358.58	217.24
358.97	217.27
359.35	217.37
359.73	217.45
360.11	217.48
360.49	217.55
360.87	217.60
361.25	217.66
361.63	217.79
362.01	217.88
362.39	217.88
362.77	217.91
363.15	217.90
363.53	217.92
363.91	217.96
364.29	217.95
364.67	217.78
365.05	217.82
365.43	217.85
365.81	217.87
366.19	217.92
366.57	218.01
366.95	218.03
367.33	217.96
367.71	217.96
368.09	218.00
368.47	218.00
368.85	218.00
369.23	218.01
369.61	217.91
369.99	217.95
370.37	217.94
370.75	218.01
371.13	217.97
371.51	217.92
371.89	217.91
372.27	217.90
372.65	217.91
373.03	217.86
373.41	217.80
373.78	217.76
374.16	217.63
374.54	217.52
374.92	217.48
375.30	217.46
375.68	217.38
376.06	217.33
376.44	217.29
376.82	217.24
377.19	217.16
377.57	217.10
377.95	216.96
378.33	216.94
378.71	216.75
379.09	216.73
379.47	216.72
379.84	216.65
380.22	216.61
380.60	216.51
380.98	216.46
381.36	216.42
381.73	216.35
382.11	216.33
382.49	216.30
382.87	216.21
383.25	216.19
383.62	216.39
384.00	216.31
384.38	216.23
384.76	216.22
385.13	216.29
385.51	216.24
385.89	216.24
386.27	216.19
386.64	216.21
387.02	216.18
387.40	216.15
387.78	216.11
388.15	216.09
388.53	216.05
388.91	216.01
389.29	215.95
389.66	215.97
390.04	215.92
390.42	215.92
390.79	215.97
391.17	215.92
391.55	215.64
391.92	215.66
392.30	215.70
392.68	215.62
393.05	215.60
393.43	215.63
393.81	215.62
394.18	215.59
394.56	215.59
394.94	215.63
395.31	215.60
395.69	215.67
396.06	215.70
396.44	215.77
396.82	215.78
397.19	215.93
397.57	215.93
397.95	215.98
398.32	215.93
398.70	215.98
399.07	216.04
399.45	216.08
399.82	216.13
400.20	216.13
400.58	216.21
400.95	216.16
401.33	216.24
401.70	216.47
402.08	216.59
402.45	216.68
402.83	216.81
403.20	216.91
403.58	217.00
403.95	217.16
404.33	217.31
404.71	217.45
405.08	217.69
405.46	217.89
405.83	218.14
406.21	218.34
406.58	218.57
406.96	218.77
407.33	219.03
407.70	219.33
408.08	219.81
408.45	220.16
408.83	220.58
409.20	220.94
409.58	221.22
409.95	221.64
410.33	222.10
410.70	222.50
411.08	223.05
411.45	223.60
411.82	224.11
412.20	224.78
412.57	225.60
412.95	226.17
413.32	226.96
413.69	227.75
414.07	228.62
414.44	229.57
414.82	230.56
415.19	231.73
415.56	232.84
415.94	233.98
416.31	235.33
416.68	236.65
417.06	238.18
417.43	239.64
417.81	241.32
418.18	243.03
418.55	244.88
418.93	246.81
419.30	248.84
419.67	251.03
420.04	253.17
420.42	255.46
420.79	258.17
421.16	260.84
421.54	263.62
421.91	266.57
422.28	269.58
422.66	272.77
423.03	275.89
423.40	279.16
423.77	282.62
424.15	286.14
424.52	289.88
424.89	293.89
425.26	297.83
425.64	301.59
426.01	305.74
426.38	310.08
426.75	314.52
427.13	319.13
427.50	323.94
427.87	329.07
428.24	334.09
428.61	338.91
428.99	344.25
429.36	350.03
429.73	355.67
430.10	361.34
430.47	367.22
430.85	373.33
431.22	379.83
431.59	386.68
431.96	393.30
432.33	400.59
432.70	407.56
433.08	415.88
433.45	423.63
433.82	431.42
434.19	440.03
434.56	448.41
434.93	456.42
435.30	464.34
435.68	473.06
436.05	481.71
436.42	490.29
436.79	498.10
437.16	506.54
437.53	515.56
437.90	524.36
438.27	533.01
438.64	541.85
439.01	550.10
439.38	557.50
439.75	564.59
440.13	572.67
440.50	580.40
440.87	586.58
441.24	593.00
441.61	600.02
441.98	605.17
442.35	611.32
442.72	617.42
443.09	623.30
443.46	626.99
443.83	629.42
444.20	631.53
444.57	634.62
444.94	636.02
445.31	637.34
445.68	638.62
446.05	639.16
446.42	638.40
446.79	637.46
447.16	636.32
447.53	635.56
447.90	632.31
448.27	629.05
448.64	624.49
449.01	621.25
449.37	615.55
449.74	610.10
450.11	603.41
450.48	596.35
450.85	589.16
451.22	582.89
451.59	576.96
451.96	571.37
452.33	563.77
452.70	556.95
453.07	548.75
453.43	540.53
453.80	532.52
454.17	524.84
454.54	517.54
454.91	509.67
455.28	501.92
455.65	494.80
456.02	487.62
456.38	481.57
456.75	474.05
457.12	467.79
457.49	461.51
457.86	455.57
458.23	450.31
458.59	444.62
458.96	438.87
459.33	433.82
459.70	428.65
460.07	424.55
460.43	419.87
460.80	415.53
461.17	411.65
461.54	407.66
461.91	403.80
462.27	399.80
462.64	396.51
463.01	392.89
463.38	389.39
463.74	385.84
464.11	382.67
464.48	379.90
464.85	376.86
465.21	374.52
465.58	371.96
465.95	368.89
466.32	366.38
466.68	363.85
467.05	361.36
467.42	358.88
467.78	356.27
468.15	353.83
468.52	351.97
468.88	349.58
469.25	347.45
469.62	345.72
469.98	343.92
470.35	342.19
470.72	340.59
471.08	338.83
471.45	337.37
471.82	335.94
472.18	334.39
472.55	333.28
472.92	331.93
473.28	330.74
473.65	329.70
474.02	328.64
474.38	327.78
474.75	327.06
475.11	326.31
475.48	325.79
475.85	325.33
476.21	324.87
476.58	324.52
476.94	324.35
477.31	324.08
477.67	323.80
478.04	323.66
478.41	323.64
478.77	323.84
479.14	323.84
479.50	323.97
479.87	324.23
480.23	324.58
480.60	324.86
480.96	325.17
481.33	325.80
481.69	326.37
482.06	326.94
482.42	327.40
482.79	328.01
483.15	328.81
483.52	329.77
483.88	330.70
484.25	331.69
484.61	332.68
484.98	333.73
485.34	335.04
485.71	336.42
486.07	337.88
486.44	339.19
486.80	340.76
487.17	342.43
487.53	344.25
487.90	346.09
488.26	348.14
488.62	350.33
488.99	352.37
489.35	354.52
489.72	356.86
490.08	359.37
490.44	361.94
490.81	364.67
491.17	367.37
491.54	370.34
491.90	373.41
492.26	376.61
492.63	380.03
492.99	383.57
493.36	387.24
493.72	391.09
494.08	395.08
494.45	399.31
494.81	403.68
495.17	408.16
495.54	412.87
495.90	417.64
496.26	422.56
496.63	427.69
496.99	433.11
497.35	438.66
497.72	444.54
498.08	450.38
498.44	456.42
498.80	462.82
499.17	469.27
499.53	475.89
499.89	482.77
500.26	489.68
500.62	496.72
500.98	504.10
501.34	511.49
501.71	519.27
502.07	526.97
502.43	534.94
502.79	543.00
503.16	551.31
503.52	559.93
503.88	568.52
504.24	577.46
504.60	586.48
504.97	595.64
505.33	604.86
505.69	614.75
506.05	624.60
506.41	634.41
506.78	644.43
507.14	654.67
507.50	665.08
507.86	675.74
508.22	686.48
508.59	697.06
508.95	708.08
509.31	719.18
509.67	730.61
510.03	741.92
510.39	753.62
510.75	765.41
511.12	777.17
511.48	789.26
511.84	801.46
512.20	813.70
512.56	826.27
512.92	838.90
513.28	851.41
513.64	864.01
514.00	876.75
514.37	889.63
514.73	902.59
515.09	915.44
515.45	928.18
515.81	940.98
516.17	954.29
516.53	967.51
516.89	980.57
517.25	993.65
517.61	1007.12
517.97	1020.32
518.33	1033.29
518.69	1046.65
519.05	1060.13
519.41	1073.54
519.77	1087.15
520.13	1100.21
520.49	1113.21
520.85	1126.39
521.21	1139.58
521.57	1153.06
521.93	1165.96
522.29	1179.45
522.65	1192.83
523.01	1206.20
523.37	1219.14
523.73	1232.18
524.09	1244.96
524.45	1258.02
524.81	1271.17
525.17	1284.24
525.53	1297.13
525.89	1310.17
526.25	1323.10
526.61	1335.63
526.97	1348.49
527.33	1361.11
527.68	1374.33
528.04	1387.52
528.40	1400.33
528.76	1413.28
529.12	1425.71
529.48	1438.68
529.84	1450.60
530.20	1463.02
530.56	1475.39
530.91	1488.36
531.27	1500.92
531.63	1513.32
531.99	1525.80
532.35	1537.79
532.71	1549.82
533.07	1562.29
533.42	1574.25
533.78	1585.97
534.14	1597.70
534.50	1608.60
534.86	1620.02
535.21	1630.61
535.57	1641.63
535.93	1652.64
536.29	1663.56
536.65	1674.82
537.00	1685.44
537.36	1696.49
537.72	1707.26
538.08	1718.21
538.44	1728.88
538.79	1739.64
539.15	1750.20
539.51	1760.63
539.87	1771.57
540.22	1782.01
540.58	1792.53
540.94	1803.06
541.29	1813.07
541.65	1822.56
542.01	1832.75
542.37	1842.45
542.72	1852.24
543.08	1861.78
543.44	1871.93
543.79	1880.83
544.15	1889.94
544.51	1899.74
544.87	1909.35
545.22	1918.12
545.58	1926.81
545.94	1935.33
546.29	1943.50
546.65	1951.68
547.01	1959.63
547.36	1967.13
547.72	1974.72
548.07	1982.28
548.43	1989.75
548.79	1997.34
549.14	2005.36
549.50	2013.52
549.86	2021.05
550.21	2028.31
550.57	2035.85
550.92	2042.35
551.28	2049.71
551.64	2056.82
551.99	2064.01
552.35	2071.02
552.70	2077.83
553.06	2084.33
553.41	2090.49
553.77	2096.88
554.13	2103.07
554.48	2109.99
554.84	2116.85
555.19	2123.13
555.55	2129.51
555.90	2135.59
556.26	2142.19
556.61	2147.96
556.97	2152.67
557.32	2158.53
557.68	2164.82
558.03	2170.47
558.39	2175.65
558.74	2181.43
559.10	2186.87
559.45	2192.41
559.81	2197.86
560.16	2203.38
560.52	2209.18
560.87	2215.63
561.23	2221.60
561.58	2228.29
561.94	2233.34
562.29	2238.14
562.64	2244.36
563.00	2249.94
563.35	2255.59
563.71	2261.50
564.06	2267.15
564.42	2273.16
564.77	2278.31
565.12	2283.35
565.48	2288.65
565.83	2294.33
566.19	2299.81
566.54	2305.33
566.89	2309.98
567.25	2314.63
567.60	2320.33
567.96	2325.67
568.31	2330.21
568.66	2334.42
569.02	2338.31
569.37	2342.23
569.72	2346.56
570.08	2350.03
570.43	2353.08
570.78	2356.24
571.14	2358.87
571.49	2362.15
571.84	2365.77
572.20	2368.54
572.55	2371.75
572.90	2373.93
573.26	2376.91
573.61	2379.60
573.96	2381.72
574.31	2383.80
574.67	2385.72
575.02	2386.63
575.37	2387.86
575.72	2388.69
576.08	2390.20
576.43	2390.59
576.78	2391.22
577.13	2393.11
577.49	2394.41
577.84	2395.94
578.19	2397.47
578.54	2398.22
578.90	2399.27
579.25	2399.23
579.60	2399.41
579.95	2398.86
580.30	2399.23
580.66	2398.56
581.01	2397.03
581.36	2395.03
581.71	2393.73
582.06	2392.92
582.42	2392.30
582.77	2390.43
583.12	2389.03
583.47	2388.01
583.82	2387.57
584.17	2386.49
584.53	2384.31
584.88	2382.39
585.23	2380.47
585.58	2378.32
585.93	2376.36
586.28	2374.38
586.63	2372.31
586.98	2370.32
587.34	2368.64
587.69	2366.35
588.04	2364.56
588.39	2363.20
588.74	2360.88
589.09	2358.48
589.44	2355.60
589.79	2353.33
590.14	2351.68
590.49	2349.08
590.84	2345.39
591.19	2342.50
591.54	2339.45
591.89	2335.80
592.25	2332.95
592.60	2329.00
592.95	2325.07
593.30	2321.03
593.65	2316.63
594.00	2312.39
594.35	2309.58
594.70	2305.12
595.05	2300.74
595.40	2295.46
595.75	2290.15
596.10	2286.60
596.45	2281.85
596.80	2277.36
597.15	2272.12
597.50	2266.23
597.85	2261.37
598.19	2256.29
598.54	2250.67
598.89	2245.76
599.24	2241.31
599.59	2235.21
599.94	2229.50
600.29	2223.83
600.64	2218.00
600.99	2211.47
601.34	2206.11
601.69	2199.13
602.04	2192.70
602.39	2186.21
602.74	2180.20
603.08	2174.53
603.43	2168.10
603.78	2161.33
604.13	2154.23
604.48	2147.22
604.83	2141.26
605.18	2135.09
605.53	2128.22
605.87	2121.27
606.22	2114.43
606.57	2106.58
606.92	2098.74
607.27	2091.83
607.62	2085.11
607.96	2078.17
608.31	2071.71
608.66	2063.93
609.01	2056.34
609.36	2049.37
609.70	2041.77
610.05	2034.09
610.40	2025.97
610.75	2017.82
611.10	2010.30
611.44	2001.54
611.79	1992.78
612.14	1982.82
612.49	1972.29
612.83	1963.17
613.18	1953.94
613.53	1944.69
613.88	1935.07
614.22	1926.48
614.57	1916.66
614.92	1906.11
615.27	1896.06
615.61	1886.15
615.96	1876.58
616.31	1867.09
616.65	1857.75
617.00	1847.94
617.35	1838.33
617.70	1828.58
618.04	1818.56
618.39	1808.25
618.74	1798.73
619.08	1789.22
619.43	1780.60
619.78	1772.37
620.12	1763.74
620.47	1754.04
620.82	1743.70
621.16	1734.18
621.51	1724.31
621.85	1714.46
622.20	1704.13
622.55	1693.49
622.89	1683.71
623.24	1674.06
623.59	1664.33
623.93	1654.26
624.28	1644.55
624.62	1634.49
624.97	1624.26
625.32	1614.52
625.66	1605.72
626.01	1596.94
626.35	1587.49
626.70	1577.37
627.04	1567.32
627.39	1557.20
627.73	1547.91
628.08	1539.00
628.43	1529.22
628.77	1519.96
629.12	1511.06
629.46	1503.18
629.81	1494.87
630.15	1485.17
630.50	1475.20
630.84	1464.71
631.19	1454.84
631.53	1445.39
631.88	1435.27
632.22	1425.24
632.57	1415.83
632.91	1405.64
633.26	1395.82
633.60	1386.36
633.95	1377.04
634.29	1367.52
634.64	1358.04
634.98	1348.16
635.32	1338.75
635.67	1330.25
636.01	1320.98
636.36	1311.21
636.70	1301.73
637.05	1292.40
637.39	1283.46
637.73	1274.89
638.08	1267.41
638.42	1259.04
638.77	1250.39
639.11	1242.21
639.45	1234.38
639.80	1225.80
640.14	1217.28
640.49	1208.35
640.83	1199.52
641.17	1191.48
641.52	1183.41
641.86	1174.91
642.20	1167.04
642.55	1158.69
642.89	1149.91
643.23	1141.19
643.58	1133.15
643.92	1124.11
644.26	1115.57
644.61	1107.12
644.95	1098.39
645.29	1089.16
645.64	1080.16
645.98	1071.73
646.32	1063.69
646.66	1055.22
647.01	1046.91
647.35	1038.67
647.69	1030.35
648.04	1022.04
648.38	1013.09
648.72	1004.33
649.06	995.94
649.41	987.92
649.75	979.88
650.09	972.04
650.43	964.09
650.78	955.93
651.12	948.34
651.46	940.91
651.80	933.74
652.14	926.45
652.49	918.88
652.83	911.55
653.17	903.86
653.51	896.31
653.85	889.06
654.20	881.81
654.54	874.32
654.88	867.26
655.22	860.17
655.56	853.30
655.90	846.53
656.25	839.90
656.59	832.88
656.93	825.95
657.27	818.85
657.61	812.10
657.95	806.00
658.29	800.24
658.64	794.13
658.98	787.79
659.32	781.31
659.66	775.17
660.00	768.87
660.34	762.88
660.68	756.85
661.02	750.64
661.36	744.85
661.70	739.20
662.05	733.51
662.39	728.07
662.73	722.74
663.07	717.41
663.41	711.82
663.75	706.27
664.09	700.66
664.43	695.28
664.77	689.93
665.11	684.22
665.45	678.32
665.79	672.59
666.13	666.89
666.47	661.45
666.81	656.15
667.15	650.84
667.49	645.81
667.83	640.60
668.17	635.46
668.51	630.34
668.85	625.45
669.19	620.66
669.53	615.63
669.87	610.58
670.21	605.90
670.55	601.28
670.89	596.92
671.23	592.69
671.57	588.41
671.91	584.08
672.25	579.98
672.58	575.89
672.92	571.87
673.26	568.06
673.60	564.29
673.94	560.52
674.28	556.93
674.62	553.11
674.96	549.47
675.30	545.99
675.64	542.36
675.97	538.81
676.31	535.20
676.65	531.73
676.99	528.34
677.33	524.58
677.67	520.95
678.01	517.08
678.34	513.44
678.68	509.98
679.02	506.51
679.36	502.87
679.70	499.30
680.04	495.84
680.37	492.45
680.71	489.16
681.05	486.01
681.39	482.88
681.73	479.82
682.06	476.85
682.40	473.80
682.74	470.68
683.08	467.51
683.42	464.44
683.75	461.49
684.09	458.54
684.43	455.79
684.77	452.94
685.10	450.18
685.44	447.35
685.78	444.47
686.12	441.76
686.45	439.07
686.79	436.44
687.13	433.97
687.46	431.34
687.80	428.66
688.14	425.88
688.48	423.23
688.81	420.63
689.15	418.10
689.49	415.55
689.82	413.14
690.16	410.64
690.50	408.18
690.83	405.71
691.17	403.27
691.51	400.87
691.84	398.70
692.18	396.53
692.52	394.34
692.85	392.26
693.19	390.14
693.52	388.03
693.86	385.91
694.20	383.74
694.53	381.69
694.87	379.58
695.21	377.55
695.54	375.47
695.88	373.33
696.21	371.15
696.55	369.06
696.88	367.04
697.22	365.12
697.56	363.29
697.89	361.52
698.23	359.75
698.56	357.96
698.90	356.20
699.23	354.37
699.57	352.55
699.90	350.72
700.24	348.96
700.58	347.22
700.91	345.59
701.25	344.11
701.58	342.52
701.92	340.95
702.25	339.36
702.59	337.78
702.92	336.30
703.26	334.81
703.59	333.42
703.93	332.18
704.26	330.79
704.60	329.29
704.93	327.79
705.26	326.33
705.60	324.92
705.93	323.48
706.27	322.18
706.60	320.99
706.94	319.77
707.27	318.40
707.61	317.10
707.94	315.77
708.27	314.26
708.61	312.85
708.94	311.54
709.28	310.29
709.61	309.11
709.94	307.95
710.28	306.77
710.61	305.56
710.95	304.16
711.28	303.13
711.61	302.00
711.95	300.94
712.28	299.80
712.61	298.65
712.95	297.62
713.28	296.62
713.61	295.48
713.95	294.40
714.28	293.45
714.61	292.46
714.95	291.46
715.28	290.46
715.61	289.50
715.95	288.60
716.28	287.67
716.61	286.75
716.95	285.75
717.28	284.83
717.61	283.94
717.94	283.07
718.28	282.04
718.61	281.20
718.94	280.27
719.27	279.43
719.61	278.64
719.94	277.78
720.27	276.79
720.60	275.95
720.94	275.14
721.27	274.36
721.60	273.69
721.93	273.01
722.27	272.39
722.60	271.70
722.93	271.01
723.26	270.41
723.59	269.73
723.93	269.17
724.26	268.55
724.59	267.91
724.92	267.36
725.25	266.84
725.59	266.25
725.92	265.78
726.25	265.23
726.58	264.65
726.91	264.11
727.24	263.63
727.57	263.11
727.91	262.52
728.24	262.01
728.57	261.42
728.90	260.87
729.23	260.28
729.56	259.88
729.89	259.29
730.22	258.70
730.55	258.21
730.89	257.68
731.22	257.15
731.55	256.64
731.88	256.11
732.21	255.60
732.54	255.07
732.87	254.55
733.20	254.08
733.53	253.64
733.86	253.17
734.19	252.68
734.52	252.26
734.85	252.01
735.18	251.53
735.51	251.15
735.84	250.75
736.17	250.37
736.50	249.85
736.83	249.76
737.16	249.39
737.49	248.97
737.82	248.53
738.15	248.20
738.48	247.84
738.81	247.46
739.14	247.05
739.47	246.66
739.80	246.28
740.13	245.98
740.46	245.58
740.79	245.21
741.12	244.88
741.45	244.51
741.78	244.06
742.11	243.80
742.44	243.44
742.77	243.16
743.10	242.84
743.43	242.48
743.75	241.91
744.08	241.80
744.41	241.48
744.74	241.16
745.07	240.77
745.40	240.49
745.73	240.25
746.06	239.95
746.39	239.73
746.71	239.42
747.04	239.05
747.37	238.77
747.70	238.50
748.03	238.24
748.36	237.99
748.68	237.70
749.01	237.37
749.34	237.06
749.67	236.79
750.00	236.52
750.33	236.42
750.65	236.21
750.98	235.73
751.31	235.48
751.64	235.28
751.97	235.18
752.29	234.91
752.62	234.59
752.95	234.36
753.28	234.10
753.60	233.88
753.93	233.72
754.26	233.49
754.59	233.24
754.91	233.01
755.24	232.80
755.57	232.60
755.90	232.37
756.22	232.15
756.55	231.86
756.88	231.57
757.20	231.22
757.53	230.95
757.86	230.72
758.19	230.52
758.51	230.32
758.84	229.99
759.17	229.80
759.49	229.63
759.82	229.56
760.15	229.40
760.47	229.20
760.80	228.95
761.13	228.81
761.45	228.61
761.78	228.42
762.11	228.25
762.43	228.03
762.76	227.86
763.08	227.72
763.41	227.61
763.74	227.49
764.06	227.31
764.39	227.15
764.71	227.03
765.04	226.87
765.37	226.72
765.69	226.59
766.02	226.42
766.34	226.24
766.67	226.02
767.00	225.86
767.32	225.82
767.65	225.86
767.97	225.70
768.30	225.59
768.62	225.46
768.95	225.29
769.27	225.13
769.60	225.05
769.92	224.90
770.25	224.76
770.57	224.62
770.90	224.53
771.22	224.44
771.55	224.32
771.87	224.24
772.20	224.14
772.52	224.23
772.85	224.36
773.17	224.25
773.50	224.13
773.82	224.04
774.15	223.88
774.47	223.60
774.80	223.45
775.12	223.36
775.45	223.26
775.77	223.18
776.09	223.16
776.42	223.07
776.74	223.03
777.07	222.93
777.39	222.87
777.72	222.75
778.04	222.68
778.36	222.56
778.69	222.46
779.01	222.36
779.33	222.08
779.66	221.77
779.98	221.71
780.31	221.63
780.63	221.64
780.95	221.58
781.28	221.53
781.60	221.50
781.92	221.45
782.25	221.39
782.57	221.34
782.89	221.22
783.22	221.11
783.54	220.99
783.86	220.96
784.19	220.91
784.51	220.94
784.83	220.88
785.16	220.85
785.48	220.80
785.80	220.74
786.12	220.72
