SpectraSuite Data File
++++++++++++++++++++++++++++++++++++
Date: Tue Jan 29 16:51:00 EST 2013
User: group
Dark Spectrum Present: No
Reference Spectrum Present: No
Number of Sampled Component Spectra: 1
Spectrometers: USB2E7196
Integration Time (usec): 65000 (USB2E7196)
Spectra Averaged: 100 (USB2E7196)
Boxcar Smoothing: 10 (USB2E7196)
Correct for Electrical Dark: No (USB2E7196)
Strobe/Lamp Enabled: No (USB2E7196)
Correct for Detector Non-linearity: No (USB2E7196)
Correct for Stray Light: No (USB2E7196)
Number of Pixels in Processed Spectrum: 2048
>>>>>Begin Processed Spectral Data<<<<<
339.09	0.00
339.48	201.97
339.86	203.44
340.24	204.64
340.63	205.71
341.01	210.16
341.39	208.56
341.78	210.16
342.16	211.71
342.54	211.49
342.93	200.87
343.31	211.03
343.69	211.56
344.07	212.00
344.46	212.44
344.84	212.85
345.22	213.03
345.60	213.32
345.99	213.50
346.37	213.62
346.75	213.74
347.13	213.81
347.52	213.85
347.90	213.95
348.28	213.98
348.66	214.02
349.05	213.99
349.43	214.07
349.81	214.14
350.19	214.20
350.57	214.27
350.96	214.35
351.34	214.43
351.72	214.51
352.10	214.62
352.48	214.68
352.87	214.70
353.25	214.74
353.63	214.76
354.01	214.80
354.39	214.87
354.77	214.91
355.15	215.04
355.54	215.09
355.92	215.07
356.30	215.12
356.68	215.35
357.06	215.38
357.44	215.39
357.82	215.43
358.20	215.47
358.58	215.51
358.97	215.56
359.35	215.66
359.73	215.76
360.11	215.79
360.49	215.87
360.87	215.89
361.25	215.97
361.63	216.09
362.01	216.18
362.39	216.18
362.77	216.22
363.15	216.23
363.53	216.26
363.91	216.29
364.29	216.32
364.67	216.14
365.05	216.19
365.43	216.21
365.81	216.26
366.19	216.39
366.57	216.51
366.95	216.51
367.33	216.45
367.71	216.46
368.09	216.50
368.47	216.45
368.85	216.50
369.23	216.52
369.61	216.43
369.99	216.46
370.37	216.49
370.75	216.58
371.13	216.51
371.51	216.47
371.89	216.47
372.27	216.49
372.65	216.46
373.03	216.45
373.41	216.44
373.78	216.40
374.16	216.28
374.54	216.19
374.92	216.15
375.30	216.13
375.68	216.05
376.06	216.03
376.44	216.00
376.82	215.95
377.19	215.95
377.57	215.93
377.95	215.83
378.33	215.80
378.71	215.65
379.09	215.66
379.47	215.67
379.84	215.63
380.22	215.55
380.60	215.49
380.98	215.44
381.36	215.37
381.73	215.32
382.11	215.30
382.49	215.27
382.87	215.20
383.25	215.17
383.62	215.39
384.00	215.31
384.38	215.31
384.76	215.34
385.13	215.37
385.51	215.31
385.89	215.28
386.27	215.26
386.64	215.26
387.02	215.21
387.40	215.15
387.78	215.15
388.15	215.14
388.53	215.14
388.91	215.14
389.29	215.15
389.66	215.15
390.04	215.12
390.42	215.16
390.79	215.18
391.17	215.17
391.55	214.90
391.92	214.92
392.30	214.92
392.68	214.83
393.05	214.77
393.43	214.79
393.81	214.83
394.18	214.77
394.56	214.78
394.94	214.86
395.31	214.85
395.69	214.92
396.06	214.96
396.44	214.99
396.82	214.98
397.19	215.09
397.57	215.09
397.95	215.18
398.32	215.14
398.70	215.20
399.07	215.29
399.45	215.37
399.82	215.38
400.20	215.39
400.58	215.49
400.95	215.50
401.33	215.61
401.70	215.79
402.08	215.92
402.45	216.00
402.83	216.09
403.20	216.22
403.58	216.27
403.95	216.41
404.33	216.54
404.71	216.68
405.08	216.94
405.46	217.10
405.83	217.26
406.21	217.46
406.58	217.71
406.96	217.92
407.33	218.19
407.70	218.48
408.08	218.96
408.45	219.30
408.83	219.65
409.20	220.02
409.58	220.30
409.95	220.76
410.33	221.26
410.70	221.72
411.08	222.27
411.45	222.86
411.82	223.47
412.20	224.16
412.57	225.03
412.95	225.59
413.32	226.45
413.69	227.31
414.07	228.20
414.44	229.17
414.82	230.21
415.19	231.41
415.56	232.63
415.94	233.82
416.31	235.28
416.68	236.69
417.06	238.30
417.43	239.85
417.81	241.62
418.18	243.38
418.55	245.32
418.93	247.38
419.30	249.51
419.67	251.74
420.04	254.05
420.42	256.42
420.79	259.27
421.16	262.06
421.54	264.97
421.91	268.00
422.28	271.11
422.66	274.42
423.03	277.63
423.40	281.02
423.77	284.62
424.15	288.25
424.52	292.12
424.89	296.36
425.26	300.48
425.64	304.36
426.01	308.69
426.38	313.18
426.75	317.75
427.13	322.50
427.50	327.43
427.87	332.68
428.24	337.88
428.61	342.87
428.99	348.42
429.36	354.41
429.73	360.37
430.10	366.29
430.47	372.35
430.85	378.71
431.22	385.47
431.59	392.62
431.96	399.55
432.33	407.08
432.70	414.34
433.08	422.86
433.45	430.99
433.82	439.10
434.19	448.02
434.56	456.75
434.93	465.13
435.30	473.52
435.68	482.62
436.05	491.77
436.42	500.72
436.79	508.92
437.16	517.75
437.53	527.11
437.90	536.33
438.27	545.38
438.64	554.64
439.01	563.21
439.38	570.79
439.75	578.11
440.13	586.60
440.50	594.57
440.87	601.12
441.24	607.78
441.61	615.10
441.98	620.56
442.35	626.94
442.72	633.29
443.09	639.34
443.46	643.19
443.83	645.61
444.20	647.83
444.57	651.03
444.94	652.56
445.31	654.00
445.68	655.39
446.05	656.07
446.42	655.32
446.79	654.38
447.16	653.39
447.53	652.69
447.90	649.34
448.27	646.07
448.64	641.39
449.01	638.05
449.37	632.15
449.74	626.48
450.11	619.57
450.48	612.20
450.85	604.75
451.22	598.23
451.59	592.09
451.96	586.24
452.33	578.29
452.70	571.17
453.07	562.61
453.43	553.95
453.80	545.58
454.17	537.53
454.54	529.91
454.91	521.61
455.28	513.50
455.65	506.04
456.02	498.45
456.38	492.02
456.75	484.08
457.12	477.44
457.49	470.83
457.86	464.59
458.23	459.09
458.59	453.15
458.96	447.07
459.33	441.69
459.70	436.23
460.07	431.93
460.43	426.95
460.80	422.35
461.17	418.32
461.54	414.04
461.91	409.98
462.27	405.82
462.64	402.37
463.01	398.57
463.38	394.86
463.74	391.18
464.11	387.92
464.48	385.11
464.85	382.03
465.21	379.58
465.58	376.95
465.95	373.79
466.32	371.10
466.68	368.54
467.05	365.93
467.42	363.38
467.78	360.72
468.15	358.15
468.52	356.19
468.88	353.64
469.25	351.43
469.62	349.59
469.98	347.67
470.35	345.85
470.72	344.14
471.08	342.27
471.45	340.73
471.82	339.17
472.18	337.44
472.55	336.25
472.92	334.86
473.28	333.58
473.65	332.46
474.02	331.33
474.38	330.35
474.75	329.63
475.11	328.82
475.48	328.22
475.85	327.77
476.21	327.26
476.58	326.91
476.94	326.66
477.31	326.36
477.67	326.04
478.04	325.84
478.41	325.79
478.77	325.94
479.14	325.86
479.50	325.99
479.87	326.24
480.23	326.50
480.60	326.71
480.96	326.97
481.33	327.52
481.69	328.05
482.06	328.57
482.42	329.02
482.79	329.66
483.15	330.42
483.52	331.34
483.88	332.22
484.25	333.19
484.61	334.18
484.98	335.23
485.34	336.57
485.71	337.94
486.07	339.37
486.44	340.72
486.80	342.33
487.17	343.99
487.53	345.81
487.90	347.68
488.26	349.75
488.62	351.93
488.99	353.98
489.35	356.15
489.72	358.54
490.08	361.09
490.44	363.58
490.81	366.30
491.17	369.01
491.54	372.00
491.90	374.99
492.26	378.23
492.63	381.63
492.99	385.13
493.36	388.77
493.72	392.65
494.08	396.67
494.45	400.92
494.81	405.31
495.17	409.83
495.54	414.52
495.90	419.28
496.26	424.18
496.63	429.35
496.99	434.81
497.35	440.33
497.72	446.08
498.08	451.99
498.44	458.04
498.80	464.41
499.17	470.83
499.53	477.54
499.89	484.47
500.26	491.45
500.62	498.55
500.98	505.94
501.34	513.45
501.71	521.19
502.07	528.98
502.43	536.90
502.79	545.01
503.16	553.36
503.52	562.00
503.88	570.69
504.24	579.61
504.60	588.62
504.97	597.85
505.33	607.09
505.69	616.97
506.05	626.78
506.41	636.68
506.78	646.80
507.14	657.02
507.50	667.39
507.86	677.98
508.22	688.75
508.59	699.37
508.95	710.38
509.31	721.53
509.67	732.94
510.03	744.34
510.39	756.15
510.75	767.94
511.12	779.81
511.48	791.88
511.84	804.17
512.20	816.51
512.56	829.06
512.92	841.91
513.28	854.50
513.64	867.28
514.00	880.05
514.37	893.02
514.73	906.19
515.09	919.15
515.45	932.16
515.81	945.14
516.17	958.54
516.53	971.81
516.89	985.08
517.25	998.26
517.61	1011.80
517.97	1025.06
518.33	1038.31
518.69	1051.81
519.05	1065.55
519.41	1079.22
519.77	1093.16
520.13	1106.58
520.49	1119.66
520.85	1133.05
521.21	1146.36
521.57	1160.09
521.93	1173.20
522.29	1186.82
522.65	1200.54
523.01	1214.17
523.37	1227.35
523.73	1240.80
524.09	1254.00
524.45	1267.36
524.81	1280.95
525.17	1294.34
525.53	1307.56
525.89	1320.82
526.25	1334.01
526.61	1347.01
526.97	1360.23
527.33	1373.13
527.68	1386.68
528.04	1400.31
528.40	1413.47
528.76	1426.90
529.12	1439.79
529.48	1453.22
529.84	1465.62
530.20	1478.33
530.56	1490.89
530.91	1504.34
531.27	1517.19
531.63	1529.89
531.99	1542.76
532.35	1554.90
532.71	1567.41
533.07	1580.46
533.42	1592.81
533.78	1605.00
534.14	1617.07
534.50	1628.29
534.86	1640.00
535.21	1650.92
535.57	1662.54
535.93	1673.86
536.29	1685.08
536.65	1696.60
537.00	1707.52
537.36	1719.06
537.72	1730.18
538.08	1741.77
538.44	1752.73
538.79	1763.89
539.15	1775.05
539.51	1785.90
539.87	1797.33
540.22	1808.16
540.58	1818.99
540.94	1830.02
541.29	1840.34
541.65	1850.15
542.01	1860.70
542.37	1870.70
542.72	1880.75
543.08	1890.58
543.44	1901.06
543.79	1910.50
544.15	1920.04
544.51	1930.07
544.87	1939.90
545.22	1949.26
545.58	1958.16
545.94	1967.04
546.29	1975.73
546.65	1983.96
547.01	1992.22
547.36	2000.02
547.72	2007.96
548.07	2015.62
548.43	2023.39
548.79	2031.40
549.14	2039.64
549.50	2048.14
549.86	2056.18
550.21	2063.81
550.57	2071.51
550.92	2078.44
551.28	2085.97
551.64	2093.30
551.99	2100.72
552.35	2108.00
552.70	2115.02
553.06	2121.68
553.41	2128.07
553.77	2134.49
554.13	2141.03
554.48	2148.08
554.84	2155.13
555.19	2161.62
555.55	2168.16
555.90	2174.34
556.26	2181.15
556.61	2187.32
556.97	2192.33
557.32	2198.10
557.68	2204.54
558.03	2210.46
558.39	2215.94
558.74	2221.86
559.10	2227.40
559.45	2233.09
559.81	2238.56
560.16	2243.97
560.52	2249.92
560.87	2256.22
561.23	2262.02
561.58	2268.65
561.94	2273.75
562.29	2278.40
562.64	2284.26
563.00	2289.80
563.35	2295.40
563.71	2300.90
564.06	2306.50
564.42	2312.25
564.77	2317.25
565.12	2322.55
565.48	2327.27
565.83	2332.61
566.19	2337.84
566.54	2343.02
566.89	2347.49
567.25	2351.92
567.60	2357.54
567.96	2362.43
568.31	2366.90
568.66	2371.11
569.02	2374.83
569.37	2378.42
569.72	2382.85
570.08	2386.48
570.43	2389.61
570.78	2392.53
571.14	2395.04
571.49	2398.04
571.84	2401.47
572.20	2404.21
572.55	2406.90
572.90	2409.35
573.26	2412.04
573.61	2414.51
573.96	2416.49
574.31	2418.46
574.67	2420.26
575.02	2420.77
575.37	2422.13
575.72	2422.57
576.08	2423.89
576.43	2423.98
576.78	2424.39
577.13	2425.73
577.49	2426.75
577.84	2427.55
578.19	2428.73
578.54	2429.20
578.90	2429.55
579.25	2429.14
579.60	2428.82
579.95	2427.84
580.30	2427.50
580.66	2426.58
581.01	2424.76
581.36	2422.15
581.71	2420.45
582.06	2419.12
582.42	2418.19
582.77	2415.78
583.12	2414.05
583.47	2412.51
583.82	2411.78
584.17	2410.34
584.53	2408.01
584.88	2405.76
585.23	2403.69
585.58	2401.22
585.93	2399.09
586.28	2396.77
586.63	2394.32
586.98	2392.07
587.34	2390.03
587.69	2387.48
588.04	2385.12
588.39	2383.49
588.74	2380.83
589.09	2377.90
589.44	2374.51
589.79	2371.78
590.14	2369.68
590.49	2366.74
590.84	2362.66
591.19	2359.19
591.54	2355.81
591.89	2351.64
592.25	2348.02
592.60	2343.66
592.95	2339.45
593.30	2335.09
593.65	2330.64
594.00	2325.98
594.35	2322.84
594.70	2317.85
595.05	2313.25
595.40	2307.82
595.75	2301.78
596.10	2298.16
596.45	2293.39
596.80	2288.80
597.15	2283.56
597.50	2277.51
597.85	2272.43
598.19	2267.23
598.54	2261.40
598.89	2256.02
599.24	2251.43
599.59	2245.39
599.94	2239.52
600.29	2233.51
600.64	2227.54
600.99	2220.59
601.34	2215.05
601.69	2207.98
602.04	2201.87
602.39	2195.12
602.74	2188.96
603.08	2183.55
603.43	2177.13
603.78	2170.18
604.13	2163.03
604.48	2155.60
604.83	2149.51
605.18	2143.43
605.53	2136.56
605.87	2129.63
606.22	2122.90
606.57	2114.92
606.92	2106.89
607.27	2099.86
607.62	2093.20
607.96	2086.10
608.31	2079.78
608.66	2072.08
609.01	2064.60
609.36	2057.39
609.70	2049.78
610.05	2042.14
610.40	2033.82
610.75	2025.38
611.10	2017.66
611.44	2008.77
611.79	2000.12
612.14	1990.14
612.49	1979.41
612.83	1969.96
613.18	1960.61
613.53	1951.24
613.88	1941.68
614.22	1933.02
614.57	1923.28
614.92	1912.64
615.27	1902.40
615.61	1892.16
615.96	1882.57
616.31	1872.90
616.65	1863.35
617.00	1853.68
617.35	1843.98
617.70	1834.20
618.04	1824.39
618.39	1814.38
618.74	1804.79
619.08	1795.29
619.43	1786.68
619.78	1778.51
620.12	1769.97
620.47	1760.56
620.82	1750.41
621.16	1740.68
621.51	1730.94
621.85	1721.21
622.20	1711.10
622.55	1700.62
622.89	1690.83
623.24	1681.13
623.59	1671.38
623.93	1661.43
624.28	1651.67
624.62	1641.71
624.97	1631.62
625.32	1621.80
625.66	1612.97
626.01	1604.40
626.35	1595.14
626.70	1585.18
627.04	1575.19
627.39	1565.09
627.73	1555.87
628.08	1547.07
628.43	1537.70
628.77	1528.48
629.12	1519.64
629.46	1511.80
629.81	1503.70
630.15	1494.36
630.50	1484.70
630.84	1474.48
631.19	1464.74
631.53	1455.54
631.88	1445.49
632.22	1435.59
632.57	1426.36
632.91	1416.37
633.26	1406.62
633.60	1397.17
633.95	1387.95
634.29	1378.57
634.64	1369.42
634.98	1359.52
635.32	1350.29
635.67	1341.85
636.01	1332.67
636.36	1323.11
636.70	1313.80
637.05	1304.59
637.39	1295.76
637.73	1287.29
638.08	1279.65
638.42	1271.63
638.77	1263.04
639.11	1254.92
639.45	1247.21
639.80	1238.75
640.14	1230.03
640.49	1221.24
640.83	1212.52
641.17	1204.43
641.52	1196.44
641.86	1187.93
642.20	1180.15
642.55	1171.61
642.89	1162.86
643.23	1154.36
643.58	1146.28
643.92	1137.34
644.26	1128.61
644.61	1120.22
644.95	1111.51
645.29	1102.56
645.64	1093.42
645.98	1084.90
646.32	1077.07
646.66	1068.68
647.01	1060.50
647.35	1052.58
647.69	1044.34
648.04	1036.13
648.38	1027.39
648.72	1018.67
649.06	1010.39
649.41	1002.27
649.75	994.40
650.09	986.64
650.43	978.63
650.78	970.31
651.12	962.48
651.46	955.15
651.80	948.00
652.14	940.65
652.49	933.16
652.83	925.87
653.17	918.22
653.51	910.58
653.85	903.41
654.20	896.19
654.54	888.79
654.88	881.53
655.22	874.30
655.56	867.39
655.90	860.59
656.25	853.92
656.59	847.14
656.93	840.14
657.27	833.01
657.61	826.00
657.95	820.01
658.29	814.12
658.64	808.02
658.98	801.60
659.32	795.16
659.66	788.89
660.00	782.61
660.34	776.64
660.68	770.60
661.02	764.15
661.36	758.16
661.70	752.23
662.05	746.66
662.39	741.21
662.73	735.78
663.07	730.46
663.41	724.89
663.75	719.17
664.09	713.54
664.43	708.14
664.77	702.95
665.11	697.16
665.45	691.31
665.79	685.50
666.13	679.85
666.47	674.25
666.81	668.77
667.15	663.38
667.49	658.16
667.83	652.91
668.17	647.72
668.51	642.61
668.85	637.77
669.19	632.84
669.53	627.76
669.87	622.60
670.21	617.78
670.55	613.02
670.89	608.58
671.23	604.25
671.57	599.85
671.91	595.51
672.25	591.40
672.58	587.35
672.92	583.31
673.26	579.37
673.60	575.57
673.94	571.75
674.28	568.12
674.62	564.44
674.96	560.65
675.30	557.14
675.64	553.47
675.97	549.88
676.31	546.26
676.65	542.73
676.99	539.37
677.33	535.51
677.67	531.86
678.01	527.96
678.34	524.32
678.68	520.81
679.02	517.23
679.36	513.46
679.70	509.74
680.04	506.20
680.37	502.66
680.71	499.30
681.05	496.10
681.39	492.81
681.73	489.57
682.06	486.51
682.40	483.37
682.74	480.18
683.08	476.92
683.42	473.69
683.75	470.60
684.09	467.47
684.43	464.67
684.77	461.75
685.10	458.93
685.44	455.98
685.78	452.94
686.12	450.10
686.45	447.38
686.79	444.65
687.13	442.11
687.46	439.47
687.80	436.79
688.14	433.94
688.48	431.26
688.81	428.53
689.15	425.93
689.49	423.30
689.82	420.78
690.16	418.16
690.50	415.75
690.83	413.26
691.17	410.71
691.51	408.22
691.84	405.88
692.18	403.65
692.52	401.39
692.85	399.26
693.19	397.14
693.52	394.93
693.86	392.72
694.20	390.45
694.53	388.32
694.87	386.07
695.21	383.89
695.54	381.74
695.88	379.56
696.21	377.31
696.55	375.21
696.88	373.04
697.22	371.07
697.56	369.09
697.89	367.16
698.23	365.39
698.56	363.58
698.90	361.82
699.23	359.88
699.57	357.97
699.90	356.08
700.24	354.21
700.58	352.44
700.91	350.75
701.25	349.17
701.58	347.55
701.92	345.94
702.25	344.34
702.59	342.67
702.92	341.10
703.26	339.58
703.59	338.03
703.93	336.82
704.26	335.31
704.60	333.78
704.93	332.29
705.26	330.75
705.60	329.24
705.93	327.67
706.27	326.32
706.60	325.06
706.94	323.82
707.27	322.41
707.61	321.02
707.94	319.64
708.27	318.10
708.61	316.59
708.94	315.21
709.28	313.91
709.61	312.68
709.94	311.44
710.28	310.21
710.61	309.04
710.95	307.57
711.28	306.50
711.61	305.32
711.95	304.14
712.28	302.95
712.61	301.74
712.95	300.68
713.28	299.57
713.61	298.38
713.95	297.21
714.28	296.18
714.61	295.16
714.95	294.14
715.28	293.13
715.61	292.12
715.95	291.13
716.28	290.16
716.61	289.14
716.95	288.14
717.28	287.19
717.61	286.19
717.94	285.27
718.28	284.21
718.61	283.26
718.94	282.38
719.27	281.52
719.61	280.73
719.94	279.84
720.27	278.92
720.60	278.08
720.94	277.26
721.27	276.52
721.60	275.79
721.93	275.03
722.27	274.37
722.60	273.70
722.93	273.00
723.26	272.31
723.59	271.62
723.93	271.01
724.26	270.30
724.59	269.65
724.92	269.06
725.25	268.50
725.59	267.95
725.92	267.43
726.25	266.86
726.58	266.25
726.91	265.58
727.24	265.01
727.57	264.42
727.91	263.83
728.24	263.24
728.57	262.64
728.90	262.11
729.23	261.45
729.56	260.95
729.89	260.38
730.22	259.78
730.55	259.24
730.89	258.67
731.22	258.16
731.55	257.66
731.88	257.08
732.21	256.54
732.54	256.01
732.87	255.43
733.20	254.94
733.53	254.44
733.86	254.00
734.19	253.48
734.52	253.08
734.85	252.78
735.18	252.27
735.51	251.89
735.84	251.46
736.17	251.07
736.50	250.55
736.83	250.44
737.16	250.04
737.49	249.64
737.82	249.21
738.15	248.84
738.48	248.43
738.81	248.08
739.14	247.65
739.47	247.24
739.80	246.90
740.13	246.54
740.46	246.15
740.79	245.78
741.12	245.44
741.45	245.06
741.78	244.60
742.11	244.37
742.44	243.99
742.77	243.64
743.10	243.29
743.43	242.93
743.75	242.32
744.08	242.27
744.41	241.91
744.74	241.56
745.07	241.16
745.40	240.84
745.73	240.55
746.06	240.23
746.39	239.94
746.71	239.58
747.04	239.21
747.37	238.90
747.70	238.61
748.03	238.33
748.36	238.05
748.68	237.74
749.01	237.36
749.34	237.06
749.67	236.79
750.00	236.53
750.33	236.43
750.65	236.15
750.98	235.61
751.31	235.36
751.64	235.14
751.97	235.04
752.29	234.76
752.62	234.42
752.95	234.15
753.28	233.86
753.60	233.60
753.93	233.47
754.26	233.25
754.59	232.98
754.91	232.71
755.24	232.45
755.57	232.22
755.90	231.98
756.22	231.76
756.55	231.51
756.88	231.25
757.20	230.89
757.53	230.65
757.86	230.43
758.19	230.25
758.51	230.00
758.84	229.69
759.17	229.53
759.49	229.40
759.82	229.34
760.15	229.19
760.47	228.98
760.80	228.71
761.13	228.53
761.45	228.31
761.78	228.12
762.11	227.93
762.43	227.72
762.76	227.53
763.08	227.35
763.41	227.19
763.74	227.01
764.06	226.84
764.39	226.66
764.71	226.50
765.04	226.30
765.37	226.16
765.69	225.97
766.02	225.80
766.34	225.61
766.67	225.38
767.00	225.27
767.32	225.27
767.65	225.27
767.97	225.12
768.30	225.01
768.62	224.87
768.95	224.72
769.27	224.60
769.60	224.52
769.92	224.36
770.25	224.16
770.57	224.03
770.90	223.91
771.22	223.79
771.55	223.69
771.87	223.59
772.20	223.44
772.52	223.52
772.85	223.65
773.17	223.53
773.50	223.42
773.82	223.27
774.15	223.05
774.47	222.79
774.80	222.68
775.12	222.59
775.45	222.53
775.77	222.46
776.09	222.36
776.42	222.25
776.74	222.23
777.07	222.16
777.39	222.08
777.72	222.01
778.04	221.93
778.36	221.83
778.69	221.75
779.01	221.70
779.33	221.46
779.66	221.14
779.98	221.02
780.31	220.94
780.63	220.95
780.95	220.94
781.28	220.89
781.60	220.78
781.92	220.70
782.25	220.60
782.57	220.54
782.89	220.48
783.22	220.40
783.54	220.30
783.86	220.27
784.19	220.20
784.51	220.22
784.83	220.16
785.16	220.09
785.48	220.05
785.80	219.99
786.12	219.95
