SpectraSuite Data File
++++++++++++++++++++++++++++++++++++
Date: Tue Jan 29 16:34:42 EST 2013
User: group
Dark Spectrum Present: No
Reference Spectrum Present: No
Number of Sampled Component Spectra: 1
Spectrometers: USB2E7196
Integration Time (usec): 65000 (USB2E7196)
Spectra Averaged: 100 (USB2E7196)
Boxcar Smoothing: 10 (USB2E7196)
Correct for Electrical Dark: No (USB2E7196)
Strobe/Lamp Enabled: No (USB2E7196)
Correct for Detector Non-linearity: No (USB2E7196)
Correct for Stray Light: No (USB2E7196)
Number of Pixels in Processed Spectrum: 2048
>>>>>Begin Processed Spectral Data<<<<<
339.09	0.00
339.48	201.87
339.86	202.73
340.24	204.71
340.63	205.70
341.01	210.22
341.39	208.63
341.78	209.99
342.16	211.69
342.54	211.34
342.93	201.00
343.31	211.14
343.69	211.69
344.07	212.18
344.46	212.62
344.84	213.05
345.22	213.25
345.60	213.52
345.99	213.73
346.37	213.87
346.75	214.00
347.13	214.10
347.52	214.19
347.90	214.36
348.28	214.40
348.66	214.46
349.05	214.47
349.43	214.55
349.81	214.59
350.19	214.67
350.57	214.76
350.96	214.82
351.34	214.93
351.72	215.01
352.10	215.12
352.48	215.21
352.87	215.26
353.25	215.33
353.63	215.37
354.01	215.43
354.39	215.49
354.77	215.58
355.15	215.67
355.54	215.70
355.92	215.66
356.30	215.73
356.68	215.93
357.06	216.00
357.44	216.04
357.82	216.10
358.20	216.16
358.58	216.23
358.97	216.30
359.35	216.43
359.73	216.54
360.11	216.60
360.49	216.66
360.87	216.74
361.25	216.79
361.63	216.93
362.01	217.00
362.39	217.05
362.77	217.08
363.15	217.10
363.53	217.13
363.91	217.20
364.29	217.23
364.67	217.06
365.05	217.09
365.43	217.17
365.81	217.23
366.19	217.36
366.57	217.43
366.95	217.43
367.33	217.35
367.71	217.36
368.09	217.40
368.47	217.37
368.85	217.33
369.23	217.39
369.61	217.29
369.99	217.34
370.37	217.33
370.75	217.43
371.13	217.37
371.51	217.30
371.89	217.25
372.27	217.24
372.65	217.25
373.03	217.20
373.41	217.12
373.78	217.03
374.16	216.87
374.54	216.76
374.92	216.74
375.30	216.71
375.68	216.60
376.06	216.57
376.44	216.52
376.82	216.48
377.19	216.41
377.57	216.36
377.95	216.25
378.33	216.22
378.71	216.03
379.09	216.04
379.47	216.06
379.84	216.00
380.22	215.93
380.60	215.83
380.98	215.80
381.36	215.76
381.73	215.70
382.11	215.71
382.49	215.65
382.87	215.56
383.25	215.53
383.62	215.79
384.00	215.69
384.38	215.65
384.76	215.68
385.13	215.71
385.51	215.69
385.89	215.60
386.27	215.57
386.64	215.59
387.02	215.51
387.40	215.45
387.78	215.43
388.15	215.42
388.53	215.41
388.91	215.36
389.29	215.33
389.66	215.37
390.04	215.34
390.42	215.40
390.79	215.40
391.17	215.40
391.55	215.13
391.92	215.14
392.30	215.13
392.68	215.07
393.05	215.04
393.43	215.07
393.81	215.10
394.18	215.09
394.56	215.08
394.94	215.16
395.31	215.14
395.69	215.21
396.06	215.26
396.44	215.29
396.82	215.29
397.19	215.41
397.57	215.40
397.95	215.42
398.32	215.36
398.70	215.42
399.07	215.51
399.45	215.57
399.82	215.60
400.20	215.70
400.58	215.78
400.95	215.75
401.33	215.86
401.70	216.05
402.08	216.12
402.45	216.25
402.83	216.41
403.20	216.52
403.58	216.59
403.95	216.73
404.33	216.86
404.71	217.02
405.08	217.26
405.46	217.42
405.83	217.65
406.21	217.88
406.58	218.12
406.96	218.30
407.33	218.59
407.70	218.90
408.08	219.34
408.45	219.65
408.83	220.08
409.20	220.41
409.58	220.69
409.95	221.18
410.33	221.62
410.70	222.00
411.08	222.57
411.45	223.12
411.82	223.70
412.20	224.41
412.57	225.26
412.95	225.82
413.32	226.68
413.69	227.50
414.07	228.40
414.44	229.36
414.82	230.39
415.19	231.53
415.56	232.69
415.94	233.86
416.31	235.29
416.68	236.67
417.06	238.28
417.43	239.84
417.81	241.56
418.18	243.38
418.55	245.33
418.93	247.37
419.30	249.53
419.67	251.76
420.04	254.05
420.42	256.40
420.79	259.23
421.16	262.00
421.54	264.94
421.91	267.92
422.28	271.05
422.66	274.38
423.03	277.60
423.40	281.01
423.77	284.61
424.15	288.29
424.52	292.14
424.89	296.29
425.26	300.40
425.64	304.31
426.01	308.56
426.38	313.06
426.75	317.59
427.13	322.30
427.50	327.27
427.87	332.45
428.24	337.68
428.61	342.66
428.99	348.16
429.36	354.12
429.73	360.04
430.10	365.93
430.47	371.99
430.85	378.35
431.22	385.03
431.59	392.17
431.96	398.92
432.33	406.47
432.70	413.75
433.08	422.25
433.45	430.30
433.82	438.30
434.19	447.18
434.56	455.90
434.93	464.22
435.30	472.56
435.68	481.71
436.05	490.74
436.42	499.68
436.79	507.91
437.16	516.76
437.53	526.02
437.90	535.21
438.27	544.19
438.64	553.42
439.01	562.00
439.38	569.54
439.75	576.99
440.13	585.40
440.50	593.34
440.87	599.83
441.24	606.47
441.61	613.83
441.98	619.20
442.35	625.52
442.72	631.92
443.09	638.00
443.46	641.74
443.83	644.25
444.20	646.49
444.57	649.65
444.94	651.10
445.31	652.57
445.68	653.91
446.05	654.51
446.42	653.74
446.79	652.75
447.16	651.70
447.53	650.88
447.90	647.51
448.27	644.28
448.64	639.62
449.01	636.37
449.37	630.51
449.74	624.87
450.11	617.95
450.48	610.52
450.85	603.02
451.22	596.55
451.59	590.41
451.96	584.55
452.33	576.62
452.70	569.45
453.07	560.95
453.43	552.30
453.80	543.98
454.17	535.97
454.54	528.40
454.91	520.17
455.28	512.15
455.65	504.80
456.02	497.28
456.38	490.94
456.75	483.02
457.12	476.42
457.49	469.91
457.86	463.73
458.23	458.31
458.59	452.33
458.96	446.33
459.33	440.99
459.70	435.60
460.07	431.34
460.43	426.44
460.80	421.86
461.17	417.86
461.54	413.67
461.91	409.67
462.27	405.57
462.64	402.15
463.01	398.37
463.38	394.63
463.74	390.88
464.11	387.61
464.48	384.72
464.85	381.61
465.21	379.15
465.58	376.54
465.95	373.42
466.32	370.84
466.68	368.23
467.05	365.64
467.42	363.08
467.78	360.40
468.15	357.83
468.52	355.90
468.88	353.44
469.25	351.20
469.62	349.37
469.98	347.39
470.35	345.60
470.72	343.91
471.08	342.12
471.45	340.60
471.82	339.04
472.18	337.43
472.55	336.24
472.92	334.85
473.28	333.60
473.65	332.46
474.02	331.34
474.38	330.43
474.75	329.64
475.11	328.78
475.48	328.21
475.85	327.70
476.21	327.22
476.58	326.82
476.94	326.61
477.31	326.33
477.67	326.07
478.04	325.90
478.41	325.84
478.77	325.97
479.14	325.88
479.50	326.01
479.87	326.29
480.23	326.60
480.60	326.87
480.96	327.15
481.33	327.72
481.69	328.24
482.06	328.75
482.42	329.25
482.79	329.88
483.15	330.61
483.52	331.61
483.88	332.46
484.25	333.42
484.61	334.39
484.98	335.44
485.34	336.75
485.71	338.12
486.07	339.57
486.44	340.89
486.80	342.57
487.17	344.29
487.53	346.09
487.90	347.95
488.26	349.97
488.62	352.17
488.99	354.26
489.35	356.49
489.72	358.87
490.08	361.41
490.44	363.98
490.81	366.72
491.17	369.46
491.54	372.46
491.90	375.49
492.26	378.80
492.63	382.20
492.99	385.65
493.36	389.31
493.72	393.23
494.08	397.26
494.45	401.46
494.81	405.79
495.17	410.29
495.54	415.03
495.90	419.87
496.26	424.78
496.63	430.02
496.99	435.41
497.35	440.98
497.72	446.81
498.08	452.79
498.44	458.91
498.80	465.33
499.17	471.87
499.53	478.61
499.89	485.53
500.26	492.48
500.62	499.68
500.98	507.15
501.34	514.62
501.71	522.43
502.07	530.26
502.43	538.24
502.79	546.43
503.16	554.88
503.52	563.48
503.88	572.17
504.24	581.12
504.60	590.17
504.97	599.45
505.33	608.78
505.69	618.70
506.05	628.64
506.41	638.55
506.78	648.61
507.14	658.85
507.50	669.31
507.86	680.05
508.22	690.86
508.59	701.54
508.95	712.65
509.31	723.99
509.67	735.54
510.03	747.10
510.39	758.82
510.75	770.74
511.12	782.68
511.48	794.93
511.84	807.30
512.20	819.73
512.56	832.34
512.92	845.23
513.28	857.91
513.64	870.72
514.00	883.68
514.37	896.80
514.73	910.00
515.09	923.10
515.45	936.12
515.81	949.27
516.17	962.77
516.53	976.14
516.89	989.28
517.25	1002.54
517.61	1016.09
517.97	1029.60
518.33	1042.75
518.69	1056.38
519.05	1070.19
519.41	1083.81
519.77	1097.87
520.13	1111.35
520.49	1124.54
520.85	1138.01
521.21	1151.46
521.57	1165.24
521.93	1178.40
522.29	1192.26
522.65	1206.03
523.01	1219.71
523.37	1232.97
523.73	1246.40
524.09	1259.71
524.45	1273.27
524.81	1286.72
525.17	1300.31
525.53	1313.57
525.89	1327.05
526.25	1340.36
526.61	1353.33
526.97	1366.66
527.33	1379.64
527.68	1393.19
528.04	1406.88
528.40	1420.05
528.76	1433.53
529.12	1446.46
529.48	1459.81
529.84	1472.16
530.20	1485.00
530.56	1497.84
530.91	1511.31
531.27	1524.24
531.63	1537.06
531.99	1549.92
532.35	1562.54
532.71	1574.94
533.07	1587.97
533.42	1600.30
533.78	1612.56
534.14	1624.72
534.50	1636.02
534.86	1647.71
535.21	1658.70
535.57	1670.26
535.93	1681.69
536.29	1692.83
536.65	1704.51
537.00	1715.76
537.36	1727.21
537.72	1738.31
538.08	1749.84
538.44	1760.81
538.79	1772.15
539.15	1783.27
539.51	1794.14
539.87	1805.41
540.22	1816.40
540.58	1827.44
540.94	1838.49
541.29	1848.83
541.65	1858.69
542.01	1869.21
542.37	1879.38
542.72	1889.73
543.08	1899.64
543.44	1910.28
543.79	1919.65
544.15	1929.12
544.51	1939.08
544.87	1949.21
545.22	1958.57
545.58	1967.55
545.94	1976.57
546.29	1985.09
546.65	1993.50
547.01	2001.97
547.36	2009.74
547.72	2017.67
548.07	2025.35
548.43	2033.19
548.79	2041.08
549.14	2049.19
549.50	2057.93
549.86	2066.04
550.21	2073.50
550.57	2081.18
550.92	2088.01
551.28	2095.56
551.64	2102.86
551.99	2110.44
552.35	2117.54
552.70	2124.45
553.06	2131.05
553.41	2137.29
553.77	2143.78
554.13	2150.17
554.48	2157.15
554.84	2164.42
555.19	2171.00
555.55	2177.37
555.90	2183.72
556.26	2190.70
556.61	2197.02
556.97	2201.84
557.32	2207.61
557.68	2214.05
558.03	2219.92
558.39	2225.22
558.74	2231.42
559.10	2237.08
559.45	2242.56
559.81	2248.15
560.16	2253.71
560.52	2259.69
560.87	2266.15
561.23	2272.13
561.58	2278.75
561.94	2283.96
562.29	2288.59
562.64	2294.58
563.00	2300.46
563.35	2306.03
563.71	2311.76
564.06	2317.41
564.42	2323.32
564.77	2328.30
565.12	2333.50
565.48	2338.53
565.83	2344.09
566.19	2349.30
566.54	2354.65
566.89	2359.29
567.25	2363.86
567.60	2369.49
567.96	2374.53
568.31	2378.95
568.66	2383.28
569.02	2387.24
569.37	2390.93
569.72	2395.43
570.08	2398.86
570.43	2401.95
570.78	2405.00
571.14	2407.49
571.49	2410.61
571.84	2414.12
572.20	2417.02
572.55	2419.92
572.90	2422.38
573.26	2425.21
573.61	2427.80
573.96	2429.95
574.31	2432.02
574.67	2433.97
575.02	2434.73
575.37	2436.09
575.72	2436.86
576.08	2438.15
576.43	2438.18
576.78	2438.55
577.13	2439.86
577.49	2441.05
577.84	2441.89
578.19	2443.13
578.54	2443.60
578.90	2443.91
579.25	2443.76
579.60	2443.65
579.95	2442.99
580.30	2442.83
580.66	2442.05
581.01	2440.29
581.36	2437.80
581.71	2436.30
582.06	2435.08
582.42	2434.21
582.77	2431.88
583.12	2430.15
583.47	2428.69
583.82	2428.18
584.17	2426.92
584.53	2424.72
584.88	2422.52
585.23	2420.52
585.58	2418.20
585.93	2416.04
586.28	2413.99
586.63	2411.47
586.98	2409.12
587.34	2407.08
587.69	2404.54
588.04	2402.32
588.39	2400.77
588.74	2398.06
589.09	2395.38
589.44	2391.98
589.79	2389.17
590.14	2387.28
590.49	2384.45
590.84	2380.49
591.19	2377.02
591.54	2373.82
591.89	2369.78
592.25	2366.61
592.60	2362.45
592.95	2358.21
593.30	2353.98
593.65	2349.47
594.00	2344.87
594.35	2341.89
594.70	2337.19
595.05	2332.64
595.40	2327.03
595.75	2321.13
596.10	2317.62
596.45	2312.58
596.80	2307.92
597.15	2302.88
597.50	2296.79
597.85	2291.74
598.19	2286.47
598.54	2280.67
598.89	2275.20
599.24	2270.50
599.59	2264.21
599.94	2258.21
600.29	2252.26
600.64	2246.23
600.99	2239.44
601.34	2233.91
601.69	2226.75
602.04	2220.42
602.39	2213.61
602.74	2207.57
603.08	2202.03
603.43	2195.38
603.78	2188.51
604.13	2181.54
604.48	2174.21
604.83	2168.10
605.18	2161.90
605.53	2154.98
605.87	2147.98
606.22	2141.12
606.57	2133.12
606.92	2125.11
607.27	2118.16
607.62	2111.41
607.96	2104.61
608.31	2098.18
608.66	2090.46
609.01	2082.92
609.36	2075.58
609.70	2067.97
610.05	2060.22
610.40	2051.94
610.75	2043.59
611.10	2035.83
611.44	2026.86
611.79	2018.14
612.14	2008.16
612.49	1997.39
612.83	1988.13
613.18	1978.71
613.53	1969.45
613.88	1959.89
614.22	1951.19
614.57	1941.36
614.92	1930.72
615.27	1920.34
615.61	1909.96
615.96	1900.13
616.31	1890.45
616.65	1881.07
617.00	1871.27
617.35	1861.42
617.70	1851.50
618.04	1841.59
618.39	1831.38
618.74	1821.68
619.08	1811.96
619.43	1803.11
619.78	1794.92
620.12	1786.04
620.47	1776.53
620.82	1766.19
621.16	1756.43
621.51	1746.36
621.85	1736.45
622.20	1726.07
622.55	1715.44
622.89	1705.75
623.24	1696.04
623.59	1686.29
623.93	1676.06
624.28	1666.24
624.62	1656.15
624.97	1645.98
625.32	1636.06
625.66	1627.15
626.01	1618.44
626.35	1609.05
626.70	1599.07
627.04	1588.96
627.39	1578.88
627.73	1569.53
628.08	1560.63
628.43	1551.06
628.77	1541.92
629.12	1533.04
629.46	1525.26
629.81	1516.97
630.15	1507.40
630.50	1497.61
630.84	1487.05
631.19	1477.19
631.53	1467.95
631.88	1457.88
632.22	1447.80
632.57	1438.42
632.91	1428.28
633.26	1418.27
633.60	1408.64
633.95	1399.35
634.29	1389.79
634.64	1380.51
634.98	1370.57
635.32	1361.20
635.67	1352.66
636.01	1343.34
636.36	1333.52
636.70	1323.95
637.05	1314.48
637.39	1305.54
637.73	1296.91
638.08	1289.36
638.42	1281.24
638.77	1272.41
639.11	1264.18
639.45	1256.44
639.80	1247.84
640.14	1239.14
640.49	1230.40
640.83	1221.61
641.17	1213.37
641.52	1205.25
641.86	1196.65
642.20	1188.79
642.55	1180.17
642.89	1171.20
643.23	1162.48
643.58	1154.46
643.92	1145.29
644.26	1136.62
644.61	1128.08
644.95	1119.21
645.29	1109.89
645.64	1100.48
645.98	1091.89
646.32	1083.85
646.66	1075.30
647.01	1066.96
647.35	1058.74
647.69	1050.37
648.04	1041.97
648.38	1033.13
648.72	1024.38
649.06	1016.00
649.41	1007.72
649.75	999.77
650.09	991.92
650.43	983.90
650.78	975.51
651.12	967.84
651.46	960.32
651.80	953.06
652.14	945.89
652.49	938.35
652.83	931.11
653.17	923.43
653.51	915.73
653.85	908.40
654.20	901.09
654.54	893.67
654.88	886.34
655.22	879.17
655.56	872.16
655.90	865.19
656.25	858.43
656.59	851.60
656.93	844.44
657.27	837.27
657.61	830.26
657.95	824.10
658.29	818.10
658.64	811.99
658.98	805.54
659.32	798.89
659.66	792.63
660.00	786.16
660.34	780.02
660.68	773.95
661.02	767.56
661.36	761.61
661.70	755.69
662.05	750.01
662.39	744.47
662.73	738.92
663.07	733.51
663.41	727.79
663.75	721.94
664.09	716.21
664.43	710.71
664.77	705.33
665.11	699.46
665.45	693.50
665.79	687.64
666.13	681.89
666.47	676.32
666.81	670.83
667.15	665.44
667.49	660.20
667.83	654.86
668.17	649.62
668.51	644.44
668.85	639.50
669.19	634.55
669.53	629.45
669.87	624.27
670.21	619.50
670.55	614.75
670.89	610.26
671.23	605.93
671.57	601.50
671.91	597.19
672.25	593.04
672.58	588.90
672.92	584.79
673.26	580.77
673.60	576.88
673.94	573.05
674.28	569.40
674.62	565.64
674.96	561.87
675.30	558.33
675.64	554.59
675.97	550.92
676.31	547.33
676.65	543.75
676.99	540.34
677.33	536.47
677.67	532.83
678.01	528.88
678.34	525.16
678.68	521.65
679.02	518.04
679.36	514.32
679.70	510.61
680.04	507.05
680.37	503.55
680.71	500.10
681.05	496.80
681.39	493.46
681.73	490.26
682.06	487.19
682.40	484.01
682.74	480.80
683.08	477.61
683.42	474.36
683.75	471.28
684.09	468.19
684.43	465.34
684.77	462.31
685.10	459.45
685.44	456.60
685.78	453.64
686.12	450.85
686.45	448.03
686.79	445.34
687.13	442.73
687.46	440.07
687.80	437.42
688.14	434.56
688.48	431.90
688.81	429.16
689.15	426.52
689.49	423.91
689.82	421.34
690.16	418.64
690.50	416.13
690.83	413.58
691.17	410.97
691.51	408.44
691.84	406.18
692.18	404.00
692.52	401.70
692.85	399.50
693.19	397.28
693.52	395.07
693.86	392.84
694.20	390.64
694.53	388.47
694.87	386.23
695.21	384.06
695.54	381.93
695.88	379.75
696.21	377.52
696.55	375.36
696.88	373.32
697.22	371.36
697.56	369.43
697.89	367.55
698.23	365.79
698.56	363.98
698.90	362.16
699.23	360.23
699.57	358.33
699.90	356.43
700.24	354.56
700.58	352.80
700.91	351.06
701.25	349.45
701.58	347.86
701.92	346.25
702.25	344.66
702.59	342.98
702.92	341.42
703.26	339.83
703.59	338.28
703.93	336.94
704.26	335.50
704.60	333.97
704.93	332.45
705.26	330.92
705.60	329.39
705.93	327.87
706.27	326.48
706.60	325.17
706.94	323.92
707.27	322.58
707.61	321.23
707.94	319.90
708.27	318.37
708.61	316.88
708.94	315.45
709.28	314.13
709.61	312.85
709.94	311.60
710.28	310.37
710.61	309.19
710.95	307.76
711.28	306.62
711.61	305.41
711.95	304.23
712.28	303.03
712.61	301.83
712.95	300.73
713.28	299.67
713.61	298.52
713.95	297.36
714.28	296.30
714.61	295.22
714.95	294.16
715.28	293.12
715.61	292.09
715.95	291.14
716.28	290.16
716.61	289.19
716.95	288.19
717.28	287.27
717.61	286.32
717.94	285.41
718.28	284.38
718.61	283.56
718.94	282.69
719.27	281.81
719.61	281.02
719.94	280.15
720.27	279.18
720.60	278.29
720.94	277.47
721.27	276.67
721.60	275.98
721.93	275.24
722.27	274.59
722.60	273.90
722.93	273.21
723.26	272.55
723.59	271.84
723.93	271.21
724.26	270.53
724.59	269.90
724.92	269.28
725.25	268.71
725.59	268.05
725.92	267.49
726.25	266.93
726.58	266.31
726.91	265.70
727.24	265.15
727.57	264.60
727.91	263.96
728.24	263.40
728.57	262.77
728.90	262.20
729.23	261.57
729.56	261.10
729.89	260.56
730.22	259.99
730.55	259.44
730.89	258.89
731.22	258.34
731.55	257.78
731.88	257.21
732.21	256.65
732.54	256.13
732.87	255.62
733.20	255.10
733.53	254.61
733.86	254.18
734.19	253.68
734.52	253.25
734.85	252.98
735.18	252.50
735.51	252.13
735.84	251.70
736.17	251.37
736.50	250.84
736.83	250.66
737.16	250.26
737.49	249.90
737.82	249.46
738.15	249.11
738.48	248.74
738.81	248.39
739.14	247.97
739.47	247.56
739.80	247.16
740.13	246.81
740.46	246.45
740.79	246.03
741.12	245.70
741.45	245.34
741.78	244.89
742.11	244.63
742.44	244.25
742.77	243.95
743.10	243.55
743.43	243.22
743.75	242.62
744.08	242.52
744.41	242.16
744.74	241.84
745.07	241.41
745.40	241.08
745.73	240.80
746.06	240.48
746.39	240.20
746.71	239.87
747.04	239.51
747.37	239.17
747.70	238.88
748.03	238.55
748.36	238.27
748.68	237.93
749.01	237.56
749.34	237.24
749.67	236.94
750.00	236.68
750.33	236.55
750.65	236.28
750.98	235.79
751.31	235.52
751.64	235.28
751.97	235.19
752.29	234.90
752.62	234.58
752.95	234.33
753.28	234.05
753.60	233.81
753.93	233.65
754.26	233.46
754.59	233.22
754.91	232.98
755.24	232.74
755.57	232.52
755.90	232.27
756.22	232.04
756.55	231.75
756.88	231.48
757.20	231.11
757.53	230.88
757.86	230.66
758.19	230.47
758.51	230.23
758.84	229.91
759.17	229.72
759.49	229.55
759.82	229.47
760.15	229.33
760.47	229.14
760.80	228.91
761.13	228.71
761.45	228.49
761.78	228.33
762.11	228.13
762.43	227.93
762.76	227.76
763.08	227.63
763.41	227.48
763.74	227.33
764.06	227.17
764.39	227.01
764.71	226.87
765.04	226.68
765.37	226.51
765.69	226.36
766.02	226.21
766.34	226.05
766.67	225.82
767.00	225.70
767.32	225.64
767.65	225.62
767.97	225.51
768.30	225.42
768.62	225.28
768.95	225.12
769.27	225.03
769.60	224.94
769.92	224.76
770.25	224.61
770.57	224.43
770.90	224.31
771.22	224.17
771.55	224.02
771.87	223.93
772.20	223.84
772.52	223.89
772.85	224.01
773.17	223.88
773.50	223.75
773.82	223.64
774.15	223.43
774.47	223.23
774.80	223.07
775.12	222.94
775.45	222.86
775.77	222.79
776.09	222.68
776.42	222.59
776.74	222.57
777.07	222.47
777.39	222.39
777.72	222.30
778.04	222.25
778.36	222.18
778.69	222.10
779.01	222.03
779.33	221.79
779.66	221.46
779.98	221.39
780.31	221.32
780.63	221.30
780.95	221.29
781.28	221.22
781.60	221.14
781.92	221.03
782.25	220.93
782.57	220.85
782.89	220.76
783.22	220.69
783.54	220.59
783.86	220.54
784.19	220.49
784.51	220.50
784.83	220.39
785.16	220.31
785.48	220.23
785.80	220.12
786.12	220.08
