SpectraSuite Data File
++++++++++++++++++++++++++++++++++++
Date: Tue Jan 29 16:30:55 EST 2013
User: group
Dark Spectrum Present: No
Reference Spectrum Present: No
Number of Sampled Component Spectra: 1
Spectrometers: USB2E7196
Integration Time (usec): 65000 (USB2E7196)
Spectra Averaged: 100 (USB2E7196)
Boxcar Smoothing: 10 (USB2E7196)
Correct for Electrical Dark: No (USB2E7196)
Strobe/Lamp Enabled: No (USB2E7196)
Correct for Detector Non-linearity: No (USB2E7196)
Correct for Stray Light: No (USB2E7196)
Number of Pixels in Processed Spectrum: 2048
>>>>>Begin Processed Spectral Data<<<<<
339.09	0.00
339.48	202.24
339.86	204.11
340.24	205.41
340.63	206.63
341.01	211.77
341.39	209.58
341.78	210.37
342.16	211.97
342.54	212.85
342.93	201.65
343.31	211.83
343.69	212.42
344.07	212.85
344.46	213.28
344.84	213.69
345.22	213.83
345.60	214.08
345.99	214.30
346.37	214.46
346.75	214.57
347.13	214.65
347.52	214.70
347.90	214.86
348.28	214.88
348.66	214.96
349.05	214.96
349.43	215.06
349.81	215.10
350.19	215.17
350.57	215.25
350.96	215.35
351.34	215.45
351.72	215.54
352.10	215.66
352.48	215.73
352.87	215.81
353.25	215.90
353.63	215.95
354.01	216.01
354.39	216.08
354.77	216.14
355.15	216.27
355.54	216.27
355.92	216.23
356.30	216.31
356.68	216.44
357.06	216.52
357.44	216.53
357.82	216.61
358.20	216.67
358.58	216.72
358.97	216.75
359.35	216.85
359.73	216.92
360.11	217.00
360.49	217.05
360.87	217.04
361.25	217.08
361.63	217.18
362.01	217.23
362.39	217.21
362.77	217.25
363.15	217.25
363.53	217.33
363.91	217.37
364.29	217.39
364.67	217.27
365.05	217.27
365.43	217.31
365.81	217.32
366.19	217.42
366.57	217.47
366.95	217.48
367.33	217.44
367.71	217.40
368.09	217.39
368.47	217.38
368.85	217.40
369.23	217.43
369.61	217.37
369.99	217.41
370.37	217.43
370.75	217.54
371.13	217.46
371.51	217.39
371.89	217.40
372.27	217.37
372.65	217.32
373.03	217.30
373.41	217.27
373.78	217.24
374.16	217.08
374.54	217.02
374.92	216.94
375.30	216.87
375.68	216.84
376.06	216.80
376.44	216.75
376.82	216.68
377.19	216.62
377.57	216.54
377.95	216.44
378.33	216.34
378.71	216.16
379.09	216.16
379.47	216.17
379.84	216.06
380.22	216.01
380.60	215.93
380.98	215.86
381.36	215.80
381.73	215.73
382.11	215.76
382.49	215.73
382.87	215.69
383.25	215.65
383.62	215.82
384.00	215.76
384.38	215.73
384.76	215.75
385.13	215.81
385.51	215.79
385.89	215.74
386.27	215.76
386.64	215.77
387.02	215.72
387.40	215.66
387.78	215.67
388.15	215.66
388.53	215.65
388.91	215.65
389.29	215.60
389.66	215.60
390.04	215.50
390.42	215.54
390.79	215.55
391.17	215.53
391.55	215.26
391.92	215.27
392.30	215.28
392.68	215.22
393.05	215.16
393.43	215.16
393.81	215.17
394.18	215.13
394.56	215.10
394.94	215.17
395.31	215.16
395.69	215.23
396.06	215.26
396.44	215.27
396.82	215.25
397.19	215.39
397.57	215.41
397.95	215.49
398.32	215.40
398.70	215.43
399.07	215.54
399.45	215.59
399.82	215.63
400.20	215.70
400.58	215.76
400.95	215.73
401.33	215.81
401.70	216.06
402.08	216.15
402.45	216.23
402.83	216.36
403.20	216.49
403.58	216.58
403.95	216.71
404.33	216.89
404.71	217.05
405.08	217.29
405.46	217.46
405.83	217.66
406.21	217.92
406.58	218.17
406.96	218.38
407.33	218.67
407.70	219.00
408.08	219.41
408.45	219.78
408.83	220.19
409.20	220.58
409.58	220.86
409.95	221.34
410.33	221.84
410.70	222.26
411.08	222.84
411.45	223.39
411.82	223.96
412.20	224.63
412.57	225.46
412.95	226.02
413.32	226.86
413.69	227.64
414.07	228.54
414.44	229.49
414.82	230.49
415.19	231.67
415.56	232.82
415.94	234.03
416.31	235.43
416.68	236.81
417.06	238.40
417.43	239.93
417.81	241.65
418.18	243.46
418.55	245.40
418.93	247.41
419.30	249.54
419.67	251.81
420.04	254.10
420.42	256.47
420.79	259.32
421.16	262.08
421.54	265.00
421.91	267.99
422.28	271.13
422.66	274.47
423.03	277.70
423.40	281.09
423.77	284.67
424.15	288.33
424.52	292.25
424.89	296.41
425.26	300.50
425.64	304.38
426.01	308.67
426.38	313.17
426.75	317.73
427.13	322.43
427.50	327.39
427.87	332.64
428.24	337.87
428.61	342.85
428.99	348.41
429.36	354.43
429.73	360.26
430.10	366.16
430.47	372.23
430.85	378.54
431.22	385.21
431.59	392.31
431.96	399.13
432.33	406.57
432.70	413.83
433.08	422.32
433.45	430.40
433.82	438.33
434.19	447.19
434.56	455.89
434.93	464.16
435.30	472.45
435.68	481.47
436.05	490.43
436.42	499.32
436.79	507.44
437.16	516.21
437.53	525.50
437.90	534.60
438.27	543.55
438.64	552.76
439.01	561.32
439.38	568.90
439.75	576.19
440.13	584.61
440.50	592.57
440.87	598.98
441.24	605.60
441.61	612.95
441.98	618.29
442.35	624.57
442.72	631.01
443.09	637.00
443.46	640.81
443.83	643.31
444.20	645.48
444.57	648.63
444.94	650.10
445.31	651.56
445.68	652.96
446.05	653.62
446.42	652.78
446.79	651.83
447.16	650.76
447.53	650.04
447.90	646.71
448.27	643.45
448.64	638.80
449.01	635.52
449.37	629.63
449.74	624.03
450.11	617.20
450.48	609.78
450.85	602.37
451.22	595.91
451.59	589.76
451.96	583.94
452.33	576.10
452.70	568.98
453.07	560.51
453.43	551.90
453.80	543.53
454.17	535.65
454.54	528.08
454.91	519.92
455.28	511.90
455.65	504.52
456.02	497.01
456.38	490.69
456.75	482.79
457.12	476.27
457.49	469.76
457.86	463.52
458.23	458.16
458.59	452.21
458.96	446.16
459.33	440.86
459.70	435.50
460.07	431.21
460.43	426.29
460.80	421.71
461.17	417.73
461.54	413.58
461.91	409.54
462.27	405.45
462.64	402.02
463.01	398.23
463.38	394.46
463.74	390.78
464.11	387.56
464.48	384.72
464.85	381.61
465.21	379.15
465.58	376.55
465.95	373.38
466.32	370.78
466.68	368.24
467.05	365.68
467.42	363.15
467.78	360.47
468.15	357.95
468.52	356.08
468.88	353.57
469.25	351.31
469.62	349.49
469.98	347.52
470.35	345.72
470.72	344.01
471.08	342.27
471.45	340.74
471.82	339.23
472.18	337.57
472.55	336.37
472.92	334.95
473.28	333.69
473.65	332.58
474.02	331.48
474.38	330.55
474.75	329.76
475.11	328.93
475.48	328.35
475.85	327.88
476.21	327.38
476.58	327.06
476.94	326.84
477.31	326.54
477.67	326.26
478.04	326.08
478.41	326.09
478.77	326.23
479.14	326.15
479.50	326.28
479.87	326.55
480.23	326.85
480.60	327.09
480.96	327.36
481.33	327.94
481.69	328.51
482.06	329.04
482.42	329.54
482.79	330.14
483.15	330.89
483.52	331.85
483.88	332.72
484.25	333.61
484.61	334.63
484.98	335.68
485.34	337.01
485.71	338.37
486.07	339.80
486.44	341.12
486.80	342.76
487.17	344.41
487.53	346.24
487.90	348.12
488.26	350.17
488.62	352.31
488.99	354.35
489.35	356.51
489.72	358.89
490.08	361.38
490.44	363.94
490.81	366.71
491.17	369.42
491.54	372.44
491.90	375.51
492.26	378.75
492.63	382.13
492.99	385.61
493.36	389.32
493.72	393.21
494.08	397.26
494.45	401.48
494.81	405.91
495.17	410.35
495.54	415.04
495.90	419.86
496.26	424.83
496.63	430.10
496.99	435.53
497.35	441.13
497.72	447.00
498.08	452.99
498.44	459.06
498.80	465.49
499.17	471.97
499.53	478.67
499.89	485.60
500.26	492.62
500.62	499.75
500.98	507.18
501.34	514.66
501.71	522.44
502.07	530.23
502.43	538.24
502.79	546.45
503.16	554.89
503.52	563.58
503.88	572.33
504.24	581.30
504.60	590.40
504.97	599.61
505.33	608.90
505.69	618.78
506.05	628.70
506.41	638.61
506.78	648.68
507.14	659.02
507.50	669.47
507.86	680.22
508.22	691.02
508.59	701.70
508.95	712.80
509.31	724.08
509.67	735.64
510.03	747.03
510.39	758.83
510.75	770.74
511.12	782.77
511.48	794.93
511.84	807.25
512.20	819.69
512.56	832.51
512.92	845.49
513.28	858.26
513.64	871.08
514.00	884.05
514.37	897.19
514.73	910.43
515.09	923.57
515.45	936.67
515.81	949.86
516.17	963.40
516.53	976.76
516.89	989.99
517.25	1003.34
517.61	1017.06
517.97	1030.57
518.33	1043.87
518.69	1057.44
519.05	1071.36
519.41	1085.17
519.77	1099.20
520.13	1112.50
520.49	1125.70
520.85	1139.25
521.21	1152.78
521.57	1166.55
521.93	1179.74
522.29	1193.52
522.65	1207.27
523.01	1221.03
523.37	1234.38
523.73	1247.78
524.09	1261.13
524.45	1274.64
524.81	1288.22
525.17	1301.68
525.53	1315.04
525.89	1328.48
526.25	1341.76
526.61	1354.56
526.97	1367.85
527.33	1380.80
527.68	1394.48
528.04	1408.13
528.40	1421.24
528.76	1434.74
529.12	1447.67
529.48	1460.95
529.84	1473.38
530.20	1486.31
530.56	1498.89
530.91	1512.30
531.27	1525.32
531.63	1538.22
531.99	1551.21
532.35	1563.55
532.71	1576.12
533.07	1589.12
533.42	1601.41
533.78	1613.61
534.14	1625.85
534.50	1637.07
534.86	1648.76
535.21	1659.80
535.57	1671.40
535.93	1682.82
536.29	1693.86
536.65	1705.39
537.00	1716.58
537.36	1727.98
537.72	1739.02
538.08	1750.65
538.44	1761.64
538.79	1772.77
539.15	1783.76
539.51	1794.55
539.87	1805.95
540.22	1816.81
540.58	1827.77
540.94	1838.87
541.29	1849.30
541.65	1859.25
542.01	1869.90
542.37	1880.18
542.72	1890.36
543.08	1900.21
543.44	1910.86
543.79	1920.38
544.15	1930.14
544.51	1940.25
544.87	1950.52
545.22	1959.83
545.58	1968.64
545.94	1977.61
546.29	1986.20
546.65	1994.55
547.01	2002.99
547.36	2010.74
547.72	2018.70
548.07	2026.31
548.43	2034.09
548.79	2042.04
549.14	2050.31
549.50	2058.95
549.86	2066.87
550.21	2074.30
550.57	2082.11
550.92	2088.90
551.28	2096.39
551.64	2103.65
551.99	2111.25
552.35	2118.31
552.70	2125.31
553.06	2132.11
553.41	2138.45
553.77	2145.13
554.13	2151.56
554.48	2158.50
554.84	2165.70
555.19	2172.12
555.55	2178.68
555.90	2185.06
556.26	2192.00
556.61	2198.13
556.97	2202.85
557.32	2208.54
557.68	2215.09
558.03	2220.67
558.39	2226.12
558.74	2232.11
559.10	2237.65
559.45	2243.27
559.81	2248.88
560.16	2254.28
560.52	2260.05
560.87	2266.46
561.23	2272.26
561.58	2279.16
561.94	2284.29
562.29	2289.13
562.64	2295.29
563.00	2301.09
563.35	2306.59
563.71	2312.32
564.06	2317.92
564.42	2323.92
564.77	2329.15
565.12	2334.46
565.48	2339.75
565.83	2345.22
566.19	2350.58
566.54	2355.97
566.89	2360.66
567.25	2365.27
567.60	2371.10
567.96	2376.38
568.31	2380.96
568.66	2385.36
569.02	2389.15
569.37	2393.02
569.72	2397.41
570.08	2400.91
570.43	2403.97
570.78	2407.12
571.14	2409.61
571.49	2412.67
571.84	2416.18
572.20	2419.16
572.55	2422.06
572.90	2424.36
573.26	2427.20
573.61	2429.77
573.96	2431.95
574.31	2433.78
574.67	2435.62
575.02	2436.30
575.37	2437.67
575.72	2438.51
576.08	2439.86
576.43	2440.06
576.78	2440.53
577.13	2441.98
577.49	2443.16
577.84	2444.19
578.19	2445.52
578.54	2446.05
578.90	2446.76
579.25	2446.56
579.60	2446.24
579.95	2445.48
580.30	2445.57
580.66	2445.00
581.01	2443.44
581.36	2440.94
581.71	2439.60
582.06	2438.40
582.42	2437.51
582.77	2435.39
583.12	2433.55
583.47	2432.20
583.82	2431.66
584.17	2430.48
584.53	2428.35
584.88	2426.25
585.23	2424.29
585.58	2421.95
585.93	2419.92
586.28	2417.73
586.63	2415.33
586.98	2413.29
587.34	2411.27
587.69	2408.84
588.04	2406.65
588.39	2405.14
588.74	2402.68
589.09	2399.76
589.44	2396.48
589.79	2394.00
590.14	2391.93
590.49	2389.13
590.84	2385.15
591.19	2381.89
591.54	2378.45
591.89	2374.37
592.25	2370.94
592.60	2366.77
592.95	2362.61
593.30	2358.28
593.65	2353.85
594.00	2349.44
594.35	2346.30
594.70	2341.63
595.05	2336.99
595.40	2331.37
595.75	2325.47
596.10	2321.84
596.45	2316.89
596.80	2312.40
597.15	2307.18
597.50	2301.06
597.85	2296.10
598.19	2290.93
598.54	2284.94
598.89	2279.76
599.24	2275.06
599.59	2268.98
599.94	2263.00
600.29	2256.96
600.64	2251.00
600.99	2244.13
601.34	2238.51
601.69	2231.49
602.04	2224.98
602.39	2218.33
602.74	2212.11
603.08	2206.52
603.43	2200.06
603.78	2193.25
604.13	2186.03
604.48	2178.63
604.83	2172.69
605.18	2166.28
605.53	2159.32
605.87	2152.37
606.22	2145.45
606.57	2137.35
606.92	2129.18
607.27	2122.18
607.62	2115.46
607.96	2108.42
608.31	2101.91
608.66	2094.25
609.01	2086.56
609.36	2079.44
609.70	2071.67
610.05	2063.93
610.40	2055.60
610.75	2047.00
611.10	2039.26
611.44	2030.32
611.79	2021.66
612.14	2011.50
612.49	2000.81
612.83	1991.40
613.18	1981.96
613.53	1972.66
613.88	1963.17
614.22	1954.60
614.57	1944.68
614.92	1934.06
615.27	1923.77
615.61	1913.65
615.96	1903.79
616.31	1894.13
616.65	1884.62
617.00	1874.71
617.35	1865.01
617.70	1855.25
618.04	1845.33
618.39	1835.18
618.74	1825.42
619.08	1815.60
619.43	1806.85
619.78	1798.66
620.12	1789.95
620.47	1780.40
620.82	1770.04
621.16	1760.27
621.51	1750.25
621.85	1740.38
622.20	1730.03
622.55	1719.52
622.89	1709.53
623.24	1699.74
623.59	1690.01
623.93	1679.90
624.28	1670.13
624.62	1659.94
624.97	1649.58
625.32	1639.68
625.66	1630.80
626.01	1622.03
626.35	1612.68
626.70	1602.63
627.04	1592.37
627.39	1582.15
627.73	1572.77
628.08	1563.70
628.43	1554.05
628.77	1544.87
629.12	1536.00
629.46	1528.12
629.81	1519.64
630.15	1510.12
630.50	1500.25
630.84	1489.67
631.19	1479.62
631.53	1470.27
631.88	1460.16
632.22	1450.20
632.57	1440.91
632.91	1430.68
633.26	1420.83
633.60	1411.24
633.95	1401.95
634.29	1392.51
634.64	1383.26
634.98	1373.30
635.32	1364.03
635.67	1355.52
636.01	1346.09
636.36	1336.35
636.70	1326.78
637.05	1317.34
637.39	1308.36
637.73	1299.81
638.08	1292.23
638.42	1284.05
638.77	1275.24
639.11	1266.98
639.45	1259.11
639.80	1250.43
640.14	1241.61
640.49	1232.68
640.83	1223.75
641.17	1215.44
641.52	1207.31
641.86	1198.71
642.20	1190.83
642.55	1182.08
642.89	1173.16
643.23	1164.52
643.58	1156.28
643.92	1147.18
644.26	1138.47
644.61	1130.00
644.95	1121.08
645.29	1111.75
645.64	1102.53
645.98	1093.92
646.32	1085.90
646.66	1077.23
647.01	1068.81
647.35	1060.63
647.69	1052.21
648.04	1043.92
648.38	1035.07
648.72	1026.21
649.06	1017.63
649.41	1009.34
649.75	1001.41
650.09	993.44
650.43	985.34
650.78	976.91
651.12	969.13
651.46	961.66
651.80	954.30
652.14	946.92
652.49	939.35
652.83	932.04
653.17	924.31
653.51	916.61
653.85	909.37
654.20	902.07
654.54	894.49
654.88	887.17
655.22	879.98
655.56	872.91
655.90	866.06
656.25	859.27
656.59	852.29
656.93	845.17
657.27	838.07
657.61	831.03
657.95	824.89
658.29	818.96
658.64	812.83
658.98	806.25
659.32	799.72
659.66	793.39
660.00	786.92
660.34	780.81
660.68	774.63
661.02	768.16
661.36	762.18
661.70	756.41
662.05	750.77
662.39	745.10
662.73	739.66
663.07	734.24
663.41	728.62
663.75	722.83
664.09	717.13
664.43	711.62
664.77	706.23
665.11	700.44
665.45	694.40
665.79	688.44
666.13	682.73
666.47	677.11
666.81	671.67
667.15	666.21
667.49	660.98
667.83	655.64
668.17	650.43
668.51	645.22
668.85	640.18
669.19	635.16
669.53	630.19
669.87	624.96
670.21	620.11
670.55	615.36
670.89	610.86
671.23	606.56
671.57	602.07
671.91	597.74
672.25	593.48
672.58	589.38
672.92	585.25
673.26	581.34
673.60	577.42
673.94	573.53
674.28	569.94
674.62	566.13
674.96	562.33
675.30	558.77
675.64	555.09
675.97	551.47
676.31	547.81
676.65	544.06
676.99	540.62
677.33	536.77
677.67	533.05
678.01	529.21
678.34	525.42
678.68	521.90
679.02	518.31
679.36	514.53
679.70	510.75
680.04	507.20
680.37	503.72
680.71	500.34
681.05	497.10
681.39	493.76
681.73	490.60
682.06	487.53
682.40	484.38
682.74	481.09
683.08	477.87
683.42	474.68
683.75	471.68
684.09	468.59
684.43	465.65
684.77	462.70
685.10	459.78
685.44	456.78
685.78	453.80
686.12	450.99
686.45	448.21
686.79	445.56
687.13	442.96
687.46	440.25
687.80	437.55
688.14	434.64
688.48	432.00
688.81	429.21
689.15	426.61
689.49	423.91
689.82	421.34
690.16	418.72
690.50	416.23
690.83	413.71
691.17	411.13
691.51	408.69
691.84	406.40
692.18	404.15
692.52	401.97
692.85	399.80
693.19	397.56
693.52	395.40
693.86	393.06
694.20	390.83
694.53	388.66
694.87	386.38
695.21	384.22
695.54	382.00
695.88	379.85
696.21	377.64
696.55	375.54
696.88	373.48
697.22	371.45
697.56	369.49
697.89	367.58
698.23	365.80
698.56	363.95
698.90	362.16
699.23	360.29
699.57	358.39
699.90	356.46
700.24	354.64
700.58	352.85
700.91	351.22
701.25	349.66
701.58	348.03
701.92	346.48
702.25	344.87
702.59	343.20
702.92	341.58
703.26	340.00
703.59	338.49
703.93	337.21
704.26	335.78
704.60	334.27
704.93	332.77
705.26	331.22
705.60	329.72
705.93	328.16
706.27	326.74
706.60	325.44
706.94	324.21
707.27	322.82
707.61	321.50
707.94	320.14
708.27	318.66
708.61	317.20
708.94	315.80
709.28	314.48
709.61	313.23
709.94	312.02
710.28	310.79
710.61	309.61
710.95	308.11
711.28	306.98
711.61	305.76
711.95	304.61
712.28	303.43
712.61	302.24
712.95	301.17
713.28	300.11
713.61	298.91
713.95	297.73
714.28	296.66
714.61	295.58
714.95	294.54
715.28	293.47
715.61	292.41
715.95	291.42
716.28	290.49
716.61	289.54
716.95	288.55
717.28	287.60
717.61	286.61
717.94	285.75
718.28	284.70
718.61	283.88
718.94	282.92
719.27	282.08
719.61	281.25
719.94	280.34
720.27	279.40
720.60	278.55
720.94	277.74
721.27	277.00
721.60	276.27
721.93	275.55
722.27	274.88
722.60	274.23
722.93	273.53
723.26	272.83
723.59	272.10
723.93	271.45
724.26	270.83
724.59	270.15
724.92	269.51
725.25	268.98
725.59	268.35
725.92	267.80
726.25	267.18
726.58	266.60
726.91	265.99
727.24	265.42
727.57	264.87
727.91	264.24
728.24	263.67
728.57	263.08
728.90	262.46
729.23	261.84
729.56	261.36
729.89	260.76
730.22	260.19
730.55	259.63
730.89	259.04
731.22	258.47
731.55	257.97
731.88	257.47
732.21	256.92
732.54	256.34
732.87	255.84
733.20	255.37
733.53	254.86
733.86	254.45
734.19	253.96
734.52	253.54
734.85	253.28
735.18	252.77
735.51	252.41
735.84	252.03
736.17	251.64
736.50	251.12
736.83	250.97
737.16	250.54
737.49	250.16
737.82	249.77
738.15	249.36
738.48	248.96
738.81	248.53
739.14	248.09
739.47	247.71
739.80	247.33
740.13	246.92
740.46	246.54
740.79	246.10
741.12	245.73
741.45	245.35
741.78	244.88
742.11	244.60
742.44	244.22
742.77	243.87
743.10	243.51
743.43	243.17
743.75	242.61
744.08	242.57
744.41	242.21
744.74	241.86
745.07	241.49
745.40	241.19
745.73	240.93
746.06	240.63
746.39	240.32
746.71	239.98
747.04	239.63
747.37	239.29
747.70	239.03
748.03	238.71
748.36	238.39
748.68	238.09
749.01	237.77
749.34	237.46
749.67	237.16
750.00	236.89
750.33	236.74
750.65	236.51
750.98	235.97
751.31	235.72
751.64	235.51
751.97	235.45
752.29	235.17
752.62	234.81
752.95	234.57
753.28	234.30
753.60	234.05
753.93	233.93
754.26	233.72
754.59	233.46
754.91	233.21
755.24	232.96
755.57	232.75
755.90	232.49
756.22	232.26
756.55	232.00
756.88	231.72
757.20	231.38
757.53	231.09
757.86	230.85
758.19	230.65
758.51	230.42
758.84	230.07
759.17	229.85
759.49	229.70
759.82	229.60
760.15	229.45
760.47	229.26
760.80	228.95
761.13	228.77
761.45	228.55
761.78	228.37
762.11	228.20
762.43	227.95
762.76	227.74
763.08	227.57
763.41	227.44
763.74	227.33
764.06	227.17
764.39	227.01
764.71	226.88
765.04	226.70
765.37	226.54
765.69	226.39
766.02	226.26
766.34	226.09
766.67	225.85
767.00	225.78
767.32	225.74
767.65	225.79
767.97	225.64
768.30	225.54
768.62	225.42
768.95	225.23
769.27	225.17
769.60	225.07
769.92	224.91
770.25	224.73
770.57	224.57
770.90	224.43
771.22	224.29
771.55	224.16
771.87	224.05
772.20	223.94
772.52	223.96
772.85	224.11
773.17	224.03
773.50	223.94
773.82	223.78
774.15	223.61
774.47	223.37
774.80	223.27
775.12	223.15
775.45	223.06
775.77	223.01
776.09	222.93
776.42	222.86
776.74	222.83
777.07	222.75
777.39	222.68
777.72	222.57
778.04	222.56
778.36	222.47
778.69	222.42
779.01	222.32
779.33	222.10
779.66	221.77
779.98	221.66
780.31	221.58
780.63	221.56
780.95	221.51
781.28	221.46
781.60	221.35
781.92	221.30
782.25	221.21
782.57	221.18
782.89	221.07
783.22	221.04
783.54	220.95
783.86	220.90
784.19	220.80
784.51	220.82
784.83	220.68
785.16	220.64
785.48	220.58
785.80	220.53
786.12	220.51
