SpectraSuite Data File
++++++++++++++++++++++++++++++++++++
Date: Tue Jan 29 16:11:50 EST 2013
User: group
Dark Spectrum Present: No
Reference Spectrum Present: No
Number of Sampled Component Spectra: 1
Spectrometers: USB2E7196
Integration Time (usec): 65000 (USB2E7196)
Spectra Averaged: 100 (USB2E7196)
Boxcar Smoothing: 10 (USB2E7196)
Correct for Electrical Dark: No (USB2E7196)
Strobe/Lamp Enabled: No (USB2E7196)
Correct for Detector Non-linearity: No (USB2E7196)
Correct for Stray Light: No (USB2E7196)
Number of Pixels in Processed Spectrum: 2048
>>>>>Begin Processed Spectral Data<<<<<
339.09	0.00
339.48	202.68
339.86	203.65
340.24	205.63
340.63	206.81
341.01	211.20
341.39	209.57
341.78	210.23
342.16	212.51
342.54	212.52
342.93	201.61
343.31	211.78
343.69	212.30
344.07	212.77
344.46	213.18
344.84	213.55
345.22	213.72
345.60	213.98
345.99	214.21
346.37	214.34
346.75	214.45
347.13	214.52
347.52	214.60
347.90	214.72
348.28	214.75
348.66	214.85
349.05	214.79
349.43	214.86
349.81	214.92
350.19	214.97
350.57	215.02
350.96	215.11
351.34	215.21
351.72	215.31
352.10	215.41
352.48	215.48
352.87	215.55
353.25	215.59
353.63	215.64
354.01	215.69
354.39	215.76
354.77	215.83
355.15	215.97
355.54	215.99
355.92	215.97
356.30	216.05
356.68	216.24
357.06	216.37
357.44	216.40
357.82	216.47
358.20	216.55
358.58	216.61
358.97	216.71
359.35	216.86
359.73	216.94
360.11	217.00
360.49	217.07
360.87	217.12
361.25	217.21
361.63	217.33
362.01	217.37
362.39	217.42
362.77	217.48
363.15	217.53
363.53	217.59
363.91	217.63
364.29	217.66
364.67	217.51
365.05	217.51
365.43	217.57
365.81	217.61
366.19	217.73
366.57	217.86
366.95	217.86
367.33	217.80
367.71	217.81
368.09	217.89
368.47	217.89
368.85	217.91
369.23	217.96
369.61	217.91
369.99	217.99
370.37	218.00
370.75	218.09
371.13	218.02
371.51	217.98
371.89	218.00
372.27	217.99
372.65	217.97
373.03	217.94
373.41	217.90
373.78	217.84
374.16	217.71
374.54	217.59
374.92	217.53
375.30	217.51
375.68	217.45
376.06	217.42
376.44	217.37
376.82	217.35
377.19	217.31
377.57	217.25
377.95	217.13
378.33	217.06
378.71	216.86
379.09	216.83
379.47	216.81
379.84	216.74
380.22	216.69
380.60	216.62
380.98	216.57
381.36	216.53
381.73	216.47
382.11	216.46
382.49	216.43
382.87	216.39
383.25	216.37
383.62	216.59
384.00	216.47
384.38	216.47
384.76	216.46
385.13	216.49
385.51	216.48
385.89	216.41
386.27	216.42
386.64	216.46
387.02	216.42
387.40	216.39
387.78	216.40
388.15	216.39
388.53	216.39
388.91	216.36
389.29	216.35
389.66	216.33
390.04	216.27
390.42	216.31
390.79	216.27
391.17	216.24
391.55	215.97
391.92	215.99
392.30	215.96
392.68	215.93
393.05	215.90
393.43	215.85
393.81	215.89
394.18	215.83
394.56	215.84
394.94	215.91
395.31	215.89
395.69	215.95
396.06	215.96
396.44	215.99
396.82	216.01
397.19	216.11
397.57	216.11
397.95	216.19
398.32	216.16
398.70	216.22
399.07	216.26
399.45	216.31
399.82	216.35
400.20	216.37
400.58	216.41
400.95	216.39
401.33	216.51
401.70	216.73
402.08	216.85
402.45	216.89
402.83	217.00
403.20	217.12
403.58	217.17
403.95	217.35
404.33	217.48
404.71	217.61
405.08	217.88
405.46	218.07
405.83	218.26
406.21	218.46
406.58	218.70
406.96	218.94
407.33	219.18
407.70	219.45
408.08	219.90
408.45	220.22
408.83	220.58
409.20	220.90
409.58	221.12
409.95	221.56
410.33	222.05
410.70	222.48
411.08	223.00
411.45	223.53
411.82	224.06
412.20	224.70
412.57	225.51
412.95	226.04
413.32	226.81
413.69	227.58
414.07	228.46
414.44	229.38
414.82	230.37
415.19	231.48
415.56	232.63
415.94	233.79
416.31	235.16
416.68	236.52
417.06	238.07
417.43	239.57
417.81	241.21
418.18	242.92
418.55	244.76
418.93	246.71
419.30	248.76
419.67	250.92
420.04	253.12
420.42	255.41
420.79	258.10
421.16	260.83
421.54	263.61
421.91	266.45
422.28	269.44
422.66	272.61
423.03	275.78
423.40	279.06
423.77	282.50
424.15	286.03
424.52	289.71
424.89	293.71
425.26	297.69
425.64	301.45
426.01	305.60
426.38	309.93
426.75	314.32
427.13	318.90
427.50	323.69
427.87	328.73
428.24	333.71
428.61	338.59
428.99	343.93
429.36	349.80
429.73	355.52
430.10	361.20
430.47	367.09
430.85	373.19
431.22	379.65
431.59	386.52
431.96	393.14
432.33	400.41
432.70	407.45
433.08	415.68
433.45	423.42
433.82	431.15
434.19	439.75
434.56	448.17
434.93	456.25
435.30	464.26
435.68	473.09
436.05	481.80
436.42	490.41
436.79	498.18
437.16	506.60
437.53	515.54
437.90	524.38
438.27	533.00
438.64	541.85
439.01	550.08
439.38	557.38
439.75	564.51
440.13	572.68
440.50	580.33
440.87	586.54
441.24	592.99
441.61	600.05
441.98	605.22
442.35	611.29
442.72	617.39
443.09	623.18
443.46	626.76
443.83	629.17
444.20	631.22
444.57	634.34
444.94	635.70
445.31	637.08
445.68	638.48
446.05	639.02
446.42	638.35
446.79	637.47
447.16	636.39
447.53	635.60
447.90	632.32
448.27	629.16
448.64	624.67
449.01	621.45
449.37	615.79
449.74	610.34
450.11	603.70
450.48	596.52
450.85	589.35
451.22	583.08
451.59	577.19
451.96	571.59
452.33	563.99
452.70	557.14
453.07	548.94
453.43	540.58
453.80	532.65
454.17	524.91
454.54	517.56
454.91	509.72
455.28	502.03
455.65	494.92
456.02	487.72
456.38	481.63
456.75	474.03
457.12	467.72
457.49	461.45
457.86	455.49
458.23	450.33
458.59	444.64
458.96	438.89
459.33	433.74
459.70	428.54
460.07	424.46
460.43	419.81
460.80	415.45
461.17	411.62
461.54	407.64
461.91	403.75
462.27	399.81
462.64	396.50
463.01	392.78
463.38	389.21
463.74	385.61
464.11	382.46
464.48	379.79
464.85	376.78
465.21	374.40
465.58	371.88
465.95	368.84
466.32	366.30
466.68	363.80
467.05	361.40
467.42	358.95
467.78	356.33
468.15	353.86
468.52	351.98
468.88	349.55
469.25	347.36
469.62	345.65
469.98	343.79
470.35	342.08
470.72	340.48
471.08	338.78
471.45	337.39
471.82	335.92
472.18	334.32
472.55	333.19
472.92	331.88
473.28	330.71
473.65	329.59
474.02	328.56
474.38	327.69
474.75	326.94
475.11	326.18
475.48	325.68
475.85	325.22
476.21	324.80
476.58	324.51
476.94	324.31
477.31	323.99
477.67	323.76
478.04	323.64
478.41	323.66
478.77	323.81
479.14	323.74
479.50	323.89
479.87	324.21
480.23	324.60
480.60	324.87
480.96	325.17
481.33	325.79
481.69	326.36
482.06	326.90
482.42	327.37
482.79	327.97
483.15	328.76
483.52	329.74
483.88	330.67
484.25	331.62
484.61	332.65
484.98	333.75
485.34	335.07
485.71	336.41
486.07	337.86
486.44	339.19
486.80	340.84
487.17	342.53
487.53	344.35
487.90	346.14
488.26	348.20
488.62	350.33
488.99	352.37
489.35	354.52
489.72	356.90
490.08	359.43
490.44	362.01
490.81	364.71
491.17	367.36
491.54	370.33
491.90	373.35
492.26	376.61
492.63	379.98
492.99	383.49
493.36	387.12
493.72	390.99
494.08	395.00
494.45	399.14
494.81	403.53
495.17	407.95
495.54	412.65
495.90	417.41
496.26	422.33
496.63	427.51
496.99	432.89
497.35	438.44
497.72	444.21
498.08	450.12
498.44	456.20
498.80	462.58
499.17	469.06
499.53	475.81
499.89	482.67
500.26	489.56
500.62	496.56
500.98	503.99
501.34	511.36
501.71	519.04
502.07	526.81
502.43	534.72
502.79	542.83
503.16	551.13
503.52	559.63
503.88	568.30
504.24	577.22
504.60	586.21
504.97	595.48
505.33	604.74
505.69	614.50
506.05	624.38
506.41	634.15
506.78	644.07
507.14	654.16
507.50	664.50
507.86	675.19
508.22	685.93
508.59	696.50
508.95	707.53
509.31	718.73
509.67	730.10
510.03	741.46
510.39	753.07
510.75	764.89
511.12	776.75
511.48	788.78
511.84	800.96
512.20	813.21
512.56	825.64
512.92	838.28
513.28	850.75
513.64	863.33
514.00	876.16
514.37	889.05
514.73	901.97
515.09	914.80
515.45	927.47
515.81	940.38
516.17	953.59
516.53	966.53
516.89	979.52
517.25	992.59
517.61	1005.90
517.97	1019.07
518.33	1031.99
518.69	1045.43
519.05	1058.99
519.41	1072.46
519.77	1086.15
520.13	1099.29
520.49	1112.26
520.85	1125.58
521.21	1138.57
521.57	1151.91
521.93	1164.76
522.29	1178.33
522.65	1191.72
523.01	1205.14
523.37	1218.08
523.73	1231.16
524.09	1244.15
524.45	1257.27
524.81	1270.47
525.17	1283.57
525.53	1296.49
525.89	1309.62
526.25	1322.34
526.61	1334.76
526.97	1347.49
527.33	1360.02
527.68	1373.11
528.04	1386.39
528.40	1399.21
528.76	1412.26
529.12	1424.82
529.48	1437.69
529.84	1449.65
530.20	1462.23
530.56	1474.58
530.91	1487.45
531.27	1500.04
531.63	1512.60
531.99	1525.20
532.35	1537.13
532.71	1549.38
533.07	1561.89
533.42	1573.81
533.78	1585.59
534.14	1597.53
534.50	1608.42
534.86	1619.88
535.21	1630.56
535.57	1641.56
535.93	1652.41
536.29	1663.30
536.65	1674.45
537.00	1685.23
537.36	1696.31
537.72	1706.81
538.08	1717.75
538.44	1728.57
538.79	1739.20
539.15	1749.66
539.51	1759.97
539.87	1770.91
540.22	1781.26
540.58	1791.91
540.94	1802.47
541.29	1812.42
541.65	1821.74
542.01	1831.93
542.37	1841.61
542.72	1851.43
543.08	1860.97
543.44	1871.21
543.79	1880.21
544.15	1889.44
544.51	1899.07
544.87	1908.64
545.22	1917.64
545.58	1926.30
545.94	1934.76
546.29	1943.03
546.65	1951.14
547.01	1959.14
547.36	1966.82
547.72	1974.37
548.07	1981.84
548.43	1989.41
548.79	1997.05
549.14	2005.04
549.50	2013.43
549.86	2020.99
550.21	2028.05
550.57	2035.53
550.92	2041.99
551.28	2049.21
551.64	2056.21
551.99	2063.53
552.35	2070.46
552.70	2077.12
553.06	2083.65
553.41	2089.72
553.77	2096.05
554.13	2102.25
554.48	2109.14
554.84	2115.86
555.19	2122.19
555.55	2128.47
555.90	2134.47
556.26	2141.12
556.61	2146.95
556.97	2151.61
557.32	2157.44
557.68	2163.76
558.03	2169.44
558.39	2174.63
558.74	2180.71
559.10	2186.12
559.45	2191.70
559.81	2197.23
560.16	2202.70
560.52	2208.50
560.87	2214.91
561.23	2220.87
561.58	2227.53
561.94	2232.67
562.29	2237.42
562.64	2243.51
563.00	2248.96
563.35	2254.55
563.71	2260.28
564.06	2266.02
564.42	2271.93
564.77	2277.06
565.12	2282.34
565.48	2287.52
565.83	2293.22
566.19	2298.58
566.54	2304.17
566.89	2308.74
567.25	2313.16
567.60	2318.92
567.96	2324.15
568.31	2328.87
568.66	2333.09
569.02	2336.94
569.37	2340.60
569.72	2345.03
570.08	2348.59
570.43	2351.74
570.78	2354.86
571.14	2357.59
571.49	2360.68
571.84	2364.27
572.20	2367.18
572.55	2370.25
572.90	2372.50
573.26	2375.53
573.61	2378.06
573.96	2380.30
574.31	2382.28
574.67	2384.37
575.02	2385.33
575.37	2386.75
575.72	2387.46
576.08	2389.23
576.43	2389.63
576.78	2390.45
577.13	2392.19
577.49	2393.39
577.84	2394.87
578.19	2396.50
578.54	2397.36
578.90	2398.46
579.25	2398.48
579.60	2398.54
579.95	2398.08
580.30	2398.52
580.66	2397.72
581.01	2396.20
581.36	2393.99
581.71	2392.91
582.06	2392.15
582.42	2391.48
582.77	2389.64
583.12	2388.41
583.47	2387.27
583.82	2386.94
584.17	2386.02
584.53	2384.00
584.88	2382.18
585.23	2380.29
585.58	2378.17
585.93	2375.97
586.28	2373.98
586.63	2371.78
586.98	2369.75
587.34	2367.89
587.69	2365.69
588.04	2363.94
588.39	2362.74
588.74	2360.53
589.09	2358.11
589.44	2355.20
589.79	2352.89
590.14	2351.21
590.49	2348.43
590.84	2344.66
591.19	2341.72
591.54	2338.49
591.89	2334.68
592.25	2331.58
592.60	2327.72
592.95	2323.64
593.30	2319.69
593.65	2315.32
594.00	2311.08
594.35	2308.26
594.70	2303.73
595.05	2299.29
595.40	2293.95
595.75	2288.53
596.10	2284.85
596.45	2280.01
596.80	2275.36
597.15	2270.36
597.50	2264.43
597.85	2259.52
598.19	2254.44
598.54	2248.70
598.89	2243.77
599.24	2239.28
599.59	2233.27
599.94	2227.57
600.29	2221.79
600.64	2216.07
600.99	2209.65
601.34	2204.29
601.69	2197.39
602.04	2191.17
602.39	2184.70
602.74	2178.81
603.08	2173.26
603.43	2166.95
603.78	2160.25
604.13	2153.32
604.48	2146.09
604.83	2140.10
605.18	2133.94
605.53	2127.05
605.87	2120.05
606.22	2113.12
606.57	2105.39
606.92	2097.54
607.27	2090.69
607.62	2084.24
607.96	2077.30
608.31	2070.70
608.66	2063.04
609.01	2055.47
609.36	2048.38
609.70	2040.76
610.05	2033.04
610.40	2024.75
610.75	2016.60
611.10	2009.15
611.44	2000.30
611.79	1991.60
612.14	1981.70
612.49	1971.16
612.83	1962.04
613.18	1952.96
613.53	1943.74
613.88	1934.04
614.22	1925.45
614.57	1915.51
614.92	1904.96
615.27	1894.84
615.61	1884.93
615.96	1875.38
616.31	1865.91
616.65	1856.67
617.00	1846.77
617.35	1837.26
617.70	1827.66
618.04	1817.40
618.39	1807.00
618.74	1797.40
619.08	1787.85
619.43	1779.13
619.78	1770.99
620.12	1762.26
620.47	1752.38
620.82	1742.11
621.16	1732.46
621.51	1722.57
621.85	1712.73
622.20	1702.29
622.55	1691.81
622.89	1681.98
623.24	1672.15
623.59	1662.51
623.93	1652.39
624.28	1642.78
624.62	1632.60
624.97	1622.22
625.32	1612.75
625.66	1603.96
626.01	1595.27
626.35	1585.87
626.70	1575.83
627.04	1565.67
627.39	1555.67
627.73	1546.51
628.08	1537.60
628.43	1528.18
628.77	1519.07
629.12	1510.21
629.46	1502.40
629.81	1493.96
630.15	1484.32
630.50	1474.51
630.84	1463.93
631.19	1453.97
631.53	1444.54
631.88	1434.31
632.22	1424.38
632.57	1415.00
632.91	1404.85
633.26	1395.09
633.60	1385.58
633.95	1376.21
634.29	1366.87
634.64	1357.50
634.98	1347.65
635.32	1338.33
635.67	1329.63
636.01	1320.37
636.36	1310.62
636.70	1301.08
637.05	1291.76
637.39	1282.91
637.73	1274.41
638.08	1266.83
638.42	1258.65
638.77	1249.96
639.11	1241.77
639.45	1233.98
639.80	1225.32
640.14	1216.66
640.49	1207.69
640.83	1198.83
641.17	1190.85
641.52	1182.66
641.86	1174.16
642.20	1166.30
642.55	1157.72
642.89	1148.98
643.23	1140.25
643.58	1132.22
643.92	1123.19
644.26	1114.62
644.61	1106.10
644.95	1097.33
645.29	1088.14
645.64	1078.99
645.98	1070.61
646.32	1062.74
646.66	1054.29
647.01	1045.90
647.35	1037.86
647.69	1029.51
648.04	1021.21
648.38	1012.33
648.72	1003.52
649.06	995.06
649.41	987.01
649.75	979.12
650.09	971.28
650.43	963.30
650.78	955.14
651.12	947.52
651.46	940.09
651.80	932.95
652.14	925.65
652.49	918.23
652.83	910.99
653.17	903.23
653.51	895.64
653.85	888.40
654.20	881.25
654.54	873.70
654.88	866.65
655.22	859.56
655.56	852.64
655.90	845.96
656.25	839.40
656.59	832.49
656.93	825.48
657.27	818.42
657.61	811.59
657.95	805.45
658.29	799.68
658.64	793.66
658.98	787.28
659.32	780.74
659.66	774.51
660.00	768.22
660.34	762.29
660.68	756.26
661.02	750.06
661.36	744.24
661.70	738.57
662.05	732.95
662.39	727.51
662.73	722.17
663.07	716.88
663.41	711.40
663.75	705.75
664.09	700.17
664.43	694.89
664.77	689.59
665.11	683.88
665.45	678.03
665.79	672.26
666.13	666.61
666.47	661.29
666.81	655.92
667.15	650.57
667.49	645.44
667.83	640.31
668.17	635.19
668.51	630.14
668.85	625.33
669.19	620.50
669.53	615.58
669.87	610.56
670.21	605.90
670.55	601.13
670.89	596.78
671.23	592.64
671.57	588.31
671.91	584.07
672.25	580.00
672.58	575.98
672.92	572.02
673.26	568.13
673.60	564.24
673.94	560.51
674.28	557.01
674.62	553.34
674.96	549.66
675.30	546.15
675.64	542.58
675.97	539.06
676.31	535.50
676.65	531.94
676.99	528.55
677.33	524.73
677.67	521.13
678.01	517.34
678.34	513.69
678.68	510.19
679.02	506.63
679.36	502.96
679.70	499.32
680.04	495.83
680.37	492.51
680.71	489.28
681.05	486.11
681.39	482.96
681.73	479.80
682.06	476.81
682.40	473.73
682.74	470.56
683.08	467.41
683.42	464.32
683.75	461.41
684.09	458.45
684.43	455.77
684.77	452.92
685.10	450.17
685.44	447.29
685.78	444.44
686.12	441.77
686.45	439.13
686.79	436.47
687.13	433.96
687.46	431.38
687.80	428.74
688.14	425.98
688.48	423.39
688.81	420.81
689.15	418.30
689.49	415.76
689.82	413.28
690.16	410.75
690.50	408.33
690.83	405.87
691.17	403.40
691.51	400.87
691.84	398.72
692.18	396.51
692.52	394.39
692.85	392.29
693.19	390.19
693.52	388.06
693.86	385.90
694.20	383.76
694.53	381.67
694.87	379.57
695.21	377.51
695.54	375.36
695.88	373.25
696.21	371.10
696.55	369.01
696.88	367.01
697.22	365.06
697.56	363.15
697.89	361.33
698.23	359.61
698.56	357.87
698.90	356.07
699.23	354.23
699.57	352.39
699.90	350.55
700.24	348.80
700.58	347.09
700.91	345.47
701.25	343.91
701.58	342.32
701.92	340.75
702.25	339.24
702.59	337.67
702.92	336.14
703.26	334.61
703.59	333.18
703.93	331.93
704.26	330.52
704.60	329.08
704.93	327.61
705.26	326.13
705.60	324.77
705.93	323.31
706.27	321.99
706.60	320.76
706.94	319.55
707.27	318.18
707.61	316.90
707.94	315.66
708.27	314.20
708.61	312.81
708.94	311.49
709.28	310.23
709.61	309.03
709.94	307.89
710.28	306.69
710.61	305.52
710.95	304.10
711.28	303.05
711.61	301.94
711.95	300.85
712.28	299.69
712.61	298.48
712.95	297.47
713.28	296.49
713.61	295.34
713.95	294.19
714.28	293.18
714.61	292.11
714.95	291.07
715.28	290.10
715.61	289.11
715.95	288.15
716.28	287.18
716.61	286.25
716.95	285.28
717.28	284.38
717.61	283.48
717.94	282.67
718.28	281.71
718.61	280.83
718.94	279.96
719.27	279.13
719.61	278.34
719.94	277.50
720.27	276.52
720.60	275.71
720.94	274.94
721.27	274.22
721.60	273.61
721.93	272.91
722.27	272.29
722.60	271.65
722.93	270.99
723.26	270.35
723.59	269.69
723.93	269.05
724.26	268.43
724.59	267.84
724.92	267.26
725.25	266.71
725.59	266.17
725.92	265.64
726.25	265.10
726.58	264.55
726.91	263.97
727.24	263.49
727.57	262.94
727.91	262.37
728.24	261.86
728.57	261.25
728.90	260.72
729.23	260.11
729.56	259.71
729.89	259.15
730.22	258.56
730.55	258.03
730.89	257.52
731.22	257.02
731.55	256.51
731.88	255.99
732.21	255.46
732.54	254.93
732.87	254.45
733.20	253.99
733.53	253.51
733.86	253.08
734.19	252.57
734.52	252.19
734.85	251.91
735.18	251.43
735.51	251.10
735.84	250.68
736.17	250.30
736.50	249.75
736.83	249.62
737.16	249.27
737.49	248.88
737.82	248.53
738.15	248.18
738.48	247.79
738.81	247.41
739.14	247.00
739.47	246.64
739.80	246.25
740.13	245.94
740.46	245.56
740.79	245.18
741.12	244.85
741.45	244.46
741.78	244.02
742.11	243.76
742.44	243.34
742.77	243.09
743.10	242.74
743.43	242.40
743.75	241.85
744.08	241.77
744.41	241.44
744.74	241.06
745.07	240.66
745.40	240.42
745.73	240.18
746.06	239.91
746.39	239.57
746.71	239.23
747.04	238.87
747.37	238.57
747.70	238.32
748.03	238.02
748.36	237.76
748.68	237.49
749.01	237.14
749.34	236.88
749.67	236.54
750.00	236.30
750.33	236.22
750.65	235.99
750.98	235.53
751.31	235.30
751.64	235.10
751.97	235.00
752.29	234.70
752.62	234.34
752.95	234.05
753.28	233.82
753.60	233.62
753.93	233.43
754.26	233.23
754.59	232.96
754.91	232.73
755.24	232.52
755.57	232.27
755.90	232.06
756.22	231.83
756.55	231.62
756.88	231.38
757.20	231.01
757.53	230.74
757.86	230.53
758.19	230.33
758.51	230.08
758.84	229.77
759.17	229.58
759.49	229.42
759.82	229.36
760.15	229.23
760.47	229.06
760.80	228.83
761.13	228.65
761.45	228.45
761.78	228.27
762.11	228.07
762.43	227.88
762.76	227.72
763.08	227.55
763.41	227.39
763.74	227.25
764.06	227.12
764.39	226.95
764.71	226.80
765.04	226.63
765.37	226.51
765.69	226.36
766.02	226.22
766.34	226.07
766.67	225.85
767.00	225.71
767.32	225.69
767.65	225.70
767.97	225.57
768.30	225.47
768.62	225.38
768.95	225.25
769.27	225.14
769.60	225.05
769.92	224.91
770.25	224.76
770.57	224.60
770.90	224.49
771.22	224.40
771.55	224.28
771.87	224.17
772.20	224.02
772.52	224.11
772.85	224.25
773.17	224.14
773.50	224.02
773.82	223.94
774.15	223.71
774.47	223.45
774.80	223.34
775.12	223.24
775.45	223.12
775.77	223.05
776.09	222.98
776.42	222.84
776.74	222.83
777.07	222.75
777.39	222.72
777.72	222.59
778.04	222.51
778.36	222.40
778.69	222.30
779.01	222.27
779.33	222.01
779.66	221.72
779.98	221.65
780.31	221.61
780.63	221.58
780.95	221.56
781.28	221.53
781.60	221.47
781.92	221.38
782.25	221.34
782.57	221.29
782.89	221.22
783.22	221.17
783.54	221.08
783.86	221.07
784.19	220.99
784.51	220.99
784.83	220.95
785.16	220.90
785.48	220.89
785.80	220.80
786.12	220.75
