SpectraSuite Data File
++++++++++++++++++++++++++++++++++++
Date: Tue Jan 29 16:43:44 EST 2013
User: group
Dark Spectrum Present: No
Reference Spectrum Present: No
Number of Sampled Component Spectra: 1
Spectrometers: USB2E7196
Integration Time (usec): 65000 (USB2E7196)
Spectra Averaged: 100 (USB2E7196)
Boxcar Smoothing: 10 (USB2E7196)
Correct for Electrical Dark: No (USB2E7196)
Strobe/Lamp Enabled: No (USB2E7196)
Correct for Detector Non-linearity: No (USB2E7196)
Correct for Stray Light: No (USB2E7196)
Number of Pixels in Processed Spectrum: 2048
>>>>>Begin Processed Spectral Data<<<<<
339.09	0.00
339.48	200.79
339.86	202.91
340.24	203.98
340.63	205.39
341.01	210.62
341.39	208.42
341.78	209.72
342.16	211.08
342.54	211.57
342.93	200.70
343.31	210.85
343.69	211.42
344.07	211.92
344.46	212.40
344.84	212.80
345.22	212.94
345.60	213.23
345.99	213.45
346.37	213.62
346.75	213.73
347.13	213.83
347.52	213.91
347.90	214.01
348.28	214.04
348.66	214.14
349.05	214.11
349.43	214.20
349.81	214.31
350.19	214.39
350.57	214.48
350.96	214.60
351.34	214.72
351.72	214.83
352.10	214.93
352.48	215.02
352.87	215.10
353.25	215.20
353.63	215.25
354.01	215.32
354.39	215.41
354.77	215.53
355.15	215.66
355.54	215.72
355.92	215.73
356.30	215.81
356.68	215.99
357.06	216.12
357.44	216.12
357.82	216.15
358.20	216.25
358.58	216.30
358.97	216.37
359.35	216.47
359.73	216.58
360.11	216.63
360.49	216.68
360.87	216.73
361.25	216.80
361.63	216.92
362.01	216.97
362.39	216.97
362.77	217.02
363.15	217.01
363.53	217.04
363.91	217.09
364.29	217.09
364.67	216.92
365.05	216.88
365.43	216.95
365.81	216.98
366.19	217.07
366.57	217.15
366.95	217.14
367.33	217.07
367.71	217.08
368.09	217.12
368.47	217.13
368.85	217.14
369.23	217.19
369.61	217.10
369.99	217.15
370.37	217.18
370.75	217.26
371.13	217.21
371.51	217.18
371.89	217.15
372.27	217.17
372.65	217.14
373.03	217.15
373.41	217.10
373.78	217.05
374.16	216.89
374.54	216.81
374.92	216.75
375.30	216.71
375.68	216.59
376.06	216.53
376.44	216.48
376.82	216.42
377.19	216.33
377.57	216.29
377.95	216.17
378.33	216.09
378.71	215.91
379.09	215.91
379.47	215.87
379.84	215.84
380.22	215.78
380.60	215.69
380.98	215.61
381.36	215.55
381.73	215.46
382.11	215.48
382.49	215.41
382.87	215.34
383.25	215.32
383.62	215.54
384.00	215.45
384.38	215.41
384.76	215.42
385.13	215.48
385.51	215.43
385.89	215.39
386.27	215.38
386.64	215.38
387.02	215.34
387.40	215.29
387.78	215.29
388.15	215.27
388.53	215.28
388.91	215.28
389.29	215.26
389.66	215.30
390.04	215.26
390.42	215.29
390.79	215.29
391.17	215.24
391.55	214.96
391.92	214.96
392.30	214.97
392.68	214.92
393.05	214.87
393.43	214.88
393.81	214.90
394.18	214.86
394.56	214.87
394.94	214.90
395.31	214.89
395.69	214.93
396.06	214.97
396.44	214.99
396.82	214.97
397.19	215.07
397.57	215.05
397.95	215.10
398.32	215.06
398.70	215.11
399.07	215.23
399.45	215.28
399.82	215.33
400.20	215.34
400.58	215.40
400.95	215.39
401.33	215.52
401.70	215.74
402.08	215.86
402.45	215.96
402.83	216.09
403.20	216.23
403.58	216.31
403.95	216.46
404.33	216.60
404.71	216.77
405.08	217.04
405.46	217.26
405.83	217.46
406.21	217.68
406.58	217.94
406.96	218.17
407.33	218.45
407.70	218.80
408.08	219.27
408.45	219.63
408.83	220.03
409.20	220.37
409.58	220.62
409.95	221.09
410.33	221.53
410.70	221.96
411.08	222.50
411.45	223.10
411.82	223.66
412.20	224.34
412.57	225.20
412.95	225.75
413.32	226.54
413.69	227.36
414.07	228.30
414.44	229.26
414.82	230.26
415.19	231.47
415.56	232.65
415.94	233.83
416.31	235.26
416.68	236.67
417.06	238.28
417.43	239.83
417.81	241.56
418.18	243.35
418.55	245.26
418.93	247.29
419.30	249.39
419.67	251.66
420.04	253.97
420.42	256.34
420.79	259.23
421.16	262.06
421.54	264.99
421.91	267.97
422.28	271.07
422.66	274.39
423.03	277.67
423.40	281.05
423.77	284.67
424.15	288.31
424.52	292.18
424.89	296.35
425.26	300.45
425.64	304.36
426.01	308.71
426.38	313.20
426.75	317.76
427.13	322.48
427.50	327.45
427.87	332.60
428.24	337.84
428.61	342.83
428.99	348.34
429.36	354.36
429.73	360.28
430.10	366.14
430.47	372.29
430.85	378.62
431.22	385.33
431.59	392.42
431.96	399.26
432.33	406.78
432.70	414.11
433.08	422.68
433.45	430.76
433.82	438.83
434.19	447.80
434.56	456.54
434.93	464.91
435.30	473.22
435.68	482.37
436.05	491.36
436.42	500.32
436.79	508.54
437.16	517.33
437.53	526.64
437.90	535.81
438.27	544.76
438.64	553.99
439.01	562.63
439.38	570.26
439.75	577.70
440.13	586.10
440.50	593.99
440.87	600.40
441.24	607.03
441.61	614.39
441.98	619.81
442.35	626.23
442.72	632.60
443.09	638.72
443.46	642.56
443.83	645.17
444.20	647.29
444.57	650.48
444.94	651.97
445.31	653.43
445.68	654.87
446.05	655.53
446.42	654.73
446.79	653.68
447.16	652.63
447.53	651.82
447.90	648.52
448.27	645.36
448.64	640.78
449.01	637.55
449.37	631.63
449.74	625.93
450.11	618.93
450.48	611.51
450.85	604.03
451.22	597.52
451.59	591.36
451.96	585.57
452.33	577.64
452.70	570.55
453.07	562.06
453.43	553.44
453.80	545.11
454.17	537.11
454.54	529.58
454.91	521.36
455.28	513.29
455.65	505.85
456.02	498.24
456.38	491.87
456.75	483.89
457.12	477.27
457.49	470.69
457.86	464.43
458.23	459.04
458.59	453.08
458.96	447.01
459.33	441.67
459.70	436.24
460.07	431.95
460.43	426.99
460.80	422.38
461.17	418.34
461.54	414.15
461.91	410.10
462.27	405.94
462.64	402.51
463.01	398.80
463.38	395.10
463.74	391.41
464.11	388.13
464.48	385.28
464.85	382.15
465.21	379.70
465.58	377.06
465.95	373.89
466.32	371.23
466.68	368.62
467.05	365.97
467.42	363.42
467.78	360.71
468.15	358.20
468.52	356.25
468.88	353.75
469.25	351.49
469.62	349.68
469.98	347.72
470.35	345.85
470.72	344.10
471.08	342.29
471.45	340.72
471.82	339.17
472.18	337.50
472.55	336.31
472.92	334.96
473.28	333.80
473.65	332.63
474.02	331.48
474.38	330.58
474.75	329.81
475.11	328.99
475.48	328.40
475.85	327.83
476.21	327.33
476.58	327.00
476.94	326.76
477.31	326.40
477.67	326.12
478.04	326.00
478.41	325.97
478.77	326.12
479.14	326.06
479.50	326.23
479.87	326.54
480.23	326.85
480.60	327.07
480.96	327.32
481.33	327.92
481.69	328.49
482.06	329.04
482.42	329.52
482.79	330.10
483.15	330.83
483.52	331.82
483.88	332.70
484.25	333.57
484.61	334.55
484.98	335.67
485.34	337.01
485.71	338.34
486.07	339.78
486.44	341.11
486.80	342.74
487.17	344.40
487.53	346.20
487.90	348.06
488.26	350.11
488.62	352.22
488.99	354.28
489.35	356.48
489.72	358.83
490.08	361.35
490.44	363.96
490.81	366.77
491.17	369.46
491.54	372.39
491.90	375.50
492.26	378.76
492.63	382.17
492.99	385.64
493.36	389.37
493.72	393.22
494.08	397.22
494.45	401.46
494.81	405.77
495.17	410.21
495.54	414.90
495.90	419.75
496.26	424.67
496.63	429.90
496.99	435.28
497.35	440.88
497.72	446.66
498.08	452.60
498.44	458.65
498.80	465.11
499.17	471.64
499.53	478.30
499.89	485.29
500.26	492.23
500.62	499.32
500.98	506.70
501.34	514.20
501.71	521.96
502.07	529.81
502.43	537.81
502.79	545.95
503.16	554.38
503.52	562.91
503.88	571.72
504.24	580.60
504.60	589.70
504.97	598.89
505.33	608.18
505.69	618.05
506.05	627.94
506.41	637.85
506.78	647.99
507.14	658.28
507.50	668.70
507.86	679.38
508.22	690.12
508.59	700.77
508.95	711.88
509.31	723.15
509.67	734.50
510.03	745.93
510.39	757.68
510.75	769.47
511.12	781.36
511.48	793.42
511.84	805.75
512.20	818.05
512.56	830.71
512.92	843.52
513.28	856.20
513.64	868.90
514.00	881.70
514.37	894.65
514.73	907.72
515.09	920.71
515.45	933.71
515.81	946.86
516.17	960.20
516.53	973.41
516.89	986.54
517.25	999.72
517.61	1013.25
517.97	1026.68
518.33	1039.91
518.69	1053.40
519.05	1067.09
519.41	1080.89
519.77	1094.89
520.13	1108.33
520.49	1121.63
520.85	1135.04
521.21	1148.42
521.57	1162.13
521.93	1175.19
522.29	1188.94
522.65	1202.65
523.01	1216.29
523.37	1229.50
523.73	1242.99
524.09	1256.26
524.45	1269.76
524.81	1283.38
525.17	1296.86
525.53	1310.08
525.89	1323.51
526.25	1336.87
526.61	1349.86
526.97	1363.05
527.33	1375.98
527.68	1389.46
528.04	1402.95
528.40	1416.22
528.76	1429.82
529.12	1442.84
529.48	1456.25
529.84	1468.75
530.20	1481.43
530.56	1494.18
530.91	1507.49
531.27	1520.48
531.63	1533.29
531.99	1546.13
532.35	1558.47
532.71	1570.96
533.07	1584.00
533.42	1596.33
533.78	1608.55
534.14	1620.73
534.50	1631.97
534.86	1643.72
535.21	1654.66
535.57	1666.20
535.93	1677.49
536.29	1688.54
536.65	1700.08
537.00	1711.19
537.36	1722.65
537.72	1733.77
538.08	1745.19
538.44	1756.31
538.79	1767.41
539.15	1778.39
539.51	1789.22
539.87	1800.77
540.22	1811.67
540.58	1822.77
540.94	1833.74
541.29	1844.16
541.65	1853.93
542.01	1864.48
542.37	1874.66
542.72	1884.97
543.08	1894.97
543.44	1905.68
543.79	1915.21
544.15	1924.78
544.51	1934.80
544.87	1944.83
545.22	1954.27
545.58	1963.28
545.94	1972.26
546.29	1981.01
546.65	1989.45
547.01	1997.83
547.36	2005.38
547.72	2013.33
548.07	2020.83
548.43	2028.62
548.79	2036.46
549.14	2044.73
549.50	2053.31
549.86	2061.26
550.21	2068.73
550.57	2076.55
550.92	2083.31
551.28	2090.76
551.64	2097.93
551.99	2105.47
552.35	2112.50
552.70	2119.46
553.06	2126.13
553.41	2132.34
553.77	2138.60
554.13	2144.94
554.48	2152.00
554.84	2159.19
555.19	2165.57
555.55	2172.14
555.90	2178.39
556.26	2185.25
556.61	2191.39
556.97	2196.12
557.32	2201.90
557.68	2208.34
558.03	2213.92
558.39	2219.29
558.74	2225.30
559.10	2230.98
559.45	2236.63
559.81	2242.15
560.16	2247.58
560.52	2253.52
560.87	2259.93
561.23	2265.88
561.58	2272.64
561.94	2277.73
562.29	2282.23
562.64	2288.26
563.00	2293.94
563.35	2299.60
563.71	2305.16
564.06	2310.81
564.42	2316.90
564.77	2321.99
565.12	2327.16
565.48	2332.33
565.83	2337.60
566.19	2342.76
566.54	2347.90
566.89	2352.27
567.25	2356.91
567.60	2362.69
567.96	2367.64
568.31	2372.18
568.66	2376.48
569.02	2380.26
569.37	2383.93
569.72	2388.55
570.08	2392.10
570.43	2395.06
570.78	2398.00
571.14	2400.54
571.49	2403.59
571.84	2406.90
572.20	2409.66
572.55	2412.56
572.90	2414.77
573.26	2417.64
573.61	2420.26
573.96	2422.43
574.31	2424.52
574.67	2426.35
575.02	2426.93
575.37	2428.31
575.72	2428.84
576.08	2430.22
576.43	2430.28
576.78	2430.68
577.13	2432.00
577.49	2433.00
577.84	2433.87
578.19	2434.96
578.54	2435.49
578.90	2435.90
579.25	2435.65
579.60	2435.32
579.95	2434.37
580.30	2434.15
580.66	2433.36
581.01	2431.43
581.36	2428.75
581.71	2427.14
582.06	2425.94
582.42	2424.79
582.77	2422.22
583.12	2420.39
583.47	2418.73
583.82	2417.84
584.17	2416.45
584.53	2414.33
584.88	2412.09
585.23	2410.08
585.58	2407.65
585.93	2405.45
586.28	2403.24
586.63	2400.66
586.98	2398.55
587.34	2396.28
587.69	2393.72
588.04	2391.34
588.39	2389.88
588.74	2387.39
589.09	2384.45
589.44	2380.93
589.79	2378.33
590.14	2376.32
590.49	2373.46
590.84	2369.53
591.19	2366.37
591.54	2363.06
591.89	2358.81
592.25	2355.40
592.60	2351.00
592.95	2346.91
593.30	2342.69
593.65	2338.24
594.00	2333.77
594.35	2330.59
594.70	2326.06
595.05	2321.50
595.40	2315.99
595.75	2310.07
596.10	2306.45
596.45	2301.63
596.80	2296.95
597.15	2291.82
597.50	2285.79
597.85	2280.80
598.19	2275.55
598.54	2269.75
598.89	2264.49
599.24	2259.86
599.59	2253.64
599.94	2247.70
600.29	2241.65
600.64	2235.60
600.99	2228.72
601.34	2223.14
601.69	2216.07
602.04	2209.79
602.39	2203.06
602.74	2196.96
603.08	2191.52
603.43	2185.02
603.78	2178.14
604.13	2171.12
604.48	2163.57
604.83	2157.41
605.18	2151.21
605.53	2144.30
605.87	2137.09
606.22	2130.29
606.57	2122.39
606.92	2114.33
607.27	2107.53
607.62	2100.87
607.96	2093.93
608.31	2087.51
608.66	2079.77
609.01	2072.26
609.36	2065.00
609.70	2057.37
610.05	2049.56
610.40	2041.17
610.75	2032.68
611.10	2024.89
611.44	2015.98
611.79	2007.44
612.14	1997.61
612.49	1986.88
612.83	1977.49
613.18	1968.35
613.53	1958.95
613.88	1949.31
614.22	1940.66
614.57	1930.80
614.92	1920.18
615.27	1909.86
615.61	1899.67
615.96	1889.99
616.31	1880.21
616.65	1870.81
617.00	1860.95
617.35	1851.32
617.70	1841.59
618.04	1831.62
618.39	1821.52
618.74	1811.91
619.08	1802.29
619.43	1793.61
619.78	1785.32
620.12	1776.87
620.47	1767.33
620.82	1756.94
621.16	1747.09
621.51	1737.25
621.85	1727.39
622.20	1717.26
622.55	1706.70
622.89	1696.83
623.24	1687.17
623.59	1677.51
623.93	1667.36
624.28	1657.69
624.62	1647.67
624.97	1637.36
625.32	1627.60
625.66	1618.70
626.01	1609.95
626.35	1600.67
626.70	1590.71
627.04	1580.72
627.39	1570.45
627.73	1561.21
628.08	1552.43
628.43	1542.99
628.77	1533.93
629.12	1525.09
629.46	1517.14
629.81	1509.01
630.15	1499.55
630.50	1489.79
630.84	1479.30
631.19	1469.57
631.53	1460.41
631.88	1450.29
632.22	1440.47
632.57	1431.20
632.91	1421.19
633.26	1411.34
633.60	1401.83
633.95	1392.61
634.29	1383.22
634.64	1374.07
634.98	1364.14
635.32	1354.90
635.67	1346.50
636.01	1337.23
636.36	1327.58
636.70	1318.18
637.05	1308.80
637.39	1300.08
637.73	1291.55
638.08	1284.06
638.42	1275.88
638.77	1267.13
639.11	1258.85
639.45	1250.95
639.80	1242.46
640.14	1233.86
640.49	1225.12
640.83	1216.27
641.17	1208.09
641.52	1200.01
641.86	1191.54
642.20	1183.72
642.55	1175.13
642.89	1166.25
643.23	1157.52
643.58	1149.44
643.92	1140.47
644.26	1131.83
644.61	1123.35
644.95	1114.48
645.29	1105.34
645.64	1096.18
645.98	1087.68
646.32	1079.92
646.66	1071.52
647.01	1063.22
647.35	1055.04
647.69	1046.78
648.04	1038.58
648.38	1029.80
648.72	1021.10
649.06	1012.70
649.41	1004.53
649.75	996.66
650.09	988.91
650.43	981.07
650.78	972.81
651.12	965.10
651.46	957.69
651.80	950.35
652.14	943.12
652.49	935.61
652.83	928.36
653.17	920.83
653.51	913.22
653.85	905.97
654.20	898.76
654.54	891.38
654.88	884.10
655.22	876.82
655.56	869.79
655.90	863.00
656.25	856.27
656.59	849.43
656.93	842.45
657.27	835.28
657.61	828.27
657.95	822.17
658.29	816.24
658.64	810.12
658.98	803.71
659.32	797.16
659.66	790.89
660.00	784.51
660.34	778.26
660.68	772.07
661.02	765.75
661.36	759.71
661.70	753.87
662.05	748.26
662.39	742.81
662.73	737.42
663.07	731.95
663.41	726.28
663.75	720.56
664.09	714.78
664.43	709.38
664.77	704.12
665.11	698.31
665.45	692.37
665.79	686.53
666.13	680.84
666.47	675.34
666.81	669.80
667.15	664.38
667.49	659.23
667.83	653.95
668.17	648.74
668.51	643.61
668.85	638.66
669.19	633.72
669.53	628.65
669.87	623.49
670.21	618.72
670.55	614.03
670.89	609.50
671.23	605.16
671.57	600.72
671.91	596.33
672.25	592.12
672.58	588.02
672.92	583.95
673.26	579.96
673.60	576.11
673.94	572.34
674.28	568.72
674.62	564.92
674.96	561.20
675.30	557.67
675.64	553.98
675.97	550.37
676.31	546.74
676.65	543.14
676.99	539.71
677.33	535.90
677.67	532.21
678.01	528.37
678.34	524.70
678.68	521.19
679.02	517.62
679.36	513.90
679.70	510.22
680.04	506.64
680.37	503.17
680.71	499.78
681.05	496.56
681.39	493.27
681.73	490.05
682.06	487.00
682.40	483.89
682.74	480.71
683.08	477.44
683.42	474.21
683.75	471.19
684.09	468.14
684.43	465.27
684.77	462.33
685.10	459.51
685.44	456.59
685.78	453.62
686.12	450.82
686.45	448.04
686.79	445.37
687.13	442.82
687.46	440.17
687.80	437.46
688.14	434.58
688.48	431.91
688.81	429.27
689.15	426.65
689.49	423.97
689.82	421.41
690.16	418.81
690.50	416.30
690.83	413.73
691.17	411.12
691.51	408.64
691.84	406.34
692.18	404.02
692.52	401.81
692.85	399.59
693.19	397.40
693.52	395.20
693.86	392.93
694.20	390.68
694.53	388.49
694.87	386.27
695.21	384.13
695.54	381.93
695.88	379.69
696.21	377.43
696.55	375.29
696.88	373.15
697.22	371.11
697.56	369.22
697.89	367.34
698.23	365.57
698.56	363.74
698.90	361.95
699.23	360.09
699.57	358.16
699.90	356.29
700.24	354.38
700.58	352.64
700.91	350.94
701.25	349.36
701.58	347.73
701.92	346.15
702.25	344.53
702.59	342.91
702.92	341.35
703.26	339.79
703.59	338.28
703.93	337.06
704.26	335.65
704.60	334.10
704.93	332.56
705.26	331.06
705.60	329.57
705.93	327.99
706.27	326.59
706.60	325.28
706.94	324.08
707.27	322.70
707.61	321.29
707.94	319.95
708.27	318.40
708.61	316.95
708.94	315.52
709.28	314.18
709.61	312.90
709.94	311.68
710.28	310.44
710.61	309.23
710.95	307.79
711.28	306.69
711.61	305.47
711.95	304.35
712.28	303.13
712.61	301.93
712.95	300.86
713.28	299.81
713.61	298.63
713.95	297.42
714.28	296.39
714.61	295.35
714.95	294.30
715.28	293.29
715.61	292.26
715.95	291.29
716.28	290.32
716.61	289.32
716.95	288.30
717.28	287.37
717.61	286.37
717.94	285.44
718.28	284.41
718.61	283.55
718.94	282.63
719.27	281.78
719.61	280.93
719.94	280.08
720.27	279.08
720.60	278.25
720.94	277.47
721.27	276.71
721.60	276.02
721.93	275.28
722.27	274.63
722.60	273.97
722.93	273.24
723.26	272.58
723.59	271.88
723.93	271.23
724.26	270.55
724.59	269.94
724.92	269.33
725.25	268.75
725.59	268.13
725.92	267.61
726.25	267.02
726.58	266.43
726.91	265.79
727.24	265.24
727.57	264.70
727.91	264.06
728.24	263.46
728.57	262.86
728.90	262.28
729.23	261.63
729.56	261.15
729.89	260.62
730.22	260.04
730.55	259.50
730.89	258.95
731.22	258.39
731.55	257.84
731.88	257.30
732.21	256.78
732.54	256.23
732.87	255.67
733.20	255.17
733.53	254.66
733.86	254.25
734.19	253.77
734.52	253.28
734.85	253.00
735.18	252.53
735.51	252.12
735.84	251.68
736.17	251.29
736.50	250.76
736.83	250.59
737.16	250.18
737.49	249.80
737.82	249.41
738.15	249.04
738.48	248.65
738.81	248.27
739.14	247.80
739.47	247.44
739.80	247.07
740.13	246.70
740.46	246.32
740.79	245.87
741.12	245.49
741.45	245.13
741.78	244.69
742.11	244.40
742.44	244.02
742.77	243.74
743.10	243.36
743.43	242.99
743.75	242.41
744.08	242.31
744.41	241.95
744.74	241.58
745.07	241.19
745.40	240.91
745.73	240.64
746.06	240.34
746.39	240.04
746.71	239.67
747.04	239.33
747.37	239.04
747.70	238.80
748.03	238.47
748.36	238.21
748.68	237.91
749.01	237.54
749.34	237.24
749.67	236.92
750.00	236.67
750.33	236.55
750.65	236.31
750.98	235.85
751.31	235.62
751.64	235.40
751.97	235.26
752.29	234.99
752.62	234.60
752.95	234.36
753.28	234.09
753.60	233.90
753.93	233.73
754.26	233.49
754.59	233.19
754.91	232.96
755.24	232.71
755.57	232.47
755.90	232.28
756.22	232.01
756.55	231.79
756.88	231.54
757.20	231.20
757.53	230.94
757.86	230.70
758.19	230.50
758.51	230.30
758.84	230.02
759.17	229.84
759.49	229.68
759.82	229.61
760.15	229.43
760.47	229.19
760.80	228.94
761.13	228.78
761.45	228.60
761.78	228.42
762.11	228.24
762.43	228.01
762.76	227.83
763.08	227.70
763.41	227.50
763.74	227.37
764.06	227.17
764.39	227.00
764.71	226.85
765.04	226.66
765.37	226.49
765.69	226.32
766.02	226.12
766.34	226.01
766.67	225.75
767.00	225.65
767.32	225.64
767.65	225.64
767.97	225.46
768.30	225.34
768.62	225.20
768.95	225.02
769.27	224.90
769.60	224.78
769.92	224.62
770.25	224.50
770.57	224.33
770.90	224.22
771.22	224.06
771.55	223.95
771.87	223.86
772.20	223.73
772.52	223.78
772.85	223.93
773.17	223.79
773.50	223.69
773.82	223.55
774.15	223.37
774.47	223.14
774.80	223.06
775.12	222.91
775.45	222.83
775.77	222.78
776.09	222.66
776.42	222.61
776.74	222.57
777.07	222.44
777.39	222.36
777.72	222.24
778.04	222.20
778.36	222.07
778.69	221.98
779.01	221.89
779.33	221.61
779.66	221.28
779.98	221.18
780.31	221.11
780.63	221.12
780.95	221.05
781.28	220.96
781.60	220.87
781.92	220.81
782.25	220.73
782.57	220.69
782.89	220.65
783.22	220.55
783.54	220.47
783.86	220.43
784.19	220.35
784.51	220.37
784.83	220.23
785.16	220.16
785.48	220.08
785.80	220.05
786.12	220.04
