SpectraSuite Data File
++++++++++++++++++++++++++++++++++++
Date: Tue Jan 29 16:48:53 EST 2013
User: group
Dark Spectrum Present: No
Reference Spectrum Present: No
Number of Sampled Component Spectra: 1
Spectrometers: USB2E7196
Integration Time (usec): 65000 (USB2E7196)
Spectra Averaged: 100 (USB2E7196)
Boxcar Smoothing: 10 (USB2E7196)
Correct for Electrical Dark: No (USB2E7196)
Strobe/Lamp Enabled: No (USB2E7196)
Correct for Detector Non-linearity: No (USB2E7196)
Correct for Stray Light: No (USB2E7196)
Number of Pixels in Processed Spectrum: 2048
>>>>>Begin Processed Spectral Data<<<<<
339.09	0.00
339.48	201.64
339.86	202.90
340.24	204.28
340.63	206.09
341.01	210.05
341.39	208.44
341.78	210.19
342.16	211.40
342.54	212.02
342.93	200.90
343.31	211.06
343.69	211.62
344.07	212.13
344.46	212.60
344.84	213.01
345.22	213.24
345.60	213.54
345.99	213.70
346.37	213.86
346.75	213.96
347.13	214.06
347.52	214.14
347.90	214.28
348.28	214.29
348.66	214.35
349.05	214.29
349.43	214.34
349.81	214.43
350.19	214.46
350.57	214.54
350.96	214.67
351.34	214.79
351.72	214.89
352.10	214.98
352.48	215.04
352.87	215.08
353.25	215.11
353.63	215.16
354.01	215.25
354.39	215.30
354.77	215.35
355.15	215.48
355.54	215.54
355.92	215.55
356.30	215.65
356.68	215.83
357.06	215.94
357.44	215.96
357.82	216.01
358.20	216.10
358.58	216.12
358.97	216.16
359.35	216.26
359.73	216.32
360.11	216.37
360.49	216.40
360.87	216.45
361.25	216.52
361.63	216.65
362.01	216.71
362.39	216.74
362.77	216.81
363.15	216.82
363.53	216.85
363.91	216.87
364.29	216.84
364.67	216.69
365.05	216.71
365.43	216.76
365.81	216.80
366.19	216.88
366.57	216.98
366.95	216.97
367.33	216.91
367.71	216.93
368.09	216.93
368.47	216.97
368.85	216.96
369.23	216.96
369.61	216.82
369.99	216.85
370.37	216.85
370.75	216.89
371.13	216.82
371.51	216.76
371.89	216.75
372.27	216.74
372.65	216.71
373.03	216.68
373.41	216.63
373.78	216.54
374.16	216.42
374.54	216.31
374.92	216.26
375.30	216.22
375.68	216.11
376.06	216.05
376.44	215.98
376.82	215.92
377.19	215.86
377.57	215.80
377.95	215.68
378.33	215.62
378.71	215.51
379.09	215.53
379.47	215.51
379.84	215.45
380.22	215.40
380.60	215.31
380.98	215.26
381.36	215.23
381.73	215.16
382.11	215.13
382.49	215.15
382.87	215.09
383.25	215.05
383.62	215.29
384.00	215.22
384.38	215.15
384.76	215.18
385.13	215.23
385.51	215.23
385.89	215.18
386.27	215.16
386.64	215.13
387.02	215.06
387.40	215.01
387.78	214.99
388.15	214.99
388.53	215.01
388.91	215.00
389.29	214.97
389.66	215.00
390.04	214.98
390.42	214.97
390.79	214.97
391.17	214.98
391.55	214.73
391.92	214.76
392.30	214.83
392.68	214.79
393.05	214.79
393.43	214.80
393.81	214.84
394.18	214.80
394.56	214.84
394.94	214.90
395.31	214.89
395.69	214.96
396.06	214.96
396.44	214.97
396.82	214.97
397.19	215.10
397.57	215.11
397.95	215.15
398.32	215.10
398.70	215.16
399.07	215.25
399.45	215.28
399.82	215.31
400.20	215.31
400.58	215.37
400.95	215.35
401.33	215.46
401.70	215.66
402.08	215.79
402.45	215.87
402.83	216.01
403.20	216.14
403.58	216.23
403.95	216.43
404.33	216.58
404.71	216.72
405.08	216.92
405.46	217.08
405.83	217.30
406.21	217.53
406.58	217.74
406.96	217.95
407.33	218.21
407.70	218.55
408.08	219.01
408.45	219.38
408.83	219.76
409.20	220.08
409.58	220.33
409.95	220.80
410.33	221.29
410.70	221.72
411.08	222.30
411.45	222.87
411.82	223.45
412.20	224.16
412.57	225.01
412.95	225.60
413.32	226.44
413.69	227.30
414.07	228.22
414.44	229.24
414.82	230.27
415.19	231.46
415.56	232.63
415.94	233.84
416.31	235.25
416.68	236.70
417.06	238.40
417.43	239.97
417.81	241.74
418.18	243.49
418.55	245.44
418.93	247.49
419.30	249.66
419.67	251.93
420.04	254.24
420.42	256.66
420.79	259.52
421.16	262.37
421.54	265.29
421.91	268.30
422.28	271.38
422.66	274.72
423.03	278.05
423.40	281.51
423.77	285.12
424.15	288.83
424.52	292.68
424.89	296.87
425.26	301.03
425.64	304.98
426.01	309.36
426.38	313.92
426.75	318.49
427.13	323.25
427.50	328.28
427.87	333.57
428.24	338.79
428.61	343.81
428.99	349.38
429.36	355.47
429.73	361.45
430.10	367.43
430.47	373.58
430.85	379.93
431.22	386.63
431.59	393.81
431.96	400.74
432.33	408.40
432.70	415.72
433.08	424.30
433.45	432.42
433.82	440.53
434.19	449.44
434.56	458.27
434.93	466.71
435.30	475.08
435.68	484.29
436.05	493.41
436.42	502.47
436.79	510.70
437.16	519.55
437.53	528.95
437.90	538.20
438.27	547.25
438.64	556.57
439.01	565.24
439.38	572.94
439.75	580.28
440.13	588.77
440.50	596.80
440.87	603.31
441.24	610.04
441.61	617.47
441.98	622.96
442.35	629.37
442.72	635.78
443.09	641.94
443.46	645.75
443.83	648.31
444.20	650.54
444.57	653.73
444.94	655.21
445.31	656.71
445.68	658.14
446.05	658.81
446.42	658.11
446.79	657.20
447.16	656.17
447.53	655.40
447.90	652.02
448.27	648.71
448.64	644.09
449.01	640.71
449.37	634.82
449.74	629.15
450.11	622.15
450.48	614.69
450.85	607.07
451.22	600.52
451.59	594.31
451.96	588.40
452.33	580.49
452.70	573.31
453.07	564.71
453.43	556.01
453.80	547.58
454.17	539.44
454.54	531.79
454.91	523.50
455.28	515.49
455.65	507.98
456.02	500.44
456.38	494.00
456.75	486.04
457.12	479.32
457.49	472.69
457.86	466.42
458.23	460.96
458.59	454.97
458.96	448.86
459.33	443.50
459.70	438.03
460.07	433.74
460.43	428.81
460.80	424.17
461.17	420.09
461.54	415.82
461.91	411.72
462.27	407.54
462.64	404.04
463.01	400.16
463.38	396.45
463.74	392.69
464.11	389.41
464.48	386.56
464.85	383.46
465.21	381.02
465.58	378.40
465.95	375.22
466.32	372.58
466.68	369.95
467.05	367.32
467.42	364.76
467.78	362.01
468.15	359.44
468.52	357.51
468.88	354.99
469.25	352.77
469.62	350.99
469.98	349.00
470.35	347.13
470.72	345.45
471.08	343.62
471.45	342.06
471.82	340.48
472.18	338.74
472.55	337.50
472.92	336.05
473.28	334.80
473.65	333.61
474.02	332.48
474.38	331.59
474.75	330.84
475.11	329.98
475.48	329.39
475.85	328.86
476.21	328.32
476.58	327.96
476.94	327.70
477.31	327.32
477.67	327.01
478.04	326.87
478.41	326.78
478.77	326.87
479.14	326.80
479.50	326.94
479.87	327.23
480.23	327.54
480.60	327.79
480.96	328.00
481.33	328.61
481.69	329.19
482.06	329.69
482.42	330.16
482.79	330.76
483.15	331.54
483.52	332.52
483.88	333.43
484.25	334.35
484.61	335.31
484.98	336.37
485.34	337.72
485.71	339.09
486.07	340.53
486.44	341.89
486.80	343.54
487.17	345.19
487.53	347.05
487.90	348.94
488.26	350.92
488.62	353.13
488.99	355.13
489.35	357.28
489.72	359.64
490.08	362.15
490.44	364.74
490.81	367.44
491.17	370.13
491.54	373.08
491.90	376.13
492.26	379.43
492.63	382.92
492.99	386.39
493.36	390.07
493.72	393.98
494.08	398.01
494.45	402.22
494.81	406.61
495.17	411.07
495.54	415.77
495.90	420.64
496.26	425.55
496.63	430.84
496.99	436.26
497.35	441.88
497.72	447.76
498.08	453.69
498.44	459.79
498.80	466.28
499.17	472.80
499.53	479.46
499.89	486.40
500.26	493.36
500.62	500.52
500.98	507.90
501.34	515.33
501.71	523.14
502.07	530.95
502.43	538.98
502.79	547.12
503.16	555.49
503.52	564.12
503.88	572.89
504.24	581.88
504.60	590.98
504.97	600.26
505.33	609.49
505.69	619.36
506.05	629.29
506.41	639.14
506.78	649.25
507.14	659.53
507.50	669.99
507.86	680.72
508.22	691.51
508.59	702.23
508.95	713.24
509.31	724.47
509.67	736.02
510.03	747.40
510.39	759.19
510.75	771.07
511.12	782.96
511.48	795.00
511.84	807.25
512.20	819.56
512.56	832.18
512.92	845.03
513.28	857.61
513.64	870.39
514.00	883.23
514.37	896.19
514.73	909.35
515.09	922.42
515.45	935.34
515.81	948.37
516.17	961.83
516.53	975.23
516.89	988.41
517.25	1001.59
517.61	1015.15
517.97	1028.59
518.33	1041.77
518.69	1055.38
519.05	1069.22
519.41	1082.91
519.77	1096.83
520.13	1110.25
520.49	1123.47
520.85	1136.96
521.21	1150.46
521.57	1164.12
521.93	1177.26
522.29	1191.04
522.65	1204.70
523.01	1218.41
523.37	1231.62
523.73	1244.94
524.09	1258.09
524.45	1271.58
524.81	1285.13
525.17	1298.55
525.53	1311.76
525.89	1325.13
526.25	1338.36
526.61	1351.26
526.97	1364.47
527.33	1377.53
527.68	1391.06
528.04	1404.67
528.40	1417.96
528.76	1431.27
529.12	1444.35
529.48	1457.80
529.84	1470.10
530.20	1482.94
530.56	1495.51
530.91	1508.94
531.27	1521.88
531.63	1534.79
531.99	1547.54
532.35	1559.83
532.71	1572.31
533.07	1585.26
533.42	1597.56
533.78	1609.60
534.14	1621.70
534.50	1633.03
534.86	1644.70
535.21	1655.51
535.57	1667.04
535.93	1678.26
536.29	1689.42
536.65	1701.02
537.00	1712.03
537.36	1723.50
537.72	1734.50
538.08	1746.05
538.44	1757.05
538.79	1768.31
539.15	1779.31
539.51	1790.31
539.87	1801.71
540.22	1812.70
540.58	1823.80
540.94	1834.99
541.29	1845.51
541.65	1855.39
542.01	1865.79
542.37	1875.84
542.72	1886.19
543.08	1895.99
543.44	1906.68
543.79	1916.01
544.15	1925.54
544.51	1935.61
544.87	1945.52
545.22	1954.99
545.58	1964.03
545.94	1972.97
546.29	1981.53
546.65	1989.92
547.01	1998.09
547.36	2005.79
547.72	2013.51
548.07	2021.06
548.43	2028.69
548.79	2036.54
549.14	2044.71
549.50	2053.37
549.86	2061.30
550.21	2068.70
550.57	2076.36
550.92	2083.09
551.28	2090.65
551.64	2097.88
551.99	2105.37
552.35	2112.65
552.70	2119.45
553.06	2126.02
553.41	2132.33
553.77	2138.72
554.13	2145.18
554.48	2152.27
554.84	2159.50
555.19	2166.07
555.55	2172.51
555.90	2178.77
556.26	2185.60
556.61	2191.84
556.97	2196.62
557.32	2202.44
557.68	2208.94
558.03	2214.72
558.39	2220.15
558.74	2226.08
559.10	2231.46
559.45	2236.94
559.81	2242.42
560.16	2247.93
560.52	2253.82
560.87	2260.16
561.23	2266.14
561.58	2272.71
561.94	2277.90
562.29	2282.53
562.64	2288.51
563.00	2294.13
563.35	2299.71
563.71	2305.32
564.06	2310.90
564.42	2316.80
564.77	2321.61
565.12	2326.60
565.48	2331.71
565.83	2337.18
566.19	2342.33
566.54	2347.64
566.89	2352.16
567.25	2356.74
567.60	2362.30
567.96	2367.32
568.31	2371.80
568.66	2375.94
569.02	2379.69
569.37	2383.33
569.72	2387.59
570.08	2390.93
570.43	2393.89
570.78	2396.84
571.14	2399.32
571.49	2402.33
571.84	2405.78
572.20	2408.80
572.55	2411.83
572.90	2414.09
573.26	2416.72
573.61	2419.30
573.96	2421.39
574.31	2423.26
574.67	2424.98
575.02	2425.60
575.37	2426.87
575.72	2427.41
576.08	2428.66
576.43	2428.68
576.78	2428.84
577.13	2430.27
577.49	2431.45
577.84	2432.42
578.19	2433.64
578.54	2433.95
578.90	2434.41
579.25	2434.13
579.60	2433.96
579.95	2432.96
580.30	2432.78
580.66	2431.94
581.01	2430.11
581.36	2427.42
581.71	2425.87
582.06	2424.47
582.42	2423.44
582.77	2421.12
583.12	2419.25
583.47	2417.64
583.82	2416.77
584.17	2415.42
584.53	2413.12
584.88	2410.76
585.23	2408.55
585.58	2405.99
585.93	2403.96
586.28	2401.62
586.63	2398.93
586.98	2396.57
587.34	2394.26
587.69	2391.60
588.04	2389.13
588.39	2387.51
588.74	2384.96
589.09	2382.10
589.44	2378.92
589.79	2376.18
590.14	2373.90
590.49	2371.03
590.84	2367.11
591.19	2363.87
591.54	2360.49
591.89	2356.39
592.25	2352.98
592.60	2348.72
592.95	2344.46
593.30	2340.13
593.65	2335.60
594.00	2331.12
594.35	2327.91
594.70	2323.23
595.05	2318.67
595.40	2313.33
595.75	2307.36
596.10	2303.80
596.45	2298.92
596.80	2294.06
597.15	2288.82
597.50	2282.86
597.85	2277.75
598.19	2272.47
598.54	2266.64
598.89	2261.37
599.24	2256.61
599.59	2250.32
599.94	2244.40
600.29	2238.30
600.64	2232.32
600.99	2225.44
601.34	2219.94
601.69	2212.84
602.04	2206.51
602.39	2199.75
602.74	2193.58
603.08	2187.98
603.43	2181.45
603.78	2174.52
604.13	2167.52
604.48	2160.19
604.83	2154.13
605.18	2147.88
605.53	2140.95
605.87	2133.83
606.22	2127.13
606.57	2119.25
606.92	2111.37
607.27	2104.35
607.62	2097.75
607.96	2090.69
608.31	2084.30
608.66	2076.38
609.01	2068.74
609.36	2061.66
609.70	2054.07
610.05	2046.26
610.40	2037.86
610.75	2029.32
611.10	2021.52
611.44	2012.60
611.79	2003.92
612.14	1993.95
612.49	1983.32
612.83	1974.01
613.18	1964.73
613.53	1955.28
613.88	1945.70
614.22	1937.12
614.57	1927.37
614.92	1916.78
615.27	1906.53
615.61	1896.24
615.96	1886.71
616.31	1877.17
616.65	1867.78
617.00	1857.93
617.35	1848.30
617.70	1838.68
618.04	1828.94
618.39	1818.88
618.74	1809.34
619.08	1799.90
619.43	1791.17
619.78	1782.88
620.12	1774.36
620.47	1764.92
620.82	1754.67
621.16	1744.92
621.51	1735.05
621.85	1725.23
622.20	1715.02
622.55	1704.51
622.89	1694.71
623.24	1684.96
623.59	1675.16
623.93	1664.98
624.28	1655.25
624.62	1645.18
624.97	1635.06
625.32	1625.14
625.66	1616.32
626.01	1607.53
626.35	1598.10
626.70	1588.14
627.04	1578.22
627.39	1568.05
627.73	1558.95
628.08	1550.15
628.43	1540.65
628.77	1531.48
629.12	1522.76
629.46	1515.00
629.81	1506.83
630.15	1497.52
630.50	1487.74
630.84	1477.44
631.19	1467.61
631.53	1458.52
631.88	1448.39
632.22	1438.42
632.57	1429.18
632.91	1419.20
633.26	1409.40
633.60	1399.94
633.95	1390.75
634.29	1381.36
634.64	1372.28
634.98	1362.29
635.32	1353.07
635.67	1344.63
636.01	1335.44
636.36	1325.67
636.70	1316.19
637.05	1306.83
637.39	1297.93
637.73	1289.47
638.08	1281.95
638.42	1273.89
638.77	1265.17
639.11	1257.12
639.45	1249.48
639.80	1241.13
640.14	1232.50
640.49	1223.71
640.83	1214.83
641.17	1206.73
641.52	1198.69
641.86	1190.04
642.20	1182.25
642.55	1173.72
642.89	1164.94
643.23	1156.37
643.58	1148.43
643.92	1139.51
644.26	1130.93
644.61	1122.65
644.95	1113.91
645.29	1104.75
645.64	1095.63
645.98	1087.11
646.32	1079.25
646.66	1070.70
647.01	1062.33
647.35	1054.24
647.69	1046.06
648.04	1037.99
648.38	1029.25
648.72	1020.46
649.06	1012.13
649.41	1003.90
649.75	995.96
650.09	988.20
650.43	980.22
650.78	971.93
651.12	964.26
651.46	956.87
651.80	949.61
652.14	942.35
652.49	934.86
652.83	927.66
653.17	920.03
653.51	912.43
653.85	905.27
654.20	898.03
654.54	890.63
654.88	883.41
655.22	876.16
655.56	869.13
655.90	862.40
656.25	855.72
656.59	848.90
656.93	841.89
657.27	834.68
657.61	827.68
657.95	821.58
658.29	815.59
658.64	809.57
658.98	803.15
659.32	796.70
659.66	790.50
660.00	784.16
660.34	778.11
660.68	771.92
661.02	765.53
661.36	759.59
661.70	753.72
662.05	748.12
662.39	742.66
662.73	737.21
663.07	731.76
663.41	726.17
663.75	720.54
664.09	714.82
664.43	709.44
664.77	704.14
665.11	698.32
665.45	692.51
665.79	686.60
666.13	680.90
666.47	675.34
666.81	669.84
667.15	664.35
667.49	659.11
667.83	653.86
668.17	648.63
668.51	643.49
668.85	638.62
669.19	633.69
669.53	628.62
669.87	623.53
670.21	618.79
670.55	614.05
670.89	609.57
671.23	605.25
671.57	600.83
671.91	596.47
672.25	592.27
672.58	588.11
672.92	584.07
673.26	580.08
673.60	576.18
673.94	572.36
674.28	568.79
674.62	565.10
674.96	561.35
675.30	557.85
675.64	554.15
675.97	550.46
676.31	546.83
676.65	543.26
676.99	539.79
677.33	535.89
677.67	532.25
678.01	528.41
678.34	524.81
678.68	521.26
679.02	517.70
679.36	513.98
679.70	510.25
680.04	506.65
680.37	503.13
680.71	499.76
681.05	496.60
681.39	493.30
681.73	490.09
682.06	487.08
682.40	483.99
682.74	480.77
683.08	477.56
683.42	474.32
683.75	471.25
684.09	468.21
684.43	465.44
684.77	462.45
685.10	459.50
685.44	456.51
685.78	453.55
686.12	450.77
686.45	448.02
686.79	445.36
687.13	442.82
687.46	440.19
687.80	437.46
688.14	434.55
688.48	431.90
688.81	429.15
689.15	426.47
689.49	423.84
689.82	421.30
690.16	418.66
690.50	416.17
690.83	413.65
691.17	411.04
691.51	408.51
691.84	406.25
692.18	403.99
692.52	401.76
692.85	399.62
693.19	397.45
693.52	395.28
693.86	393.03
694.20	390.78
694.53	388.60
694.87	386.42
695.21	384.29
695.54	382.09
695.88	379.88
696.21	377.69
696.55	375.54
696.88	373.46
697.22	371.48
697.56	369.50
697.89	367.60
698.23	365.88
698.56	364.04
698.90	362.27
699.23	360.35
699.57	358.42
699.90	356.52
700.24	354.65
700.58	352.87
700.91	351.20
701.25	349.62
701.58	347.99
701.92	346.38
702.25	344.75
702.59	343.08
702.92	341.58
703.26	340.01
703.59	338.43
703.93	337.13
704.26	335.65
704.60	334.18
704.93	332.67
705.26	331.15
705.60	329.66
705.93	328.10
706.27	326.77
706.60	325.52
706.94	324.31
707.27	322.88
707.61	321.51
707.94	320.09
708.27	318.56
708.61	317.09
708.94	315.69
709.28	314.39
709.61	313.19
709.94	311.94
710.28	310.70
710.61	309.51
710.95	308.12
711.28	307.05
711.61	305.87
711.95	304.74
712.28	303.51
712.61	302.31
712.95	301.21
713.28	300.16
713.61	298.97
713.95	297.75
714.28	296.72
714.61	295.66
714.95	294.61
715.28	293.55
715.61	292.51
715.95	291.52
716.28	290.50
716.61	289.49
716.95	288.47
717.28	287.51
717.61	286.55
717.94	285.59
718.28	284.54
718.61	283.60
718.94	282.65
719.27	281.77
719.61	280.96
719.94	280.07
720.27	279.04
720.60	278.17
720.94	277.35
721.27	276.56
721.60	275.87
721.93	275.14
722.27	274.49
722.60	273.80
722.93	273.05
723.26	272.38
723.59	271.68
723.93	271.05
724.26	270.36
724.59	269.70
724.92	269.08
725.25	268.53
725.59	267.93
725.92	267.41
726.25	266.82
726.58	266.20
726.91	265.58
727.24	265.06
727.57	264.45
727.91	263.83
728.24	263.28
728.57	262.66
728.90	262.11
729.23	261.49
729.56	261.05
729.89	260.52
730.22	259.95
730.55	259.36
730.89	258.81
731.22	258.29
731.55	257.74
731.88	257.22
732.21	256.67
732.54	256.13
732.87	255.59
733.20	255.13
733.53	254.64
733.86	254.19
734.19	253.66
734.52	253.29
734.85	253.01
735.18	252.53
735.51	252.16
735.84	251.71
736.17	251.34
736.50	250.77
736.83	250.55
737.16	250.14
737.49	249.78
737.82	249.31
738.15	248.92
738.48	248.54
738.81	248.14
739.14	247.70
739.47	247.30
739.80	246.89
740.13	246.50
740.46	246.10
740.79	245.74
741.12	245.42
741.45	245.02
741.78	244.56
742.11	244.26
742.44	243.85
742.77	243.55
743.10	243.18
743.43	242.86
743.75	242.30
744.08	242.23
744.41	241.86
744.74	241.55
745.07	241.20
745.40	240.89
745.73	240.66
746.06	240.36
746.39	240.08
746.71	239.75
747.04	239.39
747.37	239.06
747.70	238.73
748.03	238.42
748.36	238.14
748.68	237.82
749.01	237.47
749.34	237.21
749.67	236.86
750.00	236.60
750.33	236.46
750.65	236.22
750.98	235.71
751.31	235.49
751.64	235.24
751.97	235.10
752.29	234.85
752.62	234.49
752.95	234.19
753.28	233.90
753.60	233.63
753.93	233.51
754.26	233.30
754.59	233.06
754.91	232.82
755.24	232.57
755.57	232.33
755.90	232.08
756.22	231.82
756.55	231.60
756.88	231.33
757.20	230.99
757.53	230.73
757.86	230.50
758.19	230.27
758.51	230.09
758.84	229.77
759.17	229.55
759.49	229.37
759.82	229.30
760.15	229.13
760.47	228.97
760.80	228.70
761.13	228.55
761.45	228.34
761.78	228.13
762.11	227.96
762.43	227.76
762.76	227.56
763.08	227.42
763.41	227.23
763.74	227.10
764.06	226.92
764.39	226.77
764.71	226.62
765.04	226.48
765.37	226.30
765.69	226.16
766.02	226.02
766.34	225.88
766.67	225.68
767.00	225.59
767.32	225.53
767.65	225.54
767.97	225.35
768.30	225.24
768.62	225.12
768.95	224.98
769.27	224.87
769.60	224.80
769.92	224.63
770.25	224.48
770.57	224.33
770.90	224.21
771.22	224.09
771.55	223.96
771.87	223.84
772.20	223.75
772.52	223.78
772.85	223.90
773.17	223.76
773.50	223.62
773.82	223.49
774.15	223.33
774.47	223.08
774.80	222.99
775.12	222.88
775.45	222.80
775.77	222.71
776.09	222.64
776.42	222.56
776.74	222.51
777.07	222.44
777.39	222.35
777.72	222.24
778.04	222.19
778.36	222.10
778.69	222.02
779.01	221.95
779.33	221.71
779.66	221.37
779.98	221.27
780.31	221.20
780.63	221.22
780.95	221.15
781.28	221.07
781.60	221.00
781.92	220.92
782.25	220.87
782.57	220.77
782.89	220.67
783.22	220.60
783.54	220.50
783.86	220.45
784.19	220.35
784.51	220.36
784.83	220.26
785.16	220.21
785.48	220.14
785.80	220.04
786.12	220.02
