SpectraSuite Data File
++++++++++++++++++++++++++++++++++++
Date: Tue Jan 29 15:57:37 EST 2013
User: group
Dark Spectrum Present: No
Reference Spectrum Present: No
Number of Sampled Component Spectra: 1
Spectrometers: USB2E7196
Integration Time (usec): 65000 (USB2E7196)
Spectra Averaged: 100 (USB2E7196)
Boxcar Smoothing: 10 (USB2E7196)
Correct for Electrical Dark: No (USB2E7196)
Strobe/Lamp Enabled: No (USB2E7196)
Correct for Detector Non-linearity: No (USB2E7196)
Correct for Stray Light: No (USB2E7196)
Number of Pixels in Processed Spectrum: 2048
>>>>>Begin Processed Spectral Data<<<<<
339.09	0.00
339.48	203.34
339.86	204.31
340.24	205.65
340.63	207.16
341.01	211.67
341.39	209.94
341.78	211.40
342.16	213.11
342.54	212.96
342.93	202.14
343.31	212.35
343.69	212.90
344.07	213.38
344.46	213.84
344.84	214.25
345.22	214.46
345.60	214.76
345.99	214.95
346.37	215.05
346.75	215.17
347.13	215.26
347.52	215.35
347.90	215.47
348.28	215.51
348.66	215.61
349.05	215.60
349.43	215.64
349.81	215.72
350.19	215.74
350.57	215.85
350.96	215.91
351.34	216.00
351.72	216.10
352.10	216.24
352.48	216.31
352.87	216.35
353.25	216.38
353.63	216.41
354.01	216.52
354.39	216.59
354.77	216.64
355.15	216.76
355.54	216.81
355.92	216.80
356.30	216.90
356.68	217.06
357.06	217.09
357.44	217.10
357.82	217.16
358.20	217.26
358.58	217.30
358.97	217.36
359.35	217.46
359.73	217.54
360.11	217.56
360.49	217.61
360.87	217.65
361.25	217.73
361.63	217.87
362.01	217.88
362.39	217.90
362.77	217.98
363.15	218.02
363.53	218.05
363.91	218.09
364.29	218.08
364.67	217.92
365.05	217.97
365.43	218.03
365.81	218.05
366.19	218.10
366.57	218.16
366.95	218.14
367.33	218.09
367.71	218.05
368.09	218.06
368.47	218.07
368.85	218.05
369.23	218.10
369.61	218.00
369.99	218.04
370.37	218.06
370.75	218.16
371.13	218.08
371.51	218.01
371.89	217.98
372.27	217.99
372.65	217.99
373.03	217.99
373.41	217.94
373.78	217.89
374.16	217.78
374.54	217.70
374.92	217.67
375.30	217.63
375.68	217.59
376.06	217.57
376.44	217.48
376.82	217.45
377.19	217.36
377.57	217.31
377.95	217.19
378.33	217.11
378.71	216.94
379.09	216.94
379.47	216.94
379.84	216.89
380.22	216.85
380.60	216.75
380.98	216.70
381.36	216.65
381.73	216.61
382.11	216.59
382.49	216.54
382.87	216.46
383.25	216.41
383.62	216.59
384.00	216.50
384.38	216.49
384.76	216.49
385.13	216.53
385.51	216.49
385.89	216.45
386.27	216.42
386.64	216.42
387.02	216.37
387.40	216.33
387.78	216.31
388.15	216.29
388.53	216.28
388.91	216.23
389.29	216.22
389.66	216.25
390.04	216.25
390.42	216.28
390.79	216.30
391.17	216.31
391.55	216.06
391.92	216.08
392.30	216.08
392.68	216.05
393.05	216.02
393.43	216.04
393.81	216.08
394.18	216.02
394.56	216.02
394.94	216.06
395.31	216.07
395.69	216.14
396.06	216.15
396.44	216.17
396.82	216.17
397.19	216.29
397.57	216.27
397.95	216.29
398.32	216.26
398.70	216.31
399.07	216.37
399.45	216.38
399.82	216.40
400.20	216.42
400.58	216.49
400.95	216.48
401.33	216.60
401.70	216.79
402.08	216.95
402.45	217.02
402.83	217.15
403.20	217.28
403.58	217.36
403.95	217.52
404.33	217.70
404.71	217.84
405.08	218.09
405.46	218.24
405.83	218.47
406.21	218.69
406.58	218.93
406.96	219.16
407.33	219.46
407.70	219.79
408.08	220.26
408.45	220.57
408.83	220.94
409.20	221.25
409.58	221.51
409.95	221.94
410.33	222.41
410.70	222.81
411.08	223.34
411.45	223.90
411.82	224.47
412.20	225.13
412.57	225.96
412.95	226.50
413.32	227.30
413.69	228.04
414.07	228.90
414.44	229.84
414.82	230.76
415.19	231.88
415.56	233.04
415.94	234.19
416.31	235.58
416.68	236.94
417.06	238.47
417.43	239.95
417.81	241.60
418.18	243.31
418.55	245.21
418.93	247.11
419.30	249.12
419.67	251.26
420.04	253.46
420.42	255.71
420.79	258.42
421.16	261.12
421.54	263.88
421.91	266.71
422.28	269.66
422.66	272.89
423.03	276.01
423.40	279.21
423.77	282.65
424.15	286.18
424.52	289.83
424.89	293.85
425.26	297.75
425.64	301.49
426.01	305.63
426.38	309.88
426.75	314.30
427.13	318.85
427.50	323.62
427.87	328.58
428.24	333.60
428.61	338.37
428.99	343.69
429.36	349.52
429.73	355.23
430.10	360.87
430.47	366.66
430.85	372.74
431.22	379.19
431.59	386.05
431.96	392.59
432.33	399.84
432.70	406.85
433.08	415.10
433.45	422.87
433.82	430.60
434.19	439.14
434.56	447.47
434.93	455.49
435.30	463.43
435.68	472.20
436.05	480.84
436.42	489.39
436.79	497.18
437.16	505.58
437.53	514.53
437.90	523.33
438.27	531.94
438.64	540.82
439.01	548.98
439.38	556.23
439.75	563.27
440.13	571.36
440.50	578.95
440.87	585.06
441.24	591.44
441.61	598.45
441.98	603.61
442.35	609.69
442.72	615.76
443.09	621.56
443.46	625.14
443.83	627.55
444.20	629.63
444.57	632.63
444.94	633.99
445.31	635.28
445.68	636.65
446.05	637.27
446.42	636.43
446.79	635.45
447.16	634.43
447.53	633.61
447.90	630.35
448.27	627.11
448.64	622.69
449.01	619.41
449.37	613.69
449.74	608.25
450.11	601.56
450.48	594.44
450.85	587.25
451.22	581.03
451.59	575.10
451.96	569.52
452.33	561.93
452.70	555.12
453.07	547.02
453.43	538.71
453.80	530.75
454.17	523.10
454.54	515.87
454.91	508.02
455.28	500.48
455.65	493.38
456.02	486.28
456.38	480.23
456.75	472.76
457.12	466.52
457.49	460.30
457.86	454.44
458.23	449.31
458.59	443.69
458.96	438.01
459.33	432.94
459.70	427.82
460.07	423.80
460.43	419.15
460.80	414.75
461.17	410.90
461.54	406.86
461.91	403.03
462.27	399.16
462.64	395.86
463.01	392.19
463.38	388.71
463.74	385.16
464.11	382.03
464.48	379.32
464.85	376.34
465.21	374.03
465.58	371.52
465.95	368.49
466.32	365.99
466.68	363.47
467.05	361.01
467.42	358.58
467.78	356.01
468.15	353.60
468.52	351.84
468.88	349.46
469.25	347.36
469.62	345.68
469.98	343.84
470.35	342.14
470.72	340.51
471.08	338.76
471.45	337.33
471.82	335.88
472.18	334.32
472.55	333.17
472.92	331.85
473.28	330.70
473.65	329.61
474.02	328.54
474.38	327.75
474.75	327.07
475.11	326.32
475.48	325.84
475.85	325.38
476.21	324.92
476.58	324.70
476.94	324.55
477.31	324.25
477.67	324.01
478.04	323.89
478.41	323.91
478.77	324.10
479.14	324.05
479.50	324.18
479.87	324.49
480.23	324.87
480.60	325.15
480.96	325.49
481.33	326.12
481.69	326.74
482.06	327.26
482.42	327.71
482.79	328.35
483.15	329.16
483.52	330.14
483.88	331.03
484.25	331.92
484.61	332.93
484.98	334.02
485.34	335.35
485.71	336.74
486.07	338.20
486.44	339.50
486.80	341.10
487.17	342.75
487.53	344.55
487.90	346.40
488.26	348.38
488.62	350.48
488.99	352.54
489.35	354.70
489.72	357.08
490.08	359.57
490.44	362.10
490.81	364.71
491.17	367.38
491.54	370.28
491.90	373.30
492.26	376.54
492.63	379.90
492.99	383.41
493.36	387.03
493.72	390.85
494.08	394.91
494.45	399.14
494.81	403.49
495.17	407.96
495.54	412.64
495.90	417.48
496.26	422.41
496.63	427.59
496.99	432.95
497.35	438.45
497.72	444.30
498.08	450.21
498.44	456.37
498.80	462.81
499.17	469.34
499.53	476.01
499.89	482.84
500.26	489.80
500.62	496.79
500.98	504.16
501.34	511.62
501.71	519.28
502.07	527.06
502.43	535.07
502.79	543.14
503.16	551.43
503.52	559.94
503.88	568.65
504.24	577.59
504.60	586.59
504.97	595.86
505.33	605.11
505.69	614.87
506.05	624.65
506.41	634.44
506.78	644.51
507.14	654.76
507.50	665.19
507.86	675.95
508.22	686.77
508.59	697.38
508.95	708.47
509.31	719.73
509.67	731.17
510.03	742.58
510.39	754.38
510.75	766.24
511.12	778.15
511.48	790.15
511.84	802.34
512.20	814.63
512.56	827.12
512.92	839.81
513.28	852.39
513.64	865.18
514.00	877.86
514.37	890.64
514.73	903.60
515.09	916.43
515.45	929.10
515.81	941.93
516.17	955.24
516.53	968.16
516.89	981.11
517.25	994.07
517.61	1007.48
517.97	1020.66
518.33	1033.72
518.69	1047.07
519.05	1060.57
519.41	1073.94
519.77	1087.72
520.13	1100.87
520.49	1113.92
520.85	1127.14
521.21	1140.10
521.57	1153.59
521.93	1166.51
522.29	1180.14
522.65	1193.60
523.01	1206.95
523.37	1219.87
523.73	1232.86
524.09	1245.77
524.45	1258.96
524.81	1272.20
525.17	1285.21
525.53	1298.12
525.89	1311.05
526.25	1323.85
526.61	1336.49
526.97	1349.38
527.33	1361.82
527.68	1374.90
528.04	1388.02
528.40	1400.85
528.76	1413.92
529.12	1426.43
529.48	1439.49
529.84	1451.40
530.20	1463.82
530.56	1476.16
530.91	1489.29
531.27	1501.85
531.63	1514.32
531.99	1526.77
532.35	1538.72
532.71	1550.82
533.07	1563.20
533.42	1575.04
533.78	1586.78
534.14	1598.52
534.50	1609.34
534.86	1620.70
535.21	1631.28
535.57	1642.46
535.93	1653.52
536.29	1664.33
536.65	1675.42
537.00	1686.03
537.36	1696.97
537.72	1707.59
538.08	1718.60
538.44	1729.02
538.79	1739.59
539.15	1750.09
539.51	1760.37
539.87	1771.39
540.22	1781.81
540.58	1792.42
540.94	1803.00
541.29	1812.97
541.65	1822.43
542.01	1832.79
542.37	1842.45
542.72	1852.34
543.08	1861.72
543.44	1871.65
543.79	1880.67
544.15	1889.90
544.51	1899.47
544.87	1908.99
545.22	1917.81
545.58	1926.40
545.94	1935.02
546.29	1943.39
546.65	1951.55
547.01	1959.51
547.36	1966.86
547.72	1974.28
548.07	1981.62
548.43	1989.00
548.79	1996.58
549.14	2004.47
549.50	2012.48
549.86	2020.02
550.21	2027.21
550.57	2034.64
550.92	2041.16
551.28	2048.35
551.64	2055.43
551.99	2062.74
552.35	2069.77
552.70	2076.44
553.06	2082.84
553.41	2088.90
553.77	2095.13
554.13	2101.41
554.48	2108.26
554.84	2115.19
555.19	2121.42
555.55	2127.81
555.90	2134.13
556.26	2140.63
556.61	2146.29
556.97	2150.96
557.32	2156.77
557.68	2162.91
558.03	2168.45
558.39	2173.60
558.74	2179.49
559.10	2185.03
559.45	2190.47
559.81	2195.85
560.16	2201.42
560.52	2207.32
560.87	2213.74
561.23	2219.80
561.58	2226.39
561.94	2231.63
562.29	2236.38
562.64	2242.75
563.00	2248.23
563.35	2253.87
563.71	2259.97
564.06	2265.74
564.42	2271.70
564.77	2276.82
565.12	2282.09
565.48	2287.46
565.83	2293.10
566.19	2298.66
566.54	2304.07
566.89	2308.76
567.25	2313.52
567.60	2319.32
567.96	2324.55
568.31	2329.10
568.66	2333.16
569.02	2337.09
569.37	2340.87
569.72	2345.25
570.08	2348.81
570.43	2352.02
570.78	2355.16
571.14	2357.82
571.49	2361.00
571.84	2364.74
572.20	2367.71
572.55	2370.92
572.90	2373.18
573.26	2376.29
573.61	2378.86
573.96	2381.12
574.31	2383.32
574.67	2385.28
575.02	2386.28
575.37	2387.83
575.72	2388.83
576.08	2390.64
576.43	2391.12
576.78	2392.01
577.13	2393.99
577.49	2395.36
577.84	2396.95
578.19	2398.48
578.54	2399.30
578.90	2400.53
579.25	2400.74
579.60	2401.03
579.95	2400.49
580.30	2401.21
580.66	2400.69
581.01	2399.24
581.36	2397.32
581.71	2396.14
582.06	2395.43
582.42	2394.83
582.77	2392.98
583.12	2391.67
583.47	2390.68
583.82	2390.29
584.17	2389.23
584.53	2387.25
584.88	2385.33
585.23	2383.50
585.58	2381.52
585.93	2379.61
586.28	2377.60
586.63	2375.45
586.98	2373.47
587.34	2371.93
587.69	2369.73
588.04	2367.95
588.39	2366.81
588.74	2364.59
589.09	2362.38
589.44	2359.57
589.79	2357.23
590.14	2355.67
590.49	2352.99
590.84	2349.46
591.19	2346.65
591.54	2343.64
591.89	2339.78
592.25	2336.79
592.60	2332.74
592.95	2328.73
593.30	2324.55
593.65	2320.34
594.00	2316.18
594.35	2313.36
594.70	2308.71
595.05	2304.25
595.40	2299.05
595.75	2293.52
596.10	2289.92
596.45	2284.92
596.80	2280.39
597.15	2275.39
597.50	2269.51
597.85	2264.71
598.19	2259.42
598.54	2253.70
598.89	2248.66
599.24	2244.37
599.59	2238.35
599.94	2232.89
600.29	2227.19
600.64	2221.67
600.99	2215.15
601.34	2209.77
601.69	2202.75
602.04	2196.52
602.39	2190.03
602.74	2184.09
603.08	2178.68
603.43	2172.34
603.78	2165.84
604.13	2158.76
604.48	2151.62
604.83	2145.60
605.18	2139.44
605.53	2132.72
605.87	2125.83
606.22	2119.08
606.57	2111.23
606.92	2103.46
607.27	2096.50
607.62	2089.86
607.96	2082.85
608.31	2076.35
608.66	2068.66
609.01	2061.22
609.36	2054.24
609.70	2046.52
610.05	2038.86
610.40	2030.60
610.75	2022.41
611.10	2014.83
611.44	2006.26
611.79	1997.48
612.14	1987.53
612.49	1977.08
612.83	1967.96
613.18	1958.89
613.53	1949.69
613.88	1940.25
614.22	1931.81
614.57	1922.01
614.92	1911.59
615.27	1901.44
615.61	1891.58
615.96	1881.91
616.31	1872.44
616.65	1863.09
617.00	1853.27
617.35	1843.59
617.70	1833.88
618.04	1823.65
618.39	1813.19
618.74	1803.41
619.08	1793.86
619.43	1785.14
619.78	1776.88
620.12	1768.16
620.47	1758.33
620.82	1748.01
621.16	1738.08
621.51	1728.05
621.85	1718.07
622.20	1707.52
622.55	1697.06
622.89	1687.09
623.24	1677.30
623.59	1667.36
623.93	1657.25
624.28	1647.52
624.62	1637.29
624.97	1626.96
625.32	1617.42
625.66	1608.72
626.01	1599.81
626.35	1590.42
626.70	1580.33
627.04	1570.19
627.39	1560.07
627.73	1550.74
628.08	1541.53
628.43	1532.04
628.77	1522.76
629.12	1513.86
629.46	1506.05
629.81	1497.48
630.15	1487.87
630.50	1478.03
630.84	1467.57
631.19	1457.67
631.53	1448.22
631.88	1438.15
632.22	1428.17
632.57	1418.72
632.91	1408.48
633.26	1398.70
633.60	1389.12
633.95	1379.79
634.29	1370.42
634.64	1360.97
634.98	1351.10
635.32	1341.89
635.67	1333.25
636.01	1323.88
636.36	1314.09
636.70	1304.54
637.05	1295.22
637.39	1286.27
637.73	1277.60
638.08	1270.05
638.42	1261.63
638.77	1252.88
639.11	1244.54
639.45	1236.59
639.80	1227.78
640.14	1219.12
640.49	1210.18
640.83	1201.33
641.17	1193.20
641.52	1184.88
641.86	1176.23
642.20	1168.36
642.55	1159.79
642.89	1150.78
643.23	1142.14
643.58	1134.03
643.92	1124.91
644.26	1116.25
644.61	1107.64
644.95	1098.91
645.29	1089.67
645.64	1080.53
645.98	1072.21
646.32	1064.26
646.66	1055.74
647.01	1047.39
647.35	1039.19
647.69	1030.79
648.04	1022.49
648.38	1013.50
648.72	1004.77
649.06	996.43
649.41	988.24
649.75	980.14
650.09	972.32
650.43	964.28
650.78	956.11
651.12	948.52
651.46	941.16
651.80	933.97
652.14	926.59
652.49	919.05
652.83	911.76
653.17	903.95
653.51	896.32
653.85	889.08
654.20	881.83
654.54	874.24
654.88	867.18
655.22	860.06
655.56	853.14
655.90	846.30
656.25	839.54
656.59	832.49
656.93	825.53
657.27	818.45
657.61	811.62
657.95	805.58
658.29	799.65
658.64	793.39
658.98	787.05
659.32	780.53
659.66	774.26
660.00	767.95
660.34	761.97
660.68	755.94
661.02	749.76
661.36	743.98
661.70	738.39
662.05	732.65
662.39	727.21
662.73	721.87
663.07	716.55
663.41	711.07
663.75	705.48
664.09	699.96
664.43	694.68
664.77	689.35
665.11	683.47
665.45	677.65
665.79	672.02
666.13	666.28
666.47	660.86
666.81	655.61
667.15	650.37
667.49	645.20
667.83	639.94
668.17	634.75
668.51	629.69
668.85	624.80
669.19	620.00
669.53	615.04
669.87	610.00
670.21	605.29
670.55	600.62
670.89	596.35
671.23	592.06
671.57	587.75
671.91	583.49
672.25	579.44
672.58	575.30
672.92	571.31
673.26	567.48
673.60	563.72
673.94	559.91
674.28	556.30
674.62	552.60
674.96	549.01
675.30	545.53
675.64	541.96
675.97	538.38
676.31	534.84
676.65	531.25
676.99	527.86
677.33	524.09
677.67	520.47
678.01	516.67
678.34	513.10
678.68	509.62
679.02	506.03
679.36	502.35
679.70	498.89
680.04	495.40
680.37	492.01
680.71	488.70
681.05	485.65
681.39	482.44
681.73	479.36
682.06	476.32
682.40	473.25
682.74	470.04
683.08	466.89
683.42	463.79
683.75	460.86
684.09	457.90
684.43	455.17
684.77	452.26
685.10	449.43
685.44	446.59
685.78	443.68
686.12	441.01
686.45	438.37
686.79	435.68
687.13	433.13
687.46	430.51
687.80	427.90
688.14	425.00
688.48	422.51
688.81	419.92
689.15	417.40
689.49	414.82
689.82	412.40
690.16	409.86
690.50	407.42
690.83	404.94
691.17	402.48
691.51	400.10
691.84	398.00
692.18	395.89
692.52	393.69
692.85	391.59
693.19	389.51
693.52	387.42
693.86	385.28
694.20	383.20
694.53	381.14
694.87	379.02
695.21	376.96
695.54	374.80
695.88	372.67
696.21	370.56
696.55	368.49
696.88	366.46
697.22	364.51
697.56	362.69
697.89	360.93
698.23	359.21
698.56	357.45
698.90	355.65
699.23	353.72
699.57	351.92
699.90	350.15
700.24	348.41
700.58	346.68
700.91	345.05
701.25	343.52
701.58	341.95
701.92	340.41
702.25	338.88
702.59	337.40
702.92	335.91
703.26	334.39
703.59	333.03
703.93	331.82
704.26	330.44
704.60	328.97
704.93	327.52
705.26	326.06
705.60	324.59
705.93	323.19
706.27	321.93
706.60	320.72
706.94	319.52
707.27	318.15
707.61	316.89
707.94	315.59
708.27	314.10
708.61	312.75
708.94	311.41
709.28	310.18
709.61	308.90
709.94	307.70
710.28	306.55
710.61	305.37
710.95	303.95
711.28	302.94
711.61	301.79
711.95	300.71
712.28	299.56
712.61	298.44
712.95	297.40
713.28	296.39
713.61	295.26
713.95	294.13
714.28	293.15
714.61	292.15
714.95	291.21
715.28	290.23
715.61	289.22
715.95	288.31
716.28	287.42
716.61	286.51
716.95	285.58
717.28	284.66
717.61	283.75
717.94	282.93
718.28	281.95
718.61	281.12
718.94	280.19
719.27	279.38
719.61	278.62
719.94	277.74
720.27	276.81
720.60	276.01
720.94	275.25
721.27	274.48
721.60	273.78
721.93	273.04
722.27	272.41
722.60	271.79
722.93	271.09
723.26	270.42
723.59	269.73
723.93	269.08
724.26	268.44
724.59	267.79
724.92	267.23
725.25	266.67
725.59	266.09
725.92	265.59
726.25	265.03
726.58	264.47
726.91	263.94
727.24	263.42
727.57	262.86
727.91	262.24
728.24	261.77
728.57	261.16
728.90	260.64
729.23	260.08
729.56	259.67
729.89	259.11
730.22	258.54
730.55	258.02
730.89	257.52
731.22	257.04
731.55	256.52
731.88	255.97
732.21	255.45
732.54	254.93
732.87	254.41
733.20	253.94
733.53	253.45
733.86	253.03
734.19	252.56
734.52	252.17
734.85	251.90
735.18	251.38
735.51	251.05
735.84	250.66
736.17	250.27
736.50	249.72
736.83	249.62
737.16	249.27
737.49	248.89
737.82	248.50
738.15	248.17
738.48	247.84
738.81	247.48
739.14	247.10
739.47	246.76
739.80	246.46
740.13	246.14
740.46	245.76
740.79	245.37
741.12	245.02
741.45	244.65
741.78	244.24
742.11	244.00
742.44	243.64
742.77	243.34
743.10	243.00
743.43	242.69
743.75	242.13
744.08	242.05
744.41	241.75
744.74	241.39
745.07	241.01
745.40	240.70
745.73	240.47
746.06	240.18
746.39	239.92
746.71	239.57
747.04	239.18
747.37	238.87
747.70	238.61
748.03	238.31
748.36	238.06
748.68	237.77
749.01	237.41
749.34	237.11
749.67	236.83
750.00	236.58
750.33	236.45
750.65	236.21
750.98	235.71
751.31	235.47
751.64	235.27
751.97	235.13
752.29	234.88
752.62	234.54
752.95	234.27
753.28	233.98
753.60	233.75
753.93	233.63
754.26	233.46
754.59	233.19
754.91	233.00
755.24	232.74
755.57	232.52
755.90	232.32
756.22	232.10
756.55	231.86
756.88	231.60
757.20	231.27
757.53	231.00
757.86	230.79
758.19	230.61
758.51	230.39
758.84	230.15
759.17	229.97
759.49	229.81
759.82	229.74
760.15	229.59
760.47	229.40
760.80	229.15
761.13	228.99
761.45	228.80
761.78	228.62
762.11	228.48
762.43	228.30
762.76	228.13
763.08	227.97
763.41	227.82
763.74	227.67
764.06	227.52
764.39	227.39
764.71	227.25
765.04	227.09
765.37	226.90
765.69	226.75
766.02	226.61
766.34	226.45
766.67	226.24
767.00	226.14
767.32	226.13
767.65	226.14
767.97	225.99
768.30	225.92
768.62	225.82
768.95	225.65
769.27	225.52
769.60	225.41
769.92	225.25
770.25	225.09
770.57	224.97
770.90	224.84
771.22	224.73
771.55	224.64
771.87	224.53
772.20	224.48
772.52	224.50
772.85	224.65
773.17	224.55
773.50	224.43
773.82	224.29
774.15	224.07
774.47	223.84
774.80	223.70
775.12	223.57
775.45	223.47
775.77	223.43
776.09	223.37
776.42	223.30
776.74	223.30
777.07	223.22
777.39	223.13
777.72	223.07
778.04	223.04
778.36	222.93
778.69	222.84
779.01	222.75
779.33	222.51
779.66	222.20
779.98	222.11
780.31	222.03
780.63	222.02
780.95	221.99
781.28	221.92
781.60	221.85
781.92	221.78
782.25	221.74
782.57	221.64
782.89	221.55
783.22	221.47
783.54	221.36
783.86	221.33
784.19	221.28
784.51	221.24
784.83	221.12
785.16	221.03
785.48	221.01
785.80	220.96
786.12	220.94
