SpectraSuite Data File
++++++++++++++++++++++++++++++++++++
Date: Tue Jan 29 16:56:48 EST 2013
User: group
Dark Spectrum Present: No
Reference Spectrum Present: No
Number of Sampled Component Spectra: 1
Spectrometers: USB2E7196
Integration Time (usec): 65000 (USB2E7196)
Spectra Averaged: 100 (USB2E7196)
Boxcar Smoothing: 10 (USB2E7196)
Correct for Electrical Dark: No (USB2E7196)
Strobe/Lamp Enabled: No (USB2E7196)
Correct for Detector Non-linearity: No (USB2E7196)
Correct for Stray Light: No (USB2E7196)
Number of Pixels in Processed Spectrum: 2048
>>>>>Begin Processed Spectral Data<<<<<
339.09	0.00
339.48	200.61
339.86	203.33
340.24	204.40
340.63	205.17
341.01	210.02
341.39	208.59
341.78	209.46
342.16	211.37
342.54	211.54
342.93	200.60
343.31	210.76
343.69	211.34
344.07	211.77
344.46	212.20
344.84	212.63
345.22	212.77
345.60	213.00
345.99	213.21
346.37	213.35
346.75	213.47
347.13	213.56
347.52	213.62
347.90	213.75
348.28	213.75
348.66	213.85
349.05	213.81
349.43	213.86
349.81	213.90
350.19	213.94
350.57	214.03
350.96	214.12
351.34	214.21
351.72	214.31
352.10	214.44
352.48	214.51
352.87	214.54
353.25	214.63
353.63	214.71
354.01	214.80
354.39	214.85
354.77	214.94
355.15	215.07
355.54	215.13
355.92	215.12
356.30	215.20
356.68	215.41
357.06	215.52
357.44	215.56
357.82	215.64
358.20	215.74
358.58	215.79
358.97	215.86
359.35	215.97
359.73	216.09
360.11	216.16
360.49	216.25
360.87	216.31
361.25	216.40
361.63	216.54
362.01	216.59
362.39	216.62
362.77	216.65
363.15	216.69
363.53	216.74
363.91	216.80
364.29	216.83
364.67	216.69
365.05	216.71
365.43	216.78
365.81	216.86
366.19	216.95
366.57	217.07
366.95	217.08
367.33	217.05
367.71	217.04
368.09	217.07
368.47	217.08
368.85	217.08
369.23	217.11
369.61	217.03
369.99	217.06
370.37	217.10
370.75	217.20
371.13	217.12
371.51	217.03
371.89	217.02
372.27	217.03
372.65	216.99
373.03	216.97
373.41	216.91
373.78	216.84
374.16	216.69
374.54	216.60
374.92	216.50
375.30	216.46
375.68	216.39
376.06	216.33
376.44	216.25
376.82	216.22
377.19	216.14
377.57	216.09
377.95	215.98
378.33	215.92
378.71	215.74
379.09	215.72
379.47	215.75
379.84	215.68
380.22	215.58
380.60	215.51
380.98	215.43
381.36	215.38
381.73	215.32
382.11	215.32
382.49	215.24
382.87	215.20
383.25	215.12
383.62	215.31
384.00	215.22
384.38	215.19
384.76	215.18
385.13	215.22
385.51	215.17
385.89	215.12
386.27	215.09
386.64	215.11
387.02	215.06
387.40	215.01
387.78	215.00
388.15	215.00
388.53	214.97
388.91	214.96
389.29	214.95
389.66	214.95
390.04	214.92
390.42	214.95
390.79	214.96
391.17	214.96
391.55	214.74
391.92	214.76
392.30	214.75
392.68	214.71
393.05	214.68
393.43	214.71
393.81	214.72
394.18	214.68
394.56	214.65
394.94	214.70
395.31	214.65
395.69	214.71
396.06	214.74
396.44	214.76
396.82	214.77
397.19	214.88
397.57	214.90
397.95	214.93
398.32	214.91
398.70	214.95
399.07	215.03
399.45	215.05
399.82	215.07
400.20	215.10
400.58	215.18
400.95	215.16
401.33	215.22
401.70	215.44
402.08	215.54
402.45	215.62
402.83	215.72
403.20	215.87
403.58	215.94
403.95	216.11
404.33	216.28
404.71	216.35
405.08	216.59
405.46	216.76
405.83	216.97
406.21	217.19
406.58	217.46
406.96	217.69
407.33	217.97
407.70	218.29
408.08	218.77
408.45	219.10
408.83	219.50
409.20	219.89
409.58	220.16
409.95	220.64
410.33	221.16
410.70	221.60
411.08	222.17
411.45	222.77
411.82	223.34
412.20	224.05
412.57	224.93
412.95	225.47
413.32	226.27
413.69	227.10
414.07	228.01
414.44	228.96
414.82	229.94
415.19	231.12
415.56	232.35
415.94	233.55
416.31	234.99
416.68	236.41
417.06	238.02
417.43	239.60
417.81	241.36
418.18	243.16
418.55	245.12
418.93	247.16
419.30	249.29
419.67	251.52
420.04	253.79
420.42	256.18
420.79	259.10
421.16	261.94
421.54	264.90
421.91	267.90
422.28	271.03
422.66	274.38
423.03	277.67
423.40	281.07
423.77	284.67
424.15	288.33
424.52	292.20
424.89	296.42
425.26	300.54
425.64	304.41
426.01	308.69
426.38	313.19
426.75	317.74
427.13	322.52
427.50	327.55
427.87	332.80
428.24	338.08
428.61	343.08
428.99	348.67
429.36	354.71
429.73	360.61
430.10	366.46
430.47	372.58
430.85	378.89
431.22	385.61
431.59	392.77
431.96	399.69
432.33	407.26
432.70	414.55
433.08	423.12
433.45	431.25
433.82	439.38
434.19	448.35
434.56	457.15
434.93	465.50
435.30	473.82
435.68	483.04
436.05	492.08
436.42	501.08
436.79	509.31
437.16	518.09
437.53	527.50
437.90	536.78
438.27	545.80
438.64	555.17
439.01	563.79
439.38	571.43
439.75	578.77
440.13	587.27
440.50	595.25
440.87	601.78
441.24	608.46
441.61	615.85
441.98	621.25
442.35	627.60
442.72	634.01
443.09	640.13
443.46	643.87
443.83	646.42
444.20	648.64
444.57	651.75
444.94	653.29
445.31	654.79
445.68	656.26
446.05	656.96
446.42	656.13
446.79	655.19
447.16	654.15
447.53	653.43
447.90	650.13
448.27	646.86
448.64	642.14
449.01	638.83
449.37	632.85
449.74	627.25
450.11	620.36
450.48	612.93
450.85	605.47
451.22	598.99
451.59	592.82
451.96	586.96
452.33	579.08
452.70	571.90
453.07	563.32
453.43	554.65
453.80	546.19
454.17	538.13
454.54	530.51
454.91	522.22
455.28	514.11
455.65	506.59
456.02	498.97
456.38	492.57
456.75	484.65
457.12	478.03
457.49	471.37
457.86	465.10
458.23	459.63
458.59	453.57
458.96	447.49
459.33	442.10
459.70	436.60
460.07	432.24
460.43	427.25
460.80	422.61
461.17	418.50
461.54	414.30
461.91	410.22
462.27	406.03
462.64	402.57
463.01	398.77
463.38	395.05
463.74	391.35
464.11	388.15
464.48	385.29
464.85	382.13
465.21	379.73
465.58	377.10
465.95	373.94
466.32	371.32
466.68	368.67
467.05	366.09
467.42	363.60
467.78	360.90
468.15	358.38
468.52	356.46
468.88	353.94
469.25	351.70
469.62	349.89
469.98	347.88
470.35	346.05
470.72	344.38
471.08	342.55
471.45	341.04
471.82	339.45
472.18	337.76
472.55	336.54
472.92	335.09
473.28	333.80
473.65	332.67
474.02	331.52
474.38	330.61
474.75	329.76
475.11	328.90
475.48	328.34
475.85	327.80
476.21	327.30
476.58	326.91
476.94	326.71
477.31	326.37
477.67	326.13
478.04	326.00
478.41	325.89
478.77	325.99
479.14	325.91
479.50	326.02
479.87	326.30
480.23	326.63
480.60	326.81
480.96	327.09
481.33	327.65
481.69	328.25
482.06	328.76
482.42	329.25
482.79	329.81
483.15	330.60
483.52	331.59
483.88	332.49
484.25	333.44
484.61	334.39
484.98	335.49
485.34	336.83
485.71	338.20
486.07	339.63
486.44	340.97
486.80	342.63
487.17	344.32
487.53	346.17
487.90	348.01
488.26	350.06
488.62	352.23
488.99	354.26
489.35	356.39
489.72	358.76
490.08	361.30
490.44	363.86
490.81	366.54
491.17	369.23
491.54	372.15
491.90	375.19
492.26	378.43
492.63	381.81
492.99	385.28
493.36	388.91
493.72	392.78
494.08	396.77
494.45	400.97
494.81	405.33
495.17	409.73
495.54	414.43
495.90	419.31
496.26	424.21
496.63	429.43
496.99	434.90
497.35	440.48
497.72	446.29
498.08	452.22
498.44	458.33
498.80	464.70
499.17	471.20
499.53	477.86
499.89	484.75
500.26	491.72
500.62	498.79
500.98	506.17
501.34	513.62
501.71	521.37
502.07	529.13
502.43	537.07
502.79	545.21
503.16	553.53
503.52	562.13
503.88	570.80
504.24	579.71
504.60	588.75
504.97	597.95
505.33	607.22
505.69	617.07
506.05	626.86
506.41	636.72
506.78	646.80
507.14	657.07
507.50	667.48
507.86	678.18
508.22	688.98
508.59	699.61
508.95	710.60
509.31	721.78
509.67	733.24
510.03	744.56
510.39	756.25
510.75	768.15
511.12	780.01
511.48	792.06
511.84	804.27
512.20	816.49
512.56	829.01
512.92	841.80
513.28	854.35
513.64	867.09
514.00	880.00
514.37	892.88
514.73	905.96
515.09	918.92
515.45	931.83
515.81	944.80
516.17	958.19
516.53	971.48
516.89	984.63
517.25	997.79
517.61	1011.31
517.97	1024.70
518.33	1037.80
518.69	1051.24
519.05	1065.00
519.41	1078.68
519.77	1092.71
520.13	1106.06
520.49	1119.17
520.85	1132.52
521.21	1145.84
521.57	1159.34
521.93	1172.47
522.29	1186.19
522.65	1199.79
523.01	1213.42
523.37	1226.66
523.73	1240.00
524.09	1253.23
524.45	1266.61
524.81	1280.08
525.17	1293.54
525.53	1306.65
525.89	1320.00
526.25	1333.28
526.61	1346.15
526.97	1359.27
527.33	1372.11
527.68	1385.78
528.04	1399.26
528.40	1412.55
528.76	1425.96
529.12	1439.04
529.48	1452.40
529.84	1464.73
530.20	1477.51
530.56	1490.07
530.91	1503.32
531.27	1516.10
531.63	1528.73
531.99	1541.63
532.35	1553.89
532.71	1566.18
533.07	1579.27
533.42	1591.52
533.78	1603.65
534.14	1615.69
534.50	1627.10
534.86	1638.79
535.21	1649.53
535.57	1661.20
535.93	1672.41
536.29	1683.46
536.65	1695.05
537.00	1706.07
537.36	1717.59
537.72	1728.75
538.08	1740.20
538.44	1751.22
538.79	1762.54
539.15	1773.72
539.51	1784.62
539.87	1796.05
540.22	1807.09
540.58	1818.06
540.94	1829.15
541.29	1839.48
541.65	1849.47
542.01	1859.95
542.37	1869.99
542.72	1880.24
543.08	1889.90
543.44	1900.48
543.79	1909.92
544.15	1919.40
544.51	1929.25
544.87	1939.08
545.22	1948.44
545.58	1957.28
545.94	1966.20
546.29	1974.65
546.65	1982.93
547.01	1991.05
547.36	1998.79
547.72	2006.55
548.07	2014.13
548.43	2021.83
548.79	2029.73
549.14	2037.84
549.50	2046.30
549.86	2054.25
550.21	2061.83
550.57	2069.72
550.92	2076.59
551.28	2084.07
551.64	2091.21
551.99	2098.80
552.35	2105.94
552.70	2112.71
553.06	2119.48
553.41	2125.85
553.77	2132.40
554.13	2138.82
554.48	2145.91
554.84	2153.00
555.19	2159.64
555.55	2165.94
555.90	2172.20
556.26	2179.04
556.61	2185.26
556.97	2190.08
557.32	2195.80
557.68	2202.02
558.03	2207.87
558.39	2213.23
558.74	2219.17
559.10	2224.72
559.45	2230.38
559.81	2235.98
560.16	2241.54
560.52	2247.36
560.87	2253.56
561.23	2259.29
561.58	2266.02
561.94	2271.21
562.29	2275.73
562.64	2281.48
563.00	2287.40
563.35	2292.92
563.71	2298.40
564.06	2303.89
564.42	2309.78
564.77	2314.95
565.12	2320.24
565.48	2325.13
565.83	2330.49
566.19	2335.72
566.54	2340.84
566.89	2345.16
567.25	2349.44
567.60	2355.09
567.96	2360.11
568.31	2364.56
568.66	2368.81
569.02	2372.61
569.37	2376.38
569.72	2380.87
570.08	2384.27
570.43	2387.15
570.78	2390.15
571.14	2392.50
571.49	2395.41
571.84	2398.64
572.20	2401.40
572.55	2404.07
572.90	2406.18
573.26	2408.75
573.61	2411.38
573.96	2413.44
574.31	2415.39
574.67	2417.28
575.02	2417.83
575.37	2419.07
575.72	2419.69
576.08	2421.08
576.43	2420.90
576.78	2420.94
577.13	2422.05
577.49	2423.18
577.84	2424.00
578.19	2424.86
578.54	2425.45
578.90	2425.92
579.25	2425.79
579.60	2425.37
579.95	2424.59
580.30	2424.29
580.66	2423.49
581.01	2421.64
581.36	2418.95
581.71	2417.27
582.06	2415.77
582.42	2414.54
582.77	2412.13
583.12	2410.18
583.47	2408.25
583.82	2407.43
584.17	2405.90
584.53	2403.55
584.88	2401.14
585.23	2399.04
585.58	2396.67
585.93	2394.55
586.28	2392.21
586.63	2389.50
586.98	2387.17
587.34	2384.91
587.69	2382.24
588.04	2379.89
588.39	2378.12
588.74	2375.75
589.09	2372.84
589.44	2369.48
589.79	2366.81
590.14	2364.60
590.49	2361.71
590.84	2357.87
591.19	2354.56
591.54	2351.38
591.89	2347.39
592.25	2344.09
592.60	2339.77
592.95	2335.65
593.30	2331.39
593.65	2326.97
594.00	2322.42
594.35	2319.39
594.70	2314.65
595.05	2310.34
595.40	2304.91
595.75	2299.02
596.10	2295.18
596.45	2290.45
596.80	2285.88
597.15	2280.67
597.50	2274.76
597.85	2269.73
598.19	2264.63
598.54	2258.78
598.89	2253.37
599.24	2248.67
599.59	2242.54
599.94	2236.40
600.29	2230.27
600.64	2224.09
600.99	2217.11
601.34	2211.54
601.69	2204.44
602.04	2198.10
602.39	2191.24
602.74	2184.98
603.08	2179.40
603.43	2172.93
603.78	2166.06
604.13	2158.98
604.48	2151.68
604.83	2145.58
605.18	2139.54
605.53	2132.62
605.87	2125.65
606.22	2118.97
606.57	2111.18
606.92	2103.07
607.27	2096.32
607.62	2089.76
607.96	2082.92
608.31	2076.59
608.66	2068.93
609.01	2061.39
609.36	2054.33
609.70	2046.89
610.05	2039.20
610.40	2031.01
610.75	2022.52
611.10	2014.75
611.44	2005.85
611.79	1997.30
612.14	1987.39
612.49	1976.57
612.83	1967.10
613.18	1957.76
613.53	1948.37
613.88	1938.72
614.22	1930.17
614.57	1920.37
614.92	1909.77
615.27	1899.30
615.61	1889.14
615.96	1879.49
616.31	1869.83
616.65	1860.21
617.00	1850.44
617.35	1840.78
617.70	1831.03
618.04	1821.24
618.39	1811.15
618.74	1801.69
619.08	1791.91
619.43	1783.22
619.78	1775.03
620.12	1766.68
620.47	1757.37
620.82	1747.09
621.16	1737.48
621.51	1727.68
621.85	1718.07
622.20	1707.99
622.55	1697.81
622.89	1687.98
623.24	1678.29
623.59	1668.51
623.93	1658.63
624.28	1648.88
624.62	1638.94
624.97	1628.87
625.32	1619.12
625.66	1610.27
626.01	1601.68
626.35	1592.65
626.70	1582.81
627.04	1573.18
627.39	1562.95
627.73	1553.75
628.08	1545.02
628.43	1535.63
628.77	1526.46
629.12	1517.50
629.46	1509.64
629.81	1501.38
630.15	1492.14
630.50	1482.52
630.84	1472.23
631.19	1462.30
631.53	1453.34
631.88	1443.35
632.22	1433.36
632.57	1424.04
632.91	1414.02
633.26	1404.13
633.60	1394.61
633.95	1385.40
634.29	1375.81
634.64	1366.68
634.98	1356.80
635.32	1347.65
635.67	1339.26
636.01	1330.13
636.36	1320.67
636.70	1311.31
637.05	1302.14
637.39	1293.26
637.73	1284.74
638.08	1277.26
638.42	1269.34
638.77	1260.58
639.11	1252.48
639.45	1244.98
639.80	1236.72
640.14	1228.24
640.49	1219.56
640.83	1210.85
641.17	1202.71
641.52	1194.71
641.86	1186.35
642.20	1178.65
642.55	1170.06
642.89	1161.29
643.23	1152.81
643.58	1144.74
643.92	1135.90
644.26	1127.20
644.61	1118.92
644.95	1110.23
645.29	1101.19
645.64	1092.16
645.98	1083.62
646.32	1075.73
646.66	1067.25
647.01	1059.05
647.35	1050.92
647.69	1042.74
648.04	1034.60
648.38	1025.93
648.72	1017.23
649.06	1008.81
649.41	1000.63
649.75	992.86
650.09	985.10
650.43	977.18
650.78	968.90
651.12	961.18
651.46	953.83
651.80	946.63
652.14	939.54
652.49	932.11
652.83	924.89
653.17	917.36
653.51	909.84
653.85	902.63
654.20	895.42
654.54	888.18
654.88	881.02
655.22	873.77
655.56	866.83
655.90	860.13
656.25	853.52
656.59	846.88
656.93	839.95
657.27	832.89
657.61	825.89
657.95	819.83
658.29	813.97
658.64	807.94
658.98	801.52
659.32	795.03
659.66	788.81
660.00	782.49
660.34	776.36
660.68	770.28
661.02	764.01
661.36	758.01
661.70	752.13
662.05	746.49
662.39	741.11
662.73	735.73
663.07	730.29
663.41	724.70
663.75	718.83
664.09	713.12
664.43	707.66
664.77	702.45
665.11	696.69
665.45	690.83
665.79	685.01
666.13	679.33
666.47	673.81
666.81	668.37
667.15	663.01
667.49	657.93
667.83	652.64
668.17	647.39
668.51	642.30
668.85	637.39
669.19	632.49
669.53	627.40
669.87	622.23
670.21	617.48
670.55	612.81
670.89	608.40
671.23	604.02
671.57	599.58
671.91	595.27
672.25	591.01
672.58	586.85
672.92	582.80
673.26	578.89
673.60	574.96
673.94	571.14
674.28	567.51
674.62	563.84
674.96	560.11
675.30	556.55
675.64	552.90
675.97	549.32
676.31	545.69
676.65	542.17
676.99	538.88
677.33	535.04
677.67	531.41
678.01	527.60
678.34	524.02
678.68	520.57
679.02	516.98
679.36	513.34
679.70	509.69
680.04	506.13
680.37	502.61
680.71	499.31
681.05	496.09
681.39	492.71
681.73	489.41
682.06	486.40
682.40	483.32
682.74	480.13
683.08	476.92
683.42	473.71
683.75	470.62
684.09	467.43
684.43	464.62
684.77	461.63
685.10	458.77
685.44	455.84
685.78	452.88
686.12	450.05
686.45	447.31
686.79	444.59
687.13	441.99
687.46	439.42
687.80	436.71
688.14	433.89
688.48	431.30
688.81	428.61
689.15	426.00
689.49	423.38
689.82	420.80
690.16	418.19
690.50	415.70
690.83	413.20
691.17	410.68
691.51	408.16
691.84	405.83
692.18	403.56
692.52	401.26
692.85	399.08
693.19	396.96
693.52	394.81
693.86	392.61
694.20	390.39
694.53	388.16
694.87	385.95
695.21	383.79
695.54	381.64
695.88	379.40
696.21	377.15
696.55	375.01
696.88	372.97
697.22	370.90
697.56	369.00
697.89	367.09
698.23	365.28
698.56	363.46
698.90	361.72
699.23	359.80
699.57	357.96
699.90	356.05
700.24	354.14
700.58	352.35
700.91	350.66
701.25	349.09
701.58	347.50
701.92	345.90
702.25	344.27
702.59	342.59
702.92	341.08
703.26	339.58
703.59	338.08
703.93	336.81
704.26	335.39
704.60	333.87
704.93	332.37
705.26	330.87
705.60	329.37
705.93	327.80
706.27	326.47
706.60	325.14
706.94	323.90
707.27	322.51
707.61	321.13
707.94	319.74
708.27	318.19
708.61	316.70
708.94	315.32
709.28	313.99
709.61	312.72
709.94	311.46
710.28	310.19
710.61	308.97
710.95	307.52
711.28	306.41
711.61	305.20
711.95	304.04
712.28	302.81
712.61	301.62
712.95	300.55
713.28	299.48
713.61	298.30
713.95	297.16
714.28	296.16
714.61	295.06
714.95	294.03
715.28	293.00
715.61	291.99
715.95	291.00
716.28	289.99
716.61	289.03
716.95	288.03
717.28	287.08
717.61	286.10
717.94	285.17
718.28	284.15
718.61	283.27
718.94	282.38
719.27	281.51
719.61	280.71
719.94	279.83
720.27	278.84
720.60	277.95
720.94	277.11
721.27	276.34
721.60	275.64
721.93	274.91
722.27	274.25
722.60	273.59
722.93	272.86
723.26	272.24
723.59	271.51
723.93	270.83
724.26	270.15
724.59	269.52
724.92	268.91
725.25	268.36
725.59	267.73
725.92	267.16
726.25	266.55
726.58	265.97
726.91	265.38
727.24	264.87
727.57	264.33
727.91	263.72
728.24	263.15
728.57	262.55
728.90	262.00
729.23	261.38
729.56	260.88
729.89	260.35
730.22	259.73
730.55	259.18
730.89	258.68
731.22	258.15
731.55	257.63
731.88	257.11
732.21	256.51
732.54	255.99
732.87	255.48
733.20	255.04
733.53	254.52
733.86	254.08
734.19	253.55
734.52	253.16
734.85	252.87
735.18	252.37
735.51	252.04
735.84	251.61
736.17	251.22
736.50	250.67
736.83	250.52
737.16	250.16
737.49	249.81
737.82	249.39
738.15	249.02
738.48	248.59
738.81	248.18
739.14	247.75
739.47	247.36
739.80	246.96
740.13	246.61
740.46	246.23
740.79	245.78
741.12	245.41
741.45	245.01
741.78	244.57
742.11	244.30
742.44	243.88
742.77	243.60
743.10	243.24
743.43	242.91
743.75	242.28
744.08	242.20
744.41	241.81
744.74	241.45
745.07	241.03
745.40	240.71
745.73	240.46
746.06	240.19
746.39	239.88
746.71	239.55
747.04	239.15
747.37	238.83
747.70	238.57
748.03	238.26
748.36	237.97
748.68	237.62
749.01	237.26
749.34	236.97
749.67	236.65
750.00	236.36
750.33	236.25
750.65	236.01
750.98	235.45
751.31	235.21
751.64	234.99
751.97	234.91
752.29	234.66
752.62	234.29
752.95	234.00
753.28	233.69
753.60	233.43
753.93	233.26
754.26	233.05
754.59	232.74
754.91	232.51
755.24	232.25
755.57	232.03
755.90	231.76
756.22	231.53
756.55	231.28
756.88	231.05
757.20	230.68
757.53	230.39
757.86	230.19
758.19	230.00
758.51	229.78
758.84	229.44
759.17	229.22
759.49	229.09
759.82	229.00
760.15	228.90
760.47	228.72
760.80	228.48
761.13	228.29
761.45	228.15
761.78	227.94
762.11	227.80
762.43	227.59
762.76	227.43
763.08	227.27
763.41	227.10
763.74	226.94
764.06	226.78
764.39	226.65
764.71	226.50
765.04	226.30
765.37	226.13
765.69	226.01
766.02	225.85
766.34	225.68
766.67	225.47
767.00	225.35
767.32	225.34
767.65	225.33
767.97	225.17
768.30	225.04
768.62	224.90
768.95	224.71
769.27	224.61
769.60	224.49
769.92	224.34
770.25	224.17
770.57	223.99
770.90	223.87
771.22	223.73
771.55	223.59
771.87	223.49
772.20	223.36
772.52	223.41
772.85	223.54
773.17	223.40
773.50	223.25
773.82	223.13
774.15	222.90
774.47	222.69
774.80	222.56
775.12	222.45
775.45	222.37
775.77	222.31
776.09	222.22
776.42	222.15
776.74	222.15
777.07	222.07
777.39	222.02
777.72	221.90
778.04	221.87
778.36	221.80
778.69	221.72
779.01	221.63
779.33	221.36
779.66	221.06
779.98	221.00
780.31	220.94
780.63	220.93
780.95	220.88
781.28	220.80
781.60	220.74
781.92	220.66
782.25	220.62
782.57	220.50
782.89	220.44
783.22	220.36
783.54	220.23
783.86	220.16
784.19	220.08
784.51	220.13
784.83	220.01
785.16	219.93
785.48	219.87
785.80	219.83
786.12	219.80
