SpectraSuite Data File
++++++++++++++++++++++++++++++++++++
Date: Tue Jan 29 16:20:19 EST 2013
User: group
Dark Spectrum Present: No
Reference Spectrum Present: No
Number of Sampled Component Spectra: 1
Spectrometers: USB2E7196
Integration Time (usec): 65000 (USB2E7196)
Spectra Averaged: 100 (USB2E7196)
Boxcar Smoothing: 10 (USB2E7196)
Correct for Electrical Dark: No (USB2E7196)
Strobe/Lamp Enabled: No (USB2E7196)
Correct for Detector Non-linearity: No (USB2E7196)
Correct for Stray Light: No (USB2E7196)
Number of Pixels in Processed Spectrum: 2048
>>>>>Begin Processed Spectral Data<<<<<
339.09	0.00
339.48	202.81
339.86	204.11
340.24	205.60
340.63	206.90
341.01	211.17
341.39	209.40
341.78	211.14
342.16	213.40
342.54	212.86
342.93	201.90
343.31	212.11
343.69	212.65
344.07	213.11
344.46	213.57
344.84	213.98
345.22	214.16
345.60	214.47
345.99	214.70
346.37	214.79
346.75	214.93
347.13	214.99
347.52	215.02
347.90	215.11
348.28	215.18
348.66	215.27
349.05	215.26
349.43	215.30
349.81	215.38
350.19	215.42
350.57	215.50
350.96	215.57
351.34	215.63
351.72	215.71
352.10	215.79
352.48	215.84
352.87	215.89
353.25	215.95
353.63	215.98
354.01	216.00
354.39	216.08
354.77	216.10
355.15	216.23
355.54	216.28
355.92	216.28
356.30	216.32
356.68	216.51
357.06	216.57
357.44	216.58
357.82	216.62
358.20	216.67
358.58	216.72
358.97	216.76
359.35	216.86
359.73	216.97
360.11	217.02
360.49	217.05
360.87	217.08
361.25	217.18
361.63	217.29
362.01	217.32
362.39	217.31
362.77	217.33
363.15	217.35
363.53	217.37
363.91	217.40
364.29	217.43
364.67	217.24
365.05	217.29
365.43	217.31
365.81	217.35
366.19	217.48
366.57	217.55
366.95	217.57
367.33	217.51
367.71	217.49
368.09	217.56
368.47	217.55
368.85	217.55
369.23	217.54
369.61	217.43
369.99	217.50
370.37	217.51
370.75	217.60
371.13	217.56
371.51	217.49
371.89	217.48
372.27	217.47
372.65	217.45
373.03	217.41
373.41	217.38
373.78	217.31
374.16	217.14
374.54	217.03
374.92	216.97
375.30	216.93
375.68	216.86
376.06	216.80
376.44	216.78
376.82	216.75
377.19	216.70
377.57	216.66
377.95	216.55
378.33	216.52
378.71	216.33
379.09	216.32
379.47	216.35
379.84	216.30
380.22	216.24
380.60	216.20
380.98	216.15
381.36	216.13
381.73	216.08
382.11	216.12
382.49	216.10
382.87	216.09
383.25	216.07
383.62	216.27
384.00	216.18
384.38	216.16
384.76	216.16
385.13	216.19
385.51	216.17
385.89	216.12
386.27	216.09
386.64	216.11
387.02	216.03
387.40	215.97
387.78	215.94
388.15	215.92
388.53	215.88
388.91	215.86
389.29	215.79
389.66	215.82
390.04	215.77
390.42	215.80
390.79	215.77
391.17	215.73
391.55	215.51
391.92	215.52
392.30	215.52
392.68	215.48
393.05	215.46
393.43	215.45
393.81	215.45
394.18	215.41
394.56	215.44
394.94	215.51
395.31	215.51
395.69	215.63
396.06	215.66
396.44	215.69
396.82	215.70
397.19	215.86
397.57	215.85
397.95	215.91
398.32	215.87
398.70	215.92
399.07	216.03
399.45	216.05
399.82	216.07
400.20	216.13
400.58	216.18
400.95	216.17
401.33	216.29
401.70	216.50
402.08	216.64
402.45	216.72
402.83	216.83
403.20	216.95
403.58	217.00
403.95	217.17
404.33	217.35
404.71	217.52
405.08	217.76
405.46	217.92
405.83	218.11
406.21	218.31
406.58	218.56
406.96	218.78
407.33	219.07
407.70	219.39
408.08	219.85
408.45	220.21
408.83	220.62
409.20	220.93
409.58	221.23
409.95	221.64
410.33	222.10
410.70	222.55
411.08	223.09
411.45	223.64
411.82	224.20
412.20	224.87
412.57	225.70
412.95	226.26
413.32	227.09
413.69	227.94
414.07	228.87
414.44	229.82
414.82	230.85
415.19	232.02
415.56	233.18
415.94	234.30
416.31	235.69
416.68	237.06
417.06	238.69
417.43	240.21
417.81	241.94
418.18	243.69
418.55	245.61
418.93	247.62
419.30	249.72
419.67	251.91
420.04	254.17
420.42	256.50
420.79	259.29
421.16	262.02
421.54	264.88
421.91	267.77
422.28	270.83
422.66	274.04
423.03	277.23
423.40	280.54
423.77	284.10
424.15	287.67
424.52	291.43
424.89	295.57
425.26	299.55
425.64	303.40
426.01	307.63
426.38	312.03
426.75	316.49
427.13	321.10
427.50	326.01
427.87	331.10
428.24	336.20
428.61	341.09
428.99	346.58
429.36	352.44
429.73	358.28
430.10	364.07
430.47	370.07
430.85	376.28
431.22	382.91
431.59	389.87
431.96	396.65
432.33	404.06
432.70	411.18
433.08	419.60
433.45	427.52
433.82	435.46
434.19	444.16
434.56	452.77
434.93	461.04
435.30	469.17
435.68	478.13
436.05	486.99
436.42	495.72
436.79	503.74
437.16	512.40
437.53	521.52
437.90	530.49
438.27	539.34
438.64	548.48
439.01	556.85
439.38	564.35
439.75	571.60
440.13	579.91
440.50	587.69
440.87	594.05
441.24	600.59
441.61	607.80
441.98	613.14
442.35	619.37
442.72	625.55
443.09	631.50
443.46	635.21
443.83	637.71
444.20	639.94
444.57	643.00
444.94	644.48
445.31	645.94
445.68	647.31
446.05	647.86
446.42	647.00
446.79	646.07
447.16	645.01
447.53	644.23
447.90	640.94
448.27	637.66
448.64	633.05
449.01	629.76
449.37	623.93
449.74	618.35
450.11	611.56
450.48	604.30
450.85	597.00
451.22	590.67
451.59	584.56
451.96	578.78
452.33	571.06
452.70	564.03
453.07	555.63
453.43	547.14
453.80	539.01
454.17	531.17
454.54	523.70
454.91	515.62
455.28	507.77
455.65	500.41
456.02	493.08
456.38	486.86
456.75	479.12
457.12	472.67
457.49	466.26
457.86	460.17
458.23	454.91
458.59	449.05
458.96	443.11
459.33	437.96
459.70	432.69
460.07	428.50
460.43	423.70
460.80	419.20
461.17	415.33
461.54	411.23
461.91	407.27
462.27	403.19
462.64	399.78
463.01	396.02
463.38	392.44
463.74	388.77
464.11	385.56
464.48	382.83
464.85	379.78
465.21	377.40
465.58	374.81
465.95	371.69
466.32	369.14
466.68	366.54
467.05	363.94
467.42	361.43
467.78	358.80
468.15	356.25
468.52	354.40
468.88	351.93
469.25	349.71
469.62	347.94
469.98	346.07
470.35	344.37
470.72	342.71
471.08	340.94
471.45	339.50
471.82	338.00
472.18	336.33
472.55	335.13
472.92	333.76
473.28	332.54
473.65	331.41
474.02	330.32
474.38	329.48
474.75	328.78
475.11	327.98
475.48	327.42
475.85	327.01
476.21	326.52
476.58	326.15
476.94	325.93
477.31	325.66
477.67	325.41
478.04	325.30
478.41	325.24
478.77	325.42
479.14	325.37
479.50	325.52
479.87	325.82
480.23	326.16
480.60	326.40
480.96	326.68
481.33	327.27
481.69	327.83
482.06	328.35
482.42	328.82
482.79	329.46
483.15	330.25
483.52	331.19
483.88	332.06
484.25	333.03
484.61	334.04
484.98	335.12
485.34	336.44
485.71	337.77
486.07	339.24
486.44	340.55
486.80	342.20
487.17	343.86
487.53	345.71
487.90	347.59
488.26	349.63
488.62	351.82
488.99	353.89
489.35	356.14
489.72	358.58
490.08	361.12
490.44	363.68
490.81	366.39
491.17	369.12
491.54	372.18
491.90	375.21
492.26	378.52
492.63	381.93
492.99	385.47
493.36	389.15
493.72	393.10
494.08	397.19
494.45	401.43
494.81	405.84
495.17	410.32
495.54	415.03
495.90	419.88
496.26	424.87
496.63	430.08
496.99	435.42
497.35	440.97
497.72	446.82
498.08	452.85
498.44	458.91
498.80	465.39
499.17	471.85
499.53	478.57
499.89	485.50
500.26	492.54
500.62	499.70
500.98	507.18
501.34	514.62
501.71	522.44
502.07	530.22
502.43	538.24
502.79	546.33
503.16	554.76
503.52	563.37
503.88	572.08
504.24	581.18
504.60	590.34
504.97	599.60
505.33	608.87
505.69	618.67
506.05	628.64
506.41	638.49
506.78	648.66
507.14	658.96
507.50	669.45
507.86	680.24
508.22	691.05
508.59	701.70
508.95	712.79
509.31	724.04
509.67	735.61
510.03	747.08
510.39	758.99
510.75	770.89
511.12	782.84
511.48	795.03
511.84	807.26
512.20	819.66
512.56	832.38
512.92	845.22
513.28	857.96
513.64	870.79
514.00	883.68
514.37	896.67
514.73	909.86
515.09	922.90
515.45	935.73
515.81	948.76
516.17	962.20
516.53	975.54
516.89	988.70
517.25	1001.81
517.61	1015.40
517.97	1028.72
518.33	1041.96
518.69	1055.49
519.05	1069.24
519.41	1082.96
519.77	1096.79
520.13	1110.23
520.49	1123.53
520.85	1136.98
521.21	1150.23
521.57	1163.88
521.93	1176.97
522.29	1190.65
522.65	1204.37
523.01	1218.00
523.37	1231.35
523.73	1244.67
524.09	1257.80
524.45	1271.31
524.81	1284.87
525.17	1298.24
525.53	1311.46
525.89	1324.74
526.25	1337.95
526.61	1350.68
526.97	1363.81
527.33	1376.85
527.68	1390.25
528.04	1403.74
528.40	1416.78
528.76	1430.28
529.12	1443.34
529.48	1456.65
529.84	1469.05
530.20	1481.69
530.56	1494.31
530.91	1507.49
531.27	1520.42
531.63	1533.18
531.99	1545.83
532.35	1558.09
532.71	1570.40
533.07	1583.30
533.42	1595.54
533.78	1607.61
534.14	1619.67
534.50	1630.85
534.86	1642.44
535.21	1653.27
535.57	1664.77
535.93	1676.05
536.29	1686.95
536.65	1698.34
537.00	1709.38
537.36	1720.66
537.72	1731.72
538.08	1743.13
538.44	1754.02
538.79	1765.13
539.15	1776.06
539.51	1786.76
539.87	1798.01
540.22	1808.80
540.58	1819.76
540.94	1830.66
541.29	1841.09
541.65	1850.88
542.01	1861.32
542.37	1871.30
542.72	1881.44
543.08	1891.10
543.44	1901.57
543.79	1910.93
544.15	1920.34
544.51	1930.19
544.87	1939.92
545.22	1949.10
545.58	1957.95
545.94	1966.74
546.29	1975.13
546.65	1983.45
547.01	1991.66
547.36	1999.27
547.72	2006.93
548.07	2014.25
548.43	2021.86
548.79	2029.66
549.14	2037.84
549.50	2046.25
549.86	2054.13
550.21	2061.53
550.57	2069.28
550.92	2075.99
551.28	2083.45
551.64	2090.74
551.99	2098.15
552.35	2105.34
552.70	2112.18
553.06	2118.70
553.41	2125.02
553.77	2131.60
554.13	2137.97
554.48	2144.97
554.84	2152.12
555.19	2158.74
555.55	2165.33
555.90	2171.66
556.26	2178.45
556.61	2184.52
556.97	2189.37
557.32	2195.15
557.68	2201.60
558.03	2207.28
558.39	2212.67
558.74	2218.65
559.10	2224.05
559.45	2229.68
559.81	2235.29
560.16	2240.73
560.52	2246.76
560.87	2253.24
561.23	2259.02
561.58	2265.58
561.94	2270.84
562.29	2275.53
562.64	2281.73
563.00	2287.51
563.35	2293.17
563.71	2298.79
564.06	2304.50
564.42	2310.67
564.77	2315.84
565.12	2321.22
565.48	2326.49
565.83	2331.95
566.19	2337.34
566.54	2342.81
566.89	2347.57
567.25	2352.39
567.60	2358.20
567.96	2363.28
568.31	2367.86
568.66	2372.35
569.02	2376.45
569.37	2380.36
569.72	2384.98
570.08	2388.57
570.43	2391.63
570.78	2394.78
571.14	2397.41
571.49	2400.67
571.84	2404.28
572.20	2407.19
572.55	2410.20
572.90	2412.58
573.26	2415.70
573.61	2418.59
573.96	2420.93
574.31	2422.95
574.67	2424.78
575.02	2425.55
575.37	2427.19
575.72	2428.06
576.08	2429.62
576.43	2429.94
576.78	2430.53
577.13	2432.21
577.49	2433.50
577.84	2434.69
578.19	2436.20
578.54	2436.88
578.90	2437.67
579.25	2437.62
579.60	2437.72
579.95	2436.97
580.30	2437.28
580.66	2436.73
581.01	2435.06
581.36	2432.77
581.71	2431.62
582.06	2430.68
582.42	2430.16
582.77	2428.19
583.12	2426.74
583.47	2425.59
583.82	2425.08
584.17	2423.96
584.53	2421.90
584.88	2419.94
585.23	2418.41
585.58	2416.25
585.93	2414.48
586.28	2412.46
586.63	2410.03
586.98	2408.11
587.34	2406.43
587.69	2403.90
588.04	2401.92
588.39	2400.64
588.74	2398.35
589.09	2395.68
589.44	2392.62
589.79	2390.14
590.14	2388.34
590.49	2385.62
590.84	2381.75
591.19	2378.68
591.54	2375.61
591.89	2371.84
592.25	2368.68
592.60	2364.52
592.95	2360.52
593.30	2356.59
593.65	2352.38
594.00	2348.13
594.35	2345.11
594.70	2340.54
595.05	2336.27
595.40	2330.86
595.75	2325.14
596.10	2321.59
596.45	2316.78
596.80	2312.20
597.15	2307.15
597.50	2301.22
597.85	2296.39
598.19	2291.33
598.54	2285.64
598.89	2280.47
599.24	2275.82
599.59	2269.70
599.94	2263.85
600.29	2257.84
600.64	2251.74
600.99	2244.83
601.34	2239.32
601.69	2232.28
602.04	2225.80
602.39	2219.01
602.74	2212.89
603.08	2207.39
603.43	2200.88
603.78	2194.15
604.13	2187.16
604.48	2179.82
604.83	2173.65
605.18	2167.44
605.53	2160.48
605.87	2153.40
606.22	2146.51
606.57	2138.64
606.92	2130.50
607.27	2123.51
607.62	2116.91
607.96	2110.01
608.31	2103.58
608.66	2095.81
609.01	2088.18
609.36	2081.23
609.70	2073.62
610.05	2065.83
610.40	2057.48
610.75	2049.16
611.10	2041.33
611.44	2032.28
611.79	2023.63
612.14	2013.69
612.49	2002.84
612.83	1993.37
613.18	1984.16
613.53	1974.81
613.88	1965.19
614.22	1956.70
614.57	1946.78
614.92	1936.03
615.27	1925.58
615.61	1915.34
615.96	1905.66
616.31	1895.96
616.65	1886.26
617.00	1876.52
617.35	1866.74
617.70	1856.82
618.04	1846.70
618.39	1836.47
618.74	1826.84
619.08	1817.11
619.43	1808.30
619.78	1799.95
620.12	1791.29
620.47	1781.53
620.82	1771.11
621.16	1761.22
621.51	1751.18
621.85	1741.32
622.20	1730.93
622.55	1720.35
622.89	1710.37
623.24	1700.58
623.59	1690.76
623.93	1680.47
624.28	1670.35
624.62	1660.16
624.97	1649.99
625.32	1640.05
625.66	1631.13
626.01	1622.24
626.35	1612.69
626.70	1602.54
627.04	1592.46
627.39	1582.24
627.73	1572.87
628.08	1563.82
628.43	1554.08
628.77	1544.67
629.12	1535.60
629.46	1527.77
629.81	1519.39
630.15	1509.83
630.50	1499.91
630.84	1489.34
631.19	1479.42
631.53	1470.17
631.88	1459.90
632.22	1449.63
632.57	1440.14
632.91	1429.84
633.26	1419.89
633.60	1410.18
633.95	1400.71
634.29	1390.99
634.64	1381.51
634.98	1371.41
635.32	1362.02
635.67	1353.49
636.01	1344.18
636.36	1334.44
636.70	1324.77
637.05	1315.19
637.39	1306.20
637.73	1297.44
638.08	1289.72
638.42	1281.50
638.77	1272.62
639.11	1264.39
639.45	1256.55
639.80	1248.03
640.14	1239.24
640.49	1230.24
640.83	1221.33
641.17	1213.02
641.52	1204.78
641.86	1196.20
642.20	1188.25
642.55	1179.41
642.89	1170.29
643.23	1161.52
643.58	1153.24
643.92	1144.06
644.26	1135.30
644.61	1126.72
644.95	1117.80
645.29	1108.49
645.64	1099.26
645.98	1090.56
646.32	1082.50
646.66	1073.88
647.01	1065.37
647.35	1057.03
647.69	1048.68
648.04	1040.36
648.38	1031.45
648.72	1022.67
649.06	1014.09
649.41	1005.75
649.75	997.85
650.09	989.98
650.43	981.90
650.78	973.50
651.12	965.68
651.46	958.20
651.80	950.82
652.14	943.50
652.49	935.96
652.83	928.47
653.17	920.75
653.51	913.04
653.85	905.61
654.20	898.23
654.54	890.78
654.88	883.38
655.22	876.12
655.56	869.02
655.90	862.06
656.25	855.35
656.59	848.44
656.93	841.36
657.27	834.23
657.61	827.11
657.95	820.94
658.29	814.95
658.64	808.78
658.98	802.19
659.32	795.54
659.66	789.10
660.00	782.69
660.34	776.55
660.68	770.39
661.02	764.01
661.36	758.02
661.70	752.12
662.05	746.50
662.39	740.91
662.73	735.47
663.07	730.08
663.41	724.36
663.75	718.53
664.09	712.69
664.43	707.19
664.77	701.87
665.11	695.98
665.45	690.02
665.79	684.14
666.13	678.47
666.47	673.01
666.81	667.56
667.15	662.14
667.49	656.90
667.83	651.59
668.17	646.33
668.51	641.19
668.85	636.22
669.19	631.25
669.53	626.22
669.87	621.06
670.21	616.28
670.55	611.55
670.89	607.12
671.23	602.84
671.57	598.41
671.91	594.00
672.25	589.82
672.58	585.70
672.92	581.65
673.26	577.66
673.60	573.67
673.94	569.87
674.28	566.26
674.62	562.46
674.96	558.66
675.30	555.16
675.64	551.46
675.97	547.89
676.31	544.26
676.65	540.61
676.99	537.20
677.33	533.29
677.67	529.65
678.01	525.79
678.34	522.10
678.68	518.53
679.02	515.01
679.36	511.27
679.70	507.59
680.04	503.96
680.37	500.49
680.71	497.11
681.05	493.85
681.39	490.49
681.73	487.31
682.06	484.25
682.40	481.11
682.74	477.87
683.08	474.58
683.42	471.38
683.75	468.37
684.09	465.27
684.43	462.41
684.77	459.46
685.10	456.54
685.44	453.65
685.78	450.66
686.12	447.79
686.45	445.09
686.79	442.39
687.13	439.85
687.46	437.20
687.80	434.50
688.14	431.67
688.48	429.09
688.81	426.41
689.15	423.83
689.49	421.22
689.82	418.74
690.16	416.15
690.50	413.66
690.83	411.13
691.17	408.61
691.51	406.14
691.84	403.87
692.18	401.64
692.52	399.36
692.85	397.28
693.19	395.18
693.52	392.97
693.86	390.74
694.20	388.54
694.53	386.39
694.87	384.24
695.21	382.11
695.54	379.96
695.88	377.80
696.21	375.56
696.55	373.42
696.88	371.35
697.22	369.37
697.56	367.48
697.89	365.57
698.23	363.77
698.56	361.97
698.90	360.19
699.23	358.32
699.57	356.51
699.90	354.60
700.24	352.75
700.58	350.97
700.91	349.30
701.25	347.73
701.58	346.15
701.92	344.54
702.25	342.93
702.59	341.28
702.92	339.69
703.26	338.12
703.59	336.63
703.93	335.35
704.26	333.90
704.60	332.37
704.93	330.91
705.26	329.40
705.60	327.90
705.93	326.38
706.27	324.99
706.60	323.65
706.94	322.46
707.27	321.07
707.61	319.76
707.94	318.45
708.27	316.93
708.61	315.43
708.94	314.08
709.28	312.78
709.61	311.52
709.94	310.31
710.28	309.18
710.61	308.00
710.95	306.57
711.28	305.48
711.61	304.33
711.95	303.18
712.28	302.02
712.61	300.88
712.95	299.83
713.28	298.84
713.61	297.75
713.95	296.58
714.28	295.57
714.61	294.50
714.95	293.45
715.28	292.39
715.61	291.41
715.95	290.42
716.28	289.46
716.61	288.53
716.95	287.51
717.28	286.55
717.61	285.57
717.94	284.68
718.28	283.66
718.61	282.80
718.94	281.90
719.27	281.05
719.61	280.21
719.94	279.32
720.27	278.32
720.60	277.44
720.94	276.60
721.27	275.84
721.60	275.14
721.93	274.42
722.27	273.86
722.60	273.22
722.93	272.54
723.26	271.90
723.59	271.18
723.93	270.61
724.26	269.93
724.59	269.31
724.92	268.69
725.25	268.19
725.59	267.59
725.92	267.06
726.25	266.45
726.58	265.92
726.91	265.34
727.24	264.82
727.57	264.27
727.91	263.70
728.24	263.12
728.57	262.56
728.90	261.99
729.23	261.32
729.56	260.84
729.89	260.28
730.22	259.71
730.55	259.18
730.89	258.60
731.22	258.07
731.55	257.58
731.88	257.09
732.21	256.52
732.54	256.01
732.87	255.52
733.20	255.08
733.53	254.57
733.86	254.13
734.19	253.64
734.52	253.18
734.85	252.92
735.18	252.45
735.51	252.09
735.84	251.68
736.17	251.31
736.50	250.79
736.83	250.62
737.16	250.26
737.49	249.88
737.82	249.48
738.15	249.12
738.48	248.72
738.81	248.33
739.14	247.92
739.47	247.53
739.80	247.15
740.13	246.80
740.46	246.42
740.79	246.04
741.12	245.69
741.45	245.34
741.78	244.88
742.11	244.62
742.44	244.21
742.77	243.89
743.10	243.53
743.43	243.20
743.75	242.63
744.08	242.50
744.41	242.12
744.74	241.75
745.07	241.38
745.40	241.10
745.73	240.83
746.06	240.51
746.39	240.18
746.71	239.83
747.04	239.43
747.37	239.12
747.70	238.83
748.03	238.54
748.36	238.28
748.68	237.97
749.01	237.63
749.34	237.34
749.67	237.05
750.00	236.82
750.33	236.70
750.65	236.48
750.98	235.97
751.31	235.74
751.64	235.57
751.97	235.45
752.29	235.19
752.62	234.84
752.95	234.59
753.28	234.33
753.60	234.09
753.93	233.97
754.26	233.77
754.59	233.49
754.91	233.21
755.24	232.96
755.57	232.76
755.90	232.49
756.22	232.25
756.55	232.04
756.88	231.77
757.20	231.41
757.53	231.12
757.86	230.93
758.19	230.77
758.51	230.53
758.84	230.21
759.17	230.00
759.49	229.82
759.82	229.74
760.15	229.57
760.47	229.40
760.80	229.12
761.13	228.92
761.45	228.71
761.78	228.56
762.11	228.36
762.43	228.13
762.76	227.95
763.08	227.82
763.41	227.66
763.74	227.50
764.06	227.33
764.39	227.19
764.71	227.06
765.04	226.87
765.37	226.69
765.69	226.55
766.02	226.38
766.34	226.26
766.67	226.02
767.00	225.92
767.32	225.88
767.65	225.89
767.97	225.76
768.30	225.64
768.62	225.48
768.95	225.37
769.27	225.29
769.60	225.23
769.92	225.05
770.25	224.88
770.57	224.74
770.90	224.63
771.22	224.50
771.55	224.35
771.87	224.23
772.20	224.13
772.52	224.19
772.85	224.34
773.17	224.22
773.50	224.10
773.82	224.00
774.15	223.79
774.47	223.58
774.80	223.49
775.12	223.45
775.45	223.36
775.77	223.29
776.09	223.17
776.42	223.07
776.74	223.06
777.07	222.98
777.39	222.94
777.72	222.85
778.04	222.82
778.36	222.76
778.69	222.70
779.01	222.62
779.33	222.36
779.66	222.08
779.98	222.00
780.31	221.96
780.63	221.94
780.95	221.93
781.28	221.86
781.60	221.75
781.92	221.66
782.25	221.59
782.57	221.51
782.89	221.43
783.22	221.37
783.54	221.25
783.86	221.22
784.19	221.11
784.51	221.10
784.83	220.99
785.16	220.88
785.48	220.80
785.80	220.75
786.12	220.69
