SpectraSuite Data File
++++++++++++++++++++++++++++++++++++
Date: Tue Jan 29 16:33:35 EST 2013
User: group
Dark Spectrum Present: No
Reference Spectrum Present: No
Number of Sampled Component Spectra: 1
Spectrometers: USB2E7196
Integration Time (usec): 65000 (USB2E7196)
Spectra Averaged: 100 (USB2E7196)
Boxcar Smoothing: 10 (USB2E7196)
Correct for Electrical Dark: No (USB2E7196)
Strobe/Lamp Enabled: No (USB2E7196)
Correct for Detector Non-linearity: No (USB2E7196)
Correct for Stray Light: No (USB2E7196)
Number of Pixels in Processed Spectrum: 2048
>>>>>Begin Processed Spectral Data<<<<<
339.09	0.00
339.48	201.26
339.86	203.24
340.24	204.56
340.63	206.74
341.01	210.90
341.39	208.56
341.78	210.75
342.16	211.75
342.54	212.06
342.93	201.11
343.31	211.27
343.69	211.83
344.07	212.30
344.46	212.75
344.84	213.15
345.22	213.30
345.60	213.59
345.99	213.75
346.37	213.90
346.75	214.03
347.13	214.11
347.52	214.17
347.90	214.31
348.28	214.39
348.66	214.48
349.05	214.45
349.43	214.52
349.81	214.61
350.19	214.69
350.57	214.78
350.96	214.87
351.34	215.00
351.72	215.11
352.10	215.22
352.48	215.27
352.87	215.31
353.25	215.37
353.63	215.41
354.01	215.48
354.39	215.55
354.77	215.62
355.15	215.75
355.54	215.77
355.92	215.74
356.30	215.80
356.68	215.97
357.06	216.03
357.44	216.08
357.82	216.11
358.20	216.16
358.58	216.20
358.97	216.26
359.35	216.34
359.73	216.45
360.11	216.50
360.49	216.56
360.87	216.58
361.25	216.64
361.63	216.77
362.01	216.81
362.39	216.82
362.77	216.84
363.15	216.84
363.53	216.89
363.91	216.94
364.29	216.94
364.67	216.75
365.05	216.76
365.43	216.79
365.81	216.84
366.19	216.95
366.57	217.04
366.95	217.05
367.33	216.99
367.71	216.97
368.09	217.05
368.47	217.04
368.85	217.05
369.23	217.09
369.61	217.03
369.99	217.11
370.37	217.13
370.75	217.21
371.13	217.16
371.51	217.14
371.89	217.13
372.27	217.13
372.65	217.17
373.03	217.15
373.41	217.12
373.78	217.06
374.16	216.92
374.54	216.82
374.92	216.76
375.30	216.72
375.68	216.64
376.06	216.56
376.44	216.52
376.82	216.50
377.19	216.46
377.57	216.38
377.95	216.28
378.33	216.21
378.71	216.02
379.09	216.04
379.47	216.02
379.84	215.98
380.22	215.92
380.60	215.88
380.98	215.84
381.36	215.76
381.73	215.71
382.11	215.70
382.49	215.65
382.87	215.61
383.25	215.58
383.62	215.79
384.00	215.73
384.38	215.68
384.76	215.66
385.13	215.69
385.51	215.66
385.89	215.58
386.27	215.59
386.64	215.63
387.02	215.54
387.40	215.48
387.78	215.44
388.15	215.43
388.53	215.34
388.91	215.30
389.29	215.31
389.66	215.30
390.04	215.27
390.42	215.29
390.79	215.24
391.17	215.25
391.55	214.99
391.92	215.00
392.30	215.00
392.68	214.94
393.05	214.93
393.43	214.92
393.81	214.97
394.18	214.91
394.56	214.90
394.94	214.98
395.31	214.96
395.69	215.05
396.06	215.09
396.44	215.16
396.82	215.17
397.19	215.25
397.57	215.26
397.95	215.29
398.32	215.24
398.70	215.33
399.07	215.39
399.45	215.42
399.82	215.47
400.20	215.50
400.58	215.58
400.95	215.58
401.33	215.71
401.70	215.90
402.08	216.02
402.45	216.11
402.83	216.25
403.20	216.42
403.58	216.49
403.95	216.64
404.33	216.79
404.71	216.98
405.08	217.24
405.46	217.42
405.83	217.66
406.21	217.90
406.58	218.14
406.96	218.35
407.33	218.66
407.70	218.93
408.08	219.44
408.45	219.81
408.83	220.18
409.20	220.51
409.58	220.77
409.95	221.21
410.33	221.71
410.70	222.15
411.08	222.66
411.45	223.23
411.82	223.80
412.20	224.50
412.57	225.30
412.95	225.91
413.32	226.73
413.69	227.54
414.07	228.45
414.44	229.43
414.82	230.44
415.19	231.61
415.56	232.81
415.94	233.97
416.31	235.37
416.68	236.82
417.06	238.44
417.43	240.02
417.81	241.75
418.18	243.49
418.55	245.38
418.93	247.44
419.30	249.54
419.67	251.78
420.04	254.05
420.42	256.39
420.79	259.21
421.16	261.98
421.54	264.88
421.91	267.87
422.28	271.00
422.66	274.34
423.03	277.56
423.40	280.94
423.77	284.54
424.15	288.22
424.52	292.00
424.89	296.18
425.26	300.30
425.64	304.24
426.01	308.59
426.38	313.11
426.75	317.62
427.13	322.39
427.50	327.37
427.87	332.58
428.24	337.78
428.61	342.74
428.99	348.29
429.36	354.32
429.73	360.21
430.10	366.10
430.47	372.11
430.85	378.47
431.22	385.15
431.59	392.30
431.96	399.11
432.33	406.67
432.70	413.89
433.08	422.39
433.45	430.42
433.82	438.39
434.19	447.28
434.56	456.02
434.93	464.33
435.30	472.57
435.68	481.68
436.05	490.76
436.42	499.71
436.79	507.85
437.16	516.63
437.53	525.91
437.90	535.02
438.27	544.00
438.64	553.22
439.01	561.79
439.38	569.29
439.75	576.59
440.13	584.98
440.50	592.95
440.87	599.40
441.24	606.03
441.61	613.44
441.98	618.79
442.35	625.13
442.72	631.50
443.09	637.70
443.46	641.41
443.83	643.91
444.20	646.10
444.57	649.32
444.94	650.78
445.31	652.23
445.68	653.65
446.05	654.34
446.42	653.51
446.79	652.53
447.16	651.51
447.53	650.76
447.90	647.45
448.27	644.16
448.64	639.44
449.01	636.12
449.37	630.19
449.74	624.49
450.11	617.55
450.48	610.13
450.85	602.51
451.22	596.11
451.59	589.97
451.96	584.13
452.33	576.23
452.70	569.14
453.07	560.65
453.43	551.99
453.80	543.66
454.17	535.75
454.54	528.22
454.91	520.04
455.28	512.06
455.65	504.63
456.02	497.10
456.38	490.81
456.75	482.96
457.12	476.39
457.49	469.86
457.86	463.67
458.23	458.24
458.59	452.37
458.96	446.34
459.33	441.02
459.70	435.58
460.07	431.27
460.43	426.33
460.80	421.72
461.17	417.71
461.54	413.51
461.91	409.46
462.27	405.34
462.64	401.88
463.01	398.11
463.38	394.40
463.74	390.70
464.11	387.47
464.48	384.58
464.85	381.49
465.21	379.09
465.58	376.49
465.95	373.42
466.32	370.78
466.68	368.14
467.05	365.55
467.42	363.06
467.78	360.36
468.15	357.82
468.52	355.95
468.88	353.44
469.25	351.21
469.62	349.40
469.98	347.44
470.35	345.66
470.72	343.94
471.08	342.12
471.45	340.63
471.82	339.08
472.18	337.44
472.55	336.17
472.92	334.80
473.28	333.58
473.65	332.39
474.02	331.32
474.38	330.44
474.75	329.70
475.11	328.87
475.48	328.33
475.85	327.85
476.21	327.32
476.58	326.99
476.94	326.74
477.31	326.36
477.67	326.12
478.04	325.94
478.41	325.87
478.77	326.03
479.14	325.98
479.50	326.14
479.87	326.45
480.23	326.76
480.60	326.98
480.96	327.23
481.33	327.82
481.69	328.35
482.06	328.83
482.42	329.33
482.79	329.91
483.15	330.68
483.52	331.65
483.88	332.54
484.25	333.50
484.61	334.52
484.98	335.61
485.34	336.94
485.71	338.29
486.07	339.74
486.44	341.10
486.80	342.74
487.17	344.37
487.53	346.17
487.90	348.08
488.26	350.14
488.62	352.34
488.99	354.40
489.35	356.58
489.72	358.99
490.08	361.50
490.44	364.07
490.81	366.80
491.17	369.53
491.54	372.53
491.90	375.57
492.26	378.82
492.63	382.24
492.99	385.71
493.36	389.37
493.72	393.29
494.08	397.28
494.45	401.48
494.81	405.88
495.17	410.36
495.54	415.06
495.90	419.90
496.26	424.80
496.63	430.02
496.99	435.41
497.35	440.96
497.72	446.72
498.08	452.62
498.44	458.69
498.80	465.11
499.17	471.62
499.53	478.40
499.89	485.39
500.26	492.40
500.62	499.47
500.98	506.91
501.34	514.35
501.71	522.19
502.07	530.03
502.43	538.03
502.79	546.24
503.16	554.69
503.52	563.27
503.88	572.04
504.24	581.05
504.60	590.13
504.97	599.42
505.33	608.77
505.69	618.76
506.05	628.75
506.41	638.64
506.78	648.76
507.14	659.04
507.50	669.49
507.86	680.24
508.22	691.10
508.59	701.78
508.95	713.01
509.31	724.35
509.67	735.92
510.03	747.39
510.39	759.11
510.75	771.04
511.12	782.99
511.48	795.13
511.84	807.52
512.20	819.87
512.56	832.60
512.92	845.49
513.28	858.28
513.64	871.04
514.00	884.04
514.37	897.08
514.73	910.23
515.09	923.34
515.45	936.28
515.81	949.41
516.17	963.00
516.53	976.30
516.89	989.46
517.25	1002.72
517.61	1016.40
517.97	1029.97
518.33	1043.22
518.69	1056.87
519.05	1070.66
519.41	1084.42
519.77	1098.52
520.13	1111.94
520.49	1125.24
520.85	1138.59
521.21	1152.05
521.57	1165.79
521.93	1178.97
522.29	1192.85
522.65	1206.57
523.01	1220.38
523.37	1233.73
523.73	1246.97
524.09	1260.13
524.45	1273.61
524.81	1287.19
525.17	1300.61
525.53	1313.78
525.89	1327.14
526.25	1340.54
526.61	1353.56
526.97	1366.73
527.33	1379.84
527.68	1393.34
528.04	1406.94
528.40	1420.24
528.76	1433.81
529.12	1446.73
529.48	1460.18
529.84	1472.55
530.20	1485.40
530.56	1498.06
530.91	1511.44
531.27	1524.59
531.63	1537.44
531.99	1550.38
532.35	1562.64
532.71	1575.20
533.07	1588.32
533.42	1600.71
533.78	1612.90
534.14	1625.09
534.50	1636.39
534.86	1647.95
535.21	1658.97
535.57	1670.64
535.93	1682.06
536.29	1693.25
536.65	1704.95
537.00	1716.00
537.36	1727.41
537.72	1738.55
538.08	1750.17
538.44	1761.23
538.79	1772.40
539.15	1783.65
539.51	1794.49
539.87	1806.06
540.22	1817.12
540.58	1828.21
540.94	1839.27
541.29	1849.66
541.65	1859.52
542.01	1870.08
542.37	1880.36
542.72	1890.72
543.08	1900.53
543.44	1911.12
543.79	1920.35
544.15	1929.93
544.51	1940.00
544.87	1950.03
545.22	1959.40
545.58	1968.29
545.94	1977.34
546.29	1985.87
546.65	1994.13
547.01	2002.46
547.36	2010.10
547.72	2017.77
548.07	2025.25
548.43	2033.17
548.79	2041.02
549.14	2049.29
549.50	2057.99
549.86	2066.02
550.21	2073.55
550.57	2081.34
550.92	2087.96
551.28	2095.64
551.64	2102.95
551.99	2110.57
552.35	2117.79
552.70	2124.68
553.06	2131.50
553.41	2137.68
553.77	2144.33
554.13	2150.77
554.48	2157.92
554.84	2165.16
555.19	2171.88
555.55	2178.50
555.90	2184.66
556.26	2191.59
556.61	2197.65
556.97	2202.46
557.32	2208.11
557.68	2214.54
558.03	2220.21
558.39	2225.82
558.74	2231.82
559.10	2237.35
559.45	2242.95
559.81	2248.69
560.16	2254.19
560.52	2260.03
560.87	2266.62
561.23	2272.51
561.58	2279.45
561.94	2284.62
562.29	2289.29
562.64	2295.32
563.00	2300.89
563.35	2306.40
563.71	2312.17
564.06	2317.90
564.42	2323.83
564.77	2328.96
565.12	2334.25
565.48	2339.56
565.83	2345.10
566.19	2350.52
566.54	2355.90
566.89	2360.53
567.25	2365.05
567.60	2370.77
567.96	2375.88
568.31	2380.29
568.66	2384.74
569.02	2388.49
569.37	2392.35
569.72	2396.72
570.08	2400.14
570.43	2403.28
570.78	2406.54
571.14	2409.03
571.49	2412.12
571.84	2415.70
572.20	2418.55
572.55	2421.35
572.90	2423.68
573.26	2426.48
573.61	2429.00
573.96	2431.20
574.31	2433.31
574.67	2435.20
575.02	2436.04
575.37	2437.48
575.72	2438.12
576.08	2439.55
576.43	2439.61
576.78	2439.96
577.13	2441.53
577.49	2442.78
577.84	2443.78
578.19	2444.96
578.54	2445.57
578.90	2446.23
579.25	2445.98
579.60	2445.91
579.95	2445.14
580.30	2445.09
580.66	2444.27
581.01	2442.57
581.36	2440.01
581.71	2438.41
582.06	2437.08
582.42	2436.09
582.77	2433.82
583.12	2432.24
583.47	2430.60
583.82	2429.95
584.17	2428.68
584.53	2426.59
584.88	2424.30
585.23	2422.38
585.58	2420.13
585.93	2418.09
586.28	2415.78
586.63	2413.25
586.98	2410.86
587.34	2408.92
587.69	2406.38
588.04	2404.27
588.39	2402.72
588.74	2400.25
589.09	2397.42
589.44	2394.10
589.79	2391.51
590.14	2389.39
590.49	2386.44
590.84	2382.56
591.19	2379.36
591.54	2375.99
591.89	2371.94
592.25	2368.68
592.60	2364.35
592.95	2360.11
593.30	2355.82
593.65	2351.49
594.00	2347.08
594.35	2344.22
594.70	2339.36
595.05	2334.76
595.40	2329.22
595.75	2323.34
596.10	2319.60
596.45	2314.70
596.80	2310.19
597.15	2304.97
597.50	2299.04
597.85	2294.09
598.19	2288.94
598.54	2283.09
598.89	2277.80
599.24	2273.01
599.59	2266.71
599.94	2260.90
600.29	2254.93
600.64	2248.91
600.99	2242.07
601.34	2236.42
601.69	2229.28
602.04	2222.93
602.39	2216.23
602.74	2209.97
603.08	2204.41
603.43	2197.80
603.78	2190.89
604.13	2183.78
604.48	2176.51
604.83	2170.40
605.18	2164.14
605.53	2157.07
605.87	2149.93
606.22	2142.95
606.57	2134.96
606.92	2127.02
607.27	2119.94
607.62	2113.19
607.96	2106.10
608.31	2099.60
608.66	2091.79
609.01	2084.12
609.36	2077.00
609.70	2069.22
610.05	2061.43
610.40	2053.08
610.75	2044.73
611.10	2037.10
611.44	2028.13
611.79	2019.23
612.14	2009.18
612.49	1998.37
612.83	1988.94
613.18	1979.63
613.53	1970.39
613.88	1960.86
614.22	1952.25
614.57	1942.43
614.92	1931.76
615.27	1921.46
615.61	1911.25
615.96	1901.56
616.31	1891.86
616.65	1882.34
617.00	1872.59
617.35	1862.92
617.70	1853.19
618.04	1843.19
618.39	1832.82
618.74	1823.16
619.08	1813.43
619.43	1804.62
619.78	1796.37
620.12	1787.77
620.47	1778.24
620.82	1767.85
621.16	1757.93
621.51	1747.88
621.85	1737.94
622.20	1727.56
622.55	1716.90
622.89	1706.91
623.24	1697.19
623.59	1687.48
623.93	1677.34
624.28	1667.47
624.62	1657.35
624.97	1647.05
625.32	1637.21
625.66	1628.34
626.01	1619.43
626.35	1610.14
626.70	1600.06
627.04	1590.04
627.39	1579.86
627.73	1570.61
628.08	1561.69
628.43	1552.15
628.77	1542.96
629.12	1534.07
629.46	1526.20
629.81	1517.92
630.15	1508.29
630.50	1498.37
630.84	1487.85
631.19	1477.93
631.53	1468.71
631.88	1458.64
632.22	1448.50
632.57	1439.20
632.91	1429.02
633.26	1419.22
633.60	1409.61
633.95	1400.30
634.29	1390.66
634.64	1381.35
634.98	1371.33
635.32	1361.95
635.67	1353.37
636.01	1344.12
636.36	1334.34
636.70	1324.90
637.05	1315.45
637.39	1306.68
637.73	1298.09
638.08	1290.49
638.42	1282.23
638.77	1273.35
639.11	1265.07
639.45	1257.31
639.80	1248.62
640.14	1239.95
640.49	1231.06
640.83	1222.16
641.17	1213.96
641.52	1205.93
641.86	1197.30
642.20	1189.27
642.55	1180.71
642.89	1171.87
643.23	1163.10
643.58	1154.98
643.92	1145.81
644.26	1137.12
644.61	1128.52
644.95	1119.67
645.29	1110.38
645.64	1101.15
645.98	1092.63
646.32	1084.59
646.66	1076.07
647.01	1067.69
647.35	1059.45
647.69	1051.10
648.04	1042.86
648.38	1034.01
648.72	1025.07
649.06	1016.60
649.41	1008.43
649.75	1000.41
650.09	992.57
650.43	984.50
650.78	976.15
651.12	968.42
651.46	960.93
651.80	953.65
652.14	946.26
652.49	938.75
652.83	931.41
653.17	923.60
653.51	915.93
653.85	908.53
654.20	901.20
654.54	893.76
654.88	886.41
655.22	879.10
655.56	872.01
655.90	865.19
656.25	858.42
656.59	851.47
656.93	844.36
657.27	837.10
657.61	830.02
657.95	823.87
658.29	817.91
658.64	811.74
658.98	805.31
659.32	798.73
659.66	792.38
660.00	785.96
660.34	779.92
660.68	773.81
661.02	767.48
661.36	761.47
661.70	755.53
662.05	749.96
662.39	744.42
662.73	738.99
663.07	733.55
663.41	727.95
663.75	722.22
664.09	716.50
664.43	711.02
664.77	705.69
665.11	699.85
665.45	693.88
665.79	688.03
666.13	682.26
666.47	676.77
666.81	671.31
667.15	665.92
667.49	660.67
667.83	655.33
668.17	650.11
668.51	645.02
668.85	640.05
669.19	635.07
669.53	629.99
669.87	624.79
670.21	619.94
670.55	615.13
670.89	610.57
671.23	606.30
671.57	601.91
671.91	597.58
672.25	593.37
672.58	589.23
672.92	585.15
673.26	581.20
673.60	577.29
673.94	573.42
674.28	569.73
674.62	565.94
674.96	562.13
675.30	558.53
675.64	554.78
675.97	551.13
676.31	547.42
676.65	543.83
676.99	540.35
677.33	536.53
677.67	532.84
678.01	528.91
678.34	525.17
678.68	521.61
679.02	517.99
679.36	514.27
679.70	510.59
680.04	506.96
680.37	503.47
680.71	500.11
681.05	496.88
681.39	493.58
681.73	490.33
682.06	487.31
682.40	484.16
682.74	480.94
683.08	477.74
683.42	474.54
683.75	471.42
684.09	468.36
684.43	465.52
684.77	462.55
685.10	459.72
685.44	456.77
685.78	453.79
686.12	450.98
686.45	448.18
686.79	445.47
687.13	442.90
687.46	440.20
687.80	437.47
688.14	434.59
688.48	431.94
688.81	429.19
689.15	426.56
689.49	423.94
689.82	421.39
690.16	418.75
690.50	416.27
690.83	413.71
691.17	411.15
691.51	408.60
691.84	406.31
692.18	404.04
692.52	401.76
692.85	399.58
693.19	397.38
693.52	395.15
693.86	392.89
694.20	390.66
694.53	388.49
694.87	386.27
695.21	384.15
695.54	381.94
695.88	379.81
696.21	377.51
696.55	375.34
696.88	373.26
697.22	371.28
697.56	369.34
697.89	367.51
698.23	365.73
698.56	363.94
698.90	362.12
699.23	360.20
699.57	358.33
699.90	356.42
700.24	354.56
700.58	352.79
700.91	351.10
701.25	349.46
701.58	347.86
701.92	346.25
702.25	344.62
702.59	342.95
702.92	341.42
703.26	339.88
703.59	338.41
703.93	337.11
704.26	335.63
704.60	334.12
704.93	332.58
705.26	331.10
705.60	329.63
705.93	328.10
706.27	326.78
706.60	325.51
706.94	324.30
707.27	322.92
707.61	321.56
707.94	320.20
708.27	318.69
708.61	317.19
708.94	315.77
709.28	314.42
709.61	313.18
709.94	311.90
710.28	310.65
710.61	309.46
710.95	308.00
711.28	306.88
711.61	305.67
711.95	304.51
712.28	303.24
712.61	302.00
712.95	300.92
713.28	299.85
713.61	298.63
713.95	297.47
714.28	296.42
714.61	295.36
714.95	294.33
715.28	293.29
715.61	292.27
715.95	291.33
716.28	290.38
716.61	289.40
716.95	288.38
717.28	287.44
717.61	286.43
717.94	285.54
718.28	284.51
718.61	283.58
718.94	282.64
719.27	281.78
719.61	280.95
719.94	280.08
720.27	279.12
720.60	278.23
720.94	277.39
721.27	276.61
721.60	275.89
721.93	275.13
722.27	274.49
722.60	273.80
722.93	273.07
723.26	272.40
723.59	271.72
723.93	271.08
724.26	270.42
724.59	269.73
724.92	269.13
725.25	268.58
725.59	268.02
725.92	267.51
726.25	266.93
726.58	266.35
726.91	265.72
727.24	265.15
727.57	264.58
727.91	264.00
728.24	263.41
728.57	262.81
728.90	262.24
729.23	261.59
729.56	261.17
729.89	260.58
730.22	259.98
730.55	259.40
730.89	258.87
731.22	258.32
731.55	257.83
731.88	257.31
732.21	256.74
732.54	256.19
732.87	255.63
733.20	255.13
733.53	254.61
733.86	254.16
734.19	253.64
734.52	253.24
734.85	252.91
735.18	252.45
735.51	252.08
735.84	251.65
736.17	251.28
736.50	250.71
736.83	250.57
737.16	250.17
737.49	249.80
737.82	249.34
738.15	248.96
738.48	248.59
738.81	248.15
739.14	247.74
739.47	247.32
739.80	246.97
740.13	246.63
740.46	246.28
740.79	245.90
741.12	245.55
741.45	245.18
741.78	244.75
742.11	244.46
742.44	244.07
742.77	243.78
743.10	243.43
743.43	243.07
743.75	242.46
744.08	242.45
744.41	242.07
744.74	241.74
745.07	241.39
745.40	241.08
745.73	240.83
746.06	240.51
746.39	240.25
746.71	239.86
747.04	239.50
747.37	239.18
747.70	238.88
748.03	238.57
748.36	238.31
748.68	238.01
749.01	237.69
749.34	237.38
749.67	237.08
750.00	236.81
750.33	236.70
750.65	236.45
750.98	235.89
751.31	235.66
751.64	235.44
751.97	235.29
752.29	235.02
752.62	234.67
752.95	234.40
753.28	234.13
753.60	233.91
753.93	233.75
754.26	233.54
754.59	233.25
754.91	233.03
755.24	232.78
755.57	232.54
755.90	232.28
756.22	232.04
756.55	231.80
756.88	231.58
757.20	231.23
757.53	231.03
757.86	230.79
758.19	230.58
758.51	230.37
758.84	230.04
759.17	229.81
759.49	229.65
759.82	229.57
760.15	229.40
760.47	229.19
760.80	228.93
761.13	228.75
761.45	228.54
761.78	228.32
762.11	228.12
762.43	227.95
762.76	227.77
763.08	227.65
763.41	227.48
763.74	227.32
764.06	227.16
764.39	226.98
764.71	226.83
765.04	226.65
765.37	226.49
765.69	226.38
766.02	226.26
766.34	226.12
766.67	225.90
767.00	225.82
767.32	225.81
767.65	225.78
767.97	225.63
768.30	225.55
768.62	225.48
768.95	225.33
769.27	225.19
769.60	225.12
769.92	224.96
770.25	224.79
770.57	224.63
770.90	224.53
771.22	224.39
771.55	224.32
771.87	224.22
772.20	224.07
772.52	224.14
772.85	224.28
773.17	224.16
773.50	224.04
773.82	223.90
774.15	223.72
774.47	223.49
774.80	223.38
775.12	223.27
775.45	223.15
775.77	223.08
776.09	222.98
776.42	222.86
776.74	222.84
777.07	222.72
777.39	222.60
777.72	222.47
778.04	222.38
778.36	222.25
778.69	222.18
779.01	222.15
779.33	221.86
779.66	221.50
779.98	221.38
780.31	221.29
780.63	221.26
780.95	221.21
781.28	221.15
781.60	221.06
781.92	220.98
782.25	220.89
782.57	220.80
782.89	220.70
783.22	220.63
783.54	220.49
783.86	220.47
784.19	220.43
784.51	220.44
784.83	220.39
785.16	220.35
785.48	220.23
785.80	220.16
786.12	220.10
