SpectraSuite Data File
++++++++++++++++++++++++++++++++++++
Date: Tue Jan 29 16:48:13 EST 2013
User: group
Dark Spectrum Present: No
Reference Spectrum Present: No
Number of Sampled Component Spectra: 1
Spectrometers: USB2E7196
Integration Time (usec): 65000 (USB2E7196)
Spectra Averaged: 100 (USB2E7196)
Boxcar Smoothing: 10 (USB2E7196)
Correct for Electrical Dark: No (USB2E7196)
Strobe/Lamp Enabled: No (USB2E7196)
Correct for Detector Non-linearity: No (USB2E7196)
Correct for Stray Light: No (USB2E7196)
Number of Pixels in Processed Spectrum: 2048
>>>>>Begin Processed Spectral Data<<<<<
339.09	0.00
339.48	201.61
339.86	202.67
340.24	205.12
340.63	205.37
341.01	210.59
341.39	208.60
341.78	210.56
342.16	211.44
342.54	211.36
342.93	200.86
343.31	210.99
343.69	211.53
344.07	212.03
344.46	212.47
344.84	212.89
345.22	213.03
345.60	213.29
345.99	213.48
346.37	213.62
346.75	213.73
347.13	213.77
347.52	213.87
347.90	214.01
348.28	214.05
348.66	214.12
349.05	214.07
349.43	214.16
349.81	214.22
350.19	214.24
350.57	214.31
350.96	214.43
351.34	214.53
351.72	214.64
352.10	214.71
352.48	214.76
352.87	214.80
353.25	214.89
353.63	214.94
354.01	214.99
354.39	215.06
354.77	215.15
355.15	215.29
355.54	215.33
355.92	215.32
356.30	215.36
356.68	215.57
357.06	215.68
357.44	215.69
357.82	215.73
358.20	215.86
358.58	215.92
358.97	215.96
359.35	216.06
359.73	216.16
360.11	216.21
360.49	216.27
360.87	216.34
361.25	216.40
361.63	216.50
362.01	216.54
362.39	216.56
362.77	216.62
363.15	216.67
363.53	216.67
363.91	216.72
364.29	216.74
364.67	216.57
365.05	216.58
365.43	216.63
365.81	216.70
366.19	216.76
366.57	216.87
366.95	216.89
367.33	216.83
367.71	216.82
368.09	216.88
368.47	216.90
368.85	216.89
369.23	216.95
369.61	216.90
369.99	216.98
370.37	217.02
370.75	217.08
371.13	216.98
371.51	216.94
371.89	216.91
372.27	216.89
372.65	216.89
373.03	216.86
373.41	216.83
373.78	216.76
374.16	216.65
374.54	216.55
374.92	216.50
375.30	216.46
375.68	216.41
376.06	216.33
376.44	216.25
376.82	216.20
377.19	216.11
377.57	216.07
377.95	215.95
378.33	215.89
378.71	215.73
379.09	215.74
379.47	215.74
379.84	215.67
380.22	215.62
380.60	215.54
380.98	215.49
381.36	215.44
381.73	215.40
382.11	215.34
382.49	215.31
382.87	215.22
383.25	215.21
383.62	215.41
384.00	215.37
384.38	215.35
384.76	215.38
385.13	215.42
385.51	215.40
385.89	215.34
386.27	215.31
386.64	215.37
387.02	215.32
387.40	215.26
387.78	215.22
388.15	215.21
388.53	215.20
388.91	215.20
389.29	215.17
389.66	215.17
390.04	215.16
390.42	215.16
390.79	215.14
391.17	215.11
391.55	214.87
391.92	214.85
392.30	214.90
392.68	214.84
393.05	214.82
393.43	214.80
393.81	214.82
394.18	214.74
394.56	214.71
394.94	214.76
395.31	214.78
395.69	214.89
396.06	214.91
396.44	214.95
396.82	214.93
397.19	215.00
397.57	215.00
397.95	215.07
398.32	215.04
398.70	215.15
399.07	215.24
399.45	215.25
399.82	215.29
400.20	215.28
400.58	215.35
400.95	215.36
401.33	215.48
401.70	215.68
402.08	215.81
402.45	215.88
402.83	216.00
403.20	216.14
403.58	216.21
403.95	216.37
404.33	216.51
404.71	216.69
405.08	216.96
405.46	217.14
405.83	217.31
406.21	217.53
406.58	217.71
406.96	217.93
407.33	218.22
407.70	218.53
408.08	219.01
408.45	219.32
408.83	219.69
409.20	220.03
409.58	220.31
409.95	220.75
410.33	221.25
410.70	221.67
411.08	222.24
411.45	222.82
411.82	223.41
412.20	224.08
412.57	224.91
412.95	225.48
413.32	226.32
413.69	227.15
414.07	228.05
414.44	229.08
414.82	230.10
415.19	231.25
415.56	232.44
415.94	233.58
416.31	235.03
416.68	236.43
417.06	238.06
417.43	239.60
417.81	241.38
418.18	243.19
418.55	245.13
418.93	247.15
419.30	249.23
419.67	251.44
420.04	253.76
420.42	256.15
420.79	259.00
421.16	261.79
421.54	264.70
421.91	267.75
422.28	270.87
422.66	274.18
423.03	277.47
423.40	280.81
423.77	284.47
424.15	288.19
424.52	292.04
424.89	296.22
425.26	300.35
425.64	304.26
426.01	308.56
426.38	313.09
426.75	317.62
427.13	322.41
427.50	327.43
427.87	332.64
428.24	337.81
428.61	342.80
428.99	348.33
429.36	354.44
429.73	360.32
430.10	366.18
430.47	372.26
430.85	378.66
431.22	385.45
431.59	392.56
431.96	399.40
432.33	406.96
432.70	414.23
433.08	422.76
433.45	430.88
433.82	438.92
434.19	447.79
434.56	456.54
434.93	464.87
435.30	473.15
435.68	482.32
436.05	491.43
436.42	500.41
436.79	508.60
437.16	517.32
437.53	526.61
437.90	535.79
438.27	544.79
438.64	553.99
439.01	562.56
439.38	570.20
439.75	577.52
440.13	585.97
440.50	593.96
440.87	600.41
441.24	606.97
441.61	614.40
441.98	619.86
442.35	626.27
442.72	632.61
443.09	638.75
443.46	642.45
443.83	644.99
444.20	647.17
444.57	650.39
444.94	651.92
445.31	653.42
445.68	654.81
446.05	655.47
446.42	654.73
446.79	653.82
447.16	652.80
447.53	652.04
447.90	648.73
448.27	645.53
448.64	640.83
449.01	637.62
449.37	631.67
449.74	626.01
450.11	619.05
450.48	611.69
450.85	604.25
451.22	597.83
451.59	591.68
451.96	585.82
452.33	577.92
452.70	570.81
453.07	562.29
453.43	553.68
453.80	545.34
454.17	537.33
454.54	529.69
454.91	521.43
455.28	513.43
455.65	505.95
456.02	498.29
456.38	492.02
456.75	484.03
457.12	477.41
457.49	470.81
457.86	464.64
458.23	459.22
458.59	453.22
458.96	447.13
459.33	441.73
459.70	436.36
460.07	432.04
460.43	427.05
460.80	422.47
461.17	418.47
461.54	414.26
461.91	410.20
462.27	406.09
462.64	402.67
463.01	398.85
463.38	395.16
463.74	391.50
464.11	388.19
464.48	385.40
464.85	382.28
465.21	379.83
465.58	377.16
465.95	373.98
466.32	371.35
466.68	368.78
467.05	366.21
467.42	363.61
467.78	360.93
468.15	358.40
468.52	356.47
468.88	353.93
469.25	351.70
469.62	349.86
469.98	347.84
470.35	345.99
470.72	344.26
471.08	342.40
471.45	340.87
471.82	339.32
472.18	337.58
472.55	336.37
472.92	334.97
473.28	333.74
473.65	332.61
474.02	331.42
474.38	330.48
474.75	329.74
475.11	328.90
475.48	328.27
475.85	327.81
476.21	327.27
476.58	326.90
476.94	326.67
477.31	326.36
477.67	326.12
478.04	325.96
478.41	325.97
478.77	326.16
479.14	326.08
479.50	326.22
479.87	326.53
480.23	326.83
480.60	327.02
480.96	327.27
481.33	327.82
481.69	328.41
482.06	328.93
482.42	329.40
482.79	329.97
483.15	330.76
483.52	331.66
483.88	332.57
484.25	333.54
484.61	334.56
484.98	335.60
485.34	336.91
485.71	338.26
486.07	339.66
486.44	340.97
486.80	342.60
487.17	344.26
487.53	346.06
487.90	347.91
488.26	350.00
488.62	352.17
488.99	354.24
489.35	356.44
489.72	358.82
490.08	361.30
490.44	363.90
490.81	366.66
491.17	369.39
491.54	372.36
491.90	375.36
492.26	378.55
492.63	381.97
492.99	385.42
493.36	389.10
493.72	392.94
494.08	396.94
494.45	401.12
494.81	405.47
495.17	409.91
495.54	414.61
495.90	419.43
496.26	424.29
496.63	429.46
496.99	434.77
497.35	440.35
497.72	446.15
498.08	452.04
498.44	458.09
498.80	464.47
499.17	470.97
499.53	477.63
499.89	484.52
500.26	491.42
500.62	498.49
500.98	505.88
501.34	513.38
501.71	521.09
502.07	528.90
502.43	536.88
502.79	544.98
503.16	553.36
503.52	561.96
503.88	570.67
504.24	579.63
504.60	588.76
504.97	597.96
505.33	607.23
505.69	617.05
506.05	626.91
506.41	636.81
506.78	646.80
507.14	657.12
507.50	667.59
507.86	678.29
508.22	689.03
508.59	699.65
508.95	710.65
509.31	721.92
509.67	733.37
510.03	744.70
510.39	756.48
510.75	768.28
511.12	780.17
511.48	792.30
511.84	804.51
512.20	816.83
512.56	829.49
512.92	842.32
513.28	855.03
513.64	867.74
514.00	880.56
514.37	893.56
514.73	906.70
515.09	919.65
515.45	932.63
515.81	945.63
516.17	959.06
516.53	972.36
516.89	985.45
517.25	998.74
517.61	1012.35
517.97	1025.67
518.33	1038.85
518.69	1052.47
519.05	1066.22
519.41	1079.94
519.77	1093.84
520.13	1107.15
520.49	1120.32
520.85	1133.78
521.21	1147.19
521.57	1160.88
521.93	1173.90
522.29	1187.52
522.65	1201.18
523.01	1214.75
523.37	1228.04
523.73	1241.42
524.09	1254.65
524.45	1268.13
524.81	1281.54
525.17	1294.95
525.53	1308.26
525.89	1321.71
526.25	1334.90
526.61	1347.79
526.97	1360.94
527.33	1373.87
527.68	1387.41
528.04	1400.95
528.40	1414.16
528.76	1427.59
529.12	1440.52
529.48	1453.99
529.84	1466.39
530.20	1479.20
530.56	1491.91
530.91	1505.16
531.27	1518.09
531.63	1530.70
531.99	1543.57
532.35	1556.01
532.71	1568.46
533.07	1581.41
533.42	1593.69
533.78	1605.78
534.14	1617.87
534.50	1629.14
534.86	1640.82
535.21	1651.66
535.57	1663.29
535.93	1674.56
536.29	1685.60
536.65	1697.23
537.00	1708.26
537.36	1719.75
537.72	1730.86
538.08	1742.32
538.44	1753.49
538.79	1764.66
539.15	1775.81
539.51	1786.63
539.87	1797.95
540.22	1808.87
540.58	1819.94
540.94	1830.87
541.29	1841.28
541.65	1851.24
542.01	1861.91
542.37	1872.11
542.72	1882.54
543.08	1892.37
543.44	1902.93
543.79	1912.33
544.15	1921.84
544.51	1931.84
544.87	1941.82
545.22	1951.17
545.58	1960.14
545.94	1969.09
546.29	1977.64
546.65	1986.13
547.01	1994.36
547.36	2001.95
547.72	2009.75
548.07	2017.17
548.43	2024.88
548.79	2032.77
549.14	2040.94
549.50	2049.44
549.86	2057.25
550.21	2064.63
550.57	2072.48
550.92	2079.21
551.28	2086.75
551.64	2093.88
551.99	2101.38
552.35	2108.49
552.70	2115.42
553.06	2121.94
553.41	2128.23
553.77	2134.76
554.13	2141.05
554.48	2148.10
554.84	2155.49
555.19	2162.05
555.55	2168.63
555.90	2174.99
556.26	2181.79
556.61	2187.86
556.97	2192.71
557.32	2198.63
557.68	2204.94
558.03	2210.71
558.39	2216.02
558.74	2222.02
559.10	2227.68
559.45	2233.19
559.81	2238.75
560.16	2244.24
560.52	2250.27
560.87	2256.64
561.23	2262.43
561.58	2269.11
561.94	2274.39
562.29	2278.86
562.64	2284.87
563.00	2290.48
563.35	2295.92
563.71	2301.63
564.06	2307.26
564.42	2313.08
564.77	2318.01
565.12	2323.32
565.48	2328.19
565.83	2333.80
566.19	2339.09
566.54	2344.29
566.89	2349.05
567.25	2353.65
567.60	2359.21
567.96	2364.18
568.31	2368.62
568.66	2373.00
569.02	2376.74
569.37	2380.40
569.72	2384.71
570.08	2388.06
570.43	2391.32
570.78	2394.61
571.14	2396.97
571.49	2399.86
571.84	2403.31
572.20	2406.18
572.55	2409.01
572.90	2411.25
573.26	2413.90
573.61	2416.45
573.96	2418.40
574.31	2420.20
574.67	2421.86
575.02	2422.42
575.37	2423.79
575.72	2424.40
576.08	2425.56
576.43	2425.67
576.78	2425.93
577.13	2427.34
577.49	2428.61
577.84	2429.21
578.19	2430.20
578.54	2430.75
578.90	2431.39
579.25	2431.06
579.60	2430.65
579.95	2429.62
580.30	2429.40
580.66	2428.49
581.01	2426.59
581.36	2424.10
581.71	2422.50
582.06	2421.11
582.42	2420.10
582.77	2417.77
583.12	2415.92
583.47	2414.37
583.82	2413.64
584.17	2412.15
584.53	2409.82
584.88	2407.35
585.23	2405.31
585.58	2402.87
585.93	2400.67
586.28	2398.34
586.63	2395.75
586.98	2393.52
587.34	2391.48
587.69	2388.79
588.04	2386.60
588.39	2385.04
588.74	2382.54
589.09	2379.66
589.44	2376.46
589.79	2373.86
590.14	2371.72
590.49	2368.83
590.84	2364.99
591.19	2361.62
591.54	2358.29
591.89	2354.08
592.25	2350.68
592.60	2346.41
592.95	2342.09
593.30	2337.80
593.65	2333.32
594.00	2328.77
594.35	2325.70
594.70	2321.02
595.05	2316.61
595.40	2310.93
595.75	2304.97
596.10	2301.37
596.45	2296.44
596.80	2291.72
597.15	2286.41
597.50	2280.38
597.85	2275.45
598.19	2270.06
598.54	2264.27
598.89	2258.91
599.24	2254.51
599.59	2248.39
599.94	2242.46
600.29	2236.34
600.64	2230.33
600.99	2223.45
601.34	2217.85
601.69	2210.85
602.04	2204.38
602.39	2197.59
602.74	2191.63
603.08	2186.16
603.43	2179.50
603.78	2172.60
604.13	2165.60
604.48	2158.25
604.83	2152.03
605.18	2145.74
605.53	2138.91
605.87	2131.93
606.22	2125.31
606.57	2117.36
606.92	2109.29
607.27	2102.36
607.62	2095.85
607.96	2088.86
608.31	2082.49
608.66	2074.84
609.01	2067.12
609.36	2059.93
609.70	2052.32
610.05	2044.37
610.40	2035.91
610.75	2027.46
611.10	2019.68
611.44	2010.63
611.79	2002.16
612.14	1992.38
612.49	1981.58
612.83	1972.14
613.18	1962.73
613.53	1953.31
613.88	1943.73
614.22	1935.14
614.57	1925.28
614.92	1914.79
615.27	1904.50
615.61	1894.35
615.96	1884.73
616.31	1875.12
616.65	1865.79
617.00	1856.08
617.35	1846.48
617.70	1836.91
618.04	1827.14
618.39	1817.06
618.74	1807.61
619.08	1797.83
619.43	1788.96
619.78	1780.74
620.12	1772.14
620.47	1762.70
620.82	1752.45
621.16	1742.75
621.51	1733.03
621.85	1723.29
622.20	1713.03
622.55	1702.62
622.89	1692.72
623.24	1683.09
623.59	1673.44
623.93	1663.41
624.28	1653.70
624.62	1643.77
624.97	1633.59
625.32	1623.73
625.66	1614.92
626.01	1606.23
626.35	1596.98
626.70	1587.08
627.04	1577.20
627.39	1567.26
627.73	1558.10
628.08	1549.29
628.43	1539.78
628.77	1530.58
629.12	1521.75
629.46	1513.97
629.81	1505.72
630.15	1496.44
630.50	1486.73
630.84	1476.39
631.19	1466.55
631.53	1457.42
631.88	1447.44
632.22	1437.47
632.57	1428.23
632.91	1418.24
633.26	1408.35
633.60	1398.87
633.95	1389.80
634.29	1380.41
634.64	1371.09
634.98	1361.14
635.32	1351.95
635.67	1343.62
636.01	1334.34
636.36	1324.73
636.70	1315.28
637.05	1305.98
637.39	1297.06
637.73	1288.40
638.08	1280.83
638.42	1272.72
638.77	1263.96
639.11	1255.71
639.45	1248.07
639.80	1239.71
640.14	1231.08
640.49	1222.38
640.83	1213.64
641.17	1205.41
641.52	1197.23
641.86	1188.83
642.20	1181.01
642.55	1172.36
642.89	1163.51
643.23	1155.00
643.58	1147.00
643.92	1138.01
644.26	1129.43
644.61	1121.02
644.95	1112.34
645.29	1103.18
645.64	1094.14
645.98	1085.64
646.32	1077.78
646.66	1069.25
647.01	1060.88
647.35	1052.80
647.69	1044.62
648.04	1036.48
648.38	1027.73
648.72	1019.10
649.06	1010.70
649.41	1002.57
649.75	994.64
650.09	986.83
650.43	978.87
650.78	970.56
651.12	962.95
651.46	955.58
651.80	948.43
652.14	941.12
652.49	933.78
652.83	926.55
653.17	918.99
653.51	911.42
653.85	904.30
654.20	897.09
654.54	889.72
654.88	882.46
655.22	875.16
655.56	868.22
655.90	861.46
656.25	854.81
656.59	848.00
656.93	841.17
657.27	834.05
657.61	827.04
657.95	820.95
658.29	815.01
658.64	808.88
658.98	802.43
659.32	795.99
659.66	789.63
660.00	783.20
660.34	777.10
660.68	771.01
661.02	764.65
661.36	758.73
661.70	752.89
662.05	747.18
662.39	741.75
662.73	736.32
663.07	730.95
663.41	725.30
663.75	719.56
664.09	713.83
664.43	708.41
664.77	703.13
665.11	697.33
665.45	691.46
665.79	685.58
666.13	679.88
666.47	674.36
666.81	668.96
667.15	663.62
667.49	658.39
667.83	653.11
668.17	647.85
668.51	642.69
668.85	637.76
669.19	632.90
669.53	627.88
669.87	622.80
670.21	618.03
670.55	613.34
670.89	608.89
671.23	604.62
671.57	600.15
671.91	595.83
672.25	591.70
672.58	587.55
672.92	583.54
673.26	579.62
673.60	575.71
673.94	571.93
674.28	568.30
674.62	564.57
674.96	560.82
675.30	557.35
675.64	553.65
675.97	550.05
676.31	546.42
676.65	542.82
676.99	539.38
677.33	535.48
677.67	531.79
678.01	527.91
678.34	524.29
678.68	520.78
679.02	517.19
679.36	513.44
679.70	509.76
680.04	506.16
680.37	502.62
680.71	499.32
681.05	496.09
681.39	492.82
681.73	489.59
682.06	486.53
682.40	483.39
682.74	480.20
683.08	476.99
683.42	473.78
683.75	470.71
684.09	467.61
684.43	464.84
684.77	461.91
685.10	459.08
685.44	456.08
685.78	453.13
686.12	450.32
686.45	447.56
686.79	444.90
687.13	442.38
687.46	439.74
687.80	437.05
688.14	434.14
688.48	431.43
688.81	428.77
689.15	426.19
689.49	423.58
689.82	421.03
690.16	418.40
690.50	415.92
690.83	413.39
691.17	410.81
691.51	408.30
691.84	405.98
692.18	403.70
692.52	401.43
692.85	399.27
693.19	397.07
693.52	394.91
693.86	392.59
694.20	390.33
694.53	388.19
694.87	385.97
695.21	383.83
695.54	381.71
695.88	379.51
696.21	377.24
696.55	375.02
696.88	372.94
697.22	370.96
697.56	369.07
697.89	367.21
698.23	365.46
698.56	363.63
698.90	361.86
699.23	359.94
699.57	358.06
699.90	356.14
700.24	354.30
700.58	352.55
700.91	350.88
701.25	349.32
701.58	347.67
701.92	346.05
702.25	344.41
702.59	342.76
702.92	341.20
703.26	339.63
703.59	338.13
703.93	336.88
704.26	335.40
704.60	333.85
704.93	332.32
705.26	330.83
705.60	329.34
705.93	327.77
706.27	326.41
706.60	325.11
706.94	323.91
707.27	322.55
707.61	321.13
707.94	319.79
708.27	318.25
708.61	316.79
708.94	315.31
709.28	314.03
709.61	312.75
709.94	311.57
710.28	310.35
710.61	309.13
710.95	307.67
711.28	306.59
711.61	305.37
711.95	304.24
712.28	303.02
712.61	301.79
712.95	300.75
713.28	299.71
713.61	298.57
713.95	297.40
714.28	296.34
714.61	295.33
714.95	294.28
715.28	293.21
715.61	292.21
715.95	291.28
716.28	290.30
716.61	289.29
716.95	288.18
717.28	287.22
717.61	286.27
717.94	285.36
718.28	284.31
718.61	283.43
718.94	282.50
719.27	281.59
719.61	280.74
719.94	279.88
720.27	278.88
720.60	277.96
720.94	277.11
721.27	276.38
721.60	275.64
721.93	274.92
722.27	274.30
722.60	273.60
722.93	272.86
723.26	272.18
723.59	271.48
723.93	270.92
724.26	270.27
724.59	269.61
724.92	268.98
725.25	268.42
725.59	267.82
725.92	267.28
726.25	266.72
726.58	266.15
726.91	265.52
727.24	264.95
727.57	264.38
727.91	263.76
728.24	263.18
728.57	262.56
728.90	261.99
729.23	261.36
729.56	260.91
729.89	260.39
730.22	259.84
730.55	259.29
730.89	258.74
731.22	258.18
731.55	257.66
731.88	257.12
732.21	256.59
732.54	256.05
732.87	255.49
733.20	254.99
733.53	254.48
733.86	254.02
734.19	253.57
734.52	253.15
734.85	252.86
735.18	252.35
735.51	251.95
735.84	251.51
736.17	251.08
736.50	250.48
736.83	250.29
737.16	249.89
737.49	249.51
737.82	249.10
738.15	248.73
738.48	248.35
738.81	247.97
739.14	247.53
739.47	247.16
739.80	246.80
740.13	246.47
740.46	246.11
740.79	245.70
741.12	245.29
741.45	244.88
741.78	244.43
742.11	244.16
742.44	243.80
742.77	243.46
743.10	243.12
743.43	242.83
743.75	242.26
744.08	242.18
744.41	241.79
744.74	241.41
745.07	241.02
745.40	240.73
745.73	240.44
746.06	240.12
746.39	239.75
746.71	239.38
747.04	239.04
747.37	238.71
747.70	238.48
748.03	238.20
748.36	237.94
748.68	237.63
749.01	237.27
749.34	236.98
749.67	236.70
750.00	236.43
750.33	236.27
750.65	236.02
750.98	235.46
751.31	235.27
751.64	235.05
751.97	234.92
752.29	234.61
752.62	234.22
752.95	233.96
753.28	233.72
753.60	233.49
753.93	233.29
754.26	233.07
754.59	232.77
754.91	232.52
755.24	232.29
755.57	232.06
755.90	231.84
756.22	231.58
756.55	231.31
756.88	231.06
757.20	230.76
757.53	230.49
757.86	230.32
758.19	230.06
758.51	229.85
758.84	229.53
759.17	229.33
759.49	229.21
759.82	229.13
760.15	228.97
760.47	228.79
760.80	228.50
761.13	228.32
761.45	228.07
761.78	227.90
762.11	227.73
762.43	227.54
762.76	227.35
763.08	227.22
763.41	227.08
763.74	226.92
764.06	226.72
764.39	226.59
764.71	226.42
765.04	226.27
765.37	226.13
765.69	225.99
766.02	225.86
766.34	225.71
766.67	225.51
767.00	225.37
767.32	225.36
767.65	225.39
767.97	225.25
768.30	225.17
768.62	225.03
768.95	224.90
769.27	224.78
769.60	224.69
769.92	224.52
770.25	224.34
770.57	224.18
770.90	224.07
771.22	223.93
771.55	223.82
771.87	223.72
772.20	223.53
772.52	223.59
772.85	223.74
773.17	223.61
773.50	223.51
773.82	223.40
774.15	223.18
774.47	222.94
774.80	222.84
775.12	222.73
775.45	222.64
775.77	222.52
776.09	222.41
776.42	222.28
776.74	222.27
777.07	222.18
777.39	222.12
777.72	222.04
778.04	221.95
778.36	221.83
778.69	221.76
779.01	221.77
779.33	221.50
779.66	221.16
779.98	221.07
780.31	220.98
780.63	220.96
780.95	220.93
781.28	220.89
781.60	220.79
781.92	220.74
782.25	220.67
782.57	220.60
782.89	220.54
783.22	220.47
783.54	220.36
783.86	220.35
784.19	220.25
784.51	220.20
784.83	220.12
785.16	220.09
785.48	220.01
785.80	219.91
786.12	219.87
