SpectraSuite Data File
++++++++++++++++++++++++++++++++++++
Date: Tue Jan 29 16:49:06 EST 2013
User: group
Dark Spectrum Present: No
Reference Spectrum Present: No
Number of Sampled Component Spectra: 1
Spectrometers: USB2E7196
Integration Time (usec): 65000 (USB2E7196)
Spectra Averaged: 100 (USB2E7196)
Boxcar Smoothing: 10 (USB2E7196)
Correct for Electrical Dark: No (USB2E7196)
Strobe/Lamp Enabled: No (USB2E7196)
Correct for Detector Non-linearity: No (USB2E7196)
Correct for Stray Light: No (USB2E7196)
Number of Pixels in Processed Spectrum: 2048
>>>>>Begin Processed Spectral Data<<<<<
339.09	0.00
339.48	201.62
339.86	203.22
340.24	205.09
340.63	205.83
341.01	210.45
341.39	208.95
341.78	210.50
342.16	211.53
342.54	212.09
342.93	201.16
343.31	211.31
343.69	211.89
344.07	212.35
344.46	212.77
344.84	213.17
345.22	213.35
345.60	213.61
345.99	213.83
346.37	214.00
346.75	214.11
347.13	214.19
347.52	214.27
347.90	214.38
348.28	214.37
348.66	214.44
349.05	214.39
349.43	214.47
349.81	214.55
350.19	214.59
350.57	214.65
350.96	214.73
351.34	214.84
351.72	214.92
352.10	215.03
352.48	215.10
352.87	215.17
353.25	215.24
353.63	215.27
354.01	215.30
354.39	215.34
354.77	215.41
355.15	215.52
355.54	215.53
355.92	215.53
356.30	215.61
356.68	215.78
357.06	215.86
357.44	215.87
357.82	215.91
358.20	215.98
358.58	216.04
358.97	216.09
359.35	216.18
359.73	216.27
360.11	216.32
360.49	216.38
360.87	216.44
361.25	216.49
361.63	216.62
362.01	216.64
362.39	216.67
362.77	216.70
363.15	216.69
363.53	216.72
363.91	216.71
364.29	216.72
364.67	216.56
365.05	216.59
365.43	216.66
365.81	216.69
366.19	216.81
366.57	216.90
366.95	216.89
367.33	216.82
367.71	216.79
368.09	216.82
368.47	216.81
368.85	216.80
369.23	216.81
369.61	216.73
369.99	216.79
370.37	216.80
370.75	216.87
371.13	216.81
371.51	216.76
371.89	216.78
372.27	216.78
372.65	216.76
373.03	216.74
373.41	216.67
373.78	216.63
374.16	216.48
374.54	216.34
374.92	216.28
375.30	216.28
375.68	216.21
376.06	216.17
376.44	216.10
376.82	216.07
377.19	216.05
377.57	215.99
377.95	215.86
378.33	215.79
378.71	215.65
379.09	215.68
379.47	215.67
379.84	215.64
380.22	215.57
380.60	215.50
380.98	215.43
381.36	215.40
381.73	215.30
382.11	215.29
382.49	215.25
382.87	215.20
383.25	215.14
383.62	215.34
384.00	215.23
384.38	215.23
384.76	215.21
385.13	215.25
385.51	215.23
385.89	215.21
386.27	215.23
386.64	215.20
387.02	215.14
387.40	215.11
387.78	215.08
388.15	215.08
388.53	215.03
388.91	215.03
389.29	214.98
389.66	215.03
390.04	214.98
390.42	215.03
390.79	215.02
391.17	215.02
391.55	214.80
391.92	214.81
392.30	214.78
392.68	214.71
393.05	214.66
393.43	214.66
393.81	214.67
394.18	214.62
394.56	214.65
394.94	214.69
395.31	214.68
395.69	214.75
396.06	214.76
396.44	214.84
396.82	214.85
397.19	215.02
397.57	215.01
397.95	215.11
398.32	215.08
398.70	215.16
399.07	215.22
399.45	215.24
399.82	215.30
400.20	215.34
400.58	215.46
400.95	215.42
401.33	215.54
401.70	215.78
402.08	215.87
402.45	215.94
402.83	216.08
403.20	216.20
403.58	216.29
403.95	216.46
404.33	216.58
404.71	216.74
405.08	216.98
405.46	217.14
405.83	217.32
406.21	217.52
406.58	217.74
406.96	218.00
407.33	218.28
407.70	218.63
408.08	219.08
408.45	219.41
408.83	219.84
409.20	220.17
409.58	220.45
409.95	220.93
410.33	221.40
410.70	221.82
411.08	222.37
411.45	222.93
411.82	223.52
412.20	224.23
412.57	225.08
412.95	225.67
413.32	226.51
413.69	227.36
414.07	228.27
414.44	229.27
414.82	230.30
415.19	231.52
415.56	232.67
415.94	233.87
416.31	235.33
416.68	236.77
417.06	238.38
417.43	239.94
417.81	241.68
418.18	243.52
418.55	245.50
418.93	247.54
419.30	249.68
419.67	251.92
420.04	254.24
420.42	256.62
420.79	259.43
421.16	262.23
421.54	265.14
421.91	268.17
422.28	271.29
422.66	274.59
423.03	277.83
423.40	281.22
423.77	284.83
424.15	288.49
424.52	292.29
424.89	296.53
425.26	300.58
425.64	304.51
426.01	308.80
426.38	313.26
426.75	317.81
427.13	322.55
427.50	327.54
427.87	332.77
428.24	337.99
428.61	343.04
428.99	348.59
429.36	354.63
429.73	360.52
430.10	366.44
430.47	372.49
430.85	378.81
431.22	385.55
431.59	392.77
431.96	399.61
432.33	407.18
432.70	414.41
433.08	422.99
433.45	431.04
433.82	439.09
434.19	448.01
434.56	456.75
434.93	465.10
435.30	473.40
435.68	482.55
436.05	491.62
436.42	500.55
436.79	508.71
437.16	517.51
437.53	526.87
437.90	536.09
438.27	545.12
438.64	554.39
439.01	563.02
439.38	570.60
439.75	577.99
440.13	586.46
440.50	594.48
440.87	600.97
441.24	607.63
441.61	615.00
441.98	620.38
442.35	626.77
442.72	633.17
443.09	639.27
443.46	642.99
443.83	645.47
444.20	647.65
444.57	650.88
444.94	652.35
445.31	653.71
445.68	655.10
446.05	655.76
446.42	655.03
446.79	654.04
447.16	652.99
447.53	652.23
447.90	648.89
448.27	645.60
448.64	640.93
449.01	637.67
449.37	631.79
449.74	626.19
450.11	619.23
450.48	611.82
450.85	604.35
451.22	597.89
451.59	591.73
451.96	585.92
452.33	578.02
452.70	570.94
453.07	562.50
453.43	553.84
453.80	545.50
454.17	537.51
454.54	529.88
454.91	521.59
455.28	513.53
455.65	506.08
456.02	498.56
456.38	492.20
456.75	484.23
457.12	477.60
457.49	471.00
457.86	464.84
458.23	459.42
458.59	453.44
458.96	447.47
459.33	442.13
459.70	436.69
460.07	432.41
460.43	427.44
460.80	422.81
461.17	418.79
461.54	414.53
461.91	410.42
462.27	406.29
462.64	402.82
463.01	399.00
463.38	395.27
463.74	391.50
464.11	388.24
464.48	385.40
464.85	382.23
465.21	379.83
465.58	377.16
465.95	373.98
466.32	371.35
466.68	368.68
467.05	366.10
467.42	363.48
467.78	360.72
468.15	358.15
468.52	356.21
468.88	353.67
469.25	351.49
469.62	349.68
469.98	347.70
470.35	345.87
470.72	344.16
471.08	342.31
471.45	340.81
471.82	339.25
472.18	337.59
472.55	336.39
472.92	334.96
473.28	333.74
473.65	332.58
474.02	331.48
474.38	330.58
474.75	329.78
475.11	329.00
475.48	328.44
475.85	327.97
476.21	327.46
476.58	327.04
476.94	326.78
477.31	326.41
477.67	326.13
478.04	325.99
478.41	325.98
478.77	326.16
479.14	326.08
479.50	326.24
479.87	326.55
480.23	326.89
480.60	327.07
480.96	327.31
481.33	327.88
481.69	328.40
482.06	328.88
482.42	329.34
482.79	329.95
483.15	330.72
483.52	331.67
483.88	332.59
484.25	333.62
484.61	334.63
484.98	335.73
485.34	337.06
485.71	338.40
486.07	339.82
486.44	341.15
486.80	342.79
487.17	344.42
487.53	346.21
487.90	348.07
488.26	350.13
488.62	352.29
488.99	354.30
489.35	356.49
489.72	358.90
490.08	361.44
490.44	363.97
490.81	366.67
491.17	369.32
491.54	372.26
491.90	375.22
492.26	378.42
492.63	381.84
492.99	385.31
493.36	388.97
493.72	392.84
494.08	396.82
494.45	400.99
494.81	405.35
495.17	409.83
495.54	414.51
495.90	419.30
496.26	424.20
496.63	429.42
496.99	434.80
497.35	440.33
497.72	446.19
498.08	452.13
498.44	458.24
498.80	464.76
499.17	471.22
499.53	477.97
499.89	484.84
500.26	491.75
500.62	498.82
500.98	506.23
501.34	513.72
501.71	521.48
502.07	529.25
502.43	537.23
502.79	545.42
503.16	553.78
503.52	562.32
503.88	571.02
504.24	580.03
504.60	589.02
504.97	598.27
505.33	607.55
505.69	617.47
506.05	627.35
506.41	637.14
506.78	647.29
507.14	657.52
507.50	667.98
507.86	678.67
508.22	689.43
508.59	700.05
508.95	711.05
509.31	722.33
509.67	733.72
510.03	745.07
510.39	756.70
510.75	768.55
511.12	780.46
511.48	792.57
511.84	804.76
512.20	817.15
512.56	829.78
512.92	842.50
513.28	855.02
513.64	867.78
514.00	880.65
514.37	893.63
514.73	906.71
515.09	919.70
515.45	932.63
515.81	945.75
516.17	959.25
516.53	972.47
516.89	985.55
517.25	998.83
517.61	1012.41
517.97	1025.84
518.33	1039.02
518.69	1052.64
519.05	1066.41
519.41	1080.01
519.77	1093.96
520.13	1107.26
520.49	1120.44
520.85	1133.88
521.21	1147.16
521.57	1160.82
521.93	1173.89
522.29	1187.73
522.65	1201.42
523.01	1215.14
523.37	1228.27
523.73	1241.58
524.09	1254.77
524.45	1268.33
524.81	1281.91
525.17	1295.34
525.53	1308.56
525.89	1321.95
526.25	1335.13
526.61	1348.04
526.97	1361.29
527.33	1374.25
527.68	1387.74
528.04	1401.30
528.40	1414.54
528.76	1428.05
529.12	1441.09
529.48	1454.49
529.84	1466.74
530.20	1479.58
530.56	1492.19
530.91	1505.50
531.27	1518.36
531.63	1531.24
531.99	1543.91
532.35	1556.23
532.71	1568.69
533.07	1581.71
533.42	1593.94
533.78	1606.15
534.14	1618.33
534.50	1629.55
534.86	1641.29
535.21	1652.24
535.57	1663.76
535.93	1674.96
536.29	1686.07
536.65	1697.50
537.00	1708.43
537.36	1720.00
537.72	1731.01
538.08	1742.50
538.44	1753.59
538.79	1764.93
539.15	1775.91
539.51	1786.80
539.87	1798.13
540.22	1809.08
540.58	1819.98
540.94	1831.02
541.29	1841.38
541.65	1851.22
542.01	1861.86
542.37	1871.96
542.72	1882.28
543.08	1892.17
543.44	1902.80
543.79	1912.09
544.15	1921.70
544.51	1931.76
544.87	1941.53
545.22	1950.81
545.58	1959.77
545.94	1968.80
546.29	1977.22
546.65	1985.64
547.01	1993.96
547.36	2001.66
547.72	2009.51
548.07	2017.19
548.43	2025.03
548.79	2032.92
549.14	2041.07
549.50	2049.49
549.86	2057.36
550.21	2064.84
550.57	2072.62
550.92	2079.50
551.28	2087.18
551.64	2094.35
551.99	2101.87
552.35	2109.21
552.70	2116.30
553.06	2122.91
553.41	2129.12
553.77	2135.73
554.13	2142.17
554.48	2149.19
554.84	2156.29
555.19	2162.72
555.55	2169.19
555.90	2175.46
556.26	2182.41
556.61	2188.52
556.97	2193.40
557.32	2199.21
557.68	2205.64
558.03	2211.54
558.39	2217.01
558.74	2222.99
559.10	2228.60
559.45	2234.21
559.81	2239.62
560.16	2245.03
560.52	2250.85
560.87	2257.20
561.23	2263.04
561.58	2269.67
561.94	2274.93
562.29	2279.61
562.64	2285.57
563.00	2291.15
563.35	2296.68
563.71	2302.14
564.06	2307.70
564.42	2313.62
564.77	2318.56
565.12	2323.69
565.48	2328.52
565.83	2333.73
566.19	2338.89
566.54	2344.14
566.89	2348.59
567.25	2353.06
567.60	2358.63
567.96	2363.67
568.31	2368.01
568.66	2372.14
569.02	2375.89
569.37	2379.50
569.72	2383.86
570.08	2387.24
570.43	2390.26
570.78	2393.25
571.14	2395.82
571.49	2398.90
571.84	2402.40
572.20	2405.30
572.55	2408.21
572.90	2410.58
573.26	2413.29
573.61	2415.82
573.96	2417.75
574.31	2419.70
574.67	2421.42
575.02	2422.14
575.37	2423.65
575.72	2424.32
576.08	2425.75
576.43	2425.69
576.78	2425.94
577.13	2427.45
577.49	2428.62
577.84	2429.53
578.19	2430.64
578.54	2431.00
578.90	2431.40
579.25	2431.05
579.60	2430.74
579.95	2429.84
580.30	2429.46
580.66	2428.53
581.01	2426.61
581.36	2424.04
581.71	2422.40
582.06	2421.28
582.42	2420.20
582.77	2417.60
583.12	2415.88
583.47	2414.20
583.82	2413.54
584.17	2412.17
584.53	2409.74
584.88	2407.49
585.23	2405.32
585.58	2402.84
585.93	2400.72
586.28	2398.41
586.63	2395.71
586.98	2393.35
587.34	2391.16
587.69	2388.64
588.04	2386.48
588.39	2384.97
588.74	2382.41
589.09	2379.51
589.44	2376.07
589.79	2373.41
590.14	2371.29
590.49	2368.23
590.84	2364.15
591.19	2360.80
591.54	2357.44
591.89	2353.26
592.25	2349.89
592.60	2345.57
592.95	2341.40
593.30	2337.07
593.65	2332.58
594.00	2328.20
594.35	2324.91
594.70	2320.13
595.05	2315.61
595.40	2309.99
595.75	2304.11
596.10	2300.39
596.45	2295.55
596.80	2290.99
597.15	2285.68
597.50	2279.72
597.85	2274.81
598.19	2269.62
598.54	2263.83
598.89	2258.39
599.24	2253.77
599.59	2247.38
599.94	2241.46
600.29	2235.32
600.64	2229.35
600.99	2222.51
601.34	2216.94
601.69	2210.06
602.04	2203.63
602.39	2196.92
602.74	2190.82
603.08	2185.26
603.43	2178.79
603.78	2171.82
604.13	2164.81
604.48	2157.45
604.83	2151.39
605.18	2145.07
605.53	2138.22
605.87	2131.16
606.22	2124.41
606.57	2116.52
606.92	2108.60
607.27	2101.72
607.62	2095.17
607.96	2088.23
608.31	2081.78
608.66	2073.91
609.01	2066.27
609.36	2059.21
609.70	2051.60
610.05	2043.86
610.40	2035.49
610.75	2027.04
611.10	2019.38
611.44	2010.26
611.79	2001.62
612.14	1991.64
612.49	1980.97
612.83	1971.60
613.18	1962.24
613.53	1952.82
613.88	1943.17
614.22	1934.60
614.57	1924.84
614.92	1914.24
615.27	1903.98
615.61	1893.84
615.96	1884.21
616.31	1874.60
616.65	1865.06
617.00	1855.32
617.35	1845.76
617.70	1836.07
618.04	1826.21
618.39	1816.18
618.74	1806.72
619.08	1797.10
619.43	1788.43
619.78	1780.29
620.12	1771.74
620.47	1762.40
620.82	1752.24
621.16	1742.57
621.51	1732.78
621.85	1722.92
622.20	1712.67
622.55	1702.17
622.89	1692.29
623.24	1682.67
623.59	1672.99
623.93	1663.04
624.28	1653.25
624.62	1643.21
624.97	1633.09
625.32	1623.45
625.66	1614.58
626.01	1605.82
626.35	1596.60
626.70	1586.70
627.04	1576.81
627.39	1566.71
627.73	1557.52
628.08	1548.82
628.43	1539.41
628.77	1530.25
629.12	1521.50
629.46	1513.79
629.81	1505.59
630.15	1496.27
630.50	1486.60
630.84	1476.15
631.19	1466.29
631.53	1457.19
631.88	1447.01
632.22	1437.11
632.57	1427.77
632.91	1417.74
633.26	1408.04
633.60	1398.61
633.95	1389.43
634.29	1379.86
634.64	1370.71
634.98	1360.75
635.32	1351.51
635.67	1343.11
636.01	1333.98
636.36	1324.30
636.70	1314.84
637.05	1305.50
637.39	1296.72
637.73	1288.22
638.08	1280.87
638.42	1272.86
638.77	1264.07
639.11	1255.97
639.45	1248.33
639.80	1239.82
640.14	1231.21
640.49	1222.39
640.83	1213.51
641.17	1205.32
641.52	1197.26
641.86	1188.70
642.20	1181.04
642.55	1172.42
642.89	1163.54
643.23	1154.96
643.58	1146.99
643.92	1138.01
644.26	1129.37
644.61	1120.90
644.95	1112.21
645.29	1103.10
645.64	1093.96
645.98	1085.55
646.32	1077.80
646.66	1069.23
647.01	1061.06
647.35	1053.13
647.69	1044.94
648.04	1036.81
648.38	1028.04
648.72	1019.43
649.06	1011.14
649.41	1002.95
649.75	995.12
650.09	987.42
650.43	979.42
650.78	971.12
651.12	963.50
651.46	956.10
651.80	948.92
652.14	941.64
652.49	934.02
652.83	926.72
653.17	919.10
653.51	911.42
653.85	904.19
654.20	896.89
654.54	889.35
654.88	882.12
655.22	874.91
655.56	867.92
655.90	861.15
656.25	854.45
656.59	847.55
656.93	840.52
657.27	833.34
657.61	826.34
657.95	820.20
658.29	814.24
658.64	808.22
658.98	801.78
659.32	795.29
659.66	789.11
660.00	782.87
660.34	776.75
660.68	770.72
661.02	764.41
661.36	758.46
661.70	752.64
662.05	747.03
662.39	741.57
662.73	736.16
663.07	730.77
663.41	725.12
663.75	719.45
664.09	713.75
664.43	708.28
664.77	702.99
665.11	697.22
665.45	691.34
665.79	685.48
666.13	679.84
666.47	674.34
666.81	668.91
667.15	663.45
667.49	658.24
667.83	652.97
668.17	647.76
668.51	642.68
668.85	637.75
669.19	632.84
669.53	627.81
669.87	622.74
670.21	617.99
670.55	613.32
670.89	608.75
671.23	604.42
671.57	600.05
671.91	595.76
672.25	591.60
672.58	587.45
672.92	583.39
673.26	579.47
673.60	575.63
673.94	571.81
674.28	568.24
674.62	564.51
674.96	560.74
675.30	557.16
675.64	553.47
675.97	549.80
676.31	546.17
676.65	542.57
676.99	539.18
677.33	535.24
677.67	531.59
678.01	527.80
678.34	524.15
678.68	520.67
679.02	517.08
679.36	513.42
679.70	509.77
680.04	506.20
680.37	502.70
680.71	499.31
681.05	496.07
681.39	492.77
681.73	489.59
682.06	486.53
682.40	483.50
682.74	480.32
683.08	477.16
683.42	473.98
683.75	470.93
684.09	467.80
684.43	465.08
684.77	462.16
685.10	459.30
685.44	456.40
685.78	453.42
686.12	450.55
686.45	447.79
686.79	445.12
687.13	442.58
687.46	439.93
687.80	437.19
688.14	434.31
688.48	431.63
688.81	428.90
689.15	426.34
689.49	423.60
689.82	420.99
690.16	418.37
690.50	415.90
690.83	413.41
691.17	410.83
691.51	408.26
691.84	405.91
692.18	403.67
692.52	401.46
692.85	399.33
693.19	397.23
693.52	395.01
693.86	392.72
694.20	390.47
694.53	388.31
694.87	386.11
695.21	383.97
695.54	381.78
695.88	379.57
696.21	377.31
696.55	375.21
696.88	373.14
697.22	371.11
697.56	369.14
697.89	367.19
698.23	365.44
698.56	363.65
698.90	361.90
699.23	359.99
699.57	358.07
699.90	356.17
700.24	354.28
700.58	352.55
700.91	350.90
701.25	349.29
701.58	347.65
701.92	346.02
702.25	344.40
702.59	342.78
702.92	341.27
703.26	339.69
703.59	338.19
703.93	336.89
704.26	335.47
704.60	333.95
704.93	332.47
705.26	330.96
705.60	329.42
705.93	327.87
706.27	326.44
706.60	325.13
706.94	323.91
707.27	322.53
707.61	321.13
707.94	319.76
708.27	318.25
708.61	316.76
708.94	315.39
709.28	314.12
709.61	312.82
709.94	311.56
710.28	310.36
710.61	309.14
710.95	307.69
711.28	306.55
711.61	305.31
711.95	304.19
712.28	302.94
712.61	301.78
712.95	300.71
713.28	299.67
713.61	298.50
713.95	297.30
714.28	296.25
714.61	295.20
714.95	294.15
715.28	293.13
715.61	292.11
715.95	291.12
716.28	290.08
716.61	289.13
716.95	288.13
717.28	287.15
717.61	286.20
717.94	285.28
718.28	284.24
718.61	283.38
718.94	282.42
719.27	281.52
719.61	280.72
719.94	279.88
720.27	278.93
720.60	278.09
720.94	277.28
721.27	276.48
721.60	275.78
721.93	275.01
722.27	274.38
722.60	273.72
722.93	273.01
723.26	272.37
723.59	271.65
723.93	270.98
724.26	270.31
724.59	269.62
724.92	269.02
725.25	268.50
725.59	267.90
725.92	267.34
726.25	266.78
726.58	266.11
726.91	265.45
727.24	264.90
727.57	264.32
727.91	263.65
728.24	263.11
728.57	262.52
728.90	262.00
729.23	261.36
729.56	260.92
729.89	260.35
730.22	259.75
730.55	259.18
730.89	258.67
731.22	258.13
731.55	257.64
731.88	257.13
732.21	256.54
732.54	256.01
732.87	255.52
733.20	255.04
733.53	254.58
733.86	254.12
734.19	253.60
734.52	253.18
734.85	252.93
735.18	252.43
735.51	252.05
735.84	251.57
736.17	251.18
736.50	250.62
736.83	250.47
737.16	250.11
737.49	249.73
737.82	249.32
738.15	248.95
738.48	248.57
738.81	248.16
739.14	247.77
739.47	247.36
739.80	246.97
740.13	246.65
740.46	246.28
740.79	245.87
741.12	245.53
741.45	245.16
741.78	244.68
742.11	244.44
742.44	244.00
742.77	243.75
743.10	243.39
743.43	243.05
743.75	242.45
744.08	242.39
744.41	242.05
744.74	241.69
745.07	241.28
745.40	240.97
745.73	240.70
746.06	240.36
746.39	240.04
746.71	239.71
747.04	239.32
747.37	238.98
747.70	238.72
748.03	238.39
748.36	238.10
748.68	237.80
749.01	237.40
749.34	237.13
749.67	236.80
750.00	236.49
750.33	236.35
750.65	236.11
750.98	235.54
751.31	235.30
751.64	235.05
751.97	234.93
752.29	234.65
752.62	234.31
752.95	234.04
753.28	233.79
753.60	233.57
753.93	233.42
754.26	233.16
754.59	232.89
754.91	232.65
755.24	232.42
755.57	232.18
755.90	231.98
756.22	231.74
756.55	231.50
756.88	231.28
757.20	230.95
757.53	230.71
757.86	230.52
758.19	230.31
758.51	230.11
758.84	229.83
759.17	229.64
759.49	229.45
759.82	229.37
760.15	229.16
760.47	228.96
760.80	228.68
761.13	228.54
761.45	228.33
761.78	228.14
762.11	227.92
762.43	227.73
762.76	227.55
763.08	227.37
763.41	227.20
763.74	227.03
764.06	226.84
764.39	226.69
764.71	226.47
765.04	226.31
765.37	226.17
765.69	226.01
766.02	225.83
766.34	225.71
766.67	225.48
767.00	225.42
767.32	225.39
767.65	225.40
767.97	225.29
768.30	225.19
768.62	225.06
768.95	224.91
769.27	224.75
769.60	224.67
769.92	224.51
770.25	224.35
770.57	224.17
770.90	224.06
771.22	223.92
771.55	223.83
771.87	223.75
772.20	223.56
772.52	223.59
772.85	223.70
773.17	223.58
773.50	223.48
773.82	223.38
774.15	223.16
774.47	222.94
774.80	222.82
775.12	222.69
775.45	222.60
775.77	222.56
776.09	222.51
776.42	222.40
776.74	222.41
777.07	222.31
777.39	222.23
777.72	222.13
778.04	222.08
778.36	221.98
778.69	221.88
779.01	221.86
779.33	221.61
779.66	221.31
779.98	221.18
780.31	221.09
780.63	221.07
780.95	221.00
781.28	220.92
781.60	220.80
781.92	220.77
782.25	220.70
782.57	220.59
782.89	220.51
783.22	220.43
783.54	220.32
783.86	220.28
784.19	220.22
784.51	220.24
784.83	220.11
785.16	220.04
785.48	219.95
785.80	219.89
786.12	219.84
