SpectraSuite Data File
++++++++++++++++++++++++++++++++++++
Date: Tue Jan 29 16:56:35 EST 2013
User: group
Dark Spectrum Present: No
Reference Spectrum Present: No
Number of Sampled Component Spectra: 1
Spectrometers: USB2E7196
Integration Time (usec): 65000 (USB2E7196)
Spectra Averaged: 100 (USB2E7196)
Boxcar Smoothing: 10 (USB2E7196)
Correct for Electrical Dark: No (USB2E7196)
Strobe/Lamp Enabled: No (USB2E7196)
Correct for Detector Non-linearity: No (USB2E7196)
Correct for Stray Light: No (USB2E7196)
Number of Pixels in Processed Spectrum: 2048
>>>>>Begin Processed Spectral Data<<<<<
339.09	0.00
339.48	201.08
339.86	202.70
340.24	203.84
340.63	205.11
341.01	210.01
341.39	207.58
341.78	210.08
342.16	210.87
342.54	211.59
342.93	200.57
343.31	210.69
343.69	211.25
344.07	211.73
344.46	212.16
344.84	212.58
345.22	212.75
345.60	213.09
345.99	213.25
346.37	213.39
346.75	213.49
347.13	213.57
347.52	213.65
347.90	213.80
348.28	213.82
348.66	213.87
349.05	213.86
349.43	213.94
349.81	213.99
350.19	214.03
350.57	214.14
350.96	214.24
351.34	214.36
351.72	214.43
352.10	214.55
352.48	214.64
352.87	214.71
353.25	214.81
353.63	214.84
354.01	214.94
354.39	215.03
354.77	215.13
355.15	215.25
355.54	215.29
355.92	215.26
356.30	215.36
356.68	215.55
357.06	215.65
357.44	215.66
357.82	215.72
358.20	215.82
358.58	215.86
358.97	215.91
359.35	216.02
359.73	216.18
360.11	216.22
360.49	216.32
360.87	216.35
361.25	216.40
361.63	216.54
362.01	216.61
362.39	216.60
362.77	216.67
363.15	216.69
363.53	216.74
363.91	216.76
364.29	216.77
364.67	216.60
365.05	216.62
365.43	216.70
365.81	216.79
366.19	216.89
366.57	217.02
366.95	217.02
367.33	216.99
367.71	216.97
368.09	217.05
368.47	217.04
368.85	217.00
369.23	217.06
369.61	216.97
369.99	217.05
370.37	217.09
370.75	217.17
371.13	217.12
371.51	217.11
371.89	217.10
372.27	217.10
372.65	217.10
373.03	217.06
373.41	217.02
373.78	216.91
374.16	216.77
374.54	216.61
374.92	216.58
375.30	216.55
375.68	216.49
376.06	216.43
376.44	216.38
376.82	216.38
377.19	216.31
377.57	216.27
377.95	216.11
378.33	216.05
378.71	215.89
379.09	215.86
379.47	215.84
379.84	215.79
380.22	215.73
380.60	215.65
380.98	215.61
381.36	215.54
381.73	215.53
382.11	215.49
382.49	215.47
382.87	215.38
383.25	215.32
383.62	215.47
384.00	215.38
384.38	215.35
384.76	215.37
385.13	215.40
385.51	215.37
385.89	215.32
386.27	215.32
386.64	215.28
387.02	215.22
387.40	215.14
387.78	215.12
388.15	215.08
388.53	215.09
388.91	215.06
389.29	215.05
389.66	215.04
390.04	215.03
390.42	215.04
390.79	215.06
391.17	215.03
391.55	214.82
391.92	214.82
392.30	214.83
392.68	214.75
393.05	214.73
393.43	214.72
393.81	214.73
394.18	214.68
394.56	214.70
394.94	214.76
395.31	214.78
395.69	214.87
396.06	214.93
396.44	214.92
396.82	214.92
397.19	215.03
397.57	215.03
397.95	215.09
398.32	215.10
398.70	215.15
399.07	215.26
399.45	215.30
399.82	215.29
400.20	215.32
400.58	215.37
400.95	215.36
401.33	215.50
401.70	215.70
402.08	215.78
402.45	215.90
402.83	216.02
403.20	216.15
403.58	216.22
403.95	216.37
404.33	216.55
404.71	216.69
405.08	216.96
405.46	217.15
405.83	217.30
406.21	217.49
406.58	217.72
406.96	217.93
407.33	218.16
407.70	218.51
408.08	218.96
408.45	219.32
408.83	219.71
409.20	220.00
409.58	220.31
409.95	220.80
410.33	221.28
410.70	221.72
411.08	222.23
411.45	222.80
411.82	223.38
412.20	224.04
412.57	224.89
412.95	225.46
413.32	226.26
413.69	227.17
414.07	228.09
414.44	229.06
414.82	230.06
415.19	231.27
415.56	232.46
415.94	233.69
416.31	235.13
416.68	236.55
417.06	238.18
417.43	239.73
417.81	241.45
418.18	243.24
418.55	245.20
418.93	247.29
419.30	249.42
419.67	251.66
420.04	254.00
420.42	256.40
420.79	259.25
421.16	262.05
421.54	264.90
421.91	267.89
422.28	271.01
422.66	274.36
423.03	277.58
423.40	280.96
423.77	284.53
424.15	288.20
424.52	292.02
424.89	296.21
425.26	300.32
425.64	304.24
426.01	308.53
426.38	313.02
426.75	317.59
427.13	322.32
427.50	327.31
427.87	332.51
428.24	337.71
428.61	342.73
428.99	348.33
429.36	354.41
429.73	360.33
430.10	366.23
430.47	372.32
430.85	378.70
431.22	385.41
431.59	392.62
431.96	399.51
432.33	407.13
432.70	414.41
433.08	422.96
433.45	431.12
433.82	439.19
434.19	448.12
434.56	456.88
434.93	465.29
435.30	473.67
435.68	482.82
436.05	491.85
436.42	500.80
436.79	508.98
437.16	517.77
437.53	527.16
437.90	536.33
438.27	545.38
438.64	554.67
439.01	563.31
439.38	570.95
439.75	578.25
440.13	586.71
440.50	594.72
440.87	601.23
441.24	607.88
441.61	615.26
441.98	620.68
442.35	627.12
442.72	633.51
443.09	639.57
443.46	643.34
443.83	645.97
444.20	648.18
444.57	651.31
444.94	652.82
445.31	654.24
445.68	655.67
446.05	656.24
446.42	655.50
446.79	654.53
447.16	653.44
447.53	652.77
447.90	649.44
448.27	646.15
448.64	641.46
449.01	638.17
449.37	632.22
449.74	626.59
450.11	619.55
450.48	612.06
450.85	604.59
451.22	598.09
451.59	591.89
451.96	586.03
452.33	578.19
452.70	571.04
453.07	562.54
453.43	553.89
453.80	545.63
454.17	537.54
454.54	529.93
454.91	521.65
455.28	513.56
455.65	506.07
456.02	498.51
456.38	492.11
456.75	484.18
457.12	477.56
457.49	470.92
457.86	464.68
458.23	459.26
458.59	453.26
458.96	447.23
459.33	441.84
459.70	436.44
460.07	432.11
460.43	427.19
460.80	422.55
461.17	418.51
461.54	414.22
461.91	410.22
462.27	406.12
462.64	402.67
463.01	398.87
463.38	395.16
463.74	391.42
464.11	388.14
464.48	385.26
464.85	382.19
465.21	379.80
465.58	377.18
465.95	374.08
466.32	371.43
466.68	368.77
467.05	366.17
467.42	363.54
467.78	360.82
468.15	358.27
468.52	356.31
468.88	353.81
469.25	351.57
469.62	349.69
469.98	347.71
470.35	345.89
470.72	344.15
471.08	342.32
471.45	340.79
471.82	339.26
472.18	337.57
472.55	336.33
472.92	334.87
473.28	333.59
473.65	332.42
474.02	331.32
474.38	330.41
474.75	329.68
475.11	328.87
475.48	328.25
475.85	327.75
476.21	327.25
476.58	326.88
476.94	326.63
477.31	326.31
477.67	326.01
478.04	325.84
478.41	325.78
478.77	325.93
479.14	325.88
479.50	326.00
479.87	326.29
480.23	326.58
480.60	326.81
480.96	327.08
481.33	327.64
481.69	328.18
482.06	328.74
482.42	329.14
482.79	329.77
483.15	330.56
483.52	331.49
483.88	332.40
484.25	333.32
484.61	334.29
484.98	335.35
485.34	336.67
485.71	338.03
486.07	339.50
486.44	340.81
486.80	342.42
487.17	344.03
487.53	345.84
487.90	347.70
488.26	349.76
488.62	351.98
488.99	354.03
489.35	356.17
489.72	358.53
490.08	361.11
490.44	363.63
490.81	366.38
491.17	369.04
491.54	372.03
491.90	375.09
492.26	378.36
492.63	381.83
492.99	385.31
493.36	388.95
493.72	392.81
494.08	396.84
494.45	401.06
494.81	405.50
495.17	409.90
495.54	414.61
495.90	419.35
496.26	424.24
496.63	429.38
496.99	434.87
497.35	440.46
497.72	446.20
498.08	452.10
498.44	458.15
498.80	464.60
499.17	471.01
499.53	477.65
499.89	484.50
500.26	491.34
500.62	498.37
500.98	505.74
501.34	513.17
501.71	520.91
502.07	528.66
502.43	536.59
502.79	544.72
503.16	553.05
503.52	561.65
503.88	570.33
504.24	579.25
504.60	588.20
504.97	597.42
505.33	606.71
505.69	616.62
506.05	626.50
506.41	636.34
506.78	646.34
507.14	656.61
507.50	667.06
507.86	677.72
508.22	688.49
508.59	699.14
508.95	710.16
509.31	721.34
509.67	732.74
510.03	744.00
510.39	755.73
510.75	767.52
511.12	779.41
511.48	791.39
511.84	803.60
512.20	815.93
512.56	828.45
512.92	841.20
513.28	853.74
513.64	866.51
514.00	879.27
514.37	892.25
514.73	905.31
515.09	918.28
515.45	931.24
515.81	944.21
516.17	957.52
516.53	970.74
516.89	983.85
517.25	997.05
517.61	1010.73
517.97	1024.11
518.33	1037.33
518.69	1050.91
519.05	1064.74
519.41	1078.47
519.77	1092.44
520.13	1105.78
520.49	1118.98
520.85	1132.34
521.21	1145.65
521.57	1159.30
521.93	1172.31
522.29	1186.05
522.65	1199.65
523.01	1213.28
523.37	1226.54
523.73	1239.92
524.09	1253.22
524.45	1266.68
524.81	1280.19
525.17	1293.49
525.53	1306.69
525.89	1319.97
526.25	1333.16
526.61	1345.93
526.97	1359.09
527.33	1371.97
527.68	1385.50
528.04	1399.04
528.40	1412.19
528.76	1425.66
529.12	1438.63
529.48	1452.09
529.84	1464.33
530.20	1477.10
530.56	1489.68
530.91	1502.97
531.27	1515.86
531.63	1528.49
531.99	1541.15
532.35	1553.37
532.71	1565.76
533.07	1578.74
533.42	1591.07
533.78	1603.12
534.14	1615.14
534.50	1626.37
534.86	1638.07
535.21	1648.80
535.57	1660.33
535.93	1671.61
536.29	1682.58
536.65	1694.26
537.00	1705.23
537.36	1716.91
537.72	1727.93
538.08	1739.47
538.44	1750.46
538.79	1761.83
539.15	1772.99
539.51	1784.00
539.87	1795.39
540.22	1806.38
540.58	1817.32
540.94	1828.31
541.29	1838.66
541.65	1848.65
542.01	1859.25
542.37	1869.29
542.72	1879.67
543.08	1889.41
543.44	1900.05
543.79	1909.32
544.15	1918.72
544.51	1928.77
544.87	1938.66
545.22	1948.00
545.58	1956.78
545.94	1965.83
546.29	1974.13
546.65	1982.51
547.01	1990.86
547.36	1998.62
547.72	2006.31
548.07	2013.85
548.43	2021.65
548.79	2029.63
549.14	2037.89
549.50	2046.47
549.86	2054.46
550.21	2061.93
550.57	2069.85
550.92	2076.67
551.28	2084.40
551.64	2091.61
551.99	2099.19
552.35	2106.19
552.70	2113.12
553.06	2119.89
553.41	2126.13
553.77	2132.77
554.13	2139.14
554.48	2146.02
554.84	2153.21
555.19	2159.88
555.55	2166.44
555.90	2172.68
556.26	2179.46
556.61	2185.53
556.97	2190.34
557.32	2196.01
557.68	2202.43
558.03	2208.17
558.39	2213.57
558.74	2219.49
559.10	2225.00
559.45	2230.61
559.81	2236.18
560.16	2241.65
560.52	2247.51
560.87	2253.87
561.23	2259.55
561.58	2266.13
561.94	2271.45
562.29	2275.92
562.64	2281.76
563.00	2287.35
563.35	2292.87
563.71	2298.31
564.06	2303.95
564.42	2309.68
564.77	2314.67
565.12	2319.79
565.48	2324.70
565.83	2330.06
566.19	2335.12
566.54	2340.16
566.89	2344.40
567.25	2348.84
567.60	2354.51
567.96	2359.50
568.31	2363.92
568.66	2368.17
569.02	2371.99
569.37	2375.46
569.72	2379.88
570.08	2383.20
570.43	2386.38
570.78	2389.42
571.14	2391.89
571.49	2394.77
571.84	2398.09
572.20	2400.96
572.55	2403.69
572.90	2406.05
573.26	2408.52
573.61	2411.12
573.96	2413.32
574.31	2415.32
574.67	2417.05
575.02	2417.56
575.37	2418.88
575.72	2419.41
576.08	2420.81
576.43	2420.75
576.78	2420.94
577.13	2422.06
577.49	2423.26
577.84	2423.84
578.19	2424.94
578.54	2425.50
578.90	2425.86
579.25	2425.62
579.60	2425.29
579.95	2424.33
580.30	2423.91
580.66	2423.22
581.01	2421.33
581.36	2418.75
581.71	2417.04
582.06	2415.73
582.42	2414.61
582.77	2412.13
583.12	2410.18
583.47	2408.40
583.82	2407.63
584.17	2406.21
584.53	2404.19
584.88	2401.72
585.23	2399.57
585.58	2396.99
585.93	2394.84
586.28	2392.66
586.63	2390.02
586.98	2387.62
587.34	2385.66
587.69	2382.81
588.04	2380.54
588.39	2378.92
588.74	2376.33
589.09	2373.57
589.44	2370.12
589.79	2367.51
590.14	2365.38
590.49	2362.52
590.84	2358.53
591.19	2355.08
591.54	2351.78
591.89	2347.51
592.25	2344.25
592.60	2339.99
592.95	2335.74
593.30	2331.39
593.65	2326.74
594.00	2322.10
594.35	2319.08
594.70	2314.30
595.05	2310.16
595.40	2304.60
595.75	2298.65
596.10	2294.86
596.45	2290.03
596.80	2285.36
597.15	2280.05
597.50	2274.09
597.85	2269.03
598.19	2263.80
598.54	2258.05
598.89	2252.65
599.24	2248.00
599.59	2241.80
599.94	2235.80
600.29	2229.68
600.64	2223.66
600.99	2216.81
601.34	2211.32
601.69	2204.25
602.04	2197.74
602.39	2190.79
602.74	2184.67
603.08	2179.17
603.43	2172.83
603.78	2165.86
604.13	2158.83
604.48	2151.54
604.83	2145.36
605.18	2139.34
605.53	2132.67
605.87	2125.54
606.22	2118.74
606.57	2110.79
606.92	2102.72
607.27	2095.83
607.62	2089.43
607.96	2082.56
608.31	2076.36
608.66	2068.68
609.01	2060.97
609.36	2053.86
609.70	2046.28
610.05	2038.38
610.40	2030.14
610.75	2021.56
611.10	2013.64
611.44	2004.72
611.79	1996.13
612.14	1986.31
612.49	1975.46
612.83	1965.88
613.18	1956.65
613.53	1947.55
613.88	1938.00
614.22	1929.59
614.57	1919.82
614.92	1909.14
615.27	1898.75
615.61	1888.41
615.96	1878.84
616.31	1869.45
616.65	1859.97
617.00	1850.37
617.35	1840.83
617.70	1831.04
618.04	1821.18
618.39	1811.28
618.74	1801.77
619.08	1792.13
619.43	1783.45
619.78	1775.28
620.12	1766.91
620.47	1757.62
620.82	1747.15
621.16	1737.59
621.51	1727.76
621.85	1718.13
622.20	1708.03
622.55	1697.71
622.89	1687.91
623.24	1678.30
623.59	1668.56
623.93	1658.68
624.28	1648.81
624.62	1638.89
624.97	1628.94
625.32	1619.30
625.66	1610.39
626.01	1601.76
626.35	1592.60
626.70	1582.77
627.04	1572.91
627.39	1562.79
627.73	1553.56
628.08	1544.94
628.43	1535.49
628.77	1526.40
629.12	1517.60
629.46	1509.89
629.81	1501.66
630.15	1492.55
630.50	1482.78
630.84	1472.34
631.19	1462.59
631.53	1453.65
631.88	1443.64
632.22	1433.62
632.57	1424.38
632.91	1414.60
633.26	1404.88
633.60	1395.43
633.95	1386.25
634.29	1376.78
634.64	1367.64
634.98	1357.77
635.32	1348.65
635.67	1340.38
636.01	1331.10
636.36	1321.47
636.70	1311.96
637.05	1302.71
637.39	1293.86
637.73	1285.44
638.08	1278.01
638.42	1269.98
638.77	1261.36
639.11	1253.19
639.45	1245.51
639.80	1237.13
640.14	1228.45
640.49	1219.71
640.83	1210.98
641.17	1202.81
641.52	1194.82
641.86	1186.39
642.20	1178.60
642.55	1169.96
642.89	1161.08
643.23	1152.57
643.58	1144.55
643.92	1135.77
644.26	1127.26
644.61	1118.80
644.95	1109.97
645.29	1100.97
645.64	1091.84
645.98	1083.08
646.32	1075.29
646.66	1066.82
647.01	1058.65
647.35	1050.65
647.69	1042.48
648.04	1034.30
648.38	1025.56
648.72	1016.92
649.06	1008.54
649.41	1000.37
649.75	992.57
650.09	984.78
650.43	976.97
650.78	968.69
651.12	960.96
651.46	953.46
651.80	946.31
652.14	939.21
652.49	931.67
652.83	924.47
653.17	917.01
653.51	909.44
653.85	902.41
654.20	895.27
654.54	887.95
654.88	880.76
655.22	873.57
655.56	866.65
655.90	859.87
656.25	853.27
656.59	846.56
656.93	839.61
657.27	832.58
657.61	825.52
657.95	819.45
658.29	813.53
658.64	807.60
658.98	801.15
659.32	794.66
659.66	788.46
660.00	782.25
660.34	776.28
660.68	770.23
661.02	763.84
661.36	757.72
661.70	751.88
662.05	746.20
662.39	740.82
662.73	735.39
663.07	730.09
663.41	724.47
663.75	718.71
664.09	713.00
664.43	707.52
664.77	702.37
665.11	696.59
665.45	690.79
665.79	684.91
666.13	679.24
666.47	673.82
666.81	668.39
667.15	662.97
667.49	657.73
667.83	652.42
668.17	647.23
668.51	642.19
668.85	637.23
669.19	632.42
669.53	627.37
669.87	622.29
670.21	617.46
670.55	612.78
670.89	608.36
671.23	604.01
671.57	599.62
671.91	595.18
672.25	591.04
672.58	586.85
672.92	582.77
673.26	578.88
673.60	574.91
673.94	571.08
674.28	567.45
674.62	563.82
674.96	560.09
675.30	556.58
675.64	552.95
675.97	549.34
676.31	545.68
676.65	542.11
676.99	538.78
677.33	534.92
677.67	531.24
678.01	527.43
678.34	523.83
678.68	520.36
679.02	516.78
679.36	513.11
679.70	509.46
680.04	505.90
680.37	502.38
680.71	499.07
681.05	495.90
681.39	492.54
681.73	489.26
682.06	486.24
682.40	483.09
682.74	479.84
683.08	476.64
683.42	473.44
683.75	470.34
684.09	467.20
684.43	464.39
684.77	461.48
685.10	458.61
685.44	455.63
685.78	452.71
686.12	449.93
686.45	447.14
686.79	444.43
687.13	441.86
687.46	439.30
687.80	436.57
688.14	433.68
688.48	431.06
688.81	428.34
689.15	425.74
689.49	423.15
689.82	420.62
690.16	418.04
690.50	415.55
690.83	413.09
691.17	410.54
691.51	408.05
691.84	405.66
692.18	403.37
692.52	401.16
692.85	398.98
693.19	396.77
693.52	394.58
693.86	392.35
694.20	390.14
694.53	387.94
694.87	385.75
695.21	383.64
695.54	381.46
695.88	379.29
696.21	377.07
696.55	374.95
696.88	372.85
697.22	370.79
697.56	368.87
697.89	366.94
698.23	365.18
698.56	363.34
698.90	361.63
699.23	359.73
699.57	357.90
699.90	355.97
700.24	354.15
700.58	352.44
700.91	350.73
701.25	349.15
701.58	347.51
701.92	345.90
702.25	344.28
702.59	342.64
702.92	341.08
703.26	339.47
703.59	337.91
703.93	336.64
704.26	335.20
704.60	333.68
704.93	332.16
705.26	330.57
705.60	329.10
705.93	327.52
706.27	326.15
706.60	324.81
706.94	323.59
707.27	322.23
707.61	320.82
707.94	319.48
708.27	317.94
708.61	316.48
708.94	315.11
709.28	313.79
709.61	312.54
709.94	311.29
710.28	310.07
710.61	308.92
710.95	307.47
711.28	306.41
711.61	305.18
711.95	304.05
712.28	302.91
712.61	301.70
712.95	300.64
713.28	299.57
713.61	298.42
713.95	297.25
714.28	296.18
714.61	295.12
714.95	294.06
715.28	293.04
715.61	292.04
715.95	291.00
716.28	290.00
716.61	289.05
716.95	288.03
717.28	287.10
717.61	286.11
717.94	285.21
718.28	284.18
718.61	283.28
718.94	282.37
719.27	281.50
719.61	280.68
719.94	279.81
720.27	278.82
720.60	277.94
720.94	277.10
721.27	276.37
721.60	275.69
721.93	274.97
722.27	274.28
722.60	273.59
722.93	272.88
723.26	272.21
723.59	271.45
723.93	270.84
724.26	270.16
724.59	269.48
724.92	268.84
725.25	268.26
725.59	267.69
725.92	267.14
726.25	266.53
726.58	265.92
726.91	265.34
727.24	264.80
727.57	264.23
727.91	263.63
728.24	263.07
728.57	262.46
728.90	261.92
729.23	261.30
729.56	260.85
729.89	260.37
730.22	259.83
730.55	259.28
730.89	258.73
731.22	258.18
731.55	257.66
731.88	257.17
732.21	256.59
732.54	256.05
732.87	255.50
733.20	255.01
733.53	254.54
733.86	254.09
734.19	253.61
734.52	253.18
734.85	252.89
735.18	252.40
735.51	252.03
735.84	251.57
736.17	251.22
736.50	250.68
736.83	250.46
737.16	250.06
737.49	249.67
737.82	249.24
738.15	248.93
738.48	248.57
738.81	248.14
739.14	247.76
739.47	247.38
739.80	247.01
740.13	246.66
740.46	246.28
740.79	245.89
741.12	245.52
741.45	245.13
741.78	244.68
742.11	244.40
742.44	244.01
742.77	243.73
743.10	243.34
743.43	242.98
743.75	242.42
744.08	242.34
744.41	241.99
744.74	241.64
745.07	241.24
745.40	240.92
745.73	240.66
746.06	240.34
746.39	240.01
746.71	239.65
747.04	239.26
747.37	238.95
747.70	238.63
748.03	238.36
748.36	238.09
748.68	237.80
749.01	237.43
749.34	237.10
749.67	236.80
750.00	236.54
750.33	236.41
750.65	236.15
750.98	235.60
751.31	235.35
751.64	235.14
751.97	235.02
752.29	234.72
752.62	234.38
752.95	234.12
753.28	233.86
753.60	233.62
753.93	233.53
754.26	233.31
754.59	233.02
754.91	232.75
755.24	232.50
755.57	232.25
755.90	232.03
756.22	231.81
756.55	231.53
756.88	231.25
757.20	230.93
757.53	230.65
757.86	230.42
758.19	230.24
758.51	230.02
758.84	229.67
759.17	229.47
759.49	229.30
759.82	229.22
760.15	229.06
760.47	228.88
760.80	228.57
761.13	228.39
761.45	228.20
761.78	227.99
762.11	227.82
762.43	227.60
762.76	227.43
763.08	227.26
763.41	227.15
763.74	227.02
764.06	226.84
764.39	226.69
764.71	226.54
765.04	226.35
765.37	226.17
765.69	226.05
766.02	225.88
766.34	225.71
766.67	225.47
767.00	225.36
767.32	225.37
767.65	225.36
767.97	225.18
768.30	225.05
768.62	224.96
768.95	224.82
769.27	224.72
769.60	224.59
769.92	224.45
770.25	224.28
770.57	224.11
770.90	223.96
771.22	223.83
771.55	223.70
771.87	223.59
772.20	223.49
772.52	223.55
772.85	223.70
773.17	223.58
773.50	223.47
773.82	223.33
774.15	223.10
774.47	222.85
774.80	222.74
775.12	222.63
775.45	222.52
775.77	222.37
776.09	222.31
776.42	222.25
776.74	222.20
777.07	222.08
777.39	221.98
777.72	221.90
778.04	221.84
778.36	221.76
778.69	221.73
779.01	221.63
779.33	221.34
779.66	221.04
779.98	220.99
780.31	220.90
780.63	220.90
780.95	220.85
781.28	220.77
781.60	220.66
781.92	220.63
782.25	220.58
782.57	220.55
782.89	220.43
783.22	220.34
783.54	220.21
783.86	220.17
784.19	220.10
784.51	220.11
784.83	220.03
785.16	219.93
785.48	219.81
785.80	219.77
786.12	219.73
