SpectraSuite Data File
++++++++++++++++++++++++++++++++++++
Date: Tue Jan 29 16:03:01 EST 2013
User: group
Dark Spectrum Present: No
Reference Spectrum Present: No
Number of Sampled Component Spectra: 1
Spectrometers: USB2E7196
Integration Time (usec): 65000 (USB2E7196)
Spectra Averaged: 100 (USB2E7196)
Boxcar Smoothing: 10 (USB2E7196)
Correct for Electrical Dark: No (USB2E7196)
Strobe/Lamp Enabled: No (USB2E7196)
Correct for Detector Non-linearity: No (USB2E7196)
Correct for Stray Light: No (USB2E7196)
Number of Pixels in Processed Spectrum: 2048
>>>>>Begin Processed Spectral Data<<<<<
339.09	0.00
339.48	203.08
339.86	204.63
340.24	205.31
340.63	207.20
341.01	211.44
341.39	209.61
341.78	211.13
342.16	212.74
342.54	213.07
342.93	202.10
343.31	212.30
343.69	212.83
344.07	213.28
344.46	213.75
344.84	214.14
345.22	214.30
345.60	214.57
345.99	214.82
346.37	214.94
346.75	215.06
347.13	215.11
347.52	215.21
347.90	215.32
348.28	215.36
348.66	215.44
349.05	215.44
349.43	215.49
349.81	215.54
350.19	215.58
350.57	215.63
350.96	215.70
351.34	215.82
351.72	215.91
352.10	216.00
352.48	216.05
352.87	216.11
353.25	216.18
353.63	216.24
354.01	216.26
354.39	216.35
354.77	216.36
355.15	216.48
355.54	216.49
355.92	216.48
356.30	216.52
356.68	216.73
357.06	216.76
357.44	216.76
357.82	216.80
358.20	216.90
358.58	216.95
358.97	217.04
359.35	217.12
359.73	217.22
360.11	217.27
360.49	217.31
360.87	217.35
361.25	217.42
361.63	217.53
362.01	217.59
362.39	217.63
362.77	217.70
363.15	217.71
363.53	217.73
363.91	217.79
364.29	217.80
364.67	217.61
365.05	217.63
365.43	217.71
365.81	217.76
366.19	217.81
366.57	217.88
366.95	217.88
367.33	217.82
367.71	217.82
368.09	217.84
368.47	217.88
368.85	217.86
369.23	217.89
369.61	217.80
369.99	217.86
370.37	217.85
370.75	217.94
371.13	217.91
371.51	217.84
371.89	217.85
372.27	217.86
372.65	217.87
373.03	217.87
373.41	217.84
373.78	217.79
374.16	217.67
374.54	217.58
374.92	217.52
375.30	217.50
375.68	217.42
376.06	217.38
376.44	217.32
376.82	217.29
377.19	217.25
377.57	217.19
377.95	217.06
378.33	216.98
378.71	216.82
379.09	216.79
379.47	216.80
379.84	216.73
380.22	216.67
380.60	216.60
380.98	216.54
381.36	216.49
381.73	216.42
382.11	216.42
382.49	216.40
382.87	216.37
383.25	216.33
383.62	216.53
384.00	216.46
384.38	216.45
384.76	216.47
385.13	216.52
385.51	216.52
385.89	216.43
386.27	216.43
386.64	216.44
387.02	216.38
387.40	216.33
387.78	216.32
388.15	216.29
388.53	216.26
388.91	216.23
389.29	216.18
389.66	216.18
390.04	216.13
390.42	216.15
390.79	216.13
391.17	216.11
391.55	215.89
391.92	215.90
392.30	215.92
392.68	215.87
393.05	215.84
393.43	215.85
393.81	215.91
394.18	215.90
394.56	215.90
394.94	215.93
395.31	215.94
395.69	216.02
396.06	216.06
396.44	216.10
396.82	216.12
397.19	216.27
397.57	216.30
397.95	216.37
398.32	216.34
398.70	216.38
399.07	216.44
399.45	216.46
399.82	216.50
400.20	216.50
400.58	216.56
400.95	216.54
401.33	216.63
401.70	216.85
402.08	216.93
402.45	217.01
402.83	217.15
403.20	217.25
403.58	217.29
403.95	217.42
404.33	217.59
404.71	217.73
405.08	217.95
405.46	218.10
405.83	218.27
406.21	218.42
406.58	218.65
406.96	218.90
407.33	219.15
407.70	219.45
408.08	219.89
408.45	220.20
408.83	220.59
409.20	220.94
409.58	221.16
409.95	221.56
410.33	222.02
410.70	222.46
411.08	222.98
411.45	223.56
411.82	224.15
412.20	224.77
412.57	225.58
412.95	226.13
413.32	226.96
413.69	227.79
414.07	228.70
414.44	229.64
414.82	230.61
415.19	231.76
415.56	232.88
415.94	234.04
416.31	235.39
416.68	236.70
417.06	238.21
417.43	239.71
417.81	241.39
418.18	243.12
418.55	244.94
418.93	246.91
419.30	248.90
419.67	251.00
420.04	253.21
420.42	255.49
420.79	258.23
421.16	260.87
421.54	263.65
421.91	266.51
422.28	269.49
422.66	272.66
423.03	275.80
423.40	279.09
423.77	282.53
424.15	286.09
424.52	289.82
424.89	293.84
425.26	297.80
425.64	301.57
426.01	305.66
426.38	309.99
426.75	314.36
427.13	319.01
427.50	323.83
427.87	328.88
428.24	333.93
428.61	338.72
428.99	344.07
429.36	349.87
429.73	355.60
430.10	361.28
430.47	367.20
430.85	373.28
431.22	379.76
431.59	386.66
431.96	393.27
432.33	400.52
432.70	407.49
433.08	415.69
433.45	423.48
433.82	431.26
434.19	439.83
434.56	448.23
434.93	456.23
435.30	464.21
435.68	472.99
436.05	481.59
436.42	490.23
436.79	497.99
437.16	506.48
437.53	515.42
437.90	524.21
438.27	532.74
438.64	541.62
439.01	549.81
439.38	557.10
439.75	564.15
440.13	572.21
440.50	579.90
440.87	586.15
441.24	592.58
441.61	599.65
441.98	604.84
442.35	610.89
442.72	616.97
443.09	622.80
443.46	626.37
443.83	628.75
444.20	630.81
444.57	633.96
444.94	635.25
445.31	636.56
445.68	637.85
446.05	638.52
446.42	637.74
446.79	636.81
447.16	635.77
447.53	634.97
447.90	631.76
448.27	628.53
448.64	624.01
449.01	620.74
449.37	615.00
449.74	609.52
450.11	602.89
450.48	595.79
450.85	588.63
451.22	582.36
451.59	576.54
451.96	570.93
452.33	563.31
452.70	556.53
453.07	548.41
453.43	540.14
453.80	532.11
454.17	524.45
454.54	517.18
454.91	509.30
455.28	501.68
455.65	494.60
456.02	487.47
456.38	481.40
456.75	473.85
457.12	467.58
457.49	461.33
457.86	455.43
458.23	450.22
458.59	444.52
458.96	438.77
459.33	433.63
459.70	428.48
460.07	424.38
460.43	419.68
460.80	415.29
461.17	411.47
461.54	407.45
461.91	403.55
462.27	399.58
462.64	396.23
463.01	392.53
463.38	388.98
463.74	385.37
464.11	382.24
464.48	379.51
464.85	376.53
465.21	374.18
465.58	371.64
465.95	368.63
466.32	366.09
466.68	363.61
467.05	361.11
467.42	358.63
467.78	356.10
468.15	353.67
468.52	351.83
468.88	349.47
469.25	347.33
469.62	345.63
469.98	343.80
470.35	342.08
470.72	340.49
471.08	338.75
471.45	337.37
471.82	335.92
472.18	334.34
472.55	333.22
472.92	331.92
473.28	330.81
473.65	329.71
474.02	328.70
474.38	327.87
474.75	327.17
475.11	326.43
475.48	325.87
475.85	325.41
476.21	324.97
476.58	324.66
476.94	324.46
477.31	324.17
477.67	323.97
478.04	323.85
478.41	323.83
478.77	324.02
479.14	323.96
479.50	324.10
479.87	324.37
480.23	324.71
480.60	324.97
480.96	325.23
481.33	325.84
481.69	326.43
482.06	326.99
482.42	327.55
482.79	328.19
483.15	329.01
483.52	330.01
483.88	330.89
484.25	331.85
484.61	332.90
484.98	333.96
485.34	335.25
485.71	336.63
486.07	338.05
486.44	339.38
486.80	340.98
487.17	342.64
487.53	344.53
487.90	346.40
488.26	348.41
488.62	350.59
488.99	352.63
489.35	354.80
489.72	357.15
490.08	359.64
490.44	362.17
490.81	364.82
491.17	367.49
491.54	370.44
491.90	373.51
492.26	376.74
492.63	380.18
492.99	383.67
493.36	387.36
493.72	391.29
494.08	395.32
494.45	399.50
494.81	403.85
495.17	408.25
495.54	412.92
495.90	417.74
496.26	422.71
496.63	427.96
496.99	433.37
497.35	438.94
497.72	444.73
498.08	450.66
498.44	456.82
498.80	463.31
499.17	469.85
499.53	476.46
499.89	483.36
500.26	490.31
500.62	497.38
500.98	504.81
501.34	512.25
501.71	519.94
502.07	527.75
502.43	535.76
502.79	543.87
503.16	552.19
503.52	560.80
503.88	569.36
504.24	578.24
504.60	587.22
504.97	596.41
505.33	605.65
505.69	615.44
506.05	625.27
506.41	635.07
506.78	645.01
507.14	655.21
507.50	665.56
507.86	676.18
508.22	686.92
508.59	697.50
508.95	708.51
509.31	719.78
509.67	731.21
510.03	742.57
510.39	754.30
510.75	766.10
511.12	777.89
511.48	789.99
511.84	802.19
512.20	814.49
512.56	827.04
512.92	839.76
513.28	852.26
513.64	864.95
514.00	877.58
514.37	890.43
514.73	903.43
515.09	916.38
515.45	929.17
515.81	942.03
516.17	955.30
516.53	968.35
516.89	981.32
517.25	994.34
517.61	1007.70
517.97	1020.89
518.33	1033.89
518.69	1047.28
519.05	1060.83
519.41	1074.33
519.77	1087.95
520.13	1101.07
520.49	1114.19
520.85	1127.44
521.21	1140.50
521.57	1154.17
521.93	1167.21
522.29	1180.78
522.65	1194.14
523.01	1207.57
523.37	1220.59
523.73	1233.63
524.09	1246.66
524.45	1259.90
524.81	1273.10
525.17	1286.29
525.53	1299.16
525.89	1312.27
526.25	1325.09
526.61	1337.67
526.97	1350.46
527.33	1363.09
527.68	1376.33
528.04	1389.42
528.40	1402.30
528.76	1415.44
529.12	1427.86
529.48	1440.76
529.84	1452.71
530.20	1465.22
530.56	1477.59
530.91	1490.60
531.27	1503.20
531.63	1515.55
531.99	1527.91
532.35	1539.90
532.71	1552.07
533.07	1564.63
533.42	1576.49
533.78	1588.29
534.14	1600.16
534.50	1611.11
534.86	1622.47
535.21	1633.03
535.57	1644.17
535.93	1655.15
536.29	1666.03
536.65	1677.16
537.00	1687.86
537.36	1698.90
537.72	1709.61
538.08	1720.52
538.44	1731.15
538.79	1741.73
539.15	1752.34
539.51	1762.71
539.87	1773.77
540.22	1784.15
540.58	1794.80
540.94	1805.39
541.29	1815.49
541.65	1825.03
542.01	1835.27
542.37	1845.03
542.72	1854.93
543.08	1864.53
543.44	1874.60
543.79	1883.67
544.15	1892.78
544.51	1902.58
544.87	1912.17
545.22	1920.93
545.58	1929.68
545.94	1938.20
546.29	1946.60
546.65	1954.68
547.01	1962.77
547.36	1970.21
547.72	1977.67
548.07	1985.02
548.43	1992.56
548.79	2000.14
549.14	2008.00
549.50	2016.08
549.86	2023.66
550.21	2030.86
550.57	2038.16
550.92	2044.76
551.28	2051.95
551.64	2059.15
551.99	2066.29
552.35	2073.35
552.70	2080.04
553.06	2086.47
553.41	2092.66
553.77	2099.06
554.13	2105.42
554.48	2112.33
554.84	2119.06
555.19	2125.42
555.55	2131.86
555.90	2138.00
556.26	2144.57
556.61	2150.28
556.97	2155.14
557.32	2160.91
557.68	2167.17
558.03	2172.93
558.39	2178.21
558.74	2184.06
559.10	2189.58
559.45	2195.20
559.81	2200.57
560.16	2206.15
560.52	2212.17
560.87	2218.53
561.23	2224.48
561.58	2231.07
561.94	2236.20
562.29	2241.10
562.64	2247.37
563.00	2252.80
563.35	2258.62
563.71	2264.45
564.06	2270.07
564.42	2275.96
564.77	2281.19
565.12	2286.35
565.48	2291.61
565.83	2297.13
566.19	2302.73
566.54	2308.09
566.89	2312.69
567.25	2317.34
567.60	2323.05
567.96	2328.19
568.31	2332.76
568.66	2336.94
569.02	2340.77
569.37	2344.58
569.72	2348.88
570.08	2352.34
570.43	2355.53
570.78	2358.55
571.14	2361.21
571.49	2364.49
571.84	2368.20
572.20	2371.12
572.55	2374.42
572.90	2376.67
573.26	2379.77
573.61	2382.18
573.96	2384.52
574.31	2386.64
574.67	2388.85
575.02	2389.95
575.37	2391.42
575.72	2392.46
576.08	2394.13
576.43	2394.55
576.78	2395.52
577.13	2397.67
577.49	2398.96
577.84	2400.56
578.19	2402.01
578.54	2403.05
578.90	2404.29
579.25	2404.49
579.60	2404.79
579.95	2404.33
580.30	2404.85
580.66	2404.28
581.01	2402.90
581.36	2400.89
581.71	2399.79
582.06	2398.94
582.42	2398.23
582.77	2396.43
583.12	2394.94
583.47	2393.94
583.82	2393.60
584.17	2392.34
584.53	2390.36
584.88	2388.61
585.23	2386.77
585.58	2384.95
585.93	2382.75
586.28	2380.63
586.63	2378.33
586.98	2376.19
587.34	2374.44
587.69	2372.23
588.04	2370.40
588.39	2369.04
588.74	2366.77
589.09	2364.41
589.44	2361.49
589.79	2359.26
590.14	2357.43
590.49	2354.98
590.84	2351.42
591.19	2348.69
591.54	2345.47
591.89	2341.49
592.25	2338.40
592.60	2334.38
592.95	2330.28
593.30	2326.31
593.65	2322.06
594.00	2317.86
594.35	2314.89
594.70	2310.23
595.05	2305.68
595.40	2300.35
595.75	2295.07
596.10	2291.44
596.45	2286.65
596.80	2282.07
597.15	2276.93
597.50	2271.20
597.85	2266.16
598.19	2261.02
598.54	2255.27
598.89	2250.42
599.24	2246.06
599.59	2240.02
599.94	2234.53
600.29	2228.78
600.64	2223.06
600.99	2216.57
601.34	2211.29
601.69	2204.46
602.04	2198.19
602.39	2191.89
602.74	2186.12
603.08	2180.56
603.43	2174.14
603.78	2167.44
604.13	2160.51
604.48	2153.49
604.83	2147.52
605.18	2141.33
605.53	2134.39
605.87	2127.34
606.22	2120.74
606.57	2112.86
606.92	2105.03
607.27	2098.09
607.62	2091.54
607.96	2084.57
608.31	2078.09
608.66	2070.27
609.01	2062.83
609.36	2055.86
609.70	2048.00
610.05	2040.11
610.40	2031.89
610.75	2023.83
611.10	2016.17
611.44	2007.56
611.79	1998.79
612.14	1988.74
612.49	1978.30
612.83	1969.25
613.18	1960.23
613.53	1950.82
613.88	1941.38
614.22	1932.93
614.57	1922.98
614.92	1912.46
615.27	1902.42
615.61	1892.43
615.96	1882.84
616.31	1873.30
616.65	1863.87
617.00	1854.10
617.35	1844.61
617.70	1834.91
618.04	1824.71
618.39	1814.32
618.74	1804.55
619.08	1794.97
619.43	1786.37
619.78	1778.11
620.12	1769.27
620.47	1759.28
620.82	1748.95
621.16	1739.16
621.51	1729.09
621.85	1719.15
622.20	1708.57
622.55	1697.90
622.89	1688.04
623.24	1678.23
623.59	1668.46
623.93	1658.36
624.28	1648.73
624.62	1638.45
624.97	1628.08
625.32	1618.54
625.66	1609.84
626.01	1600.86
626.35	1591.41
626.70	1581.13
627.04	1570.94
627.39	1560.91
627.73	1551.78
628.08	1542.69
628.43	1532.99
628.77	1523.75
629.12	1514.95
629.46	1507.13
629.81	1498.67
630.15	1488.94
630.50	1479.08
630.84	1468.44
631.19	1458.52
631.53	1448.99
631.88	1438.82
632.22	1428.76
632.57	1419.28
632.91	1409.12
633.26	1399.28
633.60	1389.70
633.95	1380.44
634.29	1371.00
634.64	1361.49
634.98	1351.60
635.32	1342.39
635.67	1333.83
636.01	1324.55
636.36	1314.69
636.70	1305.11
637.05	1295.82
637.39	1286.91
637.73	1278.33
638.08	1270.85
638.42	1262.62
638.77	1253.82
639.11	1245.61
639.45	1237.75
639.80	1228.99
640.14	1220.21
640.49	1211.35
640.83	1202.57
641.17	1194.48
641.52	1186.24
641.86	1177.67
642.20	1169.67
642.55	1161.04
642.89	1152.10
643.23	1143.39
643.58	1135.29
643.92	1126.24
644.26	1117.64
644.61	1109.19
644.95	1100.40
645.29	1091.04
645.64	1081.84
645.98	1073.53
646.32	1065.63
646.66	1057.11
647.01	1048.83
647.35	1040.74
647.69	1032.39
648.04	1024.03
648.38	1014.99
648.72	1006.24
649.06	997.84
649.41	989.74
649.75	981.70
650.09	973.86
650.43	965.76
650.78	957.59
651.12	949.96
651.46	942.56
651.80	935.33
652.14	928.01
652.49	920.62
652.83	913.25
653.17	905.51
653.51	897.80
653.85	890.54
654.20	883.29
654.54	875.64
654.88	868.48
655.22	861.34
655.56	854.45
655.90	847.69
656.25	841.00
656.59	834.00
656.93	827.02
657.27	820.00
657.61	813.20
657.95	807.10
658.29	801.23
658.64	795.03
658.98	788.55
659.32	781.97
659.66	775.73
660.00	769.46
660.34	763.45
660.68	757.42
661.02	751.19
661.36	745.33
661.70	739.72
662.05	734.05
662.39	728.58
662.73	723.28
663.07	717.92
663.41	712.35
663.75	706.81
664.09	701.21
664.43	695.84
664.77	690.49
665.11	684.67
665.45	678.79
665.79	673.10
666.13	667.45
666.47	662.06
666.81	656.62
667.15	651.33
667.49	646.17
667.83	640.94
668.17	635.69
668.51	630.57
668.85	625.63
669.19	620.85
669.53	615.83
669.87	610.76
670.21	606.11
670.55	601.45
670.89	597.06
671.23	592.84
671.57	588.52
671.91	584.26
672.25	580.23
672.58	576.11
672.92	572.12
673.26	568.23
673.60	564.43
673.94	560.72
674.28	557.13
674.62	553.44
674.96	549.78
675.30	546.35
675.64	542.73
675.97	539.18
676.31	535.53
676.65	532.02
676.99	528.60
677.33	524.79
677.67	521.20
678.01	517.36
678.34	513.73
678.68	510.25
679.02	506.70
679.36	503.01
679.70	499.44
680.04	495.89
680.37	492.56
680.71	489.29
681.05	486.12
681.39	482.90
681.73	479.81
682.06	476.84
682.40	473.79
682.74	470.65
683.08	467.56
683.42	464.44
683.75	461.49
684.09	458.50
684.43	455.74
684.77	452.90
685.10	450.14
685.44	447.28
685.78	444.40
686.12	441.71
686.45	439.06
686.79	436.45
687.13	434.00
687.46	431.36
687.80	428.71
688.14	425.93
688.48	423.38
688.81	420.73
689.15	418.21
689.49	415.62
689.82	413.12
690.16	410.55
690.50	408.19
690.83	405.73
691.17	403.24
691.51	400.83
691.84	398.62
692.18	396.48
692.52	394.32
692.85	392.24
693.19	390.15
693.52	388.01
693.86	385.87
694.20	383.70
694.53	381.64
694.87	379.45
695.21	377.41
695.54	375.28
695.88	373.13
696.21	370.96
696.55	368.94
696.88	366.96
697.22	365.08
697.56	363.25
697.89	361.40
698.23	359.74
698.56	357.97
698.90	356.21
699.23	354.29
699.57	352.45
699.90	350.68
700.24	348.94
700.58	347.21
700.91	345.60
701.25	344.06
701.58	342.49
701.92	341.00
702.25	339.40
702.59	337.87
702.92	336.42
703.26	334.93
703.59	333.51
703.93	332.26
704.26	330.84
704.60	329.35
704.93	327.95
705.26	326.46
705.60	325.03
705.93	323.59
706.27	322.32
706.60	321.13
706.94	319.91
707.27	318.52
707.61	317.22
707.94	315.93
708.27	314.44
708.61	313.04
708.94	311.67
709.28	310.45
709.61	309.20
709.94	308.03
710.28	306.85
710.61	305.68
710.95	304.33
711.28	303.25
711.61	302.07
711.95	300.98
712.28	299.88
712.61	298.74
712.95	297.69
713.28	296.67
713.61	295.52
713.95	294.37
714.28	293.39
714.61	292.41
714.95	291.41
715.28	290.42
715.61	289.43
715.95	288.51
716.28	287.57
716.61	286.64
716.95	285.67
717.28	284.74
717.61	283.82
717.94	282.95
718.28	281.97
718.61	281.12
718.94	280.21
719.27	279.37
719.61	278.56
719.94	277.70
720.27	276.78
720.60	275.96
720.94	275.19
721.27	274.46
721.60	273.76
721.93	273.04
722.27	272.45
722.60	271.80
722.93	271.10
723.26	270.45
723.59	269.79
723.93	269.16
724.26	268.54
724.59	267.90
724.92	267.30
725.25	266.80
725.59	266.27
725.92	265.72
726.25	265.15
726.58	264.61
726.91	264.05
727.24	263.49
727.57	262.93
727.91	262.32
728.24	261.81
728.57	261.23
728.90	260.71
729.23	260.13
729.56	259.71
729.89	259.21
730.22	258.66
730.55	258.12
730.89	257.54
731.22	257.03
731.55	256.51
731.88	256.03
732.21	255.47
732.54	254.94
732.87	254.48
733.20	253.97
733.53	253.50
733.86	253.09
734.19	252.63
734.52	252.25
734.85	252.00
735.18	251.50
735.51	251.14
735.84	250.68
736.17	250.27
736.50	249.74
736.83	249.58
737.16	249.18
737.49	248.83
737.82	248.50
738.15	248.15
738.48	247.83
738.81	247.44
739.14	247.03
739.47	246.67
739.80	246.34
740.13	246.04
740.46	245.69
740.79	245.28
741.12	244.97
741.45	244.58
741.78	244.14
742.11	243.90
742.44	243.50
742.77	243.25
743.10	242.93
743.43	242.61
743.75	242.06
744.08	242.03
744.41	241.68
744.74	241.36
745.07	241.01
745.40	240.68
745.73	240.46
746.06	240.16
746.39	239.85
746.71	239.47
747.04	239.10
747.37	238.79
747.70	238.56
748.03	238.24
748.36	238.01
748.68	237.69
749.01	237.32
749.34	237.07
749.67	236.81
750.00	236.56
750.33	236.44
750.65	236.23
750.98	235.72
751.31	235.48
751.64	235.23
751.97	235.10
752.29	234.84
752.62	234.51
752.95	234.28
753.28	234.01
753.60	233.80
753.93	233.67
754.26	233.50
754.59	233.20
754.91	232.96
755.24	232.73
755.57	232.53
755.90	232.33
756.22	232.06
756.55	231.78
756.88	231.54
757.20	231.23
757.53	230.93
757.86	230.69
758.19	230.50
758.51	230.32
758.84	230.03
759.17	229.85
759.49	229.67
759.82	229.59
760.15	229.48
760.47	229.29
760.80	229.02
761.13	228.85
761.45	228.66
761.78	228.49
762.11	228.28
762.43	228.08
762.76	227.94
763.08	227.78
763.41	227.66
763.74	227.50
764.06	227.33
764.39	227.20
764.71	227.06
765.04	226.92
765.37	226.76
765.69	226.62
766.02	226.48
766.34	226.36
766.67	226.14
767.00	226.02
767.32	226.01
767.65	226.01
767.97	225.85
768.30	225.75
768.62	225.62
768.95	225.49
769.27	225.37
769.60	225.23
769.92	225.11
770.25	224.98
770.57	224.80
770.90	224.66
771.22	224.55
771.55	224.46
771.87	224.33
772.20	224.24
772.52	224.28
772.85	224.42
773.17	224.30
773.50	224.19
773.82	224.02
774.15	223.84
774.47	223.63
774.80	223.53
775.12	223.44
775.45	223.35
775.77	223.27
776.09	223.21
776.42	223.14
776.74	223.10
777.07	222.99
777.39	222.95
777.72	222.89
778.04	222.84
778.36	222.76
778.69	222.69
779.01	222.62
779.33	222.34
779.66	222.03
779.98	221.93
780.31	221.85
780.63	221.90
780.95	221.85
781.28	221.78
781.60	221.70
781.92	221.63
782.25	221.58
782.57	221.52
782.89	221.43
783.22	221.37
783.54	221.27
783.86	221.25
784.19	221.16
784.51	221.15
784.83	221.04
785.16	220.98
785.48	220.93
785.80	220.87
786.12	220.87
