SpectraSuite Data File
++++++++++++++++++++++++++++++++++++
Date: Tue Jan 29 16:39:16 EST 2013
User: group
Dark Spectrum Present: No
Reference Spectrum Present: No
Number of Sampled Component Spectra: 1
Spectrometers: USB2E7196
Integration Time (usec): 65000 (USB2E7196)
Spectra Averaged: 100 (USB2E7196)
Boxcar Smoothing: 10 (USB2E7196)
Correct for Electrical Dark: No (USB2E7196)
Strobe/Lamp Enabled: No (USB2E7196)
Correct for Detector Non-linearity: No (USB2E7196)
Correct for Stray Light: No (USB2E7196)
Number of Pixels in Processed Spectrum: 2048
>>>>>Begin Processed Spectral Data<<<<<
339.09	0.00
339.48	201.73
339.86	203.49
340.24	204.52
340.63	206.36
341.01	209.90
341.39	208.54
341.78	210.43
342.16	211.63
342.54	211.94
342.93	201.00
343.31	211.14
343.69	211.67
344.07	212.16
344.46	212.63
344.84	213.04
345.22	213.26
345.60	213.54
345.99	213.74
346.37	213.89
346.75	213.99
347.13	214.07
347.52	214.18
347.90	214.30
348.28	214.36
348.66	214.43
349.05	214.44
349.43	214.47
349.81	214.53
350.19	214.58
350.57	214.67
350.96	214.77
351.34	214.93
351.72	215.06
352.10	215.11
352.48	215.15
352.87	215.22
353.25	215.26
353.63	215.34
354.01	215.40
354.39	215.46
354.77	215.57
355.15	215.69
355.54	215.71
355.92	215.72
356.30	215.79
356.68	215.97
357.06	216.04
357.44	216.12
357.82	216.17
358.20	216.28
358.58	216.34
358.97	216.38
359.35	216.44
359.73	216.56
360.11	216.65
360.49	216.73
360.87	216.74
361.25	216.80
361.63	216.91
362.01	217.00
362.39	217.04
362.77	217.08
363.15	217.10
363.53	217.13
363.91	217.16
364.29	217.20
364.67	216.99
365.05	217.01
365.43	217.03
365.81	217.09
366.19	217.17
366.57	217.25
366.95	217.27
367.33	217.21
367.71	217.19
368.09	217.19
368.47	217.18
368.85	217.17
369.23	217.20
369.61	217.12
369.99	217.13
370.37	217.13
370.75	217.20
371.13	217.18
371.51	217.14
371.89	217.16
372.27	217.15
372.65	217.19
373.03	217.15
373.41	217.10
373.78	217.03
374.16	216.89
374.54	216.77
374.92	216.70
375.30	216.67
375.68	216.57
376.06	216.55
376.44	216.51
376.82	216.50
377.19	216.44
377.57	216.40
377.95	216.30
378.33	216.20
378.71	216.05
379.09	216.02
379.47	215.99
379.84	215.90
380.22	215.84
380.60	215.73
380.98	215.72
381.36	215.68
381.73	215.60
382.11	215.59
382.49	215.59
382.87	215.55
383.25	215.51
383.62	215.74
384.00	215.68
384.38	215.64
384.76	215.64
385.13	215.70
385.51	215.65
385.89	215.61
386.27	215.61
386.64	215.59
387.02	215.53
387.40	215.49
387.78	215.51
388.15	215.47
388.53	215.46
388.91	215.39
389.29	215.36
389.66	215.41
390.04	215.39
390.42	215.40
390.79	215.37
391.17	215.38
391.55	215.10
391.92	215.09
392.30	215.12
392.68	215.08
393.05	215.03
393.43	215.02
393.81	215.01
394.18	214.99
394.56	214.98
394.94	215.04
395.31	215.05
395.69	215.10
396.06	215.17
396.44	215.22
396.82	215.22
397.19	215.38
397.57	215.35
397.95	215.42
398.32	215.36
398.70	215.41
399.07	215.48
399.45	215.53
399.82	215.57
400.20	215.57
400.58	215.62
400.95	215.62
401.33	215.72
401.70	215.92
402.08	216.01
402.45	216.13
402.83	216.25
403.20	216.36
403.58	216.43
403.95	216.57
404.33	216.72
404.71	216.88
405.08	217.10
405.46	217.29
405.83	217.48
406.21	217.73
406.58	217.97
406.96	218.18
407.33	218.46
407.70	218.76
408.08	219.23
408.45	219.62
408.83	219.99
409.20	220.33
409.58	220.65
409.95	221.11
410.33	221.59
410.70	222.02
411.08	222.55
411.45	223.09
411.82	223.67
412.20	224.34
412.57	225.19
412.95	225.77
413.32	226.60
413.69	227.43
414.07	228.34
414.44	229.31
414.82	230.35
415.19	231.57
415.56	232.76
415.94	233.99
416.31	235.39
416.68	236.81
417.06	238.44
417.43	240.01
417.81	241.73
418.18	243.51
418.55	245.47
418.93	247.53
419.30	249.67
419.67	251.90
420.04	254.19
420.42	256.58
420.79	259.41
421.16	262.21
421.54	265.09
421.91	268.08
422.28	271.20
422.66	274.48
423.03	277.70
423.40	281.07
423.77	284.66
424.15	288.34
424.52	292.22
424.89	296.41
425.26	300.49
425.64	304.43
426.01	308.74
426.38	313.26
426.75	317.82
427.13	322.58
427.50	327.58
427.87	332.86
428.24	338.04
428.61	343.04
428.99	348.60
429.36	354.65
429.73	360.55
430.10	366.45
430.47	372.54
430.85	378.90
431.22	385.64
431.59	392.71
431.96	399.53
432.33	407.03
432.70	414.27
433.08	422.79
433.45	430.87
433.82	438.90
434.19	447.85
434.56	456.59
434.93	464.97
435.30	473.29
435.68	482.42
436.05	491.45
436.42	500.38
436.79	508.49
437.16	517.27
437.53	526.59
437.90	535.74
438.27	544.70
438.64	553.88
439.01	562.44
439.38	570.08
439.75	577.42
440.13	585.88
440.50	593.92
440.87	600.36
441.24	606.99
441.61	614.37
441.98	619.69
442.35	626.03
442.72	632.34
443.09	638.35
443.46	642.13
443.83	644.71
444.20	646.90
444.57	650.11
444.94	651.56
445.31	653.00
445.68	654.43
446.05	655.07
446.42	654.39
446.79	653.44
447.16	652.42
447.53	651.73
447.90	648.34
448.27	645.05
448.64	640.44
449.01	637.12
449.37	631.20
449.74	625.53
450.11	618.58
450.48	611.23
450.85	603.79
451.22	597.25
451.59	591.07
451.96	585.23
452.33	577.35
452.70	570.30
453.07	561.79
453.43	553.21
453.80	544.89
454.17	536.85
454.54	529.31
454.91	521.02
455.28	512.96
455.65	505.54
456.02	497.97
456.38	491.60
456.75	483.74
457.12	477.15
457.49	470.60
457.86	464.42
458.23	458.99
458.59	453.04
458.96	446.98
459.33	441.60
459.70	436.25
460.07	431.94
460.43	426.99
460.80	422.37
461.17	418.33
461.54	414.19
461.91	410.14
462.27	405.94
462.64	402.52
463.01	398.69
463.38	395.01
463.74	391.33
464.11	388.08
464.48	385.22
464.85	382.11
465.21	379.63
465.58	376.97
465.95	373.81
466.32	371.15
466.68	368.57
467.05	365.99
467.42	363.43
467.78	360.71
468.15	358.16
468.52	356.29
468.88	353.73
469.25	351.43
469.62	349.63
469.98	347.68
470.35	345.87
470.72	344.16
471.08	342.33
471.45	340.80
471.82	339.24
472.18	337.55
472.55	336.31
472.92	334.95
473.28	333.72
473.65	332.60
474.02	331.52
474.38	330.62
474.75	329.86
475.11	329.04
475.48	328.47
475.85	327.98
476.21	327.42
476.58	327.08
476.94	326.88
477.31	326.54
477.67	326.27
478.04	326.10
478.41	326.07
478.77	326.22
479.14	326.18
479.50	326.28
479.87	326.60
480.23	326.91
480.60	327.16
480.96	327.45
481.33	328.00
481.69	328.54
482.06	329.04
482.42	329.54
482.79	330.12
483.15	330.89
483.52	331.86
483.88	332.77
484.25	333.73
484.61	334.73
484.98	335.78
485.34	337.13
485.71	338.54
486.07	339.99
486.44	341.34
486.80	342.93
487.17	344.61
487.53	346.46
487.90	348.37
488.26	350.39
488.62	352.56
488.99	354.66
489.35	356.84
489.72	359.25
490.08	361.73
490.44	364.34
490.81	367.03
491.17	369.75
491.54	372.71
491.90	375.75
492.26	379.02
492.63	382.44
492.99	385.91
493.36	389.54
493.72	393.43
494.08	397.42
494.45	401.65
494.81	406.00
495.17	410.44
495.54	415.11
495.90	419.91
496.26	424.85
496.63	430.05
496.99	435.43
497.35	441.03
497.72	446.85
498.08	452.70
498.44	458.85
498.80	465.28
499.17	471.76
499.53	478.51
499.89	485.39
500.26	492.38
500.62	499.51
500.98	506.90
501.34	514.39
501.71	522.22
502.07	530.09
502.43	538.11
502.79	546.28
503.16	554.72
503.52	563.35
503.88	572.10
504.24	580.98
504.60	590.12
504.97	599.33
505.33	608.62
505.69	618.53
506.05	628.40
506.41	638.27
506.78	648.39
507.14	658.63
507.50	669.19
507.86	679.95
508.22	690.70
508.59	701.39
508.95	712.50
509.31	723.71
509.67	735.20
510.03	746.63
510.39	758.35
510.75	770.22
511.12	782.08
511.48	794.26
511.84	806.57
512.20	818.86
512.56	831.56
512.92	844.42
513.28	857.14
513.64	869.95
514.00	882.83
514.37	895.87
514.73	908.98
515.09	922.00
515.45	934.93
515.81	948.03
516.17	961.53
516.53	974.76
516.89	987.93
517.25	1001.12
517.61	1014.70
517.97	1028.10
518.33	1041.26
518.69	1055.02
519.05	1068.88
519.41	1082.71
519.77	1096.65
520.13	1110.05
520.49	1123.24
520.85	1136.75
521.21	1150.17
521.57	1163.98
521.93	1177.06
522.29	1190.88
522.65	1204.49
523.01	1218.22
523.37	1231.54
523.73	1244.94
524.09	1258.23
524.45	1271.86
524.81	1285.40
525.17	1298.90
525.53	1312.25
525.89	1325.77
526.25	1338.86
526.61	1351.74
526.97	1364.87
527.33	1377.97
527.68	1391.41
528.04	1405.10
528.40	1418.22
528.76	1431.62
529.12	1444.62
529.48	1458.09
529.84	1470.54
530.20	1483.53
530.56	1496.21
530.91	1509.60
531.27	1522.63
531.63	1535.42
531.99	1548.23
532.35	1560.53
532.71	1573.04
533.07	1586.04
533.42	1598.27
533.78	1610.53
534.14	1622.56
534.50	1633.93
534.86	1645.60
535.21	1656.67
535.57	1668.28
535.93	1679.66
536.29	1690.85
536.65	1702.41
537.00	1713.57
537.36	1724.98
537.72	1735.95
538.08	1747.43
538.44	1758.46
538.79	1769.59
539.15	1780.73
539.51	1791.68
539.87	1803.14
540.22	1814.08
540.58	1825.11
540.94	1836.11
541.29	1846.48
541.65	1856.40
542.01	1867.12
542.37	1877.32
542.72	1887.48
543.08	1897.30
543.44	1907.97
543.79	1917.41
544.15	1926.92
544.51	1936.84
544.87	1946.98
545.22	1956.31
545.58	1965.22
545.94	1974.23
546.29	1982.85
546.65	1991.24
547.01	1999.39
547.36	2007.23
547.72	2015.07
548.07	2022.76
548.43	2030.62
548.79	2038.65
549.14	2046.87
549.50	2055.33
549.86	2063.32
550.21	2070.83
550.57	2078.69
550.92	2085.40
551.28	2092.87
551.64	2100.18
551.99	2107.95
552.35	2115.07
552.70	2122.09
553.06	2128.79
553.41	2135.07
553.77	2141.57
554.13	2147.96
554.48	2155.01
554.84	2162.16
555.19	2168.84
555.55	2175.24
555.90	2181.77
556.26	2188.51
556.61	2194.67
556.97	2199.41
557.32	2205.27
557.68	2211.83
558.03	2217.67
558.39	2223.15
558.74	2229.27
559.10	2234.81
559.45	2240.29
559.81	2245.73
560.16	2251.17
560.52	2257.20
560.87	2263.50
561.23	2269.34
561.58	2276.03
561.94	2281.32
562.29	2285.96
562.64	2291.96
563.00	2297.64
563.35	2302.98
563.71	2308.85
564.06	2314.42
564.42	2320.41
564.77	2325.31
565.12	2330.48
565.48	2335.39
565.83	2340.90
566.19	2346.13
566.54	2351.46
566.89	2355.92
567.25	2360.46
567.60	2366.26
567.96	2371.34
568.31	2375.94
568.66	2380.28
569.02	2384.17
569.37	2387.92
569.72	2392.35
570.08	2395.61
570.43	2398.69
570.78	2401.79
571.14	2404.26
571.49	2407.35
571.84	2410.78
572.20	2413.80
572.55	2416.77
572.90	2418.91
573.26	2421.52
573.61	2424.08
573.96	2426.19
574.31	2428.24
574.67	2430.18
575.02	2430.72
575.37	2432.09
575.72	2432.72
576.08	2434.14
576.43	2434.18
576.78	2434.48
577.13	2435.86
577.49	2436.94
577.84	2437.97
578.19	2439.10
578.54	2439.47
578.90	2440.14
579.25	2439.95
579.60	2439.64
579.95	2438.72
580.30	2438.78
580.66	2438.32
581.01	2436.64
581.36	2434.22
581.71	2432.51
582.06	2431.24
582.42	2430.21
582.77	2427.72
583.12	2425.94
583.47	2424.38
583.82	2423.72
584.17	2422.30
584.53	2420.08
584.88	2417.90
585.23	2415.85
585.58	2413.48
585.93	2411.42
586.28	2409.12
586.63	2406.59
586.98	2404.31
587.34	2402.24
587.69	2399.79
588.04	2397.32
588.39	2395.74
588.74	2393.15
589.09	2390.45
589.44	2387.11
589.79	2384.74
590.14	2382.78
590.49	2379.89
590.84	2376.05
591.19	2372.72
591.54	2369.45
591.89	2365.24
592.25	2362.04
592.60	2357.86
592.95	2353.65
593.30	2349.39
593.65	2344.87
594.00	2340.40
594.35	2337.33
594.70	2332.75
595.05	2328.08
595.40	2322.46
595.75	2316.56
596.10	2312.74
596.45	2307.88
596.80	2303.25
597.15	2297.71
597.50	2291.71
597.85	2286.78
598.19	2281.36
598.54	2275.52
598.89	2270.29
599.24	2265.83
599.59	2259.43
599.94	2253.46
600.29	2247.41
600.64	2241.33
600.99	2234.40
601.34	2228.74
601.69	2221.74
602.04	2215.25
602.39	2208.52
602.74	2202.51
603.08	2197.03
603.43	2190.42
603.78	2183.43
604.13	2176.33
604.48	2169.15
604.83	2162.86
605.18	2156.61
605.53	2149.76
605.87	2142.71
606.22	2135.88
606.57	2127.85
606.92	2119.95
607.27	2112.89
607.62	2106.28
607.96	2099.35
608.31	2092.97
608.66	2085.36
609.01	2077.69
609.36	2070.45
609.70	2062.70
610.05	2054.92
610.40	2046.42
610.75	2038.15
611.10	2030.49
611.44	2021.63
611.79	2012.85
612.14	2002.93
612.49	1992.19
612.83	1982.73
613.18	1973.46
613.53	1964.07
613.88	1954.55
614.22	1945.95
614.57	1936.08
614.92	1925.44
615.27	1915.05
615.61	1904.83
615.96	1895.01
616.31	1885.33
616.65	1875.95
617.00	1866.22
617.35	1856.49
617.70	1846.87
618.04	1836.87
618.39	1826.64
618.74	1817.07
619.08	1807.49
619.43	1798.80
619.78	1790.59
620.12	1782.04
620.47	1772.41
620.82	1762.06
621.16	1752.22
621.51	1742.33
621.85	1732.46
622.20	1722.31
622.55	1711.85
622.89	1702.08
623.24	1692.45
623.59	1682.76
623.93	1672.65
624.28	1662.86
624.62	1652.81
624.97	1642.53
625.32	1632.70
625.66	1623.81
626.01	1614.91
626.35	1605.59
626.70	1595.66
627.04	1585.58
627.39	1575.40
627.73	1566.22
628.08	1557.30
628.43	1547.71
628.77	1538.50
629.12	1529.71
629.46	1521.67
629.81	1513.36
630.15	1503.81
630.50	1494.00
630.84	1483.48
631.19	1473.64
631.53	1464.52
631.88	1454.39
632.22	1444.47
632.57	1435.22
632.91	1425.15
633.26	1415.27
633.60	1405.62
633.95	1396.24
634.29	1386.75
634.64	1377.54
634.98	1367.47
635.32	1358.24
635.67	1349.80
636.01	1340.48
636.36	1330.73
636.70	1321.42
637.05	1312.03
637.39	1303.19
637.73	1294.58
638.08	1287.11
638.42	1278.85
638.77	1269.96
639.11	1261.78
639.45	1253.93
639.80	1245.31
640.14	1236.63
640.49	1227.91
640.83	1219.17
641.17	1211.09
641.52	1202.96
641.86	1194.40
642.20	1186.64
642.55	1178.01
642.89	1169.13
643.23	1160.54
643.58	1152.45
643.92	1143.29
644.26	1134.63
644.61	1126.09
644.95	1117.25
645.29	1107.91
645.64	1098.75
645.98	1090.21
646.32	1082.23
646.66	1073.68
647.01	1065.44
647.35	1057.27
647.69	1048.87
648.04	1040.55
648.38	1031.67
648.72	1022.90
649.06	1014.42
649.41	1006.23
649.75	998.30
650.09	990.45
650.43	982.49
650.78	974.17
651.12	966.44
651.46	958.99
651.80	951.84
652.14	944.61
652.49	937.10
652.83	929.71
653.17	922.04
653.51	914.34
653.85	907.03
654.20	899.75
654.54	892.34
654.88	885.05
655.22	877.88
655.56	870.83
655.90	864.01
656.25	857.28
656.59	850.31
656.93	843.22
657.27	836.07
657.61	828.96
657.95	822.83
658.29	816.96
658.64	810.86
658.98	804.31
659.32	797.69
659.66	791.41
660.00	785.15
660.34	779.10
660.68	773.01
661.02	766.64
661.36	760.62
661.70	754.72
662.05	749.12
662.39	743.57
662.73	738.20
663.07	732.71
663.41	727.01
663.75	721.34
664.09	715.71
664.43	710.23
664.77	704.95
665.11	699.07
665.45	693.07
665.79	687.18
666.13	681.48
666.47	675.99
666.81	670.53
667.15	665.04
667.49	659.81
667.83	654.59
668.17	649.40
668.51	644.27
668.85	639.29
669.19	634.34
669.53	629.23
669.87	624.01
670.21	619.25
670.55	614.56
670.89	610.01
671.23	605.59
671.57	601.22
671.91	596.81
672.25	592.65
672.58	588.51
672.92	584.48
673.26	580.44
673.60	576.51
673.94	572.70
674.28	569.07
674.62	565.27
674.96	561.44
675.30	557.83
675.64	554.18
675.97	550.62
676.31	546.98
676.65	543.45
676.99	540.07
677.33	536.22
677.67	532.60
678.01	528.78
678.34	525.10
678.68	521.50
679.02	517.90
679.36	514.15
679.70	510.47
680.04	506.88
680.37	503.48
680.71	500.12
681.05	496.85
681.39	493.60
681.73	490.44
682.06	487.41
682.40	484.31
682.74	481.08
683.08	477.83
683.42	474.64
683.75	471.56
684.09	468.50
684.43	465.65
684.77	462.66
685.10	459.78
685.44	456.86
685.78	453.89
686.12	451.10
686.45	448.40
686.79	445.71
687.13	443.13
687.46	440.49
687.80	437.83
688.14	434.94
688.48	432.25
688.81	429.49
689.15	426.87
689.49	424.24
689.82	421.64
690.16	419.02
690.50	416.50
690.83	413.96
691.17	411.31
691.51	408.83
691.84	406.53
692.18	404.21
692.52	402.00
692.85	399.88
693.19	397.67
693.52	395.43
693.86	393.18
694.20	390.95
694.53	388.74
694.87	386.49
695.21	384.38
695.54	382.19
695.88	380.01
696.21	377.72
696.55	375.54
696.88	373.48
697.22	371.48
697.56	369.61
697.89	367.77
698.23	366.02
698.56	364.19
698.90	362.41
699.23	360.48
699.57	358.60
699.90	356.68
700.24	354.87
700.58	353.12
700.91	351.44
701.25	349.84
701.58	348.20
701.92	346.58
702.25	344.97
702.59	343.30
702.92	341.74
703.26	340.20
703.59	338.72
703.93	337.44
704.26	336.00
704.60	334.41
704.93	332.86
705.26	331.36
705.60	329.85
705.93	328.30
706.27	326.99
706.60	325.68
706.94	324.42
707.27	322.99
707.61	321.58
707.94	320.17
708.27	318.62
708.61	317.15
708.94	315.73
709.28	314.40
709.61	313.15
709.94	311.93
710.28	310.69
710.61	309.49
710.95	308.02
711.28	306.89
711.61	305.69
711.95	304.51
712.28	303.22
712.61	302.04
712.95	300.97
713.28	299.90
713.61	298.73
713.95	297.56
714.28	296.53
714.61	295.48
714.95	294.50
715.28	293.48
715.61	292.42
715.95	291.45
716.28	290.46
716.61	289.49
716.95	288.46
717.28	287.54
717.61	286.53
717.94	285.65
718.28	284.61
718.61	283.71
718.94	282.80
719.27	282.01
719.61	281.13
719.94	280.23
720.27	279.26
720.60	278.35
720.94	277.55
721.27	276.80
721.60	276.12
721.93	275.37
722.27	274.70
722.60	274.02
722.93	273.31
723.26	272.64
723.59	271.90
723.93	271.26
724.26	270.56
724.59	269.87
724.92	269.25
725.25	268.67
725.59	268.09
725.92	267.54
726.25	266.91
726.58	266.34
726.91	265.72
727.24	265.16
727.57	264.62
727.91	264.02
728.24	263.42
728.57	262.77
728.90	262.21
729.23	261.55
729.56	261.10
729.89	260.57
730.22	259.98
730.55	259.46
730.89	258.90
731.22	258.42
731.55	257.92
731.88	257.37
732.21	256.84
732.54	256.29
732.87	255.77
733.20	255.29
733.53	254.83
733.86	254.38
734.19	253.88
734.52	253.44
734.85	253.12
735.18	252.64
735.51	252.27
735.84	251.79
736.17	251.40
736.50	250.88
736.83	250.68
737.16	250.29
737.49	249.89
737.82	249.47
738.15	249.04
738.48	248.67
738.81	248.30
739.14	247.84
739.47	247.44
739.80	247.08
740.13	246.74
740.46	246.31
740.79	245.92
741.12	245.57
741.45	245.20
741.78	244.77
742.11	244.49
742.44	244.09
742.77	243.85
743.10	243.50
743.43	243.15
743.75	242.58
744.08	242.51
744.41	242.12
744.74	241.79
745.07	241.42
745.40	241.11
745.73	240.83
746.06	240.54
746.39	240.22
746.71	239.87
747.04	239.45
747.37	239.16
747.70	238.87
748.03	238.55
748.36	238.28
748.68	237.95
749.01	237.62
749.34	237.33
749.67	236.98
750.00	236.77
750.33	236.60
750.65	236.34
750.98	235.83
751.31	235.62
751.64	235.40
751.97	235.28
752.29	235.03
752.62	234.69
752.95	234.41
753.28	234.17
753.60	233.93
753.93	233.80
754.26	233.56
754.59	233.24
754.91	233.01
755.24	232.79
755.57	232.56
755.90	232.30
756.22	232.05
756.55	231.79
756.88	231.50
757.20	231.18
757.53	230.91
757.86	230.73
758.19	230.51
758.51	230.28
758.84	229.98
759.17	229.75
759.49	229.59
759.82	229.51
760.15	229.32
760.47	229.13
760.80	228.86
761.13	228.71
761.45	228.53
761.78	228.35
762.11	228.11
762.43	227.85
762.76	227.70
763.08	227.57
763.41	227.44
763.74	227.30
764.06	227.13
764.39	226.98
764.71	226.78
765.04	226.61
765.37	226.45
765.69	226.28
766.02	226.13
766.34	225.95
766.67	225.77
767.00	225.69
767.32	225.65
767.65	225.67
767.97	225.52
768.30	225.43
768.62	225.30
768.95	225.21
769.27	225.13
769.60	225.01
769.92	224.85
770.25	224.70
770.57	224.52
770.90	224.43
771.22	224.29
771.55	224.17
771.87	224.06
772.20	223.95
772.52	224.02
772.85	224.18
773.17	224.07
773.50	223.91
773.82	223.78
774.15	223.57
774.47	223.34
774.80	223.24
775.12	223.15
775.45	223.06
775.77	222.93
776.09	222.88
776.42	222.79
776.74	222.76
777.07	222.65
777.39	222.60
777.72	222.49
778.04	222.45
778.36	222.38
778.69	222.31
779.01	222.24
779.33	221.97
779.66	221.63
779.98	221.56
780.31	221.50
780.63	221.49
780.95	221.47
781.28	221.36
781.60	221.27
781.92	221.18
782.25	221.13
782.57	221.05
782.89	220.97
783.22	220.90
783.54	220.76
783.86	220.72
784.19	220.64
784.51	220.64
784.83	220.54
785.16	220.44
785.48	220.35
785.80	220.31
786.12	220.25
