SpectraSuite Data File
++++++++++++++++++++++++++++++++++++
Date: Tue Jan 29 16:23:26 EST 2013
User: group
Dark Spectrum Present: No
Reference Spectrum Present: No
Number of Sampled Component Spectra: 1
Spectrometers: USB2E7196
Integration Time (usec): 65000 (USB2E7196)
Spectra Averaged: 100 (USB2E7196)
Boxcar Smoothing: 10 (USB2E7196)
Correct for Electrical Dark: No (USB2E7196)
Strobe/Lamp Enabled: No (USB2E7196)
Correct for Detector Non-linearity: No (USB2E7196)
Correct for Stray Light: No (USB2E7196)
Number of Pixels in Processed Spectrum: 2048
>>>>>Begin Processed Spectral Data<<<<<
339.09	0.00
339.48	201.90
339.86	203.01
340.24	204.59
340.63	206.17
341.01	210.57
341.39	208.08
341.78	210.44
342.16	212.17
342.54	212.28
342.93	201.15
343.31	211.34
343.69	211.89
344.07	212.36
344.46	212.82
344.84	213.23
345.22	213.44
345.60	213.75
345.99	213.98
346.37	214.09
346.75	214.21
347.13	214.32
347.52	214.40
347.90	214.55
348.28	214.63
348.66	214.76
349.05	214.73
349.43	214.78
349.81	214.86
350.19	214.91
350.57	214.99
350.96	215.13
351.34	215.23
351.72	215.34
352.10	215.51
352.48	215.60
352.87	215.66
353.25	215.75
353.63	215.82
354.01	215.84
354.39	215.95
354.77	216.02
355.15	216.11
355.54	216.19
355.92	216.19
356.30	216.25
356.68	216.41
357.06	216.49
357.44	216.52
357.82	216.64
358.20	216.74
358.58	216.80
358.97	216.83
359.35	216.89
359.73	216.99
360.11	217.04
360.49	217.09
360.87	217.16
361.25	217.23
361.63	217.35
362.01	217.44
362.39	217.49
362.77	217.56
363.15	217.56
363.53	217.59
363.91	217.62
364.29	217.66
364.67	217.49
365.05	217.53
365.43	217.59
365.81	217.59
366.19	217.70
366.57	217.78
366.95	217.80
367.33	217.78
367.71	217.77
368.09	217.81
368.47	217.82
368.85	217.78
369.23	217.79
369.61	217.72
369.99	217.79
370.37	217.77
370.75	217.85
371.13	217.81
371.51	217.75
371.89	217.76
372.27	217.70
372.65	217.72
373.03	217.67
373.41	217.60
373.78	217.57
374.16	217.42
374.54	217.33
374.92	217.28
375.30	217.26
375.68	217.18
376.06	217.11
376.44	217.07
376.82	217.04
377.19	216.97
377.57	216.90
377.95	216.75
378.33	216.70
378.71	216.53
379.09	216.51
379.47	216.50
379.84	216.42
380.22	216.37
380.60	216.27
380.98	216.23
381.36	216.24
381.73	216.16
382.11	216.16
382.49	216.11
382.87	216.02
383.25	215.98
383.62	216.22
384.00	216.13
384.38	216.09
384.76	216.09
385.13	216.13
385.51	216.11
385.89	216.07
386.27	216.02
386.64	216.02
387.02	215.96
387.40	215.90
387.78	215.87
388.15	215.87
388.53	215.86
388.91	215.82
389.29	215.75
389.66	215.77
390.04	215.71
390.42	215.74
390.79	215.77
391.17	215.72
391.55	215.49
391.92	215.51
392.30	215.48
392.68	215.48
393.05	215.44
393.43	215.44
393.81	215.46
394.18	215.45
394.56	215.40
394.94	215.48
395.31	215.49
395.69	215.54
396.06	215.54
396.44	215.55
396.82	215.57
397.19	215.66
397.57	215.65
397.95	215.73
398.32	215.66
398.70	215.71
399.07	215.85
399.45	215.87
399.82	215.88
400.20	215.95
400.58	215.99
400.95	215.98
401.33	216.07
401.70	216.26
402.08	216.36
402.45	216.49
402.83	216.61
403.20	216.74
403.58	216.86
403.95	217.03
404.33	217.24
404.71	217.38
405.08	217.68
405.46	217.86
405.83	218.08
406.21	218.32
406.58	218.56
406.96	218.71
407.33	218.98
407.70	219.30
408.08	219.76
408.45	220.09
408.83	220.47
409.20	220.83
409.58	221.13
409.95	221.58
410.33	222.08
410.70	222.50
411.08	223.05
411.45	223.62
411.82	224.21
412.20	224.86
412.57	225.71
412.95	226.22
413.32	227.07
413.69	227.85
414.07	228.75
414.44	229.70
414.82	230.73
415.19	231.89
415.56	233.03
415.94	234.20
416.31	235.62
416.68	237.04
417.06	238.65
417.43	240.18
417.81	241.90
418.18	243.67
418.55	245.59
418.93	247.57
419.30	249.64
419.67	251.86
420.04	254.16
420.42	256.51
420.79	259.36
421.16	262.09
421.54	264.97
421.91	267.92
422.28	270.99
422.66	274.26
423.03	277.48
423.40	280.85
423.77	284.44
424.15	288.08
424.52	291.85
424.89	296.00
425.26	300.05
425.64	303.91
426.01	308.15
426.38	312.58
426.75	317.08
427.13	321.79
427.50	326.68
427.87	331.82
428.24	336.99
428.61	341.95
428.99	347.44
429.36	353.44
429.73	359.32
430.10	365.17
430.47	371.22
430.85	377.49
431.22	384.15
431.59	391.15
431.96	397.88
432.33	405.38
432.70	412.57
433.08	421.06
433.45	429.08
433.82	437.05
434.19	445.93
434.56	454.63
434.93	462.92
435.30	471.21
435.68	480.25
436.05	489.18
436.42	498.01
436.79	506.08
437.16	514.84
437.53	524.00
437.90	533.13
438.27	542.01
438.64	551.15
439.01	559.66
439.38	567.25
439.75	574.56
440.13	582.85
440.50	590.73
440.87	597.11
441.24	603.70
441.61	610.99
441.98	616.28
442.35	622.55
442.72	628.81
443.09	634.79
443.46	638.56
443.83	641.02
444.20	643.16
444.57	646.38
444.94	647.80
445.31	649.27
445.68	650.59
446.05	651.21
446.42	650.46
446.79	649.44
447.16	648.38
447.53	647.61
447.90	644.40
448.27	641.07
448.64	636.46
449.01	633.13
449.37	627.26
449.74	621.66
450.11	614.76
450.48	607.39
450.85	599.96
451.22	593.49
451.59	587.42
451.96	581.65
452.33	573.71
452.70	566.61
453.07	558.13
453.43	549.58
453.80	541.37
454.17	533.39
454.54	525.92
454.91	517.77
455.28	509.85
455.65	502.41
456.02	495.01
456.38	488.67
456.75	480.86
457.12	474.37
457.49	467.85
457.86	461.72
458.23	456.41
458.59	450.57
458.96	444.62
459.33	439.36
459.70	434.06
460.07	429.88
460.43	425.02
460.80	420.55
461.17	416.60
461.54	412.33
461.91	408.33
462.27	404.29
462.64	400.90
463.01	397.15
463.38	393.54
463.74	389.89
464.11	386.69
464.48	383.88
464.85	380.76
465.21	378.38
465.58	375.77
465.95	372.62
466.32	369.97
466.68	367.41
467.05	364.84
467.42	362.27
467.78	359.61
468.15	357.07
468.52	355.12
468.88	352.64
469.25	350.52
469.62	348.75
469.98	346.74
470.35	344.92
470.72	343.23
471.08	341.43
471.45	339.92
471.82	338.38
472.18	336.72
472.55	335.54
472.92	334.14
473.28	332.91
473.65	331.82
474.02	330.73
474.38	329.84
474.75	329.10
475.11	328.28
475.48	327.74
475.85	327.28
476.21	326.79
476.58	326.44
476.94	326.20
477.31	325.85
477.67	325.64
478.04	325.49
478.41	325.44
478.77	325.61
479.14	325.57
479.50	325.69
479.87	325.99
480.23	326.34
480.60	326.59
480.96	326.87
481.33	327.49
481.69	328.07
482.06	328.60
482.42	329.08
482.79	329.66
483.15	330.44
483.52	331.41
483.88	332.31
484.25	333.27
484.61	334.30
484.98	335.42
485.34	336.78
485.71	338.16
486.07	339.60
486.44	340.88
486.80	342.49
487.17	344.22
487.53	346.10
487.90	347.95
488.26	350.06
488.62	352.27
488.99	354.28
489.35	356.44
489.72	358.82
490.08	361.36
490.44	363.95
490.81	366.70
491.17	369.44
491.54	372.47
491.90	375.51
492.26	378.77
492.63	382.20
492.99	385.67
493.36	389.39
493.72	393.31
494.08	397.35
494.45	401.59
494.81	405.94
495.17	410.37
495.54	415.13
495.90	419.92
496.26	424.89
496.63	430.13
496.99	435.56
497.35	441.12
497.72	446.97
498.08	452.93
498.44	459.03
498.80	465.44
499.17	472.01
499.53	478.70
499.89	485.62
500.26	492.61
500.62	499.70
500.98	507.14
501.34	514.64
501.71	522.45
502.07	530.29
502.43	538.31
502.79	546.56
503.16	554.97
503.52	563.64
503.88	572.42
504.24	581.40
504.60	590.52
504.97	599.79
505.33	609.15
505.69	619.13
506.05	629.09
506.41	639.01
506.78	649.11
507.14	659.47
507.50	670.03
507.86	680.93
508.22	691.88
508.59	702.67
508.95	713.83
509.31	725.14
509.67	736.76
510.03	748.27
510.39	760.07
510.75	772.06
511.12	784.09
511.48	796.36
511.84	808.77
512.20	821.22
512.56	834.01
512.92	846.94
513.28	859.68
513.64	872.47
514.00	885.45
514.37	898.56
514.73	911.83
515.09	924.89
515.45	937.80
515.81	950.92
516.17	964.30
516.53	977.61
516.89	990.79
517.25	1004.08
517.61	1017.72
517.97	1031.21
518.33	1044.40
518.69	1057.94
519.05	1071.69
519.41	1085.41
519.77	1099.40
520.13	1112.80
520.49	1126.07
520.85	1139.54
521.21	1153.00
521.57	1166.79
521.93	1179.91
522.29	1193.69
522.65	1207.56
523.01	1221.33
523.37	1234.59
523.73	1248.05
524.09	1261.41
524.45	1274.99
524.81	1288.53
525.17	1302.08
525.53	1315.31
525.89	1328.70
526.25	1342.10
526.61	1355.06
526.97	1368.28
527.33	1381.32
527.68	1394.93
528.04	1408.38
528.40	1421.65
528.76	1435.09
529.12	1448.04
529.48	1461.54
529.84	1473.94
530.20	1486.72
530.56	1499.44
530.91	1512.83
531.27	1525.81
531.63	1538.59
531.99	1551.47
532.35	1563.84
532.71	1576.29
533.07	1589.33
533.42	1601.73
533.78	1613.84
534.14	1625.89
534.50	1637.23
534.86	1648.89
535.21	1659.83
535.57	1671.52
535.93	1682.90
536.29	1694.06
536.65	1705.61
537.00	1716.57
537.36	1728.11
537.72	1739.15
538.08	1750.51
538.44	1761.45
538.79	1772.64
539.15	1783.78
539.51	1794.63
539.87	1806.02
540.22	1816.95
540.58	1827.88
540.94	1838.84
541.29	1849.15
541.65	1859.00
542.01	1869.66
542.37	1879.82
542.72	1890.03
543.08	1899.82
543.44	1910.31
543.79	1919.67
544.15	1929.18
544.51	1939.27
544.87	1949.12
545.22	1958.38
545.58	1967.32
545.94	1976.33
546.29	1984.82
546.65	1993.09
547.01	2001.43
547.36	2009.19
547.72	2017.01
548.07	2024.72
548.43	2032.58
548.79	2040.54
549.14	2048.72
549.50	2057.12
549.86	2064.94
550.21	2072.45
550.57	2080.29
550.92	2087.11
551.28	2094.58
551.64	2101.72
551.99	2109.20
552.35	2116.34
552.70	2123.29
553.06	2130.04
553.41	2136.36
553.77	2142.92
554.13	2149.40
554.48	2156.44
554.84	2163.53
555.19	2169.95
555.55	2176.44
555.90	2182.55
556.26	2189.36
556.61	2195.63
556.97	2200.51
557.32	2206.42
557.68	2212.82
558.03	2218.63
558.39	2224.03
558.74	2230.12
559.10	2235.83
559.45	2241.48
559.81	2247.17
560.16	2252.74
560.52	2258.63
560.87	2265.03
561.23	2271.00
561.58	2277.70
561.94	2282.97
562.29	2287.74
562.64	2294.01
563.00	2299.67
563.35	2305.50
563.71	2311.35
564.06	2316.96
564.42	2322.95
564.77	2328.04
565.12	2333.52
565.48	2338.64
565.83	2344.22
566.19	2349.72
566.54	2355.19
566.89	2359.99
567.25	2364.68
567.60	2370.44
567.96	2375.66
568.31	2380.36
568.66	2384.72
569.02	2388.74
569.37	2392.64
569.72	2397.19
570.08	2400.72
570.43	2403.85
570.78	2406.98
571.14	2409.48
571.49	2412.77
571.84	2416.51
572.20	2419.53
572.55	2422.52
572.90	2424.88
573.26	2427.75
573.61	2430.36
573.96	2432.54
574.31	2434.56
574.67	2436.44
575.02	2437.34
575.37	2438.81
575.72	2439.55
576.08	2441.08
576.43	2441.11
576.78	2441.62
577.13	2443.22
577.49	2444.51
577.84	2445.81
578.19	2447.19
578.54	2447.90
578.90	2448.66
579.25	2448.54
579.60	2448.66
579.95	2447.86
580.30	2448.00
580.66	2447.31
581.01	2445.70
581.36	2443.42
581.71	2441.99
582.06	2440.91
582.42	2440.07
582.77	2438.04
583.12	2436.53
583.47	2435.17
583.82	2434.82
584.17	2433.64
584.53	2431.60
584.88	2429.56
585.23	2427.71
585.58	2425.59
585.93	2423.62
586.28	2421.55
586.63	2419.14
586.98	2416.92
587.34	2415.08
587.69	2412.66
588.04	2410.78
588.39	2409.50
588.74	2407.16
589.09	2404.46
589.44	2401.33
589.79	2398.77
590.14	2396.81
590.49	2393.99
590.84	2390.17
591.19	2387.13
591.54	2383.77
591.89	2379.78
592.25	2376.55
592.60	2372.21
592.95	2367.98
593.30	2363.83
593.65	2359.40
594.00	2354.86
594.35	2351.93
594.70	2347.33
595.05	2343.02
595.40	2337.45
595.75	2331.72
596.10	2328.05
596.45	2323.28
596.80	2318.74
597.15	2313.61
597.50	2307.65
597.85	2302.77
598.19	2297.65
598.54	2291.73
598.89	2286.56
599.24	2281.83
599.59	2275.57
599.94	2269.91
600.29	2263.89
600.64	2257.97
600.99	2251.20
601.34	2245.82
601.69	2238.68
602.04	2232.27
602.39	2225.55
602.74	2219.45
603.08	2213.76
603.43	2207.17
603.78	2200.28
604.13	2193.15
604.48	2185.82
604.83	2179.67
605.18	2173.48
605.53	2166.59
605.87	2159.61
606.22	2152.71
606.57	2144.87
606.92	2136.83
607.27	2129.95
607.62	2123.30
607.96	2116.34
608.31	2109.85
608.66	2102.03
609.01	2094.38
609.36	2087.08
609.70	2079.16
610.05	2071.31
610.40	2062.96
610.75	2054.58
611.10	2046.82
611.44	2037.71
611.79	2028.97
612.14	2019.00
612.49	2008.09
612.83	1998.56
613.18	1989.14
613.53	1979.86
613.88	1970.09
614.22	1961.53
614.57	1951.48
614.92	1940.91
615.27	1930.41
615.61	1920.14
615.96	1910.44
616.31	1900.77
616.65	1891.41
617.00	1881.68
617.35	1871.88
617.70	1862.01
618.04	1851.96
618.39	1841.71
618.74	1832.12
619.08	1822.33
619.43	1813.53
619.78	1805.26
620.12	1796.54
620.47	1786.85
620.82	1776.30
621.16	1766.61
621.51	1756.45
621.85	1746.43
622.20	1735.86
622.55	1725.38
622.89	1715.32
623.24	1705.50
623.59	1695.65
623.93	1685.47
624.28	1675.55
624.62	1665.51
624.97	1655.18
625.32	1645.16
625.66	1636.15
626.01	1627.35
626.35	1617.89
626.70	1607.70
627.04	1597.39
627.39	1587.08
627.73	1577.78
628.08	1568.82
628.43	1559.04
628.77	1549.81
629.12	1540.78
629.46	1532.92
629.81	1524.39
630.15	1514.87
630.50	1504.96
630.84	1494.19
631.19	1484.04
631.53	1474.65
631.88	1464.30
632.22	1454.13
632.57	1444.72
632.91	1434.52
633.26	1424.43
633.60	1414.77
633.95	1405.38
634.29	1395.81
634.64	1386.50
634.98	1376.39
635.32	1366.96
635.67	1358.38
636.01	1349.07
636.36	1339.24
636.70	1329.68
637.05	1320.19
637.39	1311.08
637.73	1302.36
638.08	1294.88
638.42	1286.66
638.77	1277.83
639.11	1269.54
639.45	1261.64
639.80	1253.03
640.14	1244.17
640.49	1235.35
640.83	1226.46
641.17	1218.17
641.52	1209.91
641.86	1201.18
642.20	1193.21
642.55	1184.39
642.89	1175.39
643.23	1166.46
643.58	1158.20
643.92	1148.91
644.26	1140.17
644.61	1131.53
644.95	1122.59
645.29	1113.21
645.64	1103.79
645.98	1095.04
646.32	1087.08
646.66	1078.48
647.01	1069.99
647.35	1061.66
647.69	1053.19
648.04	1044.71
648.38	1035.64
648.72	1026.77
649.06	1018.15
649.41	1009.77
649.75	1001.83
650.09	993.76
650.43	985.64
650.78	977.24
651.12	969.54
651.46	961.97
651.80	954.61
652.14	947.21
652.49	939.49
652.83	932.09
653.17	924.27
653.51	916.41
653.85	909.07
654.20	901.79
654.54	894.26
654.88	886.85
655.22	879.61
655.56	872.58
655.90	865.74
656.25	859.00
656.59	852.06
656.93	844.92
657.27	837.74
657.61	830.68
657.95	824.46
658.29	818.33
658.64	812.13
658.98	805.60
659.32	798.87
659.66	792.65
660.00	786.23
660.34	780.19
660.68	773.98
661.02	767.44
661.36	761.33
661.70	755.53
662.05	749.82
662.39	744.24
662.73	738.77
663.07	733.27
663.41	727.59
663.75	721.74
664.09	715.90
664.43	710.52
664.77	705.16
665.11	699.33
665.45	693.33
665.79	687.42
666.13	681.67
666.47	676.16
666.81	670.67
667.15	665.22
667.49	659.87
667.83	654.54
668.17	649.29
668.51	644.14
668.85	639.09
669.19	634.21
669.53	629.13
669.87	623.97
670.21	619.17
670.55	614.43
670.89	609.98
671.23	605.63
671.57	601.07
671.91	596.73
672.25	592.47
672.58	588.32
672.92	584.21
673.26	580.23
673.60	576.32
673.94	572.44
674.28	568.82
674.62	565.07
674.96	561.25
675.30	557.78
675.64	554.04
675.97	550.42
676.31	546.73
676.65	543.01
676.99	539.51
677.33	535.57
677.67	531.87
678.01	527.90
678.34	524.19
678.68	520.65
679.02	517.00
679.36	513.30
679.70	509.60
680.04	506.01
680.37	502.52
680.71	499.15
681.05	495.96
681.39	492.60
681.73	489.32
682.06	486.29
682.40	483.09
682.74	479.87
683.08	476.66
683.42	473.41
683.75	470.38
684.09	467.30
684.43	464.53
684.77	461.57
685.10	458.74
685.44	455.83
685.78	452.87
686.12	450.01
686.45	447.24
686.79	444.56
687.13	441.99
687.46	439.37
687.80	436.63
688.14	433.70
688.48	431.06
688.81	428.33
689.15	425.70
689.49	423.07
689.82	420.52
690.16	417.79
690.50	415.31
690.83	412.85
691.17	410.27
691.51	407.75
691.84	405.39
692.18	403.18
692.52	400.96
692.85	398.84
693.19	396.68
693.52	394.52
693.86	392.22
694.20	389.98
694.53	387.82
694.87	385.59
695.21	383.46
695.54	381.27
695.88	379.14
696.21	376.93
696.55	374.74
696.88	372.72
697.22	370.79
697.56	368.83
697.89	366.88
698.23	365.09
698.56	363.27
698.90	361.52
699.23	359.59
699.57	357.65
699.90	355.72
700.24	353.84
700.58	352.05
700.91	350.45
701.25	348.90
701.58	347.28
701.92	345.70
702.25	344.01
702.59	342.38
702.92	340.78
703.26	339.20
703.59	337.79
703.93	336.45
704.26	334.99
704.60	333.54
704.93	332.03
705.26	330.53
705.60	329.06
705.93	327.51
706.27	326.17
706.60	324.90
706.94	323.70
707.27	322.39
707.61	321.04
707.94	319.64
708.27	318.07
708.61	316.56
708.94	315.16
709.28	313.88
709.61	312.60
709.94	311.41
710.28	310.20
710.61	308.93
710.95	307.47
711.28	306.33
711.61	305.11
711.95	304.01
712.28	302.81
712.61	301.60
712.95	300.55
713.28	299.46
713.61	298.32
713.95	297.15
714.28	296.07
714.61	295.04
714.95	294.02
715.28	292.97
715.61	291.97
715.95	291.01
716.28	290.06
716.61	289.09
716.95	288.06
717.28	287.12
717.61	286.22
717.94	285.34
718.28	284.34
718.61	283.42
718.94	282.47
719.27	281.64
719.61	280.81
719.94	279.92
720.27	278.99
720.60	278.08
720.94	277.23
721.27	276.50
721.60	275.74
721.93	275.02
722.27	274.43
722.60	273.80
722.93	273.08
723.26	272.39
723.59	271.67
723.93	271.04
724.26	270.34
724.59	269.65
724.92	269.01
725.25	268.44
725.59	267.92
725.92	267.38
726.25	266.78
726.58	266.22
726.91	265.63
727.24	265.09
727.57	264.58
727.91	263.96
728.24	263.42
728.57	262.87
728.90	262.31
729.23	261.67
729.56	261.21
729.89	260.69
730.22	260.10
730.55	259.60
730.89	259.05
731.22	258.58
731.55	258.05
731.88	257.53
732.21	256.96
732.54	256.38
732.87	255.87
733.20	255.38
733.53	254.89
733.86	254.47
734.19	253.93
734.52	253.49
734.85	253.22
735.18	252.73
735.51	252.34
735.84	251.87
736.17	251.48
736.50	250.93
736.83	250.72
737.16	250.39
737.49	250.00
737.82	249.58
738.15	249.20
738.48	248.83
738.81	248.44
739.14	248.01
739.47	247.61
739.80	247.22
740.13	246.88
740.46	246.49
740.79	246.06
741.12	245.73
741.45	245.34
741.78	244.88
742.11	244.58
742.44	244.19
742.77	243.90
743.10	243.53
743.43	243.19
743.75	242.65
744.08	242.55
744.41	242.17
744.74	241.84
745.07	241.47
745.40	241.15
745.73	240.90
746.06	240.65
746.39	240.39
746.71	240.08
747.04	239.69
747.37	239.37
747.70	239.08
748.03	238.77
748.36	238.52
748.68	238.22
749.01	237.87
749.34	237.58
749.67	237.26
750.00	237.00
750.33	236.87
750.65	236.61
750.98	236.07
751.31	235.86
751.64	235.62
751.97	235.47
752.29	235.19
752.62	234.83
752.95	234.55
753.28	234.25
753.60	233.97
753.93	233.82
754.26	233.60
754.59	233.36
754.91	233.13
755.24	232.89
755.57	232.65
755.90	232.43
756.22	232.17
756.55	231.98
756.88	231.70
757.20	231.35
757.53	231.05
757.86	230.85
758.19	230.61
758.51	230.39
758.84	230.08
759.17	229.88
759.49	229.71
759.82	229.61
760.15	229.47
760.47	229.28
760.80	229.03
761.13	228.86
761.45	228.63
761.78	228.46
762.11	228.27
762.43	228.11
762.76	227.89
763.08	227.75
763.41	227.55
763.74	227.42
764.06	227.28
764.39	227.16
764.71	226.99
765.04	226.83
765.37	226.68
765.69	226.54
766.02	226.41
766.34	226.26
766.67	226.04
767.00	225.93
767.32	225.95
767.65	225.96
767.97	225.81
768.30	225.71
768.62	225.55
768.95	225.43
769.27	225.29
769.60	225.25
769.92	225.08
770.25	224.98
770.57	224.82
770.90	224.67
771.22	224.53
771.55	224.45
771.87	224.34
772.20	224.20
772.52	224.28
772.85	224.40
773.17	224.31
773.50	224.19
773.82	224.04
774.15	223.80
774.47	223.58
774.80	223.48
775.12	223.37
775.45	223.30
775.77	223.19
776.09	223.08
776.42	222.96
776.74	222.95
777.07	222.79
777.39	222.73
777.72	222.65
778.04	222.59
778.36	222.45
778.69	222.39
779.01	222.32
779.33	222.05
779.66	221.76
779.98	221.67
780.31	221.62
780.63	221.61
780.95	221.61
781.28	221.51
781.60	221.43
781.92	221.34
782.25	221.23
782.57	221.18
782.89	221.14
783.22	221.04
783.54	220.90
783.86	220.85
784.19	220.75
784.51	220.76
784.83	220.68
785.16	220.64
785.48	220.57
785.80	220.52
786.12	220.51
