SpectraSuite Data File
++++++++++++++++++++++++++++++++++++
Date: Tue Jan 29 16:22:19 EST 2013
User: group
Dark Spectrum Present: No
Reference Spectrum Present: No
Number of Sampled Component Spectra: 1
Spectrometers: USB2E7196
Integration Time (usec): 65000 (USB2E7196)
Spectra Averaged: 100 (USB2E7196)
Boxcar Smoothing: 10 (USB2E7196)
Correct for Electrical Dark: No (USB2E7196)
Strobe/Lamp Enabled: No (USB2E7196)
Correct for Detector Non-linearity: No (USB2E7196)
Correct for Stray Light: No (USB2E7196)
Number of Pixels in Processed Spectrum: 2048
>>>>>Begin Processed Spectral Data<<<<<
339.09	0.00
339.48	202.19
339.86	203.27
340.24	204.85
340.63	206.30
341.01	210.84
341.39	208.63
341.78	210.58
342.16	211.77
342.54	212.50
342.93	201.36
343.31	211.52
343.69	212.08
344.07	212.57
344.46	213.03
344.84	213.47
345.22	213.68
345.60	213.99
345.99	214.20
346.37	214.37
346.75	214.49
347.13	214.58
347.52	214.63
347.90	214.75
348.28	214.83
348.66	214.90
349.05	214.89
349.43	214.98
349.81	215.04
350.19	215.12
350.57	215.20
350.96	215.29
351.34	215.40
351.72	215.50
352.10	215.64
352.48	215.69
352.87	215.72
353.25	215.81
353.63	215.90
354.01	215.96
354.39	216.05
354.77	216.15
355.15	216.29
355.54	216.35
355.92	216.35
356.30	216.41
356.68	216.63
357.06	216.70
357.44	216.72
357.82	216.80
358.20	216.91
358.58	216.98
358.97	217.03
359.35	217.17
359.73	217.27
360.11	217.28
360.49	217.37
360.87	217.44
361.25	217.45
361.63	217.56
362.01	217.60
362.39	217.61
362.77	217.64
363.15	217.63
363.53	217.68
363.91	217.68
364.29	217.69
364.67	217.51
365.05	217.57
365.43	217.65
365.81	217.64
366.19	217.70
366.57	217.76
366.95	217.77
367.33	217.68
367.71	217.68
368.09	217.73
368.47	217.70
368.85	217.65
369.23	217.69
369.61	217.57
369.99	217.65
370.37	217.70
370.75	217.76
371.13	217.68
371.51	217.65
371.89	217.66
372.27	217.63
372.65	217.63
373.03	217.56
373.41	217.48
373.78	217.43
374.16	217.30
374.54	217.19
374.92	217.14
375.30	217.14
375.68	217.03
376.06	216.99
376.44	216.95
376.82	216.93
377.19	216.90
377.57	216.84
377.95	216.72
378.33	216.62
378.71	216.44
379.09	216.45
379.47	216.39
379.84	216.35
380.22	216.29
380.60	216.21
380.98	216.17
381.36	216.15
381.73	216.07
382.11	216.09
382.49	216.06
382.87	216.01
383.25	215.94
383.62	216.16
384.00	216.08
384.38	216.02
384.76	216.02
385.13	216.03
385.51	216.01
385.89	215.91
386.27	215.87
386.64	215.92
387.02	215.89
387.40	215.85
387.78	215.82
388.15	215.80
388.53	215.75
388.91	215.72
389.29	215.68
389.66	215.73
390.04	215.66
390.42	215.67
390.79	215.67
391.17	215.65
391.55	215.39
391.92	215.38
392.30	215.40
392.68	215.34
393.05	215.32
393.43	215.30
393.81	215.31
394.18	215.28
394.56	215.27
394.94	215.33
395.31	215.33
395.69	215.41
396.06	215.45
396.44	215.49
396.82	215.51
397.19	215.64
397.57	215.63
397.95	215.69
398.32	215.65
398.70	215.70
399.07	215.79
399.45	215.85
399.82	215.93
400.20	215.98
400.58	216.07
400.95	216.06
401.33	216.19
401.70	216.44
402.08	216.54
402.45	216.63
402.83	216.75
403.20	216.85
403.58	216.90
403.95	217.05
404.33	217.20
404.71	217.33
405.08	217.56
405.46	217.75
405.83	217.96
406.21	218.17
406.58	218.40
406.96	218.62
407.33	218.85
407.70	219.11
408.08	219.58
408.45	219.91
408.83	220.30
409.20	220.62
409.58	220.88
409.95	221.34
410.33	221.83
410.70	222.26
411.08	222.83
411.45	223.40
411.82	223.99
412.20	224.66
412.57	225.46
412.95	226.01
413.32	226.79
413.69	227.62
414.07	228.54
414.44	229.54
414.82	230.56
415.19	231.76
415.56	232.91
415.94	234.06
416.31	235.45
416.68	236.84
417.06	238.46
417.43	239.99
417.81	241.73
418.18	243.48
418.55	245.41
418.93	247.42
419.30	249.53
419.67	251.70
420.04	253.96
420.42	256.33
420.79	259.19
421.16	262.00
421.54	264.83
421.91	267.81
422.28	270.87
422.66	274.12
423.03	277.32
423.40	280.65
423.77	284.20
424.15	287.84
424.52	291.65
424.89	295.75
425.26	299.80
425.64	303.65
426.01	307.91
426.38	312.32
426.75	316.82
427.13	321.52
427.50	326.42
427.87	331.58
428.24	336.73
428.61	341.62
428.99	347.08
429.36	353.08
429.73	358.88
430.10	364.69
430.47	370.68
430.85	376.91
431.22	383.59
431.59	390.66
431.96	397.39
432.33	404.87
432.70	411.99
433.08	420.40
433.45	428.34
433.82	436.23
434.19	445.08
434.56	453.73
434.93	461.98
435.30	470.29
435.68	479.36
436.05	488.24
436.42	497.08
436.79	505.18
437.16	513.81
437.53	523.03
437.90	532.08
438.27	540.97
438.64	550.12
439.01	558.55
439.38	566.02
439.75	573.32
440.13	581.62
440.50	589.58
440.87	596.02
441.24	602.66
441.61	609.93
441.98	615.26
442.35	621.48
442.72	627.72
443.09	633.62
443.46	637.26
443.83	639.81
444.20	641.95
444.57	645.03
444.94	646.49
445.31	647.86
445.68	649.23
446.05	649.86
446.42	649.08
446.79	648.12
447.16	647.10
447.53	646.33
447.90	643.00
448.27	639.74
448.64	635.08
449.01	631.72
449.37	625.84
449.74	620.13
450.11	613.29
450.48	605.97
450.85	598.60
451.22	592.18
451.59	586.10
451.96	580.26
452.33	572.43
452.70	565.41
453.07	557.06
453.43	548.53
453.80	540.29
454.17	532.42
454.54	524.98
454.91	516.86
455.28	508.95
455.65	501.64
456.02	494.21
456.38	487.92
456.75	480.17
457.12	473.74
457.49	467.34
457.86	461.27
458.23	455.93
458.59	450.08
458.96	444.22
459.33	438.95
459.70	433.75
460.07	429.59
460.43	424.75
460.80	420.15
461.17	416.19
461.54	412.02
461.91	407.96
462.27	403.88
462.64	400.46
463.01	396.70
463.38	393.04
463.74	389.35
464.11	386.19
464.48	383.35
464.85	380.30
465.21	377.89
465.58	375.29
465.95	372.20
466.32	369.61
466.68	366.97
467.05	364.42
467.42	361.86
467.78	359.14
468.15	356.64
468.52	354.79
468.88	352.34
469.25	350.19
469.62	348.49
469.98	346.57
470.35	344.78
470.72	343.13
471.08	341.34
471.45	339.88
471.82	338.33
472.18	336.70
472.55	335.50
472.92	334.12
473.28	332.89
473.65	331.77
474.02	330.66
474.38	329.77
474.75	329.00
475.11	328.18
475.48	327.64
475.85	327.16
476.21	326.66
476.58	326.33
476.94	326.09
477.31	325.74
477.67	325.50
478.04	325.35
478.41	325.28
478.77	325.44
479.14	325.35
479.50	325.48
479.87	325.73
480.23	326.06
480.60	326.26
480.96	326.53
481.33	327.11
481.69	327.71
482.06	328.26
482.42	328.77
482.79	329.38
483.15	330.14
483.52	331.07
483.88	331.96
484.25	332.89
484.61	333.89
484.98	334.97
485.34	336.23
485.71	337.58
486.07	339.02
486.44	340.36
486.80	342.02
487.17	343.72
487.53	345.56
487.90	347.40
488.26	349.50
488.62	351.65
488.99	353.68
489.35	355.84
489.72	358.21
490.08	360.73
490.44	363.28
490.81	366.02
491.17	368.69
491.54	371.63
491.90	374.67
492.26	377.94
492.63	381.41
492.99	384.91
493.36	388.62
493.72	392.55
494.08	396.55
494.45	400.77
494.81	405.14
495.17	409.60
495.54	414.39
495.90	419.20
496.26	424.20
496.63	429.43
496.99	434.84
497.35	440.51
497.72	446.31
498.08	452.21
498.44	458.31
498.80	464.84
499.17	471.38
499.53	478.18
499.89	485.10
500.26	492.04
500.62	499.19
500.98	506.62
501.34	514.11
501.71	521.99
502.07	529.84
502.43	537.95
502.79	546.17
503.16	554.52
503.52	563.22
503.88	572.01
504.24	580.99
504.60	590.16
504.97	599.41
505.33	608.78
505.69	618.75
506.05	628.75
506.41	638.67
506.78	648.76
507.14	659.04
507.50	669.59
507.86	680.36
508.22	691.21
508.59	701.89
508.95	713.04
509.31	724.36
509.67	735.82
510.03	747.27
510.39	759.18
510.75	771.15
511.12	783.14
511.48	795.28
511.84	807.64
512.20	820.07
512.56	832.78
512.92	845.65
513.28	858.45
513.64	871.26
514.00	884.14
514.37	897.24
514.73	910.41
515.09	923.49
515.45	936.49
515.81	949.65
516.17	963.22
516.53	976.51
516.89	989.65
517.25	1002.98
517.61	1016.61
517.97	1030.08
518.33	1043.28
518.69	1056.89
519.05	1070.86
519.41	1084.68
519.77	1098.65
520.13	1112.11
520.49	1125.45
520.85	1138.90
521.21	1152.32
521.57	1166.14
521.93	1179.37
522.29	1193.29
522.65	1207.10
523.01	1220.78
523.37	1234.05
523.73	1247.45
524.09	1260.74
524.45	1274.35
524.81	1287.99
525.17	1301.39
525.53	1314.60
525.89	1328.11
526.25	1341.26
526.61	1354.04
526.97	1367.13
527.33	1380.11
527.68	1393.59
528.04	1407.17
528.40	1420.41
528.76	1433.94
529.12	1446.85
529.48	1460.29
529.84	1472.58
530.20	1485.24
530.56	1497.91
530.91	1511.28
531.27	1524.13
531.63	1536.90
531.99	1549.70
532.35	1562.01
532.71	1574.40
533.07	1587.37
533.42	1599.59
533.78	1611.83
534.14	1623.97
534.50	1635.32
534.86	1647.02
535.21	1657.95
535.57	1669.35
535.93	1680.64
536.29	1691.73
536.65	1703.12
537.00	1714.01
537.36	1725.33
537.72	1736.45
538.08	1747.96
538.44	1758.79
538.79	1769.92
539.15	1780.82
539.51	1791.44
539.87	1802.69
540.22	1813.62
540.58	1824.41
540.94	1835.23
541.29	1845.44
541.65	1855.17
542.01	1865.61
542.37	1875.47
542.72	1885.64
543.08	1895.40
543.44	1905.91
543.79	1915.11
544.15	1924.66
544.51	1934.63
544.87	1944.57
545.22	1953.74
545.58	1962.53
545.94	1971.47
546.29	1979.90
546.65	1988.33
547.01	1996.72
547.36	2004.45
547.72	2012.33
548.07	2020.14
548.43	2027.94
548.79	2035.81
549.14	2044.03
549.50	2052.52
549.86	2060.55
550.21	2067.93
550.57	2075.69
550.92	2082.56
551.28	2090.12
551.64	2097.50
551.99	2105.14
552.35	2112.40
552.70	2119.29
553.06	2126.01
553.41	2132.39
553.77	2139.05
554.13	2145.48
554.48	2152.53
554.84	2159.72
555.19	2166.22
555.55	2172.60
555.90	2178.90
556.26	2185.82
556.61	2191.94
556.97	2196.92
557.32	2202.94
557.68	2209.44
558.03	2215.32
558.39	2220.58
558.74	2226.63
559.10	2232.15
559.45	2237.62
559.81	2243.20
560.16	2248.94
560.52	2255.02
560.87	2261.62
561.23	2267.71
561.58	2274.60
561.94	2279.86
562.29	2284.58
562.64	2290.66
563.00	2296.46
563.35	2302.23
563.71	2308.17
564.06	2313.91
564.42	2319.99
564.77	2325.02
565.12	2330.35
565.48	2335.46
565.83	2340.98
566.19	2346.49
566.54	2352.08
566.89	2356.86
567.25	2361.52
567.60	2367.39
567.96	2372.62
568.31	2377.02
568.66	2381.39
569.02	2385.10
569.37	2388.99
569.72	2393.55
570.08	2397.27
570.43	2400.49
570.78	2403.66
571.14	2406.21
571.49	2409.40
571.84	2413.04
572.20	2416.10
572.55	2419.17
572.90	2421.69
573.26	2424.78
573.61	2427.40
573.96	2429.66
574.31	2431.75
574.67	2433.82
575.02	2434.62
575.37	2436.02
575.72	2436.95
576.08	2438.48
576.43	2438.80
576.78	2439.40
577.13	2441.12
577.49	2442.23
577.84	2443.46
578.19	2444.90
578.54	2445.64
578.90	2446.50
579.25	2446.32
579.60	2446.26
579.95	2445.57
580.30	2445.74
580.66	2445.03
581.01	2443.46
581.36	2441.14
581.71	2439.79
582.06	2438.59
582.42	2437.71
582.77	2435.66
583.12	2434.24
583.47	2432.87
583.82	2432.47
584.17	2431.26
584.53	2429.21
584.88	2427.22
585.23	2425.15
585.58	2422.85
585.93	2420.71
586.28	2418.54
586.63	2416.25
586.98	2414.21
587.34	2412.36
587.69	2410.08
588.04	2408.16
588.39	2406.79
588.74	2404.31
589.09	2401.78
589.44	2398.68
589.79	2396.26
590.14	2394.40
590.49	2391.51
590.84	2387.77
591.19	2384.79
591.54	2381.62
591.89	2377.51
592.25	2374.39
592.60	2370.36
592.95	2366.20
593.30	2362.16
593.65	2357.71
594.00	2353.22
594.35	2350.16
594.70	2345.56
595.05	2340.93
595.40	2335.44
595.75	2329.77
596.10	2326.28
596.45	2321.34
596.80	2316.83
597.15	2311.63
597.50	2305.50
597.85	2300.53
598.19	2295.26
598.54	2289.42
598.89	2284.25
599.24	2279.69
599.59	2273.43
599.94	2267.74
600.29	2261.99
600.64	2256.01
600.99	2249.42
601.34	2244.01
601.69	2236.94
602.04	2230.55
602.39	2223.83
602.74	2217.75
603.08	2212.21
603.43	2205.52
603.78	2198.57
604.13	2191.43
604.48	2184.13
604.83	2178.23
605.18	2171.93
605.53	2165.01
605.87	2157.85
606.22	2151.00
606.57	2143.06
606.92	2134.95
607.27	2127.78
607.62	2120.97
607.96	2113.88
608.31	2107.27
608.66	2099.37
609.01	2091.70
609.36	2084.42
609.70	2076.57
610.05	2068.65
610.40	2060.16
610.75	2051.82
611.10	2044.20
611.44	2035.29
611.79	2026.46
612.14	2016.19
612.49	2005.57
612.83	1996.16
613.18	1986.95
613.53	1977.44
613.88	1967.79
614.22	1959.30
614.57	1949.40
614.92	1938.79
615.27	1928.64
615.61	1918.47
615.96	1908.73
616.31	1899.04
616.65	1889.65
617.00	1879.89
617.35	1870.21
617.70	1860.43
618.04	1850.39
618.39	1840.10
618.74	1830.27
619.08	1820.67
619.43	1811.93
619.78	1803.51
620.12	1794.78
620.47	1785.00
620.82	1774.70
621.16	1764.80
621.51	1754.75
621.85	1744.85
622.20	1734.40
622.55	1723.78
622.89	1713.78
623.24	1704.01
623.59	1694.28
623.93	1684.12
624.28	1674.23
624.62	1664.01
624.97	1653.68
625.32	1643.76
625.66	1634.86
626.01	1626.04
626.35	1616.47
626.70	1606.42
627.04	1596.03
627.39	1585.85
627.73	1576.40
628.08	1567.28
628.43	1557.62
628.77	1548.25
629.12	1539.23
629.46	1531.29
629.81	1522.71
630.15	1513.09
630.50	1503.18
630.84	1492.50
631.19	1482.41
631.53	1472.99
631.88	1462.70
632.22	1452.52
632.57	1443.06
632.91	1432.76
633.26	1422.81
633.60	1413.28
633.95	1403.91
634.29	1394.57
634.64	1385.12
634.98	1375.17
635.32	1365.76
635.67	1357.13
636.01	1347.83
636.36	1337.94
636.70	1328.25
637.05	1318.82
637.39	1309.85
637.73	1301.06
638.08	1293.43
638.42	1285.11
638.77	1276.28
639.11	1268.00
639.45	1260.08
639.80	1251.39
640.14	1242.51
640.49	1233.63
640.83	1224.61
641.17	1216.27
641.52	1207.97
641.86	1199.36
642.20	1191.28
642.55	1182.52
642.89	1173.51
643.23	1164.70
643.58	1156.54
643.92	1147.38
644.26	1138.56
644.61	1129.95
644.95	1121.14
645.29	1111.74
645.64	1102.45
645.98	1093.95
646.32	1085.99
646.66	1077.34
647.01	1068.86
647.35	1060.65
647.69	1052.15
648.04	1043.72
648.38	1034.69
648.72	1025.74
649.06	1017.14
649.41	1008.83
649.75	1000.82
650.09	992.87
650.43	984.67
650.78	976.24
651.12	968.42
651.46	960.90
651.80	953.55
652.14	946.03
652.49	938.53
652.83	931.16
653.17	923.22
653.51	915.42
653.85	908.12
654.20	900.71
654.54	893.10
654.88	885.73
655.22	878.42
655.56	871.39
655.90	864.52
656.25	857.80
656.59	850.86
656.93	843.72
657.27	836.54
657.61	829.54
657.95	823.39
658.29	817.46
658.64	811.25
658.98	804.71
659.32	798.09
659.66	791.73
660.00	785.26
660.34	779.21
660.68	772.96
661.02	766.54
661.36	760.57
661.70	754.70
662.05	749.00
662.39	743.43
662.73	737.96
663.07	732.63
663.41	726.94
663.75	721.14
664.09	715.42
664.43	709.97
664.77	704.61
665.11	698.71
665.45	692.67
665.79	686.78
666.13	681.00
666.47	675.49
666.81	669.89
667.15	664.50
667.49	659.17
667.83	653.93
668.17	648.62
668.51	643.45
668.85	638.45
669.19	633.54
669.53	628.44
669.87	623.25
670.21	618.37
670.55	613.56
670.89	609.08
671.23	604.71
671.57	600.24
671.91	595.92
672.25	591.73
672.58	587.53
672.92	583.50
673.26	579.55
673.60	575.66
673.94	571.86
674.28	568.08
674.62	564.33
674.96	560.47
675.30	556.92
675.64	553.29
675.97	549.68
676.31	545.96
676.65	542.40
676.99	538.88
677.33	535.00
677.67	531.25
678.01	527.31
678.34	523.63
678.68	520.07
679.02	516.35
679.36	512.60
679.70	508.94
680.04	505.30
680.37	501.79
680.71	498.36
681.05	495.14
681.39	491.90
681.73	488.68
682.06	485.68
682.40	482.57
682.74	479.31
683.08	476.05
683.42	472.89
683.75	469.79
684.09	466.79
684.43	463.97
684.77	461.05
685.10	458.19
685.44	455.27
685.78	452.30
686.12	449.51
686.45	446.75
686.79	444.07
687.13	441.54
687.46	438.91
687.80	436.24
688.14	433.35
688.48	430.76
688.81	428.08
689.15	425.48
689.49	422.80
689.82	420.22
690.16	417.64
690.50	415.13
690.83	412.62
691.17	410.04
691.51	407.52
691.84	405.23
692.18	403.02
692.52	400.77
692.85	398.62
693.19	396.45
693.52	394.27
693.86	392.03
694.20	389.78
694.53	387.58
694.87	385.39
695.21	383.23
695.54	381.00
695.88	378.81
696.21	376.56
696.55	374.46
696.88	372.41
697.22	370.37
697.56	368.43
697.89	366.53
698.23	364.71
698.56	362.86
698.90	361.05
699.23	359.07
699.57	357.17
699.90	355.33
700.24	353.51
700.58	351.71
700.91	350.02
701.25	348.44
701.58	346.81
701.92	345.18
702.25	343.60
702.59	341.99
702.92	340.41
703.26	338.82
703.59	337.30
703.93	335.95
704.26	334.49
704.60	332.97
704.93	331.51
705.26	330.00
705.60	328.54
705.93	327.03
706.27	325.68
706.60	324.43
706.94	323.15
707.27	321.75
707.61	320.40
707.94	319.05
708.27	317.53
708.61	316.07
708.94	314.62
709.28	313.32
709.61	312.09
709.94	310.87
710.28	309.65
710.61	308.43
710.95	307.07
711.28	305.98
711.61	304.83
711.95	303.66
712.28	302.48
712.61	301.28
712.95	300.21
713.28	299.19
713.61	298.01
713.95	296.82
714.28	295.80
714.61	294.75
714.95	293.72
715.28	292.68
715.61	291.66
715.95	290.74
716.28	289.74
716.61	288.75
716.95	287.75
717.28	286.86
717.61	285.90
717.94	284.94
718.28	283.95
718.61	283.03
718.94	282.12
719.27	281.28
719.61	280.46
719.94	279.57
720.27	278.61
720.60	277.76
720.94	277.00
721.27	276.24
721.60	275.53
721.93	274.82
722.27	274.20
722.60	273.53
722.93	272.80
723.26	272.17
723.59	271.45
723.93	270.80
724.26	270.15
724.59	269.53
724.92	268.92
725.25	268.37
725.59	267.83
725.92	267.34
726.25	266.77
726.58	266.14
726.91	265.56
727.24	265.03
727.57	264.43
727.91	263.79
728.24	263.24
728.57	262.67
728.90	262.11
729.23	261.48
729.56	261.05
729.89	260.50
730.22	259.90
730.55	259.36
730.89	258.82
731.22	258.26
731.55	257.72
731.88	257.20
732.21	256.63
732.54	256.07
732.87	255.51
733.20	255.01
733.53	254.56
733.86	254.09
734.19	253.57
734.52	253.18
734.85	252.90
735.18	252.40
735.51	252.00
735.84	251.55
736.17	251.15
736.50	250.59
736.83	250.43
737.16	250.06
737.49	249.70
737.82	249.31
738.15	248.96
738.48	248.58
738.81	248.21
739.14	247.82
739.47	247.43
739.80	247.06
740.13	246.72
740.46	246.31
740.79	245.94
741.12	245.58
741.45	245.19
741.78	244.75
742.11	244.50
742.44	244.10
742.77	243.81
743.10	243.46
743.43	243.13
743.75	242.57
744.08	242.49
744.41	242.11
744.74	241.75
745.07	241.36
745.40	241.06
745.73	240.79
746.06	240.46
746.39	240.20
746.71	239.84
747.04	239.47
747.37	239.17
747.70	238.92
748.03	238.60
748.36	238.33
748.68	237.99
749.01	237.62
749.34	237.38
749.67	237.09
750.00	236.87
750.33	236.78
750.65	236.53
750.98	236.00
751.31	235.78
751.64	235.58
751.97	235.46
752.29	235.18
752.62	234.86
752.95	234.61
753.28	234.32
753.60	234.10
753.93	233.90
754.26	233.68
754.59	233.39
754.91	233.17
755.24	232.94
755.57	232.71
755.90	232.48
756.22	232.21
756.55	231.95
756.88	231.67
757.20	231.32
757.53	231.02
757.86	230.83
758.19	230.62
758.51	230.42
758.84	230.10
759.17	229.90
759.49	229.73
759.82	229.65
760.15	229.51
760.47	229.36
760.80	229.13
761.13	229.00
761.45	228.79
761.78	228.62
762.11	228.42
762.43	228.24
762.76	228.05
763.08	227.91
763.41	227.73
763.74	227.59
764.06	227.40
764.39	227.28
764.71	227.11
765.04	226.94
765.37	226.76
765.69	226.60
766.02	226.45
766.34	226.30
766.67	226.09
767.00	225.96
767.32	225.88
767.65	225.86
767.97	225.67
768.30	225.55
768.62	225.43
768.95	225.31
769.27	225.18
769.60	225.10
769.92	224.94
770.25	224.77
770.57	224.64
770.90	224.53
771.22	224.40
771.55	224.28
771.87	224.15
772.20	224.02
772.52	224.05
772.85	224.20
773.17	224.07
773.50	223.93
773.82	223.81
774.15	223.63
774.47	223.42
774.80	223.33
775.12	223.24
775.45	223.14
775.77	223.02
776.09	222.94
776.42	222.85
776.74	222.82
777.07	222.74
777.39	222.64
777.72	222.54
778.04	222.48
778.36	222.38
778.69	222.32
779.01	222.26
779.33	222.01
779.66	221.71
779.98	221.61
780.31	221.57
780.63	221.58
780.95	221.51
781.28	221.40
781.60	221.31
781.92	221.25
782.25	221.18
782.57	221.13
782.89	221.07
783.22	220.98
783.54	220.87
783.86	220.83
784.19	220.73
784.51	220.75
784.83	220.65
785.16	220.61
785.48	220.54
785.80	220.49
786.12	220.46
