SpectraSuite Data File
++++++++++++++++++++++++++++++++++++
Date: Tue Jan 29 16:50:06 EST 2013
User: group
Dark Spectrum Present: No
Reference Spectrum Present: No
Number of Sampled Component Spectra: 1
Spectrometers: USB2E7196
Integration Time (usec): 65000 (USB2E7196)
Spectra Averaged: 100 (USB2E7196)
Boxcar Smoothing: 10 (USB2E7196)
Correct for Electrical Dark: No (USB2E7196)
Strobe/Lamp Enabled: No (USB2E7196)
Correct for Detector Non-linearity: No (USB2E7196)
Correct for Stray Light: No (USB2E7196)
Number of Pixels in Processed Spectrum: 2048
>>>>>Begin Processed Spectral Data<<<<<
339.09	0.00
339.48	201.50
339.86	202.91
340.24	204.44
340.63	205.59
341.01	210.21
341.39	208.27
341.78	210.63
342.16	211.25
342.54	211.49
342.93	200.74
343.31	210.88
343.69	211.45
344.07	211.93
344.46	212.40
344.84	212.82
345.22	213.00
345.60	213.28
345.99	213.47
346.37	213.62
346.75	213.74
347.13	213.82
347.52	213.89
347.90	214.00
348.28	214.03
348.66	214.14
349.05	214.12
349.43	214.23
349.81	214.32
350.19	214.37
350.57	214.45
350.96	214.54
351.34	214.66
351.72	214.75
352.10	214.85
352.48	214.90
352.87	214.93
353.25	215.01
353.63	215.06
354.01	215.11
354.39	215.17
354.77	215.23
355.15	215.36
355.54	215.41
355.92	215.42
356.30	215.52
356.68	215.74
357.06	215.80
357.44	215.79
357.82	215.85
358.20	215.95
358.58	216.00
358.97	216.10
359.35	216.18
359.73	216.28
360.11	216.31
360.49	216.35
360.87	216.44
361.25	216.51
361.63	216.63
362.01	216.69
362.39	216.74
362.77	216.79
363.15	216.83
363.53	216.88
363.91	216.92
364.29	216.93
364.67	216.74
365.05	216.79
365.43	216.84
365.81	216.85
366.19	216.92
366.57	217.02
366.95	216.97
367.33	216.92
367.71	216.91
368.09	216.96
368.47	216.99
368.85	217.00
369.23	217.05
369.61	216.95
369.99	216.99
370.37	217.00
370.75	217.11
371.13	217.01
371.51	216.97
371.89	216.97
372.27	216.96
372.65	216.94
373.03	216.92
373.41	216.87
373.78	216.82
374.16	216.68
374.54	216.58
374.92	216.55
375.30	216.50
375.68	216.43
376.06	216.41
376.44	216.35
376.82	216.26
377.19	216.19
377.57	216.14
377.95	216.05
378.33	215.97
378.71	215.78
379.09	215.77
379.47	215.76
379.84	215.67
380.22	215.56
380.60	215.52
380.98	215.45
381.36	215.40
381.73	215.34
382.11	215.35
382.49	215.30
382.87	215.24
383.25	215.23
383.62	215.43
384.00	215.32
384.38	215.30
384.76	215.32
385.13	215.37
385.51	215.33
385.89	215.24
386.27	215.24
386.64	215.27
387.02	215.23
387.40	215.18
387.78	215.18
388.15	215.20
388.53	215.15
388.91	215.14
389.29	215.11
389.66	215.14
390.04	215.09
390.42	215.10
390.79	215.07
391.17	215.04
391.55	214.76
391.92	214.80
392.30	214.82
392.68	214.75
393.05	214.71
393.43	214.71
393.81	214.74
394.18	214.71
394.56	214.70
394.94	214.79
395.31	214.76
395.69	214.82
396.06	214.84
396.44	214.90
396.82	214.87
397.19	215.04
397.57	215.08
397.95	215.13
398.32	215.08
398.70	215.17
399.07	215.28
399.45	215.34
399.82	215.39
400.20	215.40
400.58	215.48
400.95	215.47
401.33	215.57
401.70	215.79
402.08	215.88
402.45	215.97
402.83	216.09
403.20	216.23
403.58	216.29
403.95	216.46
404.33	216.59
404.71	216.78
405.08	217.01
405.46	217.18
405.83	217.35
406.21	217.56
406.58	217.81
406.96	218.06
407.33	218.33
407.70	218.62
408.08	219.07
408.45	219.42
408.83	219.80
409.20	220.16
409.58	220.44
409.95	220.90
410.33	221.40
410.70	221.82
411.08	222.38
411.45	222.99
411.82	223.58
412.20	224.28
412.57	225.12
412.95	225.69
413.32	226.51
413.69	227.36
414.07	228.26
414.44	229.26
414.82	230.27
415.19	231.44
415.56	232.66
415.94	233.86
416.31	235.27
416.68	236.69
417.06	238.33
417.43	239.88
417.81	241.63
418.18	243.41
418.55	245.36
418.93	247.38
419.30	249.49
419.67	251.72
420.04	254.00
420.42	256.38
420.79	259.22
421.16	262.01
421.54	264.97
421.91	268.02
422.28	271.15
422.66	274.46
423.03	277.72
423.40	281.09
423.77	284.73
424.15	288.44
424.52	292.27
424.89	296.46
425.26	300.57
425.64	304.47
426.01	308.78
426.38	313.26
426.75	317.87
427.13	322.63
427.50	327.59
427.87	332.82
428.24	338.03
428.61	343.05
428.99	348.57
429.36	354.56
429.73	360.49
430.10	366.35
430.47	372.46
430.85	378.80
431.22	385.51
431.59	392.60
431.96	399.43
432.33	406.97
432.70	414.21
433.08	422.79
433.45	430.90
433.82	438.96
434.19	447.91
434.56	456.58
434.93	464.94
435.30	473.27
435.68	482.39
436.05	491.42
436.42	500.35
436.79	508.52
437.16	517.35
437.53	526.63
437.90	535.77
438.27	544.73
438.64	553.99
439.01	562.60
439.38	570.23
439.75	577.57
440.13	585.99
440.50	593.99
440.87	600.43
441.24	607.07
441.61	614.41
441.98	619.73
442.35	626.15
442.72	632.46
443.09	638.56
443.46	642.38
443.83	645.00
444.20	647.20
444.57	650.46
444.94	651.97
445.31	653.44
445.68	654.95
446.05	655.58
446.42	654.82
446.79	653.84
447.16	652.78
447.53	652.05
447.90	648.83
448.27	645.58
448.64	640.99
449.01	637.73
449.37	631.86
449.74	626.23
450.11	619.28
450.48	611.90
450.85	604.48
451.22	597.95
451.59	591.72
451.96	585.84
452.33	577.92
452.70	570.78
453.07	562.26
453.43	553.56
453.80	545.23
454.17	537.24
454.54	529.62
454.91	521.39
455.28	513.35
455.65	505.85
456.02	498.31
456.38	491.88
456.75	483.93
457.12	477.29
457.49	470.76
457.86	464.52
458.23	459.12
458.59	453.09
458.96	447.07
459.33	441.71
459.70	436.31
460.07	432.03
460.43	427.06
460.80	422.47
461.17	418.45
461.54	414.18
461.91	410.14
462.27	406.02
462.64	402.62
463.01	398.84
463.38	395.12
463.74	391.36
464.11	388.12
464.48	385.24
464.85	382.14
465.21	379.69
465.58	377.07
465.95	373.92
466.32	371.29
466.68	368.68
467.05	366.10
467.42	363.52
467.78	360.82
468.15	358.24
468.52	356.28
468.88	353.79
469.25	351.63
469.62	349.75
469.98	347.81
470.35	345.96
470.72	344.23
471.08	342.40
471.45	340.90
471.82	339.31
472.18	337.66
472.55	336.44
472.92	335.00
473.28	333.72
473.65	332.55
474.02	331.43
474.38	330.54
474.75	329.74
475.11	328.95
475.48	328.34
475.85	327.90
476.21	327.41
476.58	327.05
476.94	326.78
477.31	326.49
477.67	326.21
478.04	326.04
478.41	325.98
478.77	326.13
479.14	326.08
479.50	326.16
479.87	326.43
480.23	326.74
480.60	326.98
480.96	327.25
481.33	327.85
481.69	328.41
482.06	328.92
482.42	329.40
482.79	329.96
483.15	330.77
483.52	331.72
483.88	332.60
484.25	333.54
484.61	334.55
484.98	335.63
485.34	336.96
485.71	338.27
486.07	339.67
486.44	341.03
486.80	342.60
487.17	344.31
487.53	346.11
487.90	347.97
488.26	350.01
488.62	352.21
488.99	354.23
489.35	356.38
489.72	358.76
490.08	361.31
490.44	363.85
490.81	366.56
491.17	369.23
491.54	372.19
491.90	375.19
492.26	378.45
492.63	381.79
492.99	385.22
493.36	388.92
493.72	392.79
494.08	396.76
494.45	401.00
494.81	405.40
495.17	409.83
495.54	414.52
495.90	419.37
496.26	424.30
496.63	429.51
496.99	434.93
497.35	440.49
497.72	446.25
498.08	452.21
498.44	458.22
498.80	464.65
499.17	471.19
499.53	477.88
499.89	484.79
500.26	491.78
500.62	498.86
500.98	506.28
501.34	513.79
501.71	521.56
502.07	529.33
502.43	537.32
502.79	545.47
503.16	553.87
503.52	562.45
503.88	571.13
504.24	580.08
504.60	589.11
504.97	598.33
505.33	607.54
505.69	617.42
506.05	627.36
506.41	637.19
506.78	647.24
507.14	657.50
507.50	667.85
507.86	678.57
508.22	689.31
508.59	699.95
508.95	710.92
509.31	722.10
509.67	733.58
510.03	744.87
510.39	756.53
510.75	768.27
511.12	780.10
511.48	792.15
511.84	804.27
512.20	816.61
512.56	829.25
512.92	842.18
513.28	854.65
513.64	867.37
514.00	880.18
514.37	893.13
514.73	906.17
515.09	919.23
515.45	932.09
515.81	945.17
516.17	958.56
516.53	971.89
516.89	985.03
517.25	998.11
517.61	1011.75
517.97	1025.22
518.33	1038.49
518.69	1052.13
519.05	1065.87
519.41	1079.66
519.77	1093.63
520.13	1106.96
520.49	1120.18
520.85	1133.69
521.21	1147.00
521.57	1160.75
521.93	1173.82
522.29	1187.68
522.65	1201.18
523.01	1214.80
523.37	1228.03
523.73	1241.46
524.09	1254.63
524.45	1268.14
524.81	1281.75
525.17	1295.15
525.53	1308.33
525.89	1321.59
526.25	1334.62
526.61	1347.55
526.97	1360.73
527.33	1373.62
527.68	1386.99
528.04	1400.44
528.40	1413.62
528.76	1427.10
529.12	1439.80
529.48	1453.21
529.84	1465.48
530.20	1478.34
530.56	1490.82
530.91	1504.16
531.27	1517.00
531.63	1529.76
531.99	1542.53
532.35	1554.81
532.71	1567.29
533.07	1580.32
533.42	1592.57
533.78	1604.94
534.14	1617.05
534.50	1628.29
534.86	1639.97
535.21	1650.99
535.57	1662.62
535.93	1673.96
536.29	1685.02
536.65	1696.81
537.00	1707.77
537.36	1719.24
537.72	1730.36
538.08	1742.05
538.44	1753.11
538.79	1764.22
539.15	1775.42
539.51	1786.31
539.87	1797.74
540.22	1808.61
540.58	1819.57
540.94	1830.76
541.29	1841.03
541.65	1850.94
542.01	1861.51
542.37	1871.62
542.72	1881.83
543.08	1891.62
543.44	1902.16
543.79	1911.58
544.15	1920.98
544.51	1930.97
544.87	1940.92
545.22	1950.21
545.58	1959.13
545.94	1967.98
546.29	1976.44
546.65	1984.65
547.01	1992.80
547.36	2000.49
547.72	2008.35
548.07	2015.95
548.43	2023.61
548.79	2031.57
549.14	2039.69
549.50	2048.27
549.86	2056.13
550.21	2063.60
550.57	2071.35
550.92	2078.20
551.28	2085.86
551.64	2093.23
551.99	2100.80
552.35	2108.06
552.70	2114.88
553.06	2121.57
553.41	2128.04
553.77	2134.70
554.13	2141.15
554.48	2148.28
554.84	2155.50
555.19	2162.01
555.55	2168.54
555.90	2174.88
556.26	2181.59
556.61	2187.83
556.97	2192.60
557.32	2198.33
557.68	2204.81
558.03	2210.48
558.39	2215.81
558.74	2221.71
559.10	2227.20
559.45	2232.79
559.81	2238.27
560.16	2243.91
560.52	2249.81
560.87	2256.10
561.23	2261.88
561.58	2268.60
561.94	2273.94
562.29	2278.55
562.64	2284.49
563.00	2290.08
563.35	2295.57
563.71	2301.13
564.06	2306.73
564.42	2312.66
564.77	2317.75
565.12	2322.99
565.48	2328.07
565.83	2333.37
566.19	2338.62
566.54	2343.80
566.89	2348.25
567.25	2352.72
567.60	2358.37
567.96	2363.24
568.31	2367.63
568.66	2371.90
569.02	2375.69
569.37	2379.13
569.72	2383.45
570.08	2386.84
570.43	2389.84
570.78	2392.84
571.14	2395.32
571.49	2398.18
571.84	2401.49
572.20	2404.38
572.55	2407.14
572.90	2409.33
573.26	2412.14
573.61	2414.55
573.96	2416.75
574.31	2418.70
574.67	2420.42
575.02	2421.01
575.37	2422.48
575.72	2423.05
576.08	2424.29
576.43	2424.08
576.78	2424.46
577.13	2425.71
577.49	2426.79
577.84	2427.70
578.19	2428.84
578.54	2429.28
578.90	2429.92
579.25	2429.75
579.60	2429.38
579.95	2428.51
580.30	2428.36
580.66	2427.47
581.01	2425.67
581.36	2423.00
581.71	2421.46
582.06	2420.24
582.42	2419.28
582.77	2416.85
583.12	2415.12
583.47	2413.51
583.82	2412.73
584.17	2411.21
584.53	2408.99
584.88	2406.70
585.23	2404.55
585.58	2402.04
585.93	2399.95
586.28	2397.50
586.63	2394.89
586.98	2392.53
587.34	2390.34
587.69	2387.72
588.04	2385.38
588.39	2383.70
588.74	2381.04
589.09	2378.06
589.44	2374.51
589.79	2371.67
590.14	2369.27
590.49	2366.20
590.84	2362.23
591.19	2359.03
591.54	2355.65
591.89	2351.59
592.25	2348.21
592.60	2343.86
592.95	2339.58
593.30	2335.27
593.65	2330.87
594.00	2326.30
594.35	2323.17
594.70	2318.49
595.05	2314.02
595.40	2308.47
595.75	2302.61
596.10	2299.04
596.45	2294.11
596.80	2289.63
597.15	2284.44
597.50	2278.69
597.85	2273.71
598.19	2268.51
598.54	2262.71
598.89	2257.37
599.24	2252.58
599.59	2246.33
599.94	2240.49
600.29	2234.49
600.64	2228.48
600.99	2221.49
601.34	2215.96
601.69	2209.15
602.04	2202.68
602.39	2195.82
602.74	2189.88
603.08	2184.35
603.43	2177.74
603.78	2170.90
604.13	2163.75
604.48	2156.40
604.83	2150.26
605.18	2144.08
605.53	2137.27
605.87	2130.26
606.22	2123.63
606.57	2115.62
606.92	2107.62
607.27	2100.68
607.62	2094.13
607.96	2087.21
608.31	2080.90
608.66	2073.12
609.01	2065.33
609.36	2058.26
609.70	2050.69
610.05	2042.67
610.40	2034.27
610.75	2025.90
611.10	2018.14
611.44	2009.30
611.79	2000.66
612.14	1990.70
612.49	1980.00
612.83	1970.58
613.18	1961.17
613.53	1951.77
613.88	1942.36
614.22	1933.84
614.57	1923.99
614.92	1913.34
615.27	1903.04
615.61	1892.84
615.96	1883.22
616.31	1873.63
616.65	1864.03
617.00	1854.39
617.35	1844.85
617.70	1835.22
618.04	1825.22
618.39	1815.32
618.74	1805.81
619.08	1796.08
619.43	1787.36
619.78	1779.13
620.12	1770.68
620.47	1761.37
620.82	1751.18
621.16	1741.51
621.51	1731.71
621.85	1721.98
622.20	1711.80
622.55	1701.45
622.89	1691.60
623.24	1682.01
623.59	1672.34
623.93	1662.50
624.28	1652.79
624.62	1642.77
624.97	1632.65
625.32	1623.16
625.66	1614.22
626.01	1605.39
626.35	1596.42
626.70	1586.53
627.04	1576.57
627.39	1566.35
627.73	1557.15
628.08	1548.32
628.43	1538.81
628.77	1529.68
629.12	1520.86
629.46	1513.12
629.81	1504.95
630.15	1495.63
630.50	1485.86
630.84	1475.48
631.19	1465.53
631.53	1456.30
631.88	1446.37
632.22	1436.53
632.57	1427.15
632.91	1417.16
633.26	1407.39
633.60	1397.77
633.95	1388.61
634.29	1379.20
634.64	1370.08
634.98	1360.15
635.32	1350.86
635.67	1342.60
636.01	1333.35
636.36	1323.76
636.70	1314.33
637.05	1304.92
637.39	1296.11
637.73	1287.59
638.08	1280.15
638.42	1272.21
638.77	1263.47
639.11	1255.22
639.45	1247.47
639.80	1238.97
640.14	1230.32
640.49	1221.55
640.83	1212.72
641.17	1204.55
641.52	1196.57
641.86	1188.14
642.20	1180.42
642.55	1171.96
642.89	1163.08
643.23	1154.56
643.58	1146.58
643.92	1137.64
644.26	1129.05
644.61	1120.65
644.95	1111.90
645.29	1102.79
645.64	1093.67
645.98	1085.18
646.32	1077.41
646.66	1068.97
647.01	1060.75
647.35	1052.69
647.69	1044.50
648.04	1036.39
648.38	1027.67
648.72	1019.07
649.06	1010.65
649.41	1002.41
649.75	994.57
650.09	986.81
650.43	978.81
650.78	970.45
651.12	962.71
651.46	955.34
651.80	948.22
652.14	940.99
652.49	933.41
652.83	926.15
653.17	918.62
653.51	910.98
653.85	903.73
654.20	896.65
654.54	889.29
654.88	882.08
655.22	874.87
655.56	867.88
655.90	861.06
656.25	854.34
656.59	847.54
656.93	840.49
657.27	833.43
657.61	826.49
657.95	820.46
658.29	814.63
658.64	808.59
658.98	802.00
659.32	795.50
659.66	789.37
660.00	783.01
660.34	776.98
660.68	771.00
661.02	764.69
661.36	758.55
661.70	752.70
662.05	747.13
662.39	741.72
662.73	736.31
663.07	730.83
663.41	725.27
663.75	719.56
664.09	713.94
664.43	708.47
664.77	703.14
665.11	697.30
665.45	691.38
665.79	685.56
666.13	679.88
666.47	674.38
666.81	668.91
667.15	663.52
667.49	658.25
667.83	652.94
668.17	647.72
668.51	642.63
668.85	637.67
669.19	632.76
669.53	627.62
669.87	622.53
670.21	617.80
670.55	613.10
670.89	608.59
671.23	604.24
671.57	599.80
671.91	595.47
672.25	591.29
672.58	587.15
672.92	583.09
673.26	579.16
673.60	575.29
673.94	571.47
674.28	567.85
674.62	564.16
674.96	560.38
675.30	556.83
675.64	553.22
675.97	549.65
676.31	546.01
676.65	542.49
676.99	539.09
677.33	535.29
677.67	531.64
678.01	527.82
678.34	524.16
678.68	520.58
679.02	517.04
679.36	513.38
679.70	509.75
680.04	506.14
680.37	502.71
680.71	499.34
681.05	496.14
681.39	492.87
681.73	489.69
682.06	486.65
682.40	483.55
682.74	480.38
683.08	477.14
683.42	473.95
683.75	470.90
684.09	467.80
684.43	464.97
684.77	461.97
685.10	459.12
685.44	456.17
685.78	453.31
686.12	450.48
686.45	447.68
686.79	444.98
687.13	442.42
687.46	439.71
687.80	437.04
688.14	434.15
688.48	431.52
688.81	428.79
689.15	426.15
689.49	423.53
689.82	420.92
690.16	418.26
690.50	415.78
690.83	413.34
691.17	410.79
691.51	408.22
691.84	405.92
692.18	403.65
692.52	401.40
692.85	399.20
693.19	397.04
693.52	394.89
693.86	392.66
694.20	390.47
694.53	388.32
694.87	386.09
695.21	383.93
695.54	381.69
695.88	379.45
696.21	377.24
696.55	375.08
696.88	373.02
697.22	371.05
697.56	369.16
697.89	367.15
698.23	365.35
698.56	363.57
698.90	361.83
699.23	359.93
699.57	358.05
699.90	356.18
700.24	354.32
700.58	352.52
700.91	350.79
701.25	349.20
701.58	347.62
701.92	345.98
702.25	344.41
702.59	342.80
702.92	341.26
703.26	339.70
703.59	338.17
703.93	336.89
704.26	335.43
704.60	333.88
704.93	332.39
705.26	330.87
705.60	329.36
705.93	327.79
706.27	326.44
706.60	325.17
706.94	323.93
707.27	322.57
707.61	321.19
707.94	319.83
708.27	318.27
708.61	316.75
708.94	315.36
709.28	314.00
709.61	312.73
709.94	311.52
710.28	310.30
710.61	309.11
710.95	307.67
711.28	306.59
711.61	305.39
711.95	304.22
712.28	303.02
712.61	301.80
712.95	300.72
713.28	299.66
713.61	298.46
713.95	297.26
714.28	296.19
714.61	295.14
714.95	294.13
715.28	293.11
715.61	292.12
715.95	291.15
716.28	290.17
716.61	289.21
716.95	288.15
717.28	287.24
717.61	286.27
717.94	285.35
718.28	284.30
718.61	283.37
718.94	282.48
719.27	281.61
719.61	280.81
719.94	279.95
720.27	278.91
720.60	278.03
720.94	277.25
721.27	276.47
721.60	275.76
721.93	274.97
722.27	274.30
722.60	273.60
722.93	272.87
723.26	272.19
723.59	271.47
723.93	270.84
724.26	270.13
724.59	269.47
724.92	268.86
725.25	268.32
725.59	267.78
725.92	267.25
726.25	266.69
726.58	266.09
726.91	265.46
727.24	264.96
727.57	264.43
727.91	263.81
728.24	263.27
728.57	262.68
728.90	262.16
729.23	261.53
729.56	261.07
729.89	260.53
730.22	259.95
730.55	259.39
730.89	258.87
731.22	258.33
731.55	257.82
731.88	257.25
732.21	256.65
732.54	256.09
732.87	255.52
733.20	255.03
733.53	254.54
733.86	254.09
734.19	253.57
734.52	253.14
734.85	252.85
735.18	252.35
735.51	251.98
735.84	251.51
736.17	251.13
736.50	250.59
736.83	250.45
737.16	250.07
737.49	249.68
737.82	249.24
738.15	248.88
738.48	248.48
738.81	248.11
739.14	247.74
739.47	247.34
739.80	246.97
740.13	246.62
740.46	246.23
740.79	245.81
741.12	245.44
741.45	245.05
741.78	244.58
742.11	244.31
742.44	243.90
742.77	243.59
743.10	243.23
743.43	242.88
743.75	242.30
744.08	242.22
744.41	241.87
744.74	241.53
745.07	241.11
745.40	240.84
745.73	240.56
746.06	240.21
746.39	239.92
746.71	239.55
747.04	239.18
747.37	238.82
747.70	238.55
748.03	238.24
748.36	237.96
748.68	237.67
749.01	237.29
749.34	236.97
749.67	236.67
750.00	236.41
750.33	236.29
750.65	236.03
750.98	235.48
751.31	235.23
751.64	235.00
751.97	234.88
752.29	234.58
752.62	234.27
752.95	233.99
753.28	233.68
753.60	233.48
753.93	233.29
754.26	233.08
754.59	232.84
754.91	232.60
755.24	232.36
755.57	232.09
755.90	231.86
756.22	231.65
756.55	231.44
756.88	231.15
757.20	230.80
757.53	230.54
757.86	230.34
758.19	230.15
758.51	229.95
758.84	229.62
759.17	229.41
759.49	229.22
759.82	229.16
760.15	228.98
760.47	228.77
760.80	228.56
761.13	228.43
761.45	228.20
761.78	228.04
762.11	227.85
762.43	227.67
762.76	227.48
763.08	227.32
763.41	227.15
763.74	227.04
764.06	226.87
764.39	226.71
764.71	226.54
765.04	226.35
765.37	226.16
765.69	226.05
766.02	225.89
766.34	225.74
766.67	225.51
767.00	225.41
767.32	225.39
767.65	225.34
767.97	225.19
768.30	225.09
768.62	224.98
768.95	224.84
769.27	224.71
769.60	224.63
769.92	224.46
770.25	224.32
770.57	224.15
770.90	224.07
771.22	223.93
771.55	223.82
771.87	223.72
772.20	223.63
772.52	223.67
772.85	223.82
773.17	223.71
773.50	223.60
773.82	223.49
774.15	223.26
774.47	223.06
774.80	222.92
775.12	222.80
775.45	222.67
775.77	222.59
776.09	222.52
776.42	222.45
776.74	222.45
777.07	222.31
777.39	222.23
777.72	222.08
778.04	222.04
778.36	221.91
778.69	221.86
779.01	221.77
779.33	221.48
779.66	221.18
779.98	221.08
780.31	221.03
780.63	221.03
780.95	221.00
781.28	220.89
781.60	220.81
781.92	220.74
782.25	220.69
782.57	220.62
782.89	220.55
783.22	220.43
783.54	220.30
783.86	220.31
784.19	220.23
784.51	220.26
784.83	220.17
785.16	220.14
785.48	220.08
785.80	220.04
786.12	220.01
