SpectraSuite Data File
++++++++++++++++++++++++++++++++++++
Date: Tue Jan 29 16:13:37 EST 2013
User: group
Dark Spectrum Present: No
Reference Spectrum Present: No
Number of Sampled Component Spectra: 1
Spectrometers: USB2E7196
Integration Time (usec): 65000 (USB2E7196)
Spectra Averaged: 100 (USB2E7196)
Boxcar Smoothing: 10 (USB2E7196)
Correct for Electrical Dark: No (USB2E7196)
Strobe/Lamp Enabled: No (USB2E7196)
Correct for Detector Non-linearity: No (USB2E7196)
Correct for Stray Light: No (USB2E7196)
Number of Pixels in Processed Spectrum: 2048
>>>>>Begin Processed Spectral Data<<<<<
339.09	0.00
339.48	202.23
339.86	203.87
340.24	205.12
340.63	206.32
341.01	211.10
341.39	209.81
341.78	210.73
342.16	212.43
342.54	212.91
342.93	201.86
343.31	212.07
343.69	212.66
344.07	213.13
344.46	213.61
344.84	214.04
345.22	214.24
345.60	214.51
345.99	214.73
346.37	214.88
346.75	215.00
347.13	215.08
347.52	215.16
347.90	215.29
348.28	215.36
348.66	215.46
349.05	215.44
349.43	215.51
349.81	215.56
350.19	215.62
350.57	215.67
350.96	215.75
351.34	215.86
351.72	215.94
352.10	216.08
352.48	216.15
352.87	216.19
353.25	216.28
353.63	216.32
354.01	216.39
354.39	216.45
354.77	216.52
355.15	216.65
355.54	216.68
355.92	216.66
356.30	216.73
356.68	216.91
357.06	216.99
357.44	217.02
357.82	217.07
358.20	217.17
358.58	217.25
358.97	217.31
359.35	217.41
359.73	217.54
360.11	217.56
360.49	217.61
360.87	217.65
361.25	217.72
361.63	217.82
362.01	217.88
362.39	217.89
362.77	217.95
363.15	217.94
363.53	217.97
363.91	218.02
364.29	218.00
364.67	217.82
365.05	217.82
365.43	217.84
365.81	217.91
366.19	217.97
366.57	218.09
366.95	218.09
367.33	217.99
367.71	217.94
368.09	218.00
368.47	217.97
368.85	217.97
369.23	217.97
369.61	217.88
369.99	217.93
370.37	217.97
370.75	218.06
371.13	218.00
371.51	217.96
371.89	217.93
372.27	217.91
372.65	217.94
373.03	217.93
373.41	217.91
373.78	217.81
374.16	217.65
374.54	217.49
374.92	217.38
375.30	217.34
375.68	217.28
376.06	217.21
376.44	217.19
376.82	217.15
377.19	217.09
377.57	217.03
377.95	216.90
378.33	216.82
378.71	216.60
379.09	216.58
379.47	216.56
379.84	216.49
380.22	216.43
380.60	216.34
380.98	216.28
381.36	216.23
381.73	216.17
382.11	216.18
382.49	216.18
382.87	216.13
383.25	216.12
383.62	216.31
384.00	216.20
384.38	216.15
384.76	216.16
385.13	216.21
385.51	216.20
385.89	216.18
386.27	216.17
386.64	216.18
387.02	216.15
387.40	216.10
387.78	216.09
388.15	216.06
388.53	216.06
388.91	216.04
389.29	215.97
389.66	216.00
390.04	215.93
390.42	215.92
390.79	215.93
391.17	215.90
391.55	215.66
391.92	215.67
392.30	215.69
392.68	215.63
393.05	215.58
393.43	215.57
393.81	215.58
394.18	215.55
394.56	215.56
394.94	215.61
395.31	215.63
395.69	215.69
396.06	215.73
396.44	215.73
396.82	215.72
397.19	215.85
397.57	215.83
397.95	215.91
398.32	215.86
398.70	215.91
399.07	215.99
399.45	216.00
399.82	216.06
400.20	216.08
400.58	216.14
400.95	216.12
401.33	216.22
401.70	216.42
402.08	216.52
402.45	216.61
402.83	216.75
403.20	216.81
403.58	216.86
403.95	217.02
404.33	217.17
404.71	217.31
405.08	217.57
405.46	217.75
405.83	217.95
406.21	218.17
406.58	218.42
406.96	218.63
407.33	218.94
407.70	219.20
408.08	219.65
408.45	220.01
408.83	220.37
409.20	220.72
409.58	220.97
409.95	221.41
410.33	221.88
410.70	222.29
411.08	222.89
411.45	223.45
411.82	224.00
412.20	224.65
412.57	225.48
412.95	226.04
413.32	226.84
413.69	227.61
414.07	228.50
414.44	229.44
414.82	230.43
415.19	231.56
415.56	232.72
415.94	233.86
416.31	235.20
416.68	236.57
417.06	238.11
417.43	239.63
417.81	241.29
418.18	243.03
418.55	244.88
418.93	246.80
419.30	248.85
419.67	251.01
420.04	253.24
420.42	255.52
420.79	258.23
421.16	260.95
421.54	263.78
421.91	266.67
422.28	269.66
422.66	272.85
423.03	275.97
423.40	279.29
423.77	282.76
424.15	286.33
424.52	290.06
424.89	294.10
425.26	298.03
425.64	301.77
426.01	305.87
426.38	310.22
426.75	314.63
427.13	319.22
427.50	324.04
427.87	329.06
428.24	334.11
428.61	338.95
428.99	344.23
429.36	350.01
429.73	355.69
430.10	361.36
430.47	367.24
430.85	373.33
431.22	379.78
431.59	386.68
431.96	393.23
432.33	400.45
432.70	407.46
433.08	415.70
433.45	423.46
433.82	431.26
434.19	439.81
434.56	448.19
434.93	456.24
435.30	464.20
435.68	473.05
436.05	481.68
436.42	490.22
436.79	498.12
437.16	506.63
437.53	515.53
437.90	524.33
438.27	532.97
438.64	541.89
439.01	550.13
439.38	557.46
439.75	564.58
440.13	572.75
440.50	580.35
440.87	586.44
441.24	592.89
441.61	599.91
441.98	605.13
442.35	611.26
442.72	617.27
443.09	623.09
443.46	626.55
443.83	628.96
444.20	631.06
444.57	634.11
444.94	635.47
445.31	636.90
445.68	638.25
446.05	638.85
446.42	638.05
446.79	637.09
447.16	636.01
447.53	635.20
447.90	631.94
448.27	628.83
448.64	624.44
449.01	621.22
449.37	615.55
449.74	610.02
450.11	603.37
450.48	596.34
450.85	589.17
451.22	583.01
451.59	577.16
451.96	571.62
452.33	564.00
452.70	557.14
453.07	549.01
453.43	540.72
453.80	532.69
454.17	524.99
454.54	517.73
454.91	509.85
455.28	502.17
455.65	495.07
456.02	487.88
456.38	481.78
456.75	474.20
457.12	467.88
457.49	461.68
457.86	455.68
458.23	450.43
458.59	444.73
458.96	438.91
459.33	433.78
459.70	428.62
460.07	424.54
460.43	419.80
460.80	415.34
461.17	411.54
461.54	407.47
461.91	403.61
462.27	399.62
462.64	396.30
463.01	392.66
463.38	389.07
463.74	385.48
464.11	382.33
464.48	379.60
464.85	376.59
465.21	374.21
465.58	371.69
465.95	368.71
466.32	366.18
466.68	363.67
467.05	361.19
467.42	358.68
467.78	356.08
468.15	353.69
468.52	351.88
468.88	349.47
469.25	347.38
469.62	345.70
469.98	343.86
470.35	342.10
470.72	340.50
471.08	338.78
471.45	337.34
471.82	335.92
472.18	334.29
472.55	333.11
472.92	331.82
473.28	330.68
473.65	329.58
474.02	328.49
474.38	327.70
474.75	326.99
475.11	326.23
475.48	325.70
475.85	325.27
476.21	324.85
476.58	324.52
476.94	324.27
477.31	323.98
477.67	323.80
478.04	323.65
478.41	323.61
478.77	323.86
479.14	323.81
479.50	323.95
479.87	324.34
480.23	324.72
480.60	324.96
480.96	325.26
481.33	325.88
481.69	326.45
482.06	327.04
482.42	327.53
482.79	328.13
483.15	328.93
483.52	329.90
483.88	330.76
484.25	331.68
484.61	332.71
484.98	333.77
485.34	335.03
485.71	336.45
486.07	337.91
486.44	339.14
486.80	340.80
487.17	342.48
487.53	344.24
487.90	346.10
488.26	348.15
488.62	350.30
488.99	352.35
489.35	354.49
489.72	356.82
490.08	359.33
490.44	361.89
490.81	364.58
491.17	367.24
491.54	370.19
491.90	373.21
492.26	376.47
492.63	379.84
492.99	383.31
493.36	387.01
493.72	390.90
494.08	394.90
494.45	399.08
494.81	403.37
495.17	407.87
495.54	412.57
495.90	417.34
496.26	422.22
496.63	427.40
496.99	432.81
497.35	438.34
497.72	444.10
498.08	450.01
498.44	456.07
498.80	462.46
499.17	468.99
499.53	475.69
499.89	482.53
500.26	489.48
500.62	496.54
500.98	503.93
501.34	511.25
501.71	518.95
502.07	526.69
502.43	534.69
502.79	542.75
503.16	551.11
503.52	559.67
503.88	568.30
504.24	577.18
504.60	586.21
504.97	595.35
505.33	604.60
505.69	614.45
506.05	624.35
506.41	634.19
506.78	644.14
507.14	654.31
507.50	664.69
507.86	675.27
508.22	685.95
508.59	696.50
508.95	707.57
509.31	718.75
509.67	730.16
510.03	741.55
510.39	753.21
510.75	764.83
511.12	776.69
511.48	788.77
511.84	800.94
512.20	813.17
512.56	825.72
512.92	838.40
513.28	850.90
513.64	863.35
514.00	875.96
514.37	888.82
514.73	901.79
515.09	914.59
515.45	927.37
515.81	940.21
516.17	953.36
516.53	966.38
516.89	979.41
517.25	992.38
517.61	1005.68
517.97	1018.84
518.33	1031.82
518.69	1045.10
519.05	1058.51
519.41	1071.93
519.77	1085.57
520.13	1098.59
520.49	1111.54
520.85	1124.63
521.21	1137.78
521.57	1151.32
521.93	1164.11
522.29	1177.60
522.65	1191.12
523.01	1204.52
523.37	1217.53
523.73	1230.55
524.09	1243.48
524.45	1256.65
524.81	1269.84
525.17	1282.95
525.53	1295.90
525.89	1308.89
526.25	1321.74
526.61	1334.33
526.97	1347.08
527.33	1359.61
527.68	1372.87
528.04	1386.03
528.40	1398.84
528.76	1411.88
529.12	1424.35
529.48	1437.38
529.84	1449.36
530.20	1461.69
530.56	1473.98
530.91	1486.89
531.27	1499.44
531.63	1511.91
531.99	1524.22
532.35	1536.15
532.71	1548.15
533.07	1560.62
533.42	1572.62
533.78	1584.38
534.14	1596.19
534.50	1607.19
534.86	1618.59
535.21	1629.11
535.57	1640.24
535.93	1651.20
536.29	1662.08
536.65	1673.27
537.00	1683.88
537.36	1694.85
537.72	1705.58
538.08	1716.61
538.44	1727.22
538.79	1738.00
539.15	1748.50
539.51	1758.93
539.87	1769.92
540.22	1780.36
540.58	1790.90
540.94	1801.38
541.29	1811.37
541.65	1820.85
542.01	1831.07
542.37	1840.70
542.72	1850.59
543.08	1860.11
543.44	1870.31
543.79	1879.29
544.15	1888.26
544.51	1897.88
544.87	1907.46
545.22	1916.29
545.58	1925.05
545.94	1933.62
546.29	1941.73
546.65	1949.99
547.01	1958.03
547.36	1965.45
547.72	1972.98
548.07	1980.49
548.43	1988.01
548.79	1995.64
549.14	2003.43
549.50	2011.68
549.86	2019.22
550.21	2026.35
550.57	2033.78
550.92	2040.20
551.28	2047.48
551.64	2054.71
551.99	2062.01
552.35	2068.93
552.70	2075.66
553.06	2081.98
553.41	2088.23
553.77	2094.73
554.13	2100.83
554.48	2107.61
554.84	2114.56
555.19	2120.92
555.55	2127.16
555.90	2133.30
556.26	2139.98
556.61	2145.80
556.97	2150.54
557.32	2156.37
557.68	2162.73
558.03	2168.47
558.39	2173.79
558.74	2179.72
559.10	2185.20
559.45	2190.86
559.81	2196.41
560.16	2201.89
560.52	2207.66
560.87	2213.98
561.23	2219.89
561.58	2226.51
561.94	2231.65
562.29	2236.40
562.64	2242.51
563.00	2248.09
563.35	2253.66
563.71	2259.42
564.06	2265.07
564.42	2270.99
564.77	2276.21
565.12	2281.37
565.48	2286.47
565.83	2292.02
566.19	2297.53
566.54	2302.93
566.89	2307.36
567.25	2311.96
567.60	2317.74
567.96	2322.93
568.31	2327.49
568.66	2331.75
569.02	2335.55
569.37	2339.33
569.72	2343.76
570.08	2347.40
570.43	2350.53
570.78	2353.61
571.14	2356.32
571.49	2359.57
571.84	2363.12
572.20	2365.97
572.55	2369.15
572.90	2371.55
573.26	2374.56
573.61	2377.06
573.96	2379.36
574.31	2381.62
574.67	2383.66
575.02	2384.66
575.37	2386.33
575.72	2387.22
576.08	2388.79
576.43	2389.15
576.78	2390.03
577.13	2391.83
577.49	2393.03
577.84	2394.50
578.19	2396.15
578.54	2396.75
578.90	2397.79
579.25	2397.79
579.60	2397.92
579.95	2397.33
580.30	2397.67
580.66	2397.03
581.01	2395.46
581.36	2393.38
581.71	2392.19
582.06	2391.31
582.42	2390.58
582.77	2388.45
583.12	2386.98
583.47	2385.90
583.82	2385.54
584.17	2384.30
584.53	2382.26
584.88	2380.30
585.23	2378.35
585.58	2376.24
585.93	2374.28
586.28	2372.30
586.63	2370.05
586.98	2368.09
587.34	2366.25
587.69	2364.05
588.04	2362.25
588.39	2360.97
588.74	2358.65
589.09	2356.14
589.44	2353.13
589.79	2350.93
590.14	2349.14
590.49	2346.41
590.84	2342.72
591.19	2339.85
591.54	2336.81
591.89	2332.85
592.25	2329.83
592.60	2325.85
592.95	2321.85
593.30	2317.82
593.65	2313.34
594.00	2309.06
594.35	2306.07
594.70	2301.63
595.05	2297.15
595.40	2291.76
595.75	2286.35
596.10	2282.70
596.45	2277.86
596.80	2273.48
597.15	2268.12
597.50	2262.41
597.85	2257.65
598.19	2252.53
598.54	2246.80
598.89	2241.79
599.24	2237.50
599.59	2231.45
599.94	2225.97
600.29	2220.20
600.64	2214.62
600.99	2208.32
601.34	2203.12
601.69	2196.26
602.04	2189.89
602.39	2183.38
602.74	2177.57
603.08	2172.09
603.43	2165.70
603.78	2159.11
604.13	2152.07
604.48	2144.96
604.83	2138.99
605.18	2132.67
605.53	2125.78
605.87	2118.94
606.22	2112.15
606.57	2104.27
606.92	2096.58
607.27	2089.59
607.62	2083.06
607.96	2075.96
608.31	2069.31
608.66	2061.53
609.01	2054.00
609.36	2046.95
609.70	2039.17
610.05	2031.45
610.40	2023.13
610.75	2014.88
611.10	2007.27
611.44	1998.51
611.79	1989.92
612.14	1979.95
612.49	1969.61
612.83	1960.41
613.18	1951.20
613.53	1942.02
613.88	1932.49
614.22	1923.90
614.57	1913.94
614.92	1903.54
615.27	1893.50
615.61	1883.66
615.96	1874.02
616.31	1864.52
616.65	1855.19
617.00	1845.42
617.35	1835.80
617.70	1826.09
618.04	1816.17
618.39	1805.84
618.74	1796.20
619.08	1786.75
619.43	1778.16
619.78	1769.93
620.12	1761.32
620.47	1751.56
620.82	1741.21
621.16	1731.54
621.51	1721.60
621.85	1711.84
622.20	1701.28
622.55	1690.71
622.89	1680.80
623.24	1671.10
623.59	1661.36
623.93	1651.41
624.28	1641.88
624.62	1631.82
624.97	1621.62
625.32	1611.88
625.66	1603.27
626.01	1594.55
626.35	1585.06
626.70	1574.93
627.04	1564.73
627.39	1554.75
627.73	1545.64
628.08	1536.73
628.43	1527.12
628.77	1517.99
629.12	1509.13
629.46	1501.39
629.81	1493.03
630.15	1483.46
630.50	1473.66
630.84	1463.25
631.19	1453.22
631.53	1443.82
631.88	1433.64
632.22	1423.69
632.57	1414.28
632.91	1404.03
633.26	1394.20
633.60	1384.64
633.95	1375.38
634.29	1366.13
634.64	1356.71
634.98	1346.79
635.32	1337.46
635.67	1328.99
636.01	1319.75
636.36	1310.10
636.70	1300.62
637.05	1291.26
637.39	1282.39
637.73	1273.85
638.08	1266.35
638.42	1258.26
638.77	1249.51
639.11	1241.27
639.45	1233.37
639.80	1224.89
640.14	1216.18
640.49	1207.33
640.83	1198.58
641.17	1190.43
641.52	1182.20
641.86	1173.66
642.20	1165.82
642.55	1157.31
642.89	1148.51
643.23	1139.72
643.58	1131.60
643.92	1122.57
644.26	1113.98
644.61	1105.57
644.95	1096.78
645.29	1087.47
645.64	1078.27
645.98	1069.96
646.32	1062.13
646.66	1053.73
647.01	1045.44
647.35	1037.46
647.69	1029.05
648.04	1020.77
648.38	1012.00
648.72	1003.29
649.06	994.88
649.41	986.81
649.75	978.88
650.09	971.03
650.43	963.12
650.78	954.90
651.12	947.24
651.46	939.96
651.80	932.63
652.14	925.41
652.49	918.07
652.83	910.85
653.17	903.15
653.51	895.51
653.85	888.27
654.20	881.00
654.54	873.42
654.88	866.39
655.22	859.27
655.56	852.31
655.90	845.59
656.25	838.96
656.59	831.99
656.93	825.01
657.27	817.94
657.61	811.17
657.95	805.14
658.29	799.35
658.64	793.18
658.98	786.87
659.32	780.39
659.66	774.15
660.00	767.88
660.34	761.90
660.68	755.92
661.02	749.73
661.36	743.94
661.70	738.27
662.05	732.64
662.39	727.27
662.73	721.99
663.07	716.73
663.41	711.27
663.75	705.75
664.09	700.17
664.43	694.83
664.77	689.44
665.11	683.61
665.45	677.75
665.79	672.11
666.13	666.53
666.47	661.12
666.81	655.82
667.15	650.56
667.49	645.43
667.83	640.21
668.17	635.04
668.51	629.98
668.85	625.15
669.19	620.33
669.53	615.33
669.87	610.22
670.21	605.43
670.55	600.80
670.89	596.42
671.23	592.23
671.57	587.94
671.91	583.73
672.25	579.81
672.58	575.75
672.92	571.74
673.26	567.90
673.60	564.13
673.94	560.35
674.28	556.77
674.62	553.05
674.96	549.42
675.30	545.95
675.64	542.36
675.97	538.81
676.31	535.26
676.65	531.73
676.99	528.37
677.33	524.61
677.67	520.95
678.01	517.17
678.34	513.50
678.68	510.03
679.02	506.52
679.36	502.86
679.70	499.29
680.04	495.78
680.37	492.40
680.71	489.14
681.05	485.97
681.39	482.85
681.73	479.80
682.06	476.70
682.40	473.64
682.74	470.53
683.08	467.36
683.42	464.25
683.75	461.32
684.09	458.40
684.43	455.66
684.77	452.83
685.10	450.04
685.44	447.26
685.78	444.37
686.12	441.69
686.45	439.00
686.79	436.37
687.13	433.87
687.46	431.27
687.80	428.64
688.14	425.87
688.48	423.22
688.81	420.53
689.15	418.05
689.49	415.51
689.82	413.02
690.16	410.51
690.50	408.11
690.83	405.62
691.17	403.13
691.51	400.74
691.84	398.56
692.18	396.38
692.52	394.22
692.85	392.16
693.19	390.03
693.52	387.92
693.86	385.75
694.20	383.64
694.53	381.58
694.87	379.41
695.21	377.39
695.54	375.31
695.88	373.27
696.21	371.14
696.55	369.05
696.88	367.03
697.22	365.14
697.56	363.30
697.89	361.50
698.23	359.80
698.56	358.06
698.90	356.30
699.23	354.41
699.57	352.55
699.90	350.73
700.24	348.98
700.58	347.26
700.91	345.65
701.25	344.12
701.58	342.54
701.92	341.00
702.25	339.38
702.59	337.78
702.92	336.22
703.26	334.70
703.59	333.29
703.93	332.06
704.26	330.67
704.60	329.18
704.93	327.76
705.26	326.25
705.60	324.77
705.93	323.28
706.27	322.01
706.60	320.78
706.94	319.61
707.27	318.20
707.61	316.89
707.94	315.59
708.27	314.12
708.61	312.67
708.94	311.34
709.28	310.13
709.61	308.92
709.94	307.81
710.28	306.63
710.61	305.48
710.95	304.09
711.28	303.02
711.61	301.88
711.95	300.75
712.28	299.59
712.61	298.51
712.95	297.52
713.28	296.49
713.61	295.37
713.95	294.17
714.28	293.18
714.61	292.15
714.95	291.16
715.28	290.14
715.61	289.15
715.95	288.26
716.28	287.28
716.61	286.34
716.95	285.36
717.28	284.43
717.61	283.46
717.94	282.62
718.28	281.61
718.61	280.74
718.94	279.85
719.27	279.02
719.61	278.19
719.94	277.33
720.27	276.41
720.60	275.58
720.94	274.85
721.27	274.17
721.60	273.48
721.93	272.79
722.27	272.19
722.60	271.56
722.93	270.84
723.26	270.18
723.59	269.51
723.93	268.87
724.26	268.31
724.59	267.70
724.92	267.11
725.25	266.60
725.59	266.05
725.92	265.55
726.25	265.03
726.58	264.47
726.91	263.88
727.24	263.38
727.57	262.84
727.91	262.24
728.24	261.68
728.57	261.13
728.90	260.59
729.23	260.02
729.56	259.61
729.89	259.08
730.22	258.55
730.55	258.03
730.89	257.54
731.22	256.99
731.55	256.51
731.88	256.02
732.21	255.47
732.54	255.00
732.87	254.52
733.20	254.07
733.53	253.61
733.86	253.16
734.19	252.69
734.52	252.31
734.85	252.03
735.18	251.57
735.51	251.21
735.84	250.80
736.17	250.37
736.50	249.86
736.83	249.69
737.16	249.30
737.49	248.94
737.82	248.56
738.15	248.21
738.48	247.83
738.81	247.41
739.14	247.06
739.47	246.66
739.80	246.29
740.13	245.92
740.46	245.56
740.79	245.17
741.12	244.81
741.45	244.45
741.78	244.04
742.11	243.81
742.44	243.45
742.77	243.14
743.10	242.83
743.43	242.49
743.75	241.94
744.08	241.88
744.41	241.52
744.74	241.18
745.07	240.82
745.40	240.57
745.73	240.37
746.06	240.04
746.39	239.74
746.71	239.41
747.04	239.07
747.37	238.77
747.70	238.50
748.03	238.22
748.36	237.94
748.68	237.65
749.01	237.27
749.34	236.99
749.67	236.70
750.00	236.44
750.33	236.33
750.65	236.12
750.98	235.63
751.31	235.41
751.64	235.18
751.97	235.08
752.29	234.80
752.62	234.44
752.95	234.21
753.28	233.94
753.60	233.70
753.93	233.56
754.26	233.31
754.59	233.06
754.91	232.82
755.24	232.59
755.57	232.33
755.90	232.11
756.22	231.86
756.55	231.61
756.88	231.37
757.20	231.03
757.53	230.74
757.86	230.55
758.19	230.38
758.51	230.17
758.84	229.86
759.17	229.63
759.49	229.50
759.82	229.41
760.15	229.27
760.47	229.11
760.80	228.84
761.13	228.74
761.45	228.53
761.78	228.36
762.11	228.19
762.43	228.00
762.76	227.83
763.08	227.69
763.41	227.57
763.74	227.41
764.06	227.25
764.39	227.13
764.71	226.95
765.04	226.79
765.37	226.65
765.69	226.49
766.02	226.36
766.34	226.18
766.67	225.96
767.00	225.88
767.32	225.84
767.65	225.87
767.97	225.72
768.30	225.65
768.62	225.52
768.95	225.37
769.27	225.26
769.60	225.18
769.92	225.00
770.25	224.86
770.57	224.74
770.90	224.63
771.22	224.48
771.55	224.37
771.87	224.25
772.20	224.14
772.52	224.21
772.85	224.38
773.17	224.30
773.50	224.22
773.82	224.05
774.15	223.89
774.47	223.63
774.80	223.49
775.12	223.39
775.45	223.31
775.77	223.21
776.09	223.16
776.42	223.06
776.74	223.08
777.07	222.97
777.39	222.90
777.72	222.80
778.04	222.78
778.36	222.69
778.69	222.63
779.01	222.55
779.33	222.27
779.66	221.94
779.98	221.85
780.31	221.74
780.63	221.74
780.95	221.70
781.28	221.65
781.60	221.55
781.92	221.45
782.25	221.39
782.57	221.33
782.89	221.23
783.22	221.16
783.54	221.02
783.86	221.00
784.19	220.93
784.51	220.93
784.83	220.84
785.16	220.75
785.48	220.68
785.80	220.60
786.12	220.58
