SpectraSuite Data File
++++++++++++++++++++++++++++++++++++
Date: Wed Nov 07 18:31:53 EST 2012
User: group
Dark Spectrum Present: No
Reference Spectrum Present: No
Number of Sampled Component Spectra: 1
Spectrometers: USB2E7196
Integration Time (usec): 1000000 (USB2E7196)
Spectra Averaged: 1 (USB2E7196)
Boxcar Smoothing: 10 (USB2E7196)
Correct for Electrical Dark: No (USB2E7196)
Strobe/Lamp Enabled: No (USB2E7196)
Correct for Detector Non-linearity: No (USB2E7196)
Correct for Stray Light: No (USB2E7196)
Number of Pixels in Processed Spectrum: 2048
>>>>>Begin Processed Spectral Data<<<<<
339.09	0.00
339.48	219.00
339.86	220.00
340.24	225.00
340.63	223.00
341.01	266.00
341.39	231.00
341.78	235.00
342.16	243.00
342.54	236.00
342.93	223.71
343.31	234.81
343.69	235.29
344.07	235.81
344.46	236.19
344.84	236.90
345.22	235.00
345.60	235.29
345.99	235.29
346.37	234.71
346.75	234.33
347.13	234.57
347.52	234.33
347.90	235.19
348.28	235.00
348.66	235.71
349.05	234.57
349.43	234.71
349.81	235.10
350.19	235.05
350.57	234.86
350.96	234.90
351.34	235.10
351.72	235.29
352.10	235.29
352.48	235.24
352.87	235.10
353.25	235.33
353.63	234.67
354.01	234.52
354.39	234.67
354.77	234.86
355.15	235.33
355.54	235.00
355.92	234.29
356.30	234.10
356.68	235.29
357.06	235.52
357.44	235.33
357.82	235.24
358.20	235.62
358.58	235.86
358.97	235.90
359.35	236.00
359.73	236.81
360.11	237.00
360.49	237.29
360.87	237.43
361.25	237.90
361.63	239.33
362.01	239.57
362.39	239.57
362.77	240.29
363.15	240.24
363.53	240.57
363.91	240.76
364.29	241.33
364.67	239.05
365.05	239.05
365.43	239.62
365.81	240.05
366.19	241.05
366.57	242.24
366.95	242.38
367.33	242.24
367.71	242.10
368.09	242.67
368.47	242.81
368.85	242.71
369.23	243.24
369.61	242.48
369.99	243.48
370.37	243.81
370.75	244.81
371.13	244.43
371.51	244.38
371.89	244.38
372.27	244.67
372.65	245.38
373.03	245.33
373.41	245.19
373.78	244.95
374.16	244.05
374.54	243.29
374.92	243.38
375.30	243.38
375.68	243.00
376.06	243.29
376.44	242.95
376.82	243.24
377.19	243.00
377.57	242.81
377.95	242.00
378.33	241.95
378.71	240.48
379.09	241.00
379.47	241.43
379.84	241.71
380.22	241.24
380.60	240.76
380.98	240.76
381.36	240.76
381.73	240.62
382.11	240.90
382.49	240.95
382.87	240.71
383.25	241.00
383.62	243.95
384.00	243.33
384.38	243.62
384.76	244.10
385.13	245.24
385.51	245.14
385.89	245.10
386.27	245.29
386.64	245.62
387.02	245.24
387.40	244.76
387.78	244.33
388.15	244.67
388.53	244.95
388.91	245.00
389.29	244.90
389.66	245.33
390.04	244.90
390.42	245.10
390.79	245.19
391.17	245.10
391.55	242.14
391.92	242.10
392.30	242.05
392.68	241.10
393.05	240.86
393.43	241.14
393.81	240.95
394.18	240.81
394.56	240.67
394.94	241.19
395.31	241.10
395.69	242.19
396.06	242.33
396.44	242.00
396.82	241.81
397.19	242.95
397.57	242.67
397.95	243.19
398.32	242.29
398.70	242.48
399.07	242.81
399.45	242.57
399.82	242.57
400.20	242.52
400.58	243.10
400.95	242.14
401.33	242.62
401.70	244.48
402.08	244.33
402.45	244.52
402.83	245.05
403.20	245.10
403.58	245.05
403.95	245.19
404.33	245.81
404.71	245.90
405.08	247.43
405.46	247.81
405.83	248.19
406.21	249.19
406.58	249.19
406.96	249.43
407.33	250.10
407.70	250.86
408.08	253.24
408.45	253.81
408.83	254.71
409.20	255.29
409.58	254.76
409.95	256.10
410.33	256.95
410.70	257.24
411.08	258.86
411.45	259.76
411.82	260.67
412.20	262.52
412.57	265.38
412.95	264.62
413.32	266.38
413.69	267.76
414.07	269.52
414.44	272.19
414.82	274.57
415.19	277.00
415.56	279.24
415.94	280.24
416.31	283.57
416.68	286.43
417.06	289.71
417.43	293.24
417.81	296.86
418.18	300.86
418.55	304.86
418.93	309.19
419.30	313.33
419.67	318.19
420.04	322.33
420.42	326.57
420.79	334.33
421.16	339.81
421.54	347.14
421.91	353.24
422.28	359.29
422.66	365.67
423.03	374.24
423.40	381.52
423.77	389.00
424.15	396.14
424.52	404.10
424.89	412.76
425.26	420.29
425.64	427.62
426.01	436.10
426.38	444.29
426.75	454.24
427.13	463.43
427.50	473.10
427.87	483.19
428.24	493.67
428.61	501.76
428.99	513.52
429.36	523.76
429.73	534.67
430.10	546.29
430.47	558.38
430.85	569.14
431.22	582.19
431.59	597.24
431.96	609.90
432.33	624.38
432.70	638.95
433.08	655.05
433.45	670.90
433.82	686.29
434.19	703.57
434.56	718.95
434.93	734.57
435.30	750.81
435.68	767.67
436.05	783.29
436.42	799.33
436.79	814.19
437.16	831.33
437.53	848.76
437.90	864.76
438.27	881.67
438.64	898.14
439.01	913.71
439.38	925.71
439.75	938.76
440.13	953.62
440.50	966.62
440.87	978.38
441.24	989.52
441.61	1002.95
441.98	1011.43
442.35	1022.19
442.72	1033.33
443.09	1043.90
443.46	1050.10
443.83	1054.24
444.20	1057.52
444.57	1061.67
444.94	1062.71
445.31	1064.95
445.68	1070.33
446.05	1069.52
446.42	1066.10
446.79	1063.10
447.16	1060.10
447.53	1058.00
447.90	1050.19
448.27	1042.33
448.64	1032.24
449.01	1024.33
449.37	1010.76
449.74	998.62
450.11	987.38
450.48	971.86
450.85	955.29
451.22	941.43
451.59	928.90
451.96	916.48
452.33	900.71
452.70	885.95
453.07	867.67
453.43	847.33
453.80	831.19
454.17	815.90
454.54	800.33
454.91	784.33
455.28	768.24
455.65	753.38
456.02	744.10
456.38	731.90
456.75	717.81
457.12	705.38
457.49	694.19
457.86	679.19
458.23	670.33
458.59	659.90
458.96	648.62
459.33	638.71
459.70	628.57
460.07	621.00
460.43	611.48
460.80	604.43
461.17	596.57
461.54	588.95
461.91	581.67
462.27	574.10
462.64	567.90
463.01	560.86
463.38	555.00
463.74	543.52
464.11	536.71
464.48	531.38
464.85	526.24
465.21	522.57
465.58	518.43
465.95	511.67
466.32	507.10
466.68	503.05
467.05	498.67
467.42	494.81
467.78	490.14
468.15	486.19
468.52	482.62
468.88	478.10
469.25	473.76
469.62	470.95
469.98	467.43
470.35	464.00
470.72	461.52
471.08	457.29
471.45	454.48
471.82	452.76
472.18	449.38
472.55	446.95
472.92	443.10
473.28	440.19
473.65	437.86
474.02	435.19
474.38	433.24
474.75	431.90
475.11	429.38
475.48	427.19
475.85	425.52
476.21	423.76
476.58	423.24
476.94	422.24
477.31	420.95
477.67	419.90
478.04	418.57
478.41	417.38
478.77	419.62
479.14	418.90
479.50	418.43
479.87	418.86
480.23	418.43
480.60	418.52
480.96	418.81
481.33	420.52
481.69	420.86
482.06	421.52
482.42	422.05
482.79	423.38
483.15	424.10
483.52	425.24
483.88	425.62
484.25	426.67
484.61	427.62
484.98	428.43
485.34	430.76
485.71	433.19
486.07	434.95
486.44	433.57
486.80	435.10
487.17	436.57
487.53	438.38
487.90	440.14
488.26	442.62
488.62	444.81
488.99	444.81
489.35	446.62
489.72	447.95
490.08	449.33
490.44	450.95
490.81	453.24
491.17	455.24
491.54	457.95
491.90	460.29
492.26	462.71
492.63	465.29
492.99	467.33
493.36	469.19
493.72	472.43
494.08	475.67
494.45	479.14
494.81	482.43
495.17	485.38
495.54	489.19
495.90	491.90
496.26	495.43
496.63	500.19
496.99	503.90
497.35	508.10
497.72	512.24
498.08	515.86
498.44	520.76
498.80	525.43
499.17	529.62
499.53	533.57
499.89	538.48
500.26	543.24
500.62	548.05
500.98	553.71
501.34	557.90
501.71	563.33
502.07	567.52
502.43	571.90
502.79	576.71
503.16	581.24
503.52	586.48
503.88	590.90
504.24	595.86
504.60	601.33
504.97	606.71
505.33	611.67
505.69	618.29
506.05	622.33
506.41	627.57
506.78	632.48
507.14	637.95
507.50	643.00
507.86	648.19
508.22	653.24
508.59	657.62
508.95	662.67
509.31	668.57
509.67	674.57
510.03	679.19
510.39	684.05
510.75	688.52
511.12	692.95
511.48	698.62
511.84	703.81
512.20	709.14
512.56	713.57
512.92	718.71
513.28	723.57
513.64	728.67
514.00	732.95
514.37	737.52
514.73	742.29
515.09	747.67
515.45	751.86
515.81	755.62
516.17	759.95
516.53	764.90
516.89	767.19
517.25	770.52
517.61	776.52
517.97	780.76
518.33	785.62
518.69	789.90
519.05	793.57
519.41	797.05
519.77	801.71
520.13	804.38
520.49	807.62
520.85	810.14
521.21	814.90
521.57	818.00
521.93	820.76
522.29	823.76
522.65	824.76
523.01	827.29
523.37	829.43
523.73	832.14
524.09	833.52
524.45	836.71
524.81	839.10
525.17	840.24
525.53	842.00
525.89	842.95
526.25	844.81
526.61	845.86
526.97	847.05
527.33	847.38
527.68	851.86
528.04	852.81
528.40	853.90
528.76	854.24
529.12	855.71
529.48	857.62
529.84	857.57
530.20	859.62
530.56	861.95
530.91	863.90
531.27	865.10
531.63	866.62
531.99	867.57
532.35	868.81
532.71	869.81
533.07	870.86
533.42	875.05
533.78	876.10
534.14	877.43
534.50	877.67
534.86	879.14
535.21	878.81
535.57	880.57
535.93	881.33
536.29	883.43
536.65	884.52
537.00	886.05
537.36	888.81
537.72	890.24
538.08	892.57
538.44	894.48
538.79	896.43
539.15	898.52
539.51	900.29
539.87	902.05
540.22	904.24
540.58	906.33
540.94	905.90
541.29	908.05
541.65	909.29
542.01	912.05
542.37	913.71
542.72	914.48
543.08	915.86
543.44	917.57
543.79	916.43
544.15	917.00
544.51	916.95
544.87	916.43
545.22	916.14
545.58	913.90
545.94	912.00
546.29	910.14
546.65	908.24
547.01	906.05
547.36	904.10
547.72	901.48
548.07	898.95
548.43	895.81
548.79	892.43
549.14	889.52
549.50	887.33
549.86	883.19
550.21	880.43
550.57	876.81
550.92	873.33
551.28	872.62
551.64	869.76
551.99	867.10
552.35	864.10
552.70	861.38
553.06	859.71
553.41	857.43
553.77	856.24
554.13	854.24
554.48	852.14
554.84	850.43
555.19	848.62
555.55	848.33
555.90	847.05
556.26	845.14
556.61	843.67
556.97	840.67
557.32	838.71
557.68	837.48
558.03	835.81
558.39	833.86
558.74	830.67
559.10	828.19
559.45	826.62
559.81	825.48
560.16	823.24
560.52	820.52
560.87	819.38
561.23	817.62
561.58	818.00
561.94	816.62
562.29	814.14
562.64	812.19
563.00	809.29
563.35	807.05
563.71	805.62
564.06	804.05
564.42	802.71
564.77	801.95
565.12	800.43
565.48	801.00
565.83	799.86
566.19	798.10
566.54	797.10
566.89	795.19
567.25	794.43
567.60	795.33
567.96	796.29
568.31	796.57
568.66	795.33
569.02	791.81
569.37	790.67
569.72	790.05
570.08	788.33
570.43	786.10
570.78	784.71
571.14	783.14
571.49	781.62
571.84	779.86
572.20	778.19
572.55	776.24
572.90	773.29
573.26	772.24
573.61	770.71
573.96	769.95
574.31	769.14
574.67	767.05
575.02	764.57
575.37	760.52
575.72	757.67
576.08	755.67
576.43	754.76
576.78	752.67
577.13	751.10
577.49	750.29
577.84	750.05
578.19	748.81
578.54	748.43
578.90	746.86
579.25	746.86
579.60	745.24
579.95	743.38
580.30	742.90
580.66	741.43
581.01	740.67
581.36	738.67
581.71	736.67
582.06	736.33
582.42	734.43
582.77	733.24
583.12	731.90
583.47	730.95
583.82	730.10
584.17	729.86
584.53	729.90
584.88	728.33
585.23	727.00
585.58	725.38
585.93	722.00
586.28	720.76
586.63	718.10
586.98	716.67
587.34	715.19
587.69	711.48
588.04	708.90
588.39	706.95
588.74	704.48
589.09	703.43
589.44	699.52
589.79	696.71
590.14	694.24
590.49	690.86
590.84	686.81
591.19	682.33
591.54	678.71
591.89	674.10
592.25	673.48
592.60	669.81
592.95	666.90
593.30	665.52
593.65	662.43
594.00	658.95
594.35	661.95
594.70	658.43
595.05	656.10
595.40	653.10
595.75	649.14
596.10	646.48
596.45	642.62
596.80	639.90
597.15	636.52
597.50	633.14
597.85	630.71
598.19	627.95
598.54	625.48
598.89	622.24
599.24	619.57
599.59	614.48
599.94	611.71
600.29	608.81
600.64	605.24
600.99	603.71
601.34	601.71
601.69	592.81
602.04	590.71
602.39	587.71
602.74	586.33
603.08	584.43
603.43	583.29
603.78	581.29
604.13	579.38
604.48	578.19
604.83	577.43
605.18	576.67
605.53	577.48
605.87	579.19
606.22	582.90
606.57	587.14
606.92	591.81
607.27	597.33
607.62	603.95
607.96	609.48
608.31	612.62
608.66	616.62
609.01	620.19
609.36	624.14
609.70	627.62
610.05	629.67
610.40	632.81
610.75	634.10
611.10	636.05
611.44	637.48
611.79	638.29
612.14	638.33
612.49	637.00
612.83	634.62
613.18	630.90
613.53	624.90
613.88	618.05
614.22	610.29
614.57	601.76
614.92	592.52
615.27	584.76
615.61	577.95
615.96	570.95
616.31	564.43
616.65	557.86
617.00	551.48
617.35	545.76
617.70	539.71
618.04	534.76
618.39	529.52
618.74	525.38
619.08	521.29
619.43	517.95
619.78	514.67
620.12	511.76
620.47	508.90
620.82	506.29
621.16	503.33
621.51	502.05
621.85	499.05
622.20	496.95
622.55	494.24
622.89	491.76
623.24	489.67
623.59	487.38
623.93	485.29
624.28	483.90
624.62	484.43
624.97	484.05
625.32	481.86
625.66	479.90
626.01	477.67
626.35	475.86
626.70	473.62
627.04	472.52
627.39	470.38
627.73	469.38
628.08	467.67
628.43	465.90
628.77	463.19
629.12	461.48
629.46	459.52
629.81	457.62
630.15	455.57
630.50	453.14
630.84	451.14
631.19	448.86
631.53	446.14
631.88	441.33
632.22	437.19
632.57	435.33
632.91	433.10
633.26	430.76
633.60	428.10
633.95	425.19
634.29	421.95
634.64	419.62
634.98	415.95
635.32	414.14
635.67	412.52
636.01	410.29
636.36	408.76
636.70	407.29
637.05	405.43
637.39	403.62
637.73	402.67
638.08	400.86
638.42	399.43
638.77	398.05
639.11	396.14
639.45	394.81
639.80	392.76
640.14	391.29
640.49	389.48
640.83	387.67
641.17	387.05
641.52	385.90
641.86	384.86
642.20	385.19
642.55	383.19
642.89	381.81
643.23	381.10
643.58	380.67
643.92	378.81
644.26	377.76
644.61	377.29
644.95	376.00
645.29	375.14
645.64	374.71
645.98	373.57
646.32	373.95
646.66	373.05
647.01	372.43
647.35	372.10
647.69	371.67
648.04	371.48
648.38	370.81
648.72	370.00
649.06	368.57
649.41	366.29
649.75	365.67
650.09	364.95
650.43	363.86
650.78	361.81
651.12	360.95
651.46	359.90
651.80	358.52
652.14	357.29
652.49	357.05
652.83	355.38
653.17	354.67
653.51	352.38
653.85	350.86
654.20	349.71
654.54	347.76
654.88	346.05
655.22	344.05
655.56	342.67
655.90	341.52
656.25	340.71
656.59	340.48
656.93	339.38
657.27	339.33
657.61	337.95
657.95	337.57
658.29	336.81
658.64	336.76
658.98	335.86
659.32	334.95
659.66	334.05
660.00	333.76
660.34	332.67
660.68	332.38
661.02	332.29
661.36	331.33
661.70	331.00
662.05	330.81
662.39	331.86
662.73	331.62
663.07	332.52
663.41	332.00
663.75	330.62
664.09	330.24
664.43	328.48
664.77	328.10
665.11	327.33
665.45	326.57
665.79	325.81
666.13	324.95
666.47	324.19
666.81	323.00
667.15	321.19
667.49	321.00
667.83	321.10
668.17	320.05
668.51	319.43
668.85	318.76
669.19	318.62
669.53	316.86
669.87	315.67
670.21	313.90
670.55	313.10
670.89	313.57
671.23	313.38
671.57	313.14
671.91	312.38
672.25	311.71
672.58	312.33
672.92	310.95
673.26	310.76
673.60	310.67
673.94	310.10
674.28	310.33
674.62	309.81
674.96	309.05
675.30	309.10
675.64	308.43
675.97	307.76
676.31	306.86
676.65	306.38
676.99	306.86
677.33	305.57
677.67	305.81
678.01	304.57
678.34	303.76
678.68	303.43
679.02	302.86
679.36	302.14
679.70	300.90
680.04	300.62
680.37	300.10
680.71	299.00
681.05	298.71
681.39	298.29
681.73	297.81
682.06	297.14
682.40	296.62
682.74	296.90
683.08	297.62
683.42	297.00
683.75	297.38
684.09	296.48
684.43	297.19
684.77	296.00
685.10	296.00
685.44	295.62
685.78	294.90
686.12	294.67
686.45	294.43
686.79	293.57
687.13	293.81
687.46	293.24
687.80	293.67
688.14	293.00
688.48	292.57
688.81	292.14
689.15	292.29
689.49	291.48
689.82	291.29
690.16	289.86
690.50	289.57
690.83	288.62
691.17	287.67
691.51	286.95
691.84	287.05
692.18	286.00
692.52	285.38
692.85	285.48
693.19	286.43
693.52	285.90
693.86	285.48
694.20	285.19
694.53	284.90
694.87	284.19
695.21	284.10
695.54	283.67
695.88	282.90
696.21	281.52
696.55	281.43
696.88	280.33
697.22	279.86
697.56	279.86
697.89	279.29
698.23	279.38
698.56	278.67
698.90	278.62
699.23	278.48
699.57	278.48
699.90	277.48
700.24	276.19
700.58	276.81
700.91	277.14
701.25	278.43
701.58	279.05
701.92	279.95
702.25	280.24
702.59	280.48
702.92	281.00
703.26	281.90
703.59	282.43
703.93	285.00
704.26	285.76
704.60	286.29
704.93	286.81
705.26	287.05
705.60	288.05
705.93	287.76
706.27	288.67
706.60	289.29
706.94	290.48
707.27	290.24
707.61	289.95
707.94	290.00
708.27	288.29
708.61	287.52
708.94	286.81
709.28	286.48
709.61	285.48
709.94	284.90
710.28	284.19
710.61	283.43
710.95	280.76
711.28	281.62
711.61	280.33
711.95	280.24
712.28	279.43
712.61	278.29
712.95	278.95
713.28	279.33
713.61	278.05
713.95	276.43
714.28	275.81
714.61	274.86
714.95	273.86
715.28	272.90
715.61	272.00
715.95	271.67
716.28	270.81
716.61	270.81
716.95	270.24
717.28	269.52
717.61	268.81
717.94	268.24
718.28	265.86
718.61	265.48
718.94	264.52
719.27	263.90
719.61	263.71
719.94	262.43
720.27	261.00
720.60	260.76
720.94	260.81
721.27	260.86
721.60	260.86
721.93	260.71
722.27	261.52
722.60	261.62
722.93	260.76
723.26	260.81
723.59	260.24
723.93	260.38
724.26	260.71
724.59	260.48
724.92	260.43
725.25	261.24
725.59	261.19
725.92	261.29
726.25	261.24
726.58	261.10
726.91	261.19
727.24	261.05
727.57	261.00
727.91	260.33
728.24	260.14
728.57	259.90
728.90	259.95
729.23	258.81
729.56	259.90
729.89	259.90
730.22	259.38
730.55	259.38
730.89	259.19
731.22	258.71
731.55	258.62
731.88	258.90
732.21	258.05
732.54	257.57
732.87	257.52
733.20	257.62
733.53	257.52
733.86	257.33
734.19	257.14
734.52	257.33
734.85	258.90
735.18	258.76
735.51	259.81
735.84	259.62
736.17	260.33
736.50	258.76
736.83	261.43
737.16	261.62
737.49	261.86
737.82	261.38
738.15	261.57
738.48	261.57
738.81	261.10
739.14	260.81
739.47	260.76
739.80	260.33
740.13	260.52
740.46	259.90
740.79	259.38
741.12	258.81
741.45	258.24
741.78	257.05
742.11	257.48
742.44	256.14
742.77	256.52
743.10	255.76
743.43	255.33
743.75	252.52
744.08	255.24
744.41	255.10
744.74	255.00
745.07	254.19
745.40	254.90
745.73	255.57
746.06	255.76
746.39	255.95
746.71	255.86
747.04	255.19
747.37	255.10
747.70	255.33
748.03	255.57
748.36	256.00
748.68	255.62
749.01	254.81
749.34	254.71
749.67	254.57
750.00	255.00
750.33	257.33
750.65	257.52
750.98	254.90
751.31	254.62
751.64	254.76
751.97	256.43
752.29	255.48
752.62	254.62
752.95	254.48
753.28	253.95
753.60	253.71
753.93	254.24
754.26	254.43
754.59	253.76
754.91	253.38
755.24	252.90
755.57	252.95
755.90	252.76
756.22	252.43
756.55	251.90
756.88	251.29
757.20	249.14
757.53	248.29
757.86	247.81
758.19	248.14
758.51	248.00
758.84	246.38
759.17	246.05
759.49	245.95
759.82	246.95
760.15	247.33
760.47	247.19
760.80	246.67
761.13	246.90
761.45	246.76
761.78	246.86
762.11	246.81
762.43	246.62
762.76	246.86
763.08	247.29
763.41	247.67
763.74	247.67
764.06	247.67
764.39	247.81
764.71	247.95
765.04	247.33
765.37	247.14
765.69	247.14
766.02	247.48
766.34	247.05
766.67	245.95
767.00	245.95
767.32	247.38
767.65	248.57
767.97	248.71
768.30	249.14
768.62	248.95
768.95	248.71
769.27	248.52
769.60	248.67
769.92	248.14
770.25	247.33
770.57	247.29
770.90	247.48
771.22	247.33
771.55	247.33
771.87	247.48
772.20	247.38
772.52	249.81
772.85	253.00
773.17	253.52
773.50	253.33
773.82	252.95
774.15	251.52
774.47	250.05
774.80	249.71
775.12	249.29
775.45	249.29
775.77	249.57
776.09	249.76
776.42	249.67
776.74	250.52
777.07	250.86
777.39	250.71
777.72	250.43
778.04	250.71
778.36	250.24
778.69	250.14
779.01	250.38
779.33	248.00
779.66	244.81
779.98	244.48
780.31	244.90
780.63	246.10
780.95	246.62
781.28	246.43
781.60	245.95
781.92	246.05
782.25	246.33
782.57	246.05
782.89	246.05
783.22	245.81
783.54	245.33
783.86	245.14
784.19	245.00
784.51	245.67
784.83	245.24
785.16	245.52
785.48	245.48
785.80	245.19
786.12	245.29
786.45	245.05
786.77	245.29
787.09	245.00
787.42	244.05
787.74	244.24
788.06	244.33
788.38	244.57
788.71	244.00
789.03	244.00
789.35	244.24
789.67	243.67
789.99	244.00
790.32	243.38
790.64	243.90
790.96	245.95
791.28	245.33
791.61	245.00
791.93	244.86
792.25	244.81
792.57	246.90
792.89	246.76
793.21	246.95
793.54	246.38
793.86	245.81
