SpectraSuite Data File
++++++++++++++++++++++++++++++++++++
Date: Wed Nov 07 18:32:42 EST 2012
User: group
Dark Spectrum Present: No
Reference Spectrum Present: No
Number of Sampled Component Spectra: 1
Spectrometers: USB2E7196
Integration Time (usec): 1000000 (USB2E7196)
Spectra Averaged: 1 (USB2E7196)
Boxcar Smoothing: 10 (USB2E7196)
Correct for Electrical Dark: No (USB2E7196)
Strobe/Lamp Enabled: No (USB2E7196)
Correct for Detector Non-linearity: No (USB2E7196)
Correct for Stray Light: No (USB2E7196)
Number of Pixels in Processed Spectrum: 2048
>>>>>Begin Processed Spectral Data<<<<<
339.09	0.00
339.48	219.00
339.86	218.00
340.24	221.00
340.63	225.00
341.01	265.00
341.39	223.00
341.78	234.00
342.16	244.00
342.54	232.00
342.93	223.29
343.31	234.33
343.69	235.14
344.07	235.86
344.46	236.90
344.84	237.38
345.22	235.90
345.60	236.81
345.99	237.24
346.37	236.52
346.75	236.71
347.13	236.95
347.52	237.29
347.90	238.29
348.28	238.38
348.66	238.95
349.05	238.43
349.43	239.10
349.81	239.19
350.19	239.19
350.57	239.62
350.96	240.00
351.34	240.43
351.72	240.62
352.10	240.76
352.48	240.33
352.87	240.29
353.25	240.62
353.63	240.24
354.01	240.24
354.39	240.62
354.77	240.71
355.15	241.05
355.54	240.86
355.92	240.19
356.30	240.19
356.68	241.67
357.06	241.71
357.44	241.14
357.82	240.90
358.20	241.33
358.58	241.05
358.97	241.10
359.35	241.57
359.73	241.62
360.11	241.71
360.49	242.10
360.87	242.24
361.25	242.48
361.63	243.52
362.01	243.38
362.39	243.48
362.77	243.81
363.15	243.90
363.53	243.86
363.91	244.00
364.29	244.10
364.67	241.86
365.05	241.71
365.43	242.19
365.81	242.52
366.19	243.48
366.57	244.52
366.95	244.38
367.33	243.52
367.71	243.57
368.09	244.05
368.47	243.95
368.85	243.81
369.23	244.24
369.61	243.29
369.99	243.86
370.37	244.10
370.75	245.10
371.13	244.57
371.51	244.24
371.89	244.10
372.27	244.43
372.65	244.52
373.03	244.52
373.41	243.81
373.78	243.86
374.16	242.52
374.54	241.67
374.92	241.29
375.30	241.33
375.68	240.67
376.06	240.67
376.44	240.24
376.82	240.19
377.19	240.00
377.57	239.86
377.95	239.33
378.33	239.00
378.71	237.29
379.09	237.62
379.47	238.05
379.84	238.00
380.22	237.76
380.60	237.43
380.98	237.29
381.36	237.24
381.73	236.67
382.11	237.38
382.49	237.38
382.87	237.14
383.25	237.29
383.62	240.33
384.00	239.62
384.38	239.95
384.76	240.38
385.13	240.81
385.51	240.90
385.89	240.81
386.27	240.81
386.64	241.14
387.02	240.81
387.40	240.38
387.78	240.57
388.15	240.62
388.53	240.43
388.91	240.29
389.29	240.05
389.66	240.67
390.04	240.05
390.42	240.52
390.79	240.86
391.17	240.86
391.55	238.05
391.92	238.00
392.30	238.00
392.68	237.62
393.05	237.33
393.43	237.38
393.81	237.24
394.18	237.00
394.56	237.24
394.94	238.05
395.31	237.95
395.69	238.67
396.06	238.86
396.44	239.33
396.82	239.48
397.19	240.95
397.57	240.52
397.95	241.19
398.32	240.33
398.70	240.48
399.07	241.05
399.45	241.29
399.82	241.62
400.20	241.90
400.58	242.05
400.95	241.38
401.33	242.00
401.70	243.67
402.08	243.95
402.45	244.24
402.83	244.81
403.20	245.10
403.58	244.57
403.95	245.05
404.33	245.38
404.71	245.62
405.08	247.33
405.46	247.76
405.83	247.95
406.21	248.14
406.58	248.71
406.96	248.76
407.33	249.48
407.70	250.19
408.08	252.29
408.45	253.19
408.83	254.38
409.20	254.76
409.58	254.19
409.95	255.43
410.33	256.14
410.70	255.95
411.08	257.29
411.45	258.48
411.82	259.24
412.20	261.00
412.57	263.90
412.95	263.24
413.32	265.10
413.69	266.76
414.07	268.62
414.44	270.33
414.82	272.81
415.19	275.43
415.56	277.86
415.94	279.19
416.31	282.29
416.68	285.48
417.06	288.81
417.43	292.67
417.81	296.24
418.18	300.19
418.55	304.29
418.93	308.43
419.30	313.00
419.67	317.71
420.04	322.33
420.42	326.48
420.79	333.86
421.16	339.67
421.54	346.67
421.91	353.10
422.28	359.19
422.66	365.81
423.03	373.86
423.40	380.43
423.77	387.14
424.15	394.10
424.52	401.19
424.89	410.24
425.26	417.90
425.64	425.76
426.01	434.24
426.38	442.81
426.75	452.90
427.13	461.71
427.50	471.48
427.87	481.29
428.24	491.14
428.61	499.10
428.99	510.71
429.36	521.10
429.73	533.10
430.10	544.71
430.47	556.19
430.85	566.81
431.22	580.81
431.59	597.29
431.96	610.76
432.33	626.29
432.70	640.19
433.08	656.81
433.45	672.05
433.82	687.29
434.19	704.90
434.56	720.86
434.93	736.95
435.30	752.62
435.68	769.90
436.05	787.19
436.42	802.95
436.79	817.90
437.16	835.29
437.53	852.14
437.90	870.14
438.27	887.24
438.64	903.76
439.01	918.57
439.38	929.90
439.75	943.81
440.13	959.00
440.50	972.14
440.87	983.76
441.24	995.81
441.61	1008.71
441.98	1017.14
442.35	1027.19
442.72	1038.00
443.09	1049.76
443.46	1055.10
443.83	1058.10
444.20	1062.24
444.57	1066.00
444.94	1066.76
445.31	1068.24
445.68	1072.76
446.05	1073.19
446.42	1070.86
446.79	1068.71
447.16	1064.52
447.53	1061.33
447.90	1052.95
448.27	1045.14
448.64	1034.52
449.01	1026.10
449.37	1013.38
449.74	1002.52
450.11	991.24
450.48	975.52
450.85	958.76
451.22	946.10
451.59	934.57
451.96	922.05
452.33	906.48
452.70	891.95
453.07	874.48
453.43	853.00
453.80	835.90
454.17	819.81
454.54	804.05
454.91	789.19
455.28	773.10
455.65	758.00
456.02	748.43
456.38	735.67
456.75	722.00
457.12	709.95
457.49	696.81
457.86	682.52
458.23	673.86
458.59	663.29
458.96	652.05
459.33	641.05
459.70	631.57
460.07	623.62
460.43	614.33
460.80	606.24
461.17	599.00
461.54	591.76
461.91	584.38
462.27	576.48
462.64	570.10
463.01	563.38
463.38	557.76
463.74	546.71
464.11	541.19
464.48	535.57
464.85	529.57
465.21	525.95
465.58	521.24
465.95	514.71
466.32	509.67
466.68	504.29
467.05	499.81
467.42	495.38
467.78	490.62
468.15	486.10
468.52	483.52
468.88	479.62
469.25	474.62
469.62	471.95
469.98	468.48
470.35	464.81
470.72	461.86
471.08	457.48
471.45	454.86
471.82	452.33
472.18	448.81
472.55	446.29
472.92	442.71
473.28	440.48
473.65	437.86
474.02	435.24
474.38	434.19
474.75	432.33
475.11	429.90
475.48	428.14
475.85	426.90
476.21	425.10
476.58	423.95
476.94	423.00
477.31	421.48
477.67	420.43
478.04	419.71
478.41	418.76
478.77	420.86
479.14	419.86
479.50	418.90
479.87	418.90
480.23	419.24
480.60	419.14
480.96	419.19
481.33	420.90
481.69	421.38
482.06	421.62
482.42	422.62
482.79	423.86
483.15	424.81
483.52	425.86
483.88	425.95
484.25	426.76
484.61	427.57
484.98	428.43
485.34	430.67
485.71	432.05
486.07	433.57
486.44	432.62
486.80	434.14
487.17	435.67
487.53	437.95
487.90	439.14
488.26	441.57
488.62	443.48
488.99	444.48
489.35	446.95
489.72	448.52
490.08	450.10
490.44	451.38
490.81	453.90
491.17	456.10
491.54	459.24
491.90	461.52
492.26	464.29
492.63	466.71
492.99	468.71
493.36	471.14
493.72	474.14
494.08	477.14
494.45	480.10
494.81	483.57
495.17	486.19
495.54	490.38
495.90	493.76
496.26	497.43
496.63	501.05
496.99	504.24
497.35	508.29
497.72	512.62
498.08	516.76
498.44	521.14
498.80	525.62
499.17	528.95
499.53	532.90
499.89	537.81
500.26	542.29
500.62	546.76
500.98	551.90
501.34	556.81
501.71	562.33
502.07	568.05
502.43	573.10
502.79	577.90
503.16	581.81
503.52	586.67
503.88	591.29
504.24	597.19
504.60	602.38
504.97	608.10
505.33	613.33
505.69	620.19
506.05	625.00
506.41	630.24
506.78	636.38
507.14	642.00
507.50	647.43
507.86	653.71
508.22	659.57
508.59	664.86
508.95	670.00
509.31	676.00
509.67	681.14
510.03	686.57
510.39	692.05
510.75	697.52
511.12	702.05
511.48	706.48
511.84	710.48
512.20	715.76
512.56	720.52
512.92	725.90
513.28	729.71
513.64	733.95
514.00	739.14
514.37	742.90
514.73	746.95
515.09	751.52
515.45	755.24
515.81	760.05
516.17	764.24
516.53	768.38
516.89	770.95
517.25	775.00
517.61	778.76
517.97	782.67
518.33	787.10
518.69	792.19
519.05	797.10
519.41	801.19
519.77	806.24
520.13	809.86
520.49	811.90
520.85	815.33
521.21	820.24
521.57	823.19
521.93	826.81
522.29	830.62
522.65	832.52
523.01	835.10
523.37	836.19
523.73	838.71
524.09	841.14
524.45	843.86
524.81	845.38
525.17	847.67
525.53	850.29
525.89	851.95
526.25	853.76
526.61	854.90
526.97	856.24
527.33	857.05
527.68	860.19
528.04	862.76
528.40	864.00
528.76	865.00
529.12	866.38
529.48	867.76
529.84	867.71
530.20	869.52
530.56	871.48
530.91	873.29
531.27	874.62
531.63	876.05
531.99	876.71
532.35	878.43
532.71	878.86
533.07	879.86
533.42	883.76
533.78	884.05
534.14	886.24
534.50	886.86
534.86	888.48
535.21	887.95
535.57	889.57
535.93	890.71
536.29	892.67
536.65	894.43
537.00	895.95
537.36	898.90
537.72	900.81
538.08	903.90
538.44	906.14
538.79	908.10
539.15	909.24
539.51	911.52
539.87	913.57
540.22	916.10
540.58	918.33
540.94	918.14
541.29	920.62
541.65	921.62
542.01	925.52
542.37	926.19
542.72	927.10
543.08	926.67
543.44	926.71
543.79	925.43
544.15	924.67
544.51	925.29
544.87	924.38
545.22	922.95
545.58	920.05
545.94	917.95
546.29	916.19
546.65	913.86
547.01	911.71
547.36	909.48
547.72	906.71
548.07	903.33
548.43	900.43
548.79	896.71
549.14	892.90
549.50	889.33
549.86	885.62
550.21	882.24
550.57	880.19
550.92	878.19
551.28	876.05
551.64	873.29
551.99	869.95
552.35	867.19
552.70	864.19
553.06	862.05
553.41	859.48
553.77	858.86
554.13	857.95
554.48	856.62
554.84	855.24
555.19	853.67
555.55	854.24
555.90	852.24
556.26	850.00
556.61	848.90
556.97	845.67
557.32	843.71
557.68	843.24
558.03	841.10
558.39	838.57
558.74	836.38
559.10	834.48
559.45	832.52
559.81	831.33
560.16	830.71
560.52	829.38
560.87	828.43
561.23	825.24
561.58	825.38
561.94	822.95
562.29	820.38
562.64	819.05
563.00	814.57
563.35	812.81
563.71	812.38
564.06	811.43
564.42	809.90
564.77	809.43
565.12	807.14
565.48	808.76
565.83	808.81
566.19	807.38
566.54	806.52
566.89	805.00
567.25	804.43
567.60	804.43
567.96	805.38
568.31	805.48
568.66	804.86
569.02	801.19
569.37	799.48
569.72	798.76
570.08	797.14
570.43	795.86
570.78	794.48
571.14	792.48
571.49	791.05
571.84	790.00
572.20	787.62
572.55	786.71
572.90	782.48
573.26	780.05
573.61	779.33
573.96	778.48
574.31	777.76
574.67	775.95
575.02	773.81
575.37	770.05
575.72	767.29
576.08	766.14
576.43	764.86
576.78	764.14
577.13	762.57
577.49	761.52
577.84	761.10
578.19	759.76
578.54	758.52
578.90	757.05
579.25	756.62
579.60	756.24
579.95	753.95
580.30	752.90
580.66	752.43
581.01	750.71
581.36	748.00
581.71	746.24
582.06	746.00
582.42	744.19
582.77	743.05
583.12	741.62
583.47	739.81
583.82	739.14
584.17	737.71
584.53	737.19
584.88	735.00
585.23	733.62
585.58	731.67
585.93	729.14
586.28	726.48
586.63	723.57
586.98	721.43
587.34	720.86
587.69	718.86
588.04	715.76
588.39	712.86
588.74	710.24
589.09	708.10
589.44	703.62
589.79	700.90
590.14	697.86
590.49	694.52
590.84	690.62
591.19	687.10
591.54	683.81
591.89	678.71
592.25	677.29
592.60	672.81
592.95	670.43
593.30	668.14
593.65	665.24
594.00	662.10
594.35	665.24
594.70	661.00
595.05	658.00
595.40	655.24
595.75	652.86
596.10	651.19
596.45	648.43
596.80	645.52
597.15	642.05
597.50	638.81
597.85	637.48
598.19	635.05
598.54	632.10
598.89	629.00
599.24	627.14
599.59	623.14
599.94	621.24
600.29	618.00
600.64	615.57
600.99	613.76
601.34	611.90
601.69	602.62
602.04	600.29
602.39	597.48
602.74	595.52
603.08	593.33
603.43	591.81
603.78	589.67
604.13	588.14
604.48	586.86
604.83	585.90
605.18	584.57
605.53	584.71
605.87	586.00
606.22	589.81
606.57	594.19
606.92	598.67
607.27	603.95
607.62	610.24
607.96	615.81
608.31	620.05
608.66	623.38
609.01	627.76
609.36	630.57
609.70	634.05
610.05	636.67
610.40	639.57
610.75	640.48
611.10	642.86
611.44	644.00
611.79	644.76
612.14	644.43
612.49	643.00
612.83	640.48
613.18	636.71
613.53	631.05
613.88	624.43
614.22	617.24
614.57	609.14
614.92	599.71
615.27	591.76
615.61	584.24
615.96	578.14
616.31	570.67
616.65	565.76
617.00	559.29
617.35	553.19
617.70	547.43
618.04	542.52
618.39	536.52
618.74	532.52
619.08	528.52
619.43	525.14
619.78	521.81
620.12	519.33
620.47	516.67
620.82	513.48
621.16	509.90
621.51	508.67
621.85	506.43
622.20	504.71
622.55	501.76
622.89	499.81
623.24	497.19
623.59	495.43
623.93	492.86
624.28	490.86
624.62	491.24
624.97	490.33
625.32	487.81
625.66	486.10
626.01	483.81
626.35	481.76
626.70	479.71
627.04	478.62
627.39	476.57
627.73	475.95
628.08	474.24
628.43	472.57
628.77	469.33
629.12	466.86
629.46	464.86
629.81	462.90
630.15	460.43
630.50	458.33
630.84	456.38
631.19	454.33
631.53	452.14
631.88	447.38
632.22	443.19
632.57	441.81
632.91	439.29
633.26	437.10
633.60	434.33
633.95	431.90
634.29	428.57
634.64	426.24
634.98	422.95
635.32	421.57
635.67	420.05
636.01	418.05
636.36	415.95
636.70	414.29
637.05	411.95
637.39	410.14
637.73	408.52
638.08	407.14
638.42	405.43
638.77	404.19
639.11	402.86
639.45	401.33
639.80	399.33
640.14	397.67
640.49	395.81
640.83	394.38
641.17	393.52
641.52	392.33
641.86	391.24
642.20	390.67
642.55	388.43
642.89	386.90
643.23	385.33
643.58	384.95
643.92	383.05
644.26	382.57
644.61	381.71
644.95	380.19
645.29	378.43
645.64	377.71
645.98	376.29
646.32	375.86
646.66	375.38
647.01	374.00
647.35	373.76
647.69	373.10
648.04	372.62
648.38	371.57
648.72	370.52
649.06	368.90
649.41	367.10
649.75	366.57
650.09	366.00
650.43	364.81
650.78	363.10
651.12	362.33
651.46	361.05
651.80	359.90
652.14	358.62
652.49	358.81
652.83	357.00
653.17	355.90
653.51	353.90
653.85	353.00
654.20	352.29
654.54	350.48
654.88	348.62
655.22	346.81
655.56	345.29
655.90	344.19
656.25	343.43
656.59	342.62
656.93	341.43
657.27	340.71
657.61	340.10
657.95	339.76
658.29	338.86
658.64	338.71
658.98	337.67
659.32	337.48
659.66	335.90
660.00	335.48
660.34	335.14
660.68	334.57
661.02	333.76
661.36	332.38
661.70	332.05
662.05	331.95
662.39	332.48
662.73	332.67
663.07	333.52
663.41	333.19
663.75	332.10
664.09	331.71
664.43	330.05
664.77	329.67
665.11	328.67
665.45	327.95
665.79	327.24
666.13	326.67
666.47	325.24
666.81	324.38
667.15	323.38
667.49	322.48
667.83	322.71
668.17	321.48
668.51	321.19
668.85	320.76
669.19	320.90
669.53	319.33
669.87	318.00
670.21	316.19
670.55	315.62
670.89	316.29
671.23	315.52
671.57	315.43
671.91	314.95
672.25	314.29
672.58	314.90
672.92	313.38
673.26	312.71
673.60	312.43
673.94	311.95
674.28	311.71
674.62	311.38
674.96	310.52
675.30	310.19
675.64	310.00
675.97	309.24
676.31	308.05
676.65	307.33
676.99	307.48
677.33	306.52
677.67	305.81
678.01	304.43
678.34	303.90
678.68	303.67
679.02	302.67
679.36	302.00
679.70	300.71
680.04	300.81
680.37	300.29
680.71	299.81
681.05	299.67
681.39	298.86
681.73	298.05
682.06	296.86
682.40	296.62
682.74	296.38
683.08	296.43
683.42	296.10
683.75	296.57
684.09	295.48
684.43	295.48
684.77	295.14
685.10	294.38
685.44	293.90
685.78	293.33
686.12	293.00
686.45	292.81
686.79	292.14
687.13	291.81
687.46	291.57
687.80	292.05
688.14	291.14
688.48	291.33
688.81	291.10
689.15	291.67
689.49	290.95
689.82	290.48
690.16	289.43
690.50	289.10
690.83	288.14
691.17	287.38
691.51	286.95
691.84	286.57
692.18	286.29
692.52	285.90
692.85	286.00
693.19	286.67
693.52	285.95
693.86	285.33
694.20	285.05
694.53	284.86
694.87	283.71
695.21	283.48
695.54	282.71
695.88	281.62
696.21	280.43
696.55	280.62
696.88	280.05
697.22	279.71
697.56	279.43
697.89	278.90
698.23	278.95
698.56	278.19
698.90	278.00
699.23	277.81
699.57	277.52
699.90	276.62
700.24	275.57
700.58	275.95
700.91	276.52
701.25	278.14
701.58	279.05
701.92	280.19
702.25	280.48
702.59	280.67
702.92	281.57
703.26	282.14
703.59	282.62
703.93	285.38
704.26	286.24
704.60	286.71
704.93	287.33
705.26	287.52
705.60	288.67
705.93	288.38
706.27	289.38
706.60	290.24
706.94	291.76
707.27	291.90
707.61	292.10
707.94	291.71
708.27	289.81
708.61	288.81
708.94	288.19
709.28	287.81
709.61	287.38
709.94	287.19
710.28	286.67
710.61	285.67
710.95	282.48
711.28	283.29
711.61	282.29
711.95	281.52
712.28	280.76
712.61	279.52
712.95	280.29
713.28	280.29
713.61	279.05
713.95	277.38
714.28	276.62
714.61	275.38
714.95	274.57
715.28	273.48
715.61	272.67
715.95	271.81
716.28	271.10
716.61	270.43
716.95	269.19
717.28	268.81
717.61	268.00
717.94	267.67
718.28	265.57
718.61	265.10
718.94	264.62
719.27	264.19
719.61	263.90
719.94	263.00
720.27	261.48
720.60	261.24
720.94	260.76
721.27	260.62
721.60	260.95
721.93	260.76
722.27	261.43
722.60	261.52
722.93	260.86
723.26	260.43
723.59	260.33
723.93	260.43
724.26	259.95
724.59	259.86
724.92	259.90
725.25	260.24
725.59	259.86
725.92	260.05
726.25	260.00
726.58	260.24
726.91	260.00
727.24	260.29
727.57	260.19
727.91	259.76
728.24	259.95
728.57	259.48
728.90	260.05
729.23	259.57
729.56	260.33
729.89	260.62
730.22	260.71
730.55	260.48
730.89	260.62
731.22	260.71
731.55	260.57
731.88	260.81
732.21	259.86
732.54	259.52
732.87	259.38
733.20	259.38
733.53	258.81
733.86	258.67
734.19	258.10
734.52	257.95
734.85	259.71
735.18	259.24
735.51	259.95
735.84	259.48
736.17	259.67
736.50	258.48
736.83	261.10
737.16	261.05
737.49	261.10
737.82	260.76
738.15	260.76
738.48	260.57
738.81	259.52
739.14	259.38
739.47	259.81
739.80	259.67
740.13	260.05
740.46	259.81
740.79	259.33
741.12	259.33
741.45	258.95
741.78	257.43
742.11	257.95
742.44	257.33
742.77	257.67
743.10	257.19
743.43	256.95
743.75	254.00
744.08	256.81
744.41	256.67
744.74	256.38
745.07	255.90
745.40	256.38
745.73	257.62
746.06	258.00
746.39	257.71
746.71	257.52
747.04	256.86
747.37	256.86
747.70	257.48
748.03	257.24
748.36	257.86
748.68	257.76
749.01	257.10
749.34	256.76
749.67	256.52
750.00	256.62
750.33	258.38
750.65	258.90
750.98	255.90
751.31	256.00
751.64	256.10
751.97	257.14
752.29	256.76
752.62	255.67
752.95	255.05
753.28	254.95
753.60	255.05
753.93	255.33
754.26	255.33
754.59	254.29
754.91	254.19
755.24	253.29
755.57	252.95
755.90	252.81
756.22	252.52
756.55	252.05
756.88	251.62
757.20	249.86
757.53	248.76
757.86	248.90
758.19	248.81
758.51	248.67
758.84	247.38
759.17	247.24
759.49	247.48
759.82	249.05
760.15	249.24
760.47	248.90
760.80	248.38
761.13	248.81
761.45	248.71
761.78	248.86
762.11	249.14
762.43	249.05
762.76	249.05
763.08	249.43
763.41	249.43
763.74	249.67
764.06	249.48
764.39	249.67
764.71	249.43
765.04	249.14
765.37	248.76
765.69	248.81
766.02	248.90
766.34	248.57
766.67	247.24
767.00	247.48
767.32	248.76
767.65	250.19
767.97	249.67
768.30	249.81
768.62	249.52
768.95	249.33
769.27	249.00
769.60	249.14
769.92	248.43
770.25	248.05
770.57	247.67
770.90	247.81
771.22	247.62
771.55	247.67
771.87	247.95
772.20	248.24
772.52	250.10
772.85	252.86
773.17	253.00
773.50	252.90
773.82	252.24
774.15	251.24
774.47	249.76
774.80	249.57
775.12	249.71
775.45	249.67
775.77	249.71
776.09	250.00
776.42	250.00
776.74	250.71
777.07	250.62
777.39	250.43
777.72	249.81
778.04	249.86
778.36	249.48
778.69	249.43
779.01	249.14
779.33	247.38
779.66	244.62
779.98	244.29
780.31	244.24
780.63	245.57
780.95	245.48
781.28	245.19
781.60	244.90
781.92	244.67
782.25	244.71
782.57	244.52
782.89	244.62
783.22	244.19
783.54	243.57
783.86	243.67
784.19	243.71
784.51	244.62
784.83	244.52
785.16	244.38
785.48	244.29
785.80	244.57
786.12	244.57
786.45	244.57
786.77	245.14
787.09	245.14
787.42	244.00
787.74	243.86
788.06	244.05
788.38	244.48
788.71	244.38
789.03	244.14
789.35	244.62
789.67	244.19
789.99	244.86
790.32	244.95
790.64	245.19
790.96	247.05
791.28	245.95
791.61	245.71
791.93	245.71
792.25	245.52
792.57	247.38
792.89	246.81
793.21	246.67
793.54	245.95
793.86	245.57
