SpectraSuite Data File
++++++++++++++++++++++++++++++++++++
Date: Wed Nov 07 18:32:14 EST 2012
User: group
Dark Spectrum Present: No
Reference Spectrum Present: No
Number of Sampled Component Spectra: 1
Spectrometers: USB2E7196
Integration Time (usec): 1000000 (USB2E7196)
Spectra Averaged: 1 (USB2E7196)
Boxcar Smoothing: 10 (USB2E7196)
Correct for Electrical Dark: No (USB2E7196)
Strobe/Lamp Enabled: No (USB2E7196)
Correct for Detector Non-linearity: No (USB2E7196)
Correct for Stray Light: No (USB2E7196)
Number of Pixels in Processed Spectrum: 2048
>>>>>Begin Processed Spectral Data<<<<<
339.09	0.00
339.48	223.00
339.86	216.00
340.24	217.00
340.63	218.00
341.01	263.00
341.39	229.00
341.78	230.00
342.16	242.00
342.54	229.00
342.93	222.67
343.31	233.57
343.69	234.38
344.07	235.24
344.46	236.19
344.84	237.43
345.22	236.10
345.60	236.38
345.99	236.76
346.37	236.57
346.75	236.76
347.13	237.05
347.52	237.38
347.90	238.62
348.28	239.00
348.66	239.57
349.05	238.90
349.43	239.19
349.81	239.52
350.19	239.52
350.57	239.33
350.96	239.43
351.34	239.81
351.72	239.76
352.10	239.81
352.48	239.76
352.87	239.43
353.25	239.52
353.63	239.67
354.01	239.62
354.39	239.81
354.77	239.71
355.15	240.19
355.54	239.67
355.92	238.62
356.30	238.52
356.68	239.86
357.06	239.95
357.44	239.52
357.82	239.43
358.20	239.71
358.58	239.76
358.97	239.67
359.35	240.00
359.73	240.43
360.11	240.43
360.49	240.33
360.87	239.95
361.25	240.00
361.63	240.95
362.01	241.00
362.39	240.67
362.77	240.86
363.15	240.29
363.53	240.10
363.91	240.29
364.29	240.29
364.67	238.14
365.05	238.00
365.43	238.00
365.81	238.14
366.19	239.14
366.57	240.19
366.95	240.14
367.33	239.43
367.71	239.10
368.09	239.52
368.47	239.71
368.85	240.10
369.23	240.52
369.61	239.14
369.99	240.10
370.37	240.24
370.75	241.38
371.13	240.90
371.51	240.81
371.89	240.71
372.27	241.00
372.65	241.29
373.03	241.52
373.41	241.29
373.78	241.10
374.16	239.62
374.54	238.67
374.92	238.48
375.30	238.48
375.68	237.81
376.06	238.05
376.44	237.95
376.82	238.29
377.19	238.05
377.57	238.14
377.95	237.29
378.33	237.43
378.71	236.00
379.09	236.95
379.47	237.48
379.84	237.48
380.22	236.90
380.60	236.38
380.98	236.05
381.36	236.14
381.73	235.90
382.11	236.62
382.49	236.71
382.87	236.62
383.25	237.00
383.62	240.00
384.00	239.24
384.38	239.29
384.76	239.43
385.13	240.67
385.51	240.86
385.89	240.38
386.27	240.52
386.64	241.10
387.02	240.86
387.40	240.86
387.78	241.33
388.15	241.71
388.53	241.81
388.91	242.14
389.29	242.19
389.66	242.71
390.04	242.00
390.42	242.62
390.79	242.81
391.17	242.81
391.55	240.43
391.92	240.52
392.30	240.67
392.68	240.33
393.05	239.95
393.43	240.29
393.81	240.62
394.18	240.14
394.56	240.05
394.94	240.38
395.31	240.00
395.69	240.38
396.06	240.95
396.44	240.52
396.82	240.24
397.19	241.43
397.57	241.24
397.95	241.90
398.32	241.43
398.70	241.67
399.07	242.24
399.45	242.19
399.82	242.33
400.20	242.05
400.58	241.95
400.95	240.86
401.33	241.14
401.70	242.71
402.08	243.29
402.45	243.57
402.83	244.14
403.20	244.43
403.58	244.43
403.95	244.38
404.33	245.52
404.71	245.86
405.08	247.33
405.46	247.76
405.83	248.29
406.21	248.33
406.58	248.86
406.96	249.00
407.33	249.95
407.70	250.81
408.08	253.43
408.45	254.48
408.83	255.90
409.20	256.14
409.58	255.57
409.95	256.29
410.33	257.29
410.70	257.19
411.08	258.29
411.45	259.29
411.82	260.19
412.20	261.86
412.57	264.62
412.95	263.86
413.32	266.10
413.69	267.33
414.07	269.38
414.44	271.43
414.82	273.48
415.19	275.62
415.56	277.76
415.94	279.05
416.31	282.19
416.68	285.19
417.06	288.62
417.43	292.48
417.81	296.38
418.18	300.00
418.55	304.24
418.93	308.71
419.30	312.81
419.67	317.86
420.04	322.38
420.42	326.29
420.79	334.19
421.16	339.38
421.54	346.76
421.91	352.67
422.28	358.57
422.66	365.29
423.03	373.29
423.40	380.19
423.77	387.19
424.15	394.24
424.52	402.10
424.89	410.86
425.26	418.48
425.64	425.95
426.01	434.14
426.38	442.67
426.75	451.62
427.13	461.19
427.50	470.10
427.87	480.05
428.24	490.24
428.61	497.95
428.99	509.29
429.36	519.86
429.73	531.14
430.10	543.81
430.47	556.05
430.85	566.86
431.22	580.14
431.59	596.62
431.96	609.57
432.33	623.86
432.70	637.19
433.08	653.05
433.45	668.90
433.82	684.71
434.19	702.38
434.56	718.05
434.93	733.19
435.30	749.00
435.68	766.10
436.05	782.48
436.42	799.67
436.79	814.86
437.16	831.19
437.53	849.14
437.90	865.29
438.27	882.29
438.64	899.19
439.01	914.76
439.38	925.86
439.75	938.43
440.13	953.62
440.50	968.90
440.87	980.86
441.24	992.19
441.61	1005.10
441.98	1013.52
442.35	1025.19
442.72	1036.95
443.09	1049.00
443.46	1054.43
443.83	1059.29
444.20	1061.71
444.57	1065.71
444.94	1066.29
445.31	1067.48
445.68	1072.43
446.05	1071.43
446.42	1067.76
446.79	1065.10
447.16	1061.57
447.53	1059.62
447.90	1051.43
448.27	1042.05
448.64	1032.10
449.01	1025.43
449.37	1012.67
449.74	1000.76
450.11	989.57
450.48	973.10
450.85	955.62
451.22	942.14
451.59	929.14
451.96	917.14
452.33	902.19
452.70	888.76
453.07	871.48
453.43	850.24
453.80	833.71
454.17	818.71
454.54	802.90
454.91	787.52
455.28	772.19
455.65	757.52
456.02	748.90
456.38	736.14
456.75	720.38
457.12	707.52
457.49	695.14
457.86	680.29
458.23	672.05
458.59	661.95
458.96	651.14
459.33	640.76
459.70	630.71
460.07	622.05
460.43	612.57
460.80	604.81
461.17	597.43
461.54	590.29
461.91	582.14
462.27	574.76
462.64	568.19
463.01	561.10
463.38	555.24
463.74	543.14
464.11	537.10
464.48	531.67
464.85	526.14
465.21	523.05
465.58	519.05
465.95	512.81
466.32	508.29
466.68	503.57
467.05	498.95
467.42	494.33
467.78	489.38
468.15	485.05
468.52	481.86
468.88	477.67
469.25	472.86
469.62	471.14
469.98	467.67
470.35	464.05
470.72	461.14
471.08	456.71
471.45	454.33
471.82	452.62
472.18	449.24
472.55	447.62
472.92	443.48
473.28	440.95
473.65	437.57
474.02	435.24
474.38	433.81
474.75	431.76
475.11	429.90
475.48	428.76
475.85	427.14
476.21	425.10
476.58	424.43
476.94	424.00
477.31	422.24
477.67	421.05
478.04	420.10
478.41	419.38
478.77	421.05
479.14	420.57
479.50	419.24
479.87	419.43
480.23	418.71
480.60	418.90
480.96	418.81
481.33	420.90
481.69	421.19
482.06	421.52
482.42	422.86
482.79	424.10
483.15	424.95
483.52	426.71
483.88	427.71
484.25	428.38
484.61	429.52
484.98	430.86
485.34	433.62
485.71	434.86
486.07	436.24
486.44	436.29
486.80	437.57
487.17	439.33
487.53	441.67
487.90	443.76
488.26	446.86
488.62	448.57
488.99	448.71
489.35	450.48
489.72	451.95
490.08	452.95
490.44	454.10
490.81	456.48
491.17	458.29
491.54	460.48
491.90	462.76
492.26	464.90
492.63	467.14
492.99	468.48
493.36	472.00
493.72	474.95
494.08	478.05
494.45	481.90
494.81	484.86
495.17	487.95
495.54	491.29
495.90	493.81
496.26	497.00
496.63	501.29
496.99	505.05
497.35	508.95
497.72	513.19
498.08	517.29
498.44	520.43
498.80	525.14
499.17	529.14
499.53	533.76
499.89	538.62
500.26	543.19
500.62	547.81
500.98	552.43
501.34	556.71
501.71	562.05
502.07	566.48
502.43	571.19
502.79	575.43
503.16	580.24
503.52	585.48
503.88	590.90
504.24	596.81
504.60	602.00
504.97	608.10
505.33	613.43
505.69	619.71
506.05	625.62
506.41	630.19
506.78	635.19
507.14	640.14
507.50	645.19
507.86	650.76
508.22	656.76
508.59	661.95
508.95	667.86
509.31	673.76
509.67	679.14
510.03	684.43
510.39	690.29
510.75	694.76
511.12	699.57
511.48	704.19
511.84	708.14
512.20	712.48
512.56	717.43
512.92	722.57
513.28	727.29
513.64	732.14
514.00	737.10
514.37	742.00
514.73	747.14
515.09	751.67
515.45	755.48
515.81	759.10
516.17	763.00
516.53	765.76
516.89	768.29
517.25	771.76
517.61	776.90
517.97	780.24
518.33	784.62
518.69	787.95
519.05	791.95
519.41	795.38
519.77	800.86
520.13	803.86
520.49	806.71
520.85	809.33
521.21	813.43
521.57	816.57
521.93	819.67
522.29	822.19
522.65	824.38
523.01	827.57
523.37	829.48
523.73	831.43
524.09	834.67
524.45	837.10
524.81	839.67
525.17	841.38
525.53	842.57
525.89	845.24
526.25	847.86
526.61	849.05
526.97	851.05
527.33	851.71
527.68	855.62
528.04	857.00
528.40	858.71
528.76	859.81
529.12	860.81
529.48	862.14
529.84	863.00
530.20	865.19
530.56	866.90
530.91	868.95
531.27	870.90
531.63	872.10
531.99	873.57
532.35	874.33
532.71	874.52
533.07	876.24
533.42	878.86
533.78	879.48
534.14	880.48
534.50	881.24
534.86	883.19
535.21	881.86
535.57	884.52
535.93	885.24
536.29	887.29
536.65	889.14
537.00	890.90
537.36	892.76
537.72	894.29
538.08	896.14
538.44	898.10
538.79	900.52
539.15	902.38
539.51	904.24
539.87	906.86
540.22	910.05
540.58	912.29
540.94	912.48
541.29	915.00
541.65	917.33
542.01	919.86
542.37	921.33
542.72	922.10
543.08	921.57
543.44	922.71
543.79	921.14
544.15	920.62
544.51	920.90
544.87	920.14
545.22	918.43
545.58	916.10
545.94	914.62
546.29	912.43
546.65	910.19
547.01	907.43
547.36	904.76
547.72	901.81
548.07	899.33
548.43	896.24
548.79	892.67
549.14	889.00
549.50	886.38
549.86	882.05
550.21	880.10
550.57	877.81
550.92	874.24
551.28	872.33
551.64	870.38
551.99	867.48
552.35	864.76
552.70	863.24
553.06	861.90
553.41	860.00
553.77	859.33
554.13	857.29
554.48	856.52
554.84	854.67
555.19	852.62
555.55	852.14
555.90	850.67
556.26	848.43
556.61	846.90
556.97	843.38
557.32	841.38
557.68	838.38
558.03	836.76
558.39	835.19
558.74	833.19
559.10	831.05
559.45	829.10
559.81	827.38
560.16	825.19
560.52	822.90
560.87	820.95
561.23	818.29
561.58	819.43
561.94	816.10
562.29	814.57
562.64	813.29
563.00	810.14
563.35	807.95
563.71	806.67
564.06	805.86
564.42	804.48
564.77	802.95
565.12	801.76
565.48	802.10
565.83	801.29
566.19	799.81
566.54	798.48
566.89	797.43
567.25	796.67
567.60	796.76
567.96	798.00
568.31	798.33
568.66	797.29
569.02	793.95
569.37	793.86
569.72	792.48
570.08	791.48
570.43	790.52
570.78	788.86
571.14	787.81
571.49	785.76
571.84	786.10
572.20	785.38
572.55	784.71
572.90	781.48
573.26	780.00
573.61	778.10
573.96	776.71
574.31	775.90
574.67	774.38
575.02	771.52
575.37	768.19
575.72	765.10
576.08	763.71
576.43	761.67
576.78	759.33
577.13	757.67
577.49	755.38
577.84	754.19
578.19	752.57
578.54	751.38
578.90	750.43
579.25	748.52
579.60	746.57
579.95	744.62
580.30	743.05
580.66	742.29
581.01	741.19
581.36	740.05
581.71	737.86
582.06	738.05
582.42	737.62
582.77	735.52
583.12	733.81
583.47	731.76
583.82	730.90
584.17	730.24
584.53	729.52
584.88	727.57
585.23	725.90
585.58	724.48
585.93	721.67
586.28	719.62
586.63	717.29
586.98	716.43
587.34	715.05
587.69	712.62
588.04	709.24
588.39	707.00
588.74	704.10
589.09	702.33
589.44	698.48
589.79	694.24
590.14	691.10
590.49	687.95
590.84	684.43
591.19	681.38
591.54	677.95
591.89	673.76
592.25	673.00
592.60	669.62
592.95	667.48
593.30	664.95
593.65	661.29
594.00	657.67
594.35	660.14
594.70	656.24
595.05	653.90
595.40	651.62
595.75	648.43
596.10	646.05
596.45	642.33
596.80	639.57
597.15	637.43
597.50	634.76
597.85	633.29
598.19	630.57
598.54	627.67
598.89	624.33
599.24	622.10
599.59	618.19
599.94	615.19
600.29	612.14
600.64	609.90
600.99	608.95
601.34	607.33
601.69	598.71
602.04	596.81
602.39	593.48
602.74	591.19
603.08	589.38
603.43	587.81
603.78	585.86
604.13	582.95
604.48	581.48
604.83	581.10
605.18	579.62
605.53	581.14
605.87	583.05
606.22	586.95
606.57	591.81
606.92	596.48
607.27	602.57
607.62	608.48
607.96	613.95
608.31	617.48
608.66	621.33
609.01	625.00
609.36	628.38
609.70	632.43
610.05	635.62
610.40	639.19
610.75	640.95
611.10	643.76
611.44	646.33
611.79	646.86
612.14	646.29
612.49	644.52
612.83	640.90
613.18	636.43
613.53	631.00
613.88	623.76
614.22	615.86
614.57	607.10
614.92	598.33
615.27	590.76
615.61	583.19
615.96	576.10
616.31	569.76
616.65	564.05
617.00	557.76
617.35	551.52
617.70	545.05
618.04	539.48
618.39	533.38
618.74	529.05
619.08	525.10
619.43	521.76
619.78	519.33
620.12	516.10
620.47	513.05
620.82	509.95
621.16	507.19
621.51	506.14
621.85	503.52
622.20	501.14
622.55	497.52
622.89	496.00
623.24	494.14
623.59	491.00
623.93	488.48
624.28	486.48
624.62	486.48
624.97	485.62
625.32	483.29
625.66	481.33
626.01	478.62
626.35	476.86
626.70	475.14
627.04	473.48
627.39	472.29
627.73	472.00
628.08	470.33
628.43	468.24
628.77	464.71
629.12	463.10
629.46	461.38
629.81	459.86
630.15	457.24
630.50	454.57
630.84	452.76
631.19	450.67
631.53	448.52
631.88	443.81
632.22	440.00
632.57	438.38
632.91	436.33
633.26	434.52
633.60	431.67
633.95	428.71
634.29	425.86
634.64	423.43
634.98	420.10
635.32	418.33
635.67	416.57
636.01	414.71
636.36	412.57
636.70	411.52
637.05	409.57
637.39	407.71
637.73	406.76
638.08	405.33
638.42	403.29
638.77	401.48
639.11	399.90
639.45	398.29
639.80	396.24
640.14	395.05
640.49	393.10
640.83	391.71
641.17	390.95
641.52	389.00
641.86	387.86
642.20	387.76
642.55	385.81
642.89	384.57
643.23	383.43
643.58	382.90
643.92	380.43
644.26	379.48
644.61	379.05
644.95	377.52
645.29	376.19
645.64	376.48
645.98	375.10
646.32	375.10
646.66	374.29
647.01	373.24
647.35	372.33
647.69	371.57
648.04	370.90
648.38	369.38
648.72	369.19
649.06	367.95
649.41	365.76
649.75	364.76
650.09	364.14
650.43	363.19
650.78	361.57
651.12	360.71
651.46	359.43
651.80	358.05
652.14	356.48
652.49	356.24
652.83	354.14
653.17	353.62
653.51	351.86
653.85	351.33
654.20	350.48
654.54	348.95
654.88	347.67
655.22	346.38
655.56	345.14
655.90	343.81
656.25	342.90
656.59	342.14
656.93	341.48
657.27	340.52
657.61	339.00
657.95	338.24
658.29	337.71
658.64	337.86
658.98	336.81
659.32	336.14
659.66	334.62
660.00	334.14
660.34	333.52
660.68	333.14
661.02	332.14
661.36	331.24
661.70	330.33
662.05	329.57
662.39	330.10
662.73	330.67
663.07	331.86
663.41	331.19
663.75	330.14
664.09	329.67
664.43	328.67
664.77	328.43
665.11	327.10
665.45	326.19
665.79	325.48
666.13	324.62
666.47	323.86
666.81	323.76
667.15	322.67
667.49	321.71
667.83	321.67
668.17	320.52
668.51	319.76
668.85	319.29
669.19	319.57
669.53	317.95
669.87	316.90
670.21	314.95
670.55	314.29
670.89	314.90
671.23	314.10
671.57	313.24
671.91	312.81
672.25	313.00
672.58	313.48
672.92	312.05
673.26	311.43
673.60	311.00
673.94	310.38
674.28	310.00
674.62	309.57
674.96	308.62
675.30	308.76
675.64	308.29
675.97	307.81
676.31	306.38
676.65	305.48
676.99	305.29
677.33	304.38
677.67	304.14
678.01	302.52
678.34	302.29
678.68	302.43
679.02	301.71
679.36	301.29
679.70	300.14
680.04	300.33
680.37	300.52
680.71	300.14
681.05	299.67
681.39	299.05
681.73	298.57
682.06	297.62
682.40	297.10
682.74	297.33
683.08	298.29
683.42	297.95
683.75	298.38
684.09	297.24
684.43	297.00
684.77	296.43
685.10	296.05
685.44	295.52
685.78	294.86
686.12	294.57
686.45	293.86
686.79	292.95
687.13	292.48
687.46	291.67
687.80	292.14
688.14	291.38
688.48	291.10
688.81	291.14
689.15	291.48
689.49	290.76
689.82	290.14
690.16	288.57
690.50	288.00
690.83	287.05
691.17	286.38
691.51	286.00
691.84	285.76
692.18	285.24
692.52	284.52
692.85	284.19
693.19	284.57
693.52	284.14
693.86	283.71
694.20	283.33
694.53	283.19
694.87	282.48
695.21	281.81
695.54	281.57
695.88	280.52
696.21	279.00
696.55	278.52
696.88	278.00
697.22	277.33
697.56	277.33
697.89	276.71
698.23	276.81
698.56	276.48
698.90	276.33
699.23	275.90
699.57	275.76
699.90	275.62
700.24	274.48
700.58	274.52
700.91	275.05
701.25	276.76
701.58	277.48
701.92	277.95
702.25	278.52
702.59	278.57
702.92	279.38
703.26	280.33
703.59	280.86
703.93	283.29
704.26	284.14
704.60	285.29
704.93	285.95
705.26	286.19
705.60	286.95
705.93	287.19
706.27	288.38
706.60	289.62
706.94	290.76
707.27	291.33
707.61	291.90
707.94	292.05
708.27	290.24
708.61	289.48
708.94	288.95
709.28	288.57
709.61	288.00
709.94	287.33
710.28	286.67
710.61	286.24
710.95	283.38
711.28	284.10
711.61	282.43
711.95	282.14
712.28	280.95
712.61	279.90
712.95	280.10
713.28	280.33
713.61	278.62
713.95	276.76
714.28	275.86
714.61	274.48
714.95	273.14
715.28	271.95
715.61	270.90
715.95	270.29
716.28	269.57
716.61	269.33
716.95	268.62
717.28	268.00
717.61	267.52
717.94	267.24
718.28	265.00
718.61	264.67
718.94	263.86
719.27	263.90
719.61	263.86
719.94	262.76
720.27	261.19
720.60	260.86
720.94	260.81
721.27	260.81
721.60	261.24
721.93	261.19
722.27	261.86
722.60	262.00
722.93	261.19
723.26	261.10
723.59	260.71
723.93	260.67
724.26	261.00
724.59	260.38
724.92	259.90
725.25	260.29
725.59	259.86
725.92	260.14
726.25	259.86
726.58	259.52
726.91	259.24
727.24	259.29
727.57	258.95
727.91	258.38
728.24	258.19
728.57	257.71
728.90	257.86
729.23	256.86
729.56	258.00
729.89	258.10
730.22	258.05
730.55	257.76
730.89	258.00
731.22	257.76
731.55	257.76
731.88	258.19
732.21	257.81
732.54	257.90
732.87	257.52
733.20	257.38
733.53	257.52
733.86	257.67
734.19	257.19
734.52	257.90
734.85	259.48
735.18	259.24
735.51	260.19
735.84	260.38
736.17	261.14
736.50	259.71
736.83	262.81
737.16	262.62
737.49	262.86
737.82	262.24
738.15	262.14
738.48	262.24
738.81	261.90
739.14	261.57
739.47	261.48
739.80	261.33
740.13	261.43
740.46	260.81
740.79	260.33
741.12	260.52
741.45	260.05
741.78	258.52
742.11	259.14
742.44	257.90
742.77	257.81
743.10	257.33
743.43	257.00
743.75	253.90
744.08	257.00
744.41	256.90
744.74	256.86
745.07	256.43
745.40	256.71
745.73	257.67
746.06	257.67
746.39	257.71
746.71	257.57
747.04	257.19
747.37	257.05
747.70	257.43
748.03	257.29
748.36	257.29
748.68	257.29
749.01	256.52
749.34	256.76
749.67	256.71
750.00	256.95
750.33	258.86
750.65	259.29
750.98	256.00
751.31	255.76
751.64	255.90
751.97	257.10
752.29	256.48
752.62	255.29
752.95	255.14
753.28	254.71
753.60	254.29
753.93	254.67
754.26	254.86
754.59	254.00
754.91	253.86
755.24	253.76
755.57	253.67
755.90	253.52
756.22	252.95
756.55	252.57
756.88	251.81
757.20	250.24
757.53	249.19
757.86	249.29
758.19	249.38
758.51	249.14
758.84	248.00
759.17	247.95
759.49	248.00
759.82	248.95
760.15	249.33
760.47	249.62
760.80	249.10
761.13	249.43
761.45	249.19
761.78	248.86
762.11	248.86
762.43	248.67
762.76	248.48
763.08	248.86
763.41	249.10
763.74	249.24
764.06	249.19
764.39	249.57
764.71	249.52
765.04	249.33
765.37	249.14
765.69	248.67
766.02	248.48
766.34	248.14
766.67	247.14
767.00	247.48
767.32	248.71
767.65	250.14
767.97	249.52
768.30	249.81
768.62	250.00
768.95	249.43
769.27	249.14
769.60	249.57
769.92	249.24
770.25	248.57
770.57	248.33
770.90	248.29
771.22	247.86
771.55	247.95
771.87	247.81
772.20	247.48
772.52	250.14
772.85	253.19
773.17	253.19
773.50	253.10
773.82	252.57
774.15	251.33
774.47	249.86
774.80	249.81
775.12	249.81
775.45	249.57
775.77	249.67
776.09	249.81
776.42	249.81
776.74	250.43
777.07	250.33
777.39	250.48
777.72	250.00
778.04	250.43
778.36	250.05
778.69	250.29
779.01	250.86
779.33	248.29
779.66	245.52
779.98	245.19
780.31	245.38
780.63	246.43
780.95	246.67
781.28	246.43
781.60	246.29
781.92	246.19
782.25	246.33
782.57	246.62
782.89	246.48
783.22	246.14
783.54	245.19
783.86	245.57
784.19	244.95
784.51	245.71
784.83	245.38
785.16	245.10
785.48	244.76
785.80	244.57
786.12	244.90
786.45	245.00
786.77	245.24
787.09	245.10
787.42	244.14
787.74	244.29
788.06	244.38
788.38	244.19
788.71	243.90
789.03	243.81
789.35	244.05
789.67	243.90
789.99	244.05
790.32	244.19
790.64	243.95
790.96	246.19
791.28	245.24
791.61	245.05
791.93	245.71
792.25	245.76
792.57	247.29
792.89	246.67
793.21	247.00
793.54	246.76
793.86	246.19
