SpectraSuite Data File
++++++++++++++++++++++++++++++++++++
Date: Wed Nov 07 18:31:20 EST 2012
User: group
Dark Spectrum Present: No
Reference Spectrum Present: No
Number of Sampled Component Spectra: 1
Spectrometers: USB2E7196
Integration Time (usec): 1000000 (USB2E7196)
Spectra Averaged: 1 (USB2E7196)
Boxcar Smoothing: 10 (USB2E7196)
Correct for Electrical Dark: No (USB2E7196)
Strobe/Lamp Enabled: No (USB2E7196)
Correct for Detector Non-linearity: No (USB2E7196)
Correct for Stray Light: No (USB2E7196)
Number of Pixels in Processed Spectrum: 2048
>>>>>Begin Processed Spectral Data<<<<<
339.09	0.00
339.48	227.00
339.86	223.00
340.24	224.00
340.63	226.00
341.01	266.00
341.39	225.00
341.78	234.00
342.16	237.00
342.54	228.00
342.93	223.00
343.31	234.10
343.69	234.00
344.07	234.38
344.46	235.00
344.84	235.62
345.22	234.05
345.60	234.71
345.99	234.86
346.37	234.76
346.75	234.81
347.13	234.57
347.52	234.48
347.90	235.57
348.28	235.10
348.66	235.48
349.05	234.71
349.43	235.10
349.81	235.38
350.19	235.19
350.57	235.38
350.96	235.24
351.34	235.43
351.72	235.76
352.10	235.95
352.48	235.71
352.87	235.52
353.25	235.67
353.63	235.00
354.01	234.76
354.39	235.10
354.77	235.38
355.15	235.90
355.54	235.86
355.92	235.05
356.30	235.24
356.68	236.62
357.06	236.86
357.44	236.29
357.82	236.48
358.20	236.95
358.58	237.00
358.97	237.62
359.35	238.10
359.73	238.57
360.11	238.48
360.49	238.71
360.87	238.76
361.25	239.10
361.63	240.38
362.01	240.57
362.39	240.05
362.77	240.33
363.15	240.52
363.53	240.86
363.91	240.95
364.29	241.10
364.67	238.90
365.05	239.00
365.43	239.62
365.81	239.86
366.19	241.24
366.57	242.52
366.95	242.43
367.33	241.52
367.71	241.57
368.09	242.24
368.47	242.38
368.85	242.33
369.23	242.71
369.61	241.71
369.99	242.86
370.37	243.33
370.75	244.29
371.13	243.76
371.51	243.14
371.89	243.29
372.27	243.29
372.65	243.67
373.03	243.57
373.41	243.71
373.78	243.81
374.16	242.38
374.54	241.43
374.92	240.86
375.30	241.24
375.68	240.71
376.06	240.38
376.44	239.90
376.82	240.14
377.19	240.10
377.57	240.24
377.95	239.19
378.33	238.90
378.71	237.81
379.09	238.48
379.47	239.19
379.84	238.90
380.22	239.24
380.60	238.52
380.98	238.48
381.36	237.90
381.73	237.38
382.11	237.48
382.49	237.67
382.87	237.67
383.25	237.76
383.62	240.76
384.00	240.43
384.38	240.43
384.76	240.95
385.13	241.81
385.51	241.76
385.89	241.67
386.27	241.86
386.64	242.38
387.02	242.14
387.40	241.90
387.78	242.24
388.15	242.00
388.53	242.05
388.91	242.24
389.29	242.00
389.66	242.43
390.04	242.52
390.42	242.90
390.79	243.14
391.17	243.10
391.55	240.48
391.92	240.57
392.30	241.48
392.68	240.62
393.05	240.48
393.43	240.57
393.81	240.67
394.18	240.14
394.56	239.86
394.94	240.19
395.31	239.67
395.69	240.43
396.06	240.86
396.44	241.48
396.82	241.10
397.19	242.43
397.57	242.00
397.95	242.33
398.32	241.62
398.70	242.14
399.07	242.86
399.45	242.67
399.82	243.19
400.20	242.48
400.58	242.57
400.95	241.57
401.33	242.29
401.70	244.19
402.08	244.81
402.45	244.86
402.83	245.67
403.20	246.19
403.58	245.62
403.95	246.24
404.33	246.71
404.71	247.00
405.08	248.67
405.46	249.33
405.83	249.76
406.21	250.05
406.58	250.00
406.96	250.14
407.33	250.90
407.70	251.57
408.08	254.24
408.45	255.48
408.83	256.52
409.20	256.67
409.58	255.71
409.95	256.86
410.33	257.90
410.70	257.90
411.08	259.29
411.45	260.67
411.82	261.14
412.20	262.95
412.57	265.67
412.95	265.05
413.32	266.81
413.69	268.14
414.07	269.95
414.44	271.81
414.82	274.19
415.19	276.76
415.56	278.71
415.94	279.67
416.31	282.62
416.68	285.71
417.06	289.62
417.43	293.38
417.81	297.00
418.18	300.81
418.55	304.62
418.93	308.76
419.30	313.33
419.67	318.19
420.04	322.33
420.42	326.67
420.79	334.52
421.16	340.29
421.54	347.95
421.91	354.86
422.28	361.24
422.66	367.90
423.03	376.52
423.40	383.00
423.77	390.38
424.15	397.24
424.52	404.81
424.89	413.29
425.26	420.86
425.64	428.43
426.01	436.62
426.38	445.38
426.75	454.62
427.13	463.76
427.50	473.05
427.87	482.76
428.24	493.00
428.61	500.90
428.99	512.10
429.36	521.43
429.73	532.14
430.10	543.86
430.47	555.67
430.85	565.33
431.22	578.52
431.59	594.29
431.96	607.95
432.33	622.76
432.70	636.71
433.08	653.43
433.45	669.14
433.82	684.67
434.19	702.33
434.56	718.90
434.93	734.10
435.30	749.38
435.68	766.95
436.05	782.62
436.42	798.57
436.79	814.38
437.16	831.05
437.53	848.38
437.90	865.19
438.27	881.57
438.64	898.95
439.01	914.67
439.38	926.81
439.75	939.90
440.13	954.19
440.50	968.19
440.87	979.86
441.24	989.95
441.61	1002.48
441.98	1010.81
442.35	1020.76
442.72	1030.76
443.09	1042.52
443.46	1048.00
443.83	1051.95
444.20	1055.19
444.57	1058.33
444.94	1060.67
445.31	1062.00
445.68	1067.14
446.05	1066.19
446.42	1062.86
446.79	1059.81
447.16	1055.14
447.53	1051.71
447.90	1044.24
448.27	1035.90
448.64	1024.81
449.01	1018.33
449.37	1006.00
449.74	994.38
450.11	982.95
450.48	967.71
450.85	950.95
451.22	937.48
451.59	925.57
451.96	913.38
452.33	898.24
452.70	882.71
453.07	865.71
453.43	844.76
453.80	829.29
454.17	813.90
454.54	798.48
454.91	783.38
455.28	767.90
455.65	752.76
456.02	742.76
456.38	730.52
456.75	715.48
457.12	702.48
457.49	690.19
457.86	675.71
458.23	667.29
458.59	656.48
458.96	645.71
459.33	636.00
459.70	626.29
460.07	618.14
460.43	609.29
460.80	601.00
461.17	593.33
461.54	585.52
461.91	578.05
462.27	570.67
462.64	564.10
463.01	557.71
463.38	552.86
463.74	542.10
464.11	536.38
464.48	531.48
464.85	526.33
465.21	522.62
465.58	518.90
465.95	512.38
466.32	508.24
466.68	503.19
467.05	498.19
467.42	493.76
467.78	489.10
468.15	485.19
468.52	482.43
468.88	478.29
469.25	473.67
469.62	470.76
469.98	467.57
470.35	464.05
470.72	460.90
471.08	456.10
471.45	453.81
471.82	452.00
472.18	449.10
472.55	446.90
472.92	443.19
473.28	440.14
473.65	437.48
474.02	434.86
474.38	433.71
474.75	431.67
475.11	429.52
475.48	428.10
475.85	426.81
476.21	424.90
476.58	423.62
476.94	422.62
477.31	421.33
477.67	419.90
478.04	418.90
478.41	418.29
478.77	420.62
479.14	419.43
479.50	418.38
479.87	418.14
480.23	417.76
480.60	417.90
480.96	418.29
481.33	419.95
481.69	420.24
482.06	420.43
482.42	421.62
482.79	422.62
483.15	422.95
483.52	424.19
483.88	424.86
484.25	426.33
484.61	427.86
484.98	429.14
485.34	431.62
485.71	434.24
486.07	435.86
486.44	435.00
486.80	436.38
487.17	437.62
487.53	439.71
487.90	441.86
488.26	444.05
488.62	446.29
488.99	447.38
489.35	449.71
489.72	451.57
490.08	452.90
490.44	454.43
490.81	457.00
491.17	458.10
491.54	460.90
491.90	463.52
492.26	466.05
492.63	468.05
492.99	469.48
493.36	471.86
493.72	474.67
494.08	477.62
494.45	480.71
494.81	484.57
495.17	486.95
495.54	490.38
495.90	493.90
496.26	497.33
496.63	500.71
496.99	504.33
497.35	507.43
497.72	511.14
498.08	515.33
498.44	519.29
498.80	523.95
499.17	527.62
499.53	531.29
499.89	535.95
500.26	540.76
500.62	545.86
500.98	550.14
501.34	554.52
501.71	559.95
502.07	564.81
502.43	568.52
502.79	573.38
503.16	577.57
503.52	582.24
503.88	586.38
504.24	591.95
504.60	596.90
504.97	602.48
505.33	608.24
505.69	614.24
506.05	619.57
506.41	624.81
506.78	629.90
507.14	635.14
507.50	639.81
507.86	645.05
508.22	650.43
508.59	655.90
508.95	661.19
509.31	667.00
509.67	671.81
510.03	677.33
510.39	682.05
510.75	687.67
511.12	691.71
511.48	697.19
511.84	701.48
512.20	706.86
512.56	712.19
512.92	716.62
513.28	720.43
513.64	724.81
514.00	729.33
514.37	734.86
514.73	739.24
515.09	744.29
515.45	747.76
515.81	751.33
516.17	754.90
516.53	759.00
516.89	761.10
517.25	765.29
517.61	769.19
517.97	773.71
518.33	777.52
518.69	781.86
519.05	786.10
519.41	789.95
519.77	794.33
520.13	797.71
520.49	800.57
520.85	804.43
521.21	808.76
521.57	811.62
521.93	813.48
522.29	816.38
522.65	817.86
523.01	821.14
523.37	824.10
523.73	826.57
524.09	828.43
524.45	831.24
524.81	832.71
525.17	835.29
525.53	837.43
525.89	840.24
526.25	842.43
526.61	842.81
526.97	844.43
527.33	845.14
527.68	848.43
528.04	850.90
528.40	851.95
528.76	852.38
529.12	854.24
529.48	855.95
529.84	856.81
530.20	858.29
530.56	860.14
530.91	861.71
531.27	862.62
531.63	863.67
531.99	864.24
532.35	866.52
532.71	866.90
533.07	867.90
533.42	870.43
533.78	871.00
534.14	873.24
534.50	874.19
534.86	875.76
535.21	874.57
535.57	876.14
535.93	876.52
536.29	878.33
536.65	879.71
537.00	881.19
537.36	883.95
537.72	887.33
538.08	890.52
538.44	892.48
538.79	895.86
539.15	898.76
539.51	901.95
539.87	904.95
540.22	908.10
540.58	911.19
540.94	911.90
541.29	916.14
541.65	918.14
542.01	921.00
542.37	922.71
542.72	925.10
543.08	925.24
543.44	926.43
543.79	925.81
544.15	926.00
544.51	926.38
544.87	925.05
545.22	922.57
545.58	919.19
545.94	916.95
546.29	914.24
546.65	911.67
547.01	908.43
547.36	904.67
547.72	900.90
548.07	897.33
548.43	892.67
548.79	887.33
549.14	882.95
549.50	880.10
549.86	875.57
550.21	871.71
550.57	868.71
550.92	864.95
551.28	863.33
551.64	860.05
551.99	857.62
552.35	854.48
552.70	852.00
553.06	850.29
553.41	848.29
553.77	847.43
554.13	845.14
554.48	843.33
554.84	841.14
555.19	839.14
555.55	839.19
555.90	837.67
556.26	836.57
556.61	834.62
556.97	830.86
557.32	828.81
557.68	827.00
558.03	825.71
558.39	824.24
558.74	821.14
559.10	819.00
559.45	817.24
559.81	816.33
560.16	814.43
560.52	812.33
560.87	811.24
561.23	808.48
561.58	809.24
561.94	806.90
562.29	804.81
562.64	804.43
563.00	800.57
563.35	798.76
563.71	796.67
564.06	794.90
564.42	794.14
564.77	792.90
565.12	792.43
565.48	792.43
565.83	791.76
566.19	790.76
566.54	790.14
566.89	788.14
567.25	787.00
567.60	787.14
567.96	788.00
568.31	787.81
568.66	787.29
569.02	783.67
569.37	782.90
569.72	782.38
570.08	780.33
570.43	778.29
570.78	776.95
571.14	774.71
571.49	774.67
571.84	773.33
572.20	772.38
572.55	770.33
572.90	767.19
573.26	765.57
573.61	764.00
573.96	762.43
574.31	760.48
574.67	758.57
575.02	756.33
575.37	753.00
575.72	750.10
576.08	747.95
576.43	746.67
576.78	745.00
577.13	743.57
577.49	741.95
577.84	741.38
578.19	740.52
578.54	739.48
578.90	737.43
579.25	736.29
579.60	735.24
579.95	733.76
580.30	732.00
580.66	731.10
581.01	729.71
581.36	728.24
581.71	727.62
582.06	727.52
582.42	726.38
582.77	724.52
583.12	723.33
583.47	722.29
583.82	721.33
584.17	719.86
584.53	718.86
584.88	717.62
585.23	716.33
585.58	714.00
585.93	712.00
586.28	710.43
586.63	708.52
586.98	706.81
587.34	704.71
587.69	702.43
588.04	699.10
588.39	696.76
588.74	693.76
589.09	691.24
589.44	686.95
589.79	684.10
590.14	681.81
590.49	677.76
590.84	674.33
591.19	670.57
591.54	667.90
591.89	664.29
592.25	663.10
592.60	658.48
592.95	655.81
593.30	653.48
593.65	649.86
594.00	646.00
594.35	648.52
594.70	645.10
595.05	642.62
595.40	640.33
595.75	637.43
596.10	635.24
596.45	632.71
596.80	630.29
597.15	627.81
597.50	624.10
597.85	622.81
598.19	620.10
598.54	617.43
598.89	614.62
599.24	612.14
599.59	607.48
599.94	605.71
600.29	603.19
600.64	601.00
600.99	599.14
601.34	597.48
601.69	589.05
602.04	587.10
602.39	584.29
602.74	582.57
603.08	580.43
603.43	579.57
603.78	577.33
604.13	575.76
604.48	573.29
604.83	572.90
605.18	571.81
605.53	571.86
605.87	574.14
606.22	577.05
606.57	580.71
606.92	585.38
607.27	590.14
607.62	596.19
607.96	601.00
608.31	605.33
608.66	608.71
609.01	611.90
609.36	614.71
609.70	618.05
610.05	620.00
610.40	623.38
610.75	624.14
611.10	625.81
611.44	626.86
611.79	627.71
612.14	627.43
612.49	625.86
612.83	623.38
613.18	618.43
613.53	613.38
613.88	607.24
614.22	599.76
614.57	592.19
614.92	583.38
615.27	575.90
615.61	568.43
615.96	561.95
616.31	556.29
616.65	550.71
617.00	544.76
617.35	538.71
617.70	532.33
618.04	527.05
618.39	521.48
618.74	517.57
619.08	513.33
619.43	509.90
619.78	506.76
620.12	504.10
620.47	501.90
620.82	498.86
621.16	495.86
621.51	495.19
621.85	493.10
622.20	491.38
622.55	488.38
622.89	485.71
623.24	483.71
623.59	480.57
623.93	478.62
624.28	476.52
624.62	477.86
624.97	477.90
625.32	476.05
625.66	474.48
626.01	472.05
626.35	470.43
626.70	468.62
627.04	467.67
627.39	465.71
627.73	464.76
628.08	463.43
628.43	461.43
628.77	457.67
629.12	455.62
629.46	453.57
629.81	451.95
630.15	450.43
630.50	448.33
630.84	446.86
631.19	444.38
631.53	442.05
631.88	436.90
632.22	432.57
632.57	430.90
632.91	428.62
633.26	426.76
633.60	424.10
633.95	421.86
634.29	418.57
634.64	416.38
634.98	413.67
635.32	411.43
635.67	410.14
636.01	408.33
636.36	406.43
636.70	404.95
637.05	403.10
637.39	401.24
637.73	399.71
638.08	398.19
638.42	396.48
638.77	395.62
639.11	394.38
639.45	392.95
639.80	391.14
640.14	390.38
640.49	388.48
640.83	387.38
641.17	386.00
641.52	384.48
641.86	383.71
642.20	382.76
642.55	381.05
642.89	379.19
643.23	378.24
643.58	378.00
643.92	375.86
644.26	375.10
644.61	374.57
644.95	373.71
645.29	372.24
645.64	372.24
645.98	371.24
646.32	371.00
646.66	370.33
647.01	369.24
647.35	368.29
647.69	368.38
648.04	368.05
648.38	367.52
648.72	367.14
649.06	365.57
649.41	364.52
649.75	363.52
650.09	363.24
650.43	362.00
650.78	360.48
651.12	359.43
651.46	358.19
651.80	356.76
652.14	355.52
652.49	355.38
652.83	353.38
653.17	352.38
653.51	350.71
653.85	349.76
654.20	348.71
654.54	347.10
654.88	345.00
655.22	343.33
655.56	341.67
655.90	340.67
656.25	340.14
656.59	339.00
656.93	338.29
657.27	338.10
657.61	337.43
657.95	336.67
658.29	335.81
658.64	335.90
658.98	335.10
659.32	333.95
659.66	332.57
660.00	332.57
660.34	331.38
660.68	330.57
661.02	329.62
661.36	328.95
661.70	328.24
662.05	327.48
662.39	327.62
662.73	327.62
663.07	328.52
663.41	328.00
663.75	326.81
664.09	326.14
664.43	324.33
664.77	324.00
665.11	322.81
665.45	322.52
665.79	321.71
666.13	321.14
666.47	320.71
666.81	319.90
667.15	318.29
667.49	317.86
667.83	318.05
668.17	317.43
668.51	316.95
668.85	316.67
669.19	317.29
669.53	315.71
669.87	314.43
670.21	312.48
670.55	311.62
670.89	312.10
671.23	311.57
671.57	310.90
671.91	310.10
672.25	309.95
672.58	310.38
672.92	308.81
673.26	308.38
673.60	307.86
673.94	307.62
674.28	307.71
674.62	307.62
674.96	306.52
675.30	306.29
675.64	305.48
675.97	304.48
676.31	303.14
676.65	302.76
676.99	303.00
677.33	302.24
677.67	301.71
678.01	300.14
678.34	300.10
678.68	300.24
679.02	299.43
679.36	298.62
679.70	297.00
680.04	296.67
680.37	295.90
680.71	295.29
681.05	294.76
681.39	294.19
681.73	293.29
682.06	292.57
682.40	291.81
682.74	292.05
683.08	292.76
683.42	292.38
683.75	292.76
684.09	292.00
684.43	291.62
684.77	291.24
685.10	291.19
685.44	290.95
685.78	290.19
686.12	289.95
686.45	289.57
686.79	289.57
687.13	289.95
687.46	289.57
687.80	289.95
688.14	289.52
688.48	289.33
688.81	288.86
689.15	289.14
689.49	288.86
689.82	288.52
690.16	287.19
690.50	286.67
690.83	285.71
691.17	285.05
691.51	284.67
691.84	284.29
692.18	283.90
692.52	283.05
692.85	283.24
693.19	283.62
693.52	283.14
693.86	282.43
694.20	281.81
694.53	281.52
694.87	280.48
695.21	280.00
695.54	279.38
695.88	279.10
696.21	278.00
696.55	277.86
696.88	277.10
697.22	276.86
697.56	276.81
697.89	276.29
698.23	276.57
698.56	276.05
698.90	275.90
699.23	275.71
699.57	275.62
699.90	274.76
700.24	274.24
700.58	274.57
700.91	275.33
701.25	277.38
701.58	278.19
701.92	279.19
702.25	279.10
702.59	279.10
702.92	279.71
703.26	280.38
703.59	280.71
703.93	282.90
704.26	283.86
704.60	284.38
704.93	284.86
705.26	284.81
705.60	286.10
705.93	285.81
706.27	286.86
706.60	287.67
706.94	289.33
707.27	288.95
707.61	289.10
707.94	288.95
708.27	287.10
708.61	286.24
708.94	285.81
709.28	285.86
709.61	285.57
709.94	284.86
710.28	284.38
710.61	283.86
710.95	281.14
711.28	282.00
711.61	281.10
711.95	281.14
712.28	280.00
712.61	278.90
712.95	279.81
713.28	279.33
713.61	277.95
713.95	275.71
714.28	275.14
714.61	274.29
714.95	272.90
715.28	271.71
715.61	271.10
715.95	270.33
716.28	269.29
716.61	268.90
716.95	268.05
717.28	267.33
717.61	266.86
717.94	266.76
718.28	264.38
718.61	263.67
718.94	262.62
719.27	262.67
719.61	262.38
719.94	261.43
720.27	260.14
720.60	259.52
720.94	259.57
721.27	259.52
721.60	259.76
721.93	259.76
722.27	260.38
722.60	260.57
722.93	260.38
723.26	260.57
723.59	260.48
723.93	260.67
724.26	261.05
724.59	260.81
724.92	260.71
725.25	261.24
725.59	261.43
725.92	261.86
726.25	261.33
726.58	261.24
726.91	260.76
727.24	261.05
727.57	261.24
727.91	261.10
728.24	261.24
728.57	260.38
728.90	260.48
729.23	259.62
729.56	260.71
729.89	260.43
730.22	260.10
730.55	259.57
730.89	259.43
731.22	258.95
731.55	258.76
731.88	258.71
732.21	258.10
732.54	257.86
732.87	257.57
733.20	257.67
733.53	257.52
733.86	257.71
734.19	257.52
734.52	257.62
734.85	259.33
735.18	259.33
735.51	260.48
735.84	260.71
736.17	261.29
736.50	259.57
736.83	262.10
737.16	262.19
737.49	262.24
737.82	262.10
738.15	262.48
738.48	262.52
738.81	262.14
739.14	261.76
739.47	261.52
739.80	261.76
740.13	262.14
740.46	261.57
740.79	260.95
741.12	260.81
741.45	260.48
741.78	258.62
742.11	258.71
742.44	257.62
742.77	257.52
743.10	256.86
743.43	256.71
743.75	254.24
744.08	257.24
744.41	257.05
744.74	256.62
745.07	255.90
745.40	255.90
745.73	256.76
746.06	256.57
746.39	256.86
746.71	256.19
747.04	255.76
747.37	255.86
747.70	256.62
748.03	256.62
748.36	256.81
748.68	256.86
749.01	255.90
749.34	255.95
749.67	255.71
750.00	256.38
750.33	258.19
750.65	258.00
750.98	255.33
751.31	255.19
751.64	255.19
751.97	256.52
752.29	256.33
752.62	255.10
752.95	254.90
753.28	254.14
753.60	254.00
753.93	254.48
754.26	254.67
754.59	253.57
754.91	253.19
755.24	252.62
755.57	252.14
755.90	252.33
756.22	252.19
756.55	251.67
756.88	250.86
757.20	249.00
757.53	248.48
757.86	248.10
758.19	248.43
758.51	248.86
758.84	247.24
759.17	246.81
759.49	246.90
759.82	248.29
760.15	248.90
760.47	248.95
760.80	248.33
761.13	248.67
761.45	248.67
761.78	248.38
762.11	248.57
762.43	248.62
762.76	248.33
763.08	248.48
763.41	248.86
763.74	248.81
764.06	248.90
764.39	249.05
764.71	248.81
765.04	248.38
765.37	247.90
765.69	248.10
766.02	248.14
766.34	247.86
766.67	246.81
767.00	247.33
767.32	248.57
767.65	249.86
767.97	249.57
768.30	249.52
768.62	249.81
768.95	249.57
769.27	249.57
769.60	250.48
769.92	250.14
770.25	249.67
770.57	249.05
770.90	248.95
771.22	248.67
771.55	248.52
771.87	248.57
772.20	248.67
772.52	250.95
772.85	253.90
773.17	254.43
773.50	254.29
773.82	253.52
774.15	252.00
774.47	250.71
774.80	250.14
775.12	250.33
775.45	250.00
775.77	250.24
776.09	250.48
776.42	250.10
776.74	250.95
777.07	250.95
777.39	251.33
777.72	251.10
778.04	251.57
778.36	251.00
778.69	251.19
779.01	251.14
779.33	248.67
779.66	245.62
779.98	244.95
780.31	244.81
780.63	245.67
780.95	246.19
781.28	245.90
781.60	245.81
781.92	245.76
782.25	245.71
782.57	246.00
782.89	245.71
783.22	245.33
783.54	244.57
783.86	244.43
784.19	244.19
784.51	244.81
784.83	244.10
785.16	244.86
785.48	244.52
785.80	244.76
786.12	245.29
786.45	245.57
786.77	246.00
787.09	246.05
787.42	245.29
787.74	245.19
788.06	245.19
788.38	245.05
788.71	244.57
789.03	244.62
789.35	244.57
789.67	244.14
789.99	244.48
790.32	244.05
790.64	244.71
790.96	246.86
791.28	246.10
791.61	246.29
791.93	246.00
792.25	246.00
792.57	247.48
792.89	246.62
793.21	246.67
793.54	246.48
793.86	246.29
