SpectraSuite Data File
++++++++++++++++++++++++++++++++++++
Date: Wed Nov 07 18:33:22 EST 2012
User: group
Dark Spectrum Present: No
Reference Spectrum Present: No
Number of Sampled Component Spectra: 1
Spectrometers: USB2E7196
Integration Time (usec): 1000000 (USB2E7196)
Spectra Averaged: 1 (USB2E7196)
Boxcar Smoothing: 10 (USB2E7196)
Correct for Electrical Dark: No (USB2E7196)
Strobe/Lamp Enabled: No (USB2E7196)
Correct for Detector Non-linearity: No (USB2E7196)
Correct for Stray Light: No (USB2E7196)
Number of Pixels in Processed Spectrum: 2048
>>>>>Begin Processed Spectral Data<<<<<
339.09	0.00
339.48	215.00
339.86	225.00
340.24	222.00
340.63	225.00
341.01	268.00
341.39	223.00
341.78	236.00
342.16	235.00
342.54	233.00
342.93	223.57
343.31	234.57
343.69	235.57
344.07	235.90
344.46	236.62
344.84	237.19
345.22	235.38
345.60	235.86
345.99	235.57
346.37	235.48
346.75	235.52
347.13	235.62
347.52	235.67
347.90	236.05
348.28	236.52
348.66	237.05
349.05	236.43
349.43	236.67
349.81	236.81
350.19	236.48
350.57	236.57
350.96	236.57
351.34	236.86
351.72	236.71
352.10	237.10
352.48	236.81
352.87	236.48
353.25	236.62
353.63	236.67
354.01	236.81
354.39	236.86
354.77	236.76
355.15	237.52
355.54	237.10
355.92	236.86
356.30	236.52
356.68	238.19
357.06	238.33
357.44	238.33
357.82	238.14
358.20	238.81
358.58	238.86
358.97	238.81
359.35	238.90
359.73	239.29
360.11	239.05
360.49	239.14
360.87	239.24
361.25	239.43
361.63	240.10
362.01	240.33
362.39	240.43
362.77	240.52
363.15	240.05
363.53	239.95
363.91	239.90
364.29	239.95
364.67	237.71
365.05	237.57
365.43	237.62
365.81	237.76
366.19	238.76
366.57	239.52
366.95	239.76
367.33	239.48
367.71	239.76
368.09	240.10
368.47	240.29
368.85	240.62
369.23	241.29
369.61	240.43
369.99	241.43
370.37	241.76
370.75	243.00
371.13	242.67
371.51	242.62
371.89	242.71
372.27	242.62
372.65	242.86
373.03	243.05
373.41	242.95
373.78	243.19
374.16	241.76
374.54	241.24
374.92	241.10
375.30	241.38
375.68	241.00
376.06	241.38
376.44	241.43
376.82	241.33
377.19	241.38
377.57	241.38
377.95	240.43
378.33	240.67
378.71	239.48
379.09	239.71
379.47	239.90
379.84	239.86
380.22	239.62
380.60	239.24
380.98	239.33
381.36	239.29
381.73	238.86
382.11	239.43
382.49	239.52
382.87	238.76
383.25	238.90
383.62	241.71
384.00	241.10
384.38	241.29
384.76	242.05
385.13	242.81
385.51	243.05
385.89	242.86
386.27	242.38
386.64	242.76
387.02	242.90
387.40	243.00
387.78	243.29
388.15	243.57
388.53	243.10
388.91	242.71
389.29	242.52
389.66	243.19
390.04	242.76
390.42	242.81
390.79	243.52
391.17	243.52
391.55	240.48
391.92	240.48
392.30	240.43
392.68	239.62
393.05	239.38
393.43	239.57
393.81	239.57
394.18	239.38
394.56	239.38
394.94	239.62
395.31	239.48
395.69	239.90
396.06	240.19
396.44	240.76
396.82	240.95
397.19	242.24
397.57	241.57
397.95	242.57
398.32	241.86
398.70	241.95
399.07	242.10
399.45	242.29
399.82	242.24
400.20	241.90
400.58	241.81
400.95	241.00
401.33	241.43
401.70	243.24
402.08	243.38
402.45	243.38
402.83	244.19
403.20	244.43
403.58	244.33
403.95	245.14
404.33	245.67
404.71	246.14
405.08	247.33
405.46	248.24
405.83	248.19
406.21	248.90
406.58	249.19
406.96	249.29
407.33	249.86
407.70	250.52
408.08	253.48
408.45	254.62
408.83	255.81
409.20	256.29
409.58	255.43
409.95	257.00
410.33	258.05
410.70	258.05
411.08	259.38
411.45	260.48
411.82	261.10
412.20	262.86
412.57	265.43
412.95	265.19
413.32	266.86
413.69	268.00
414.07	269.90
414.44	271.95
414.82	274.76
415.19	277.10
415.56	279.76
415.94	280.38
416.31	283.10
416.68	285.76
417.06	288.81
417.43	292.90
417.81	296.14
418.18	300.05
418.55	304.19
418.93	308.24
419.30	312.76
419.67	317.76
420.04	321.90
420.42	326.10
420.79	334.05
421.16	339.33
421.54	347.05
421.91	353.14
422.28	359.76
422.66	366.19
423.03	374.86
423.40	381.71
423.77	389.24
424.15	396.67
424.52	404.48
424.89	413.52
425.26	420.67
425.64	428.29
426.01	436.33
426.38	444.81
426.75	454.10
427.13	463.10
427.50	472.71
427.87	483.05
428.24	492.71
428.61	499.95
428.99	512.67
429.36	522.76
429.73	534.57
430.10	545.81
430.47	557.67
430.85	567.86
431.22	581.14
431.59	596.67
431.96	609.67
432.33	623.48
432.70	637.67
433.08	653.81
433.45	669.19
433.82	684.86
434.19	702.14
434.56	717.86
434.93	733.33
435.30	748.24
435.68	764.95
436.05	782.00
436.42	799.29
436.79	813.81
437.16	830.62
437.53	847.29
437.90	864.67
438.27	881.38
438.64	898.67
439.01	914.38
439.38	925.95
439.75	938.76
440.13	954.29
440.50	966.95
440.87	979.67
441.24	991.05
441.61	1003.81
441.98	1012.90
442.35	1024.38
442.72	1036.38
443.09	1048.71
443.46	1054.95
443.83	1059.10
444.20	1062.05
444.57	1065.81
444.94	1066.71
445.31	1068.81
445.68	1073.57
446.05	1073.33
446.42	1069.67
446.79	1066.43
447.16	1063.95
447.53	1061.81
447.90	1053.81
448.27	1046.14
448.64	1035.86
449.01	1028.81
449.37	1016.33
449.74	1004.48
450.11	993.19
450.48	977.10
450.85	960.67
451.22	947.00
451.59	933.76
451.96	921.43
452.33	905.95
452.70	892.29
453.07	875.29
453.43	854.71
453.80	837.76
454.17	822.33
454.54	807.05
454.91	790.52
455.28	774.57
455.65	759.95
456.02	750.62
456.38	737.24
456.75	722.57
457.12	710.00
457.49	697.71
457.86	682.76
458.23	673.10
458.59	661.95
458.96	650.95
459.33	640.33
459.70	629.81
460.07	621.57
460.43	612.00
460.80	603.62
461.17	595.52
461.54	588.19
461.91	581.00
462.27	573.48
462.64	567.00
463.01	560.05
463.38	554.57
463.74	543.38
464.11	537.33
464.48	531.81
464.85	525.81
465.21	521.86
465.58	518.00
465.95	511.52
466.32	506.14
466.68	501.48
467.05	497.57
467.42	493.24
467.78	488.33
468.15	484.29
468.52	481.14
468.88	477.19
469.25	473.00
469.62	470.48
469.98	467.10
470.35	463.29
470.72	460.62
471.08	456.38
471.45	454.38
471.82	452.86
472.18	450.10
472.55	447.81
472.92	444.14
473.28	441.33
473.65	439.05
474.02	436.52
474.38	434.48
474.75	432.29
475.11	430.33
475.48	428.67
475.85	426.62
476.21	424.62
476.58	423.29
476.94	422.24
477.31	420.05
477.67	418.48
478.04	418.05
478.41	417.24
478.77	418.95
479.14	417.43
479.50	416.29
479.87	415.86
480.23	416.10
480.60	416.33
480.96	416.10
481.33	417.24
481.69	418.24
482.06	419.38
482.42	420.76
482.79	421.95
483.15	422.76
483.52	424.00
483.88	424.52
484.25	425.52
484.61	426.71
484.98	428.10
485.34	431.05
485.71	432.71
486.07	433.90
486.44	432.76
486.80	434.90
487.17	436.57
487.53	438.33
487.90	440.10
488.26	442.24
488.62	443.90
488.99	445.57
489.35	447.24
489.72	448.81
490.08	450.24
490.44	451.62
490.81	454.29
491.17	455.52
491.54	458.05
491.90	460.19
492.26	462.57
492.63	465.00
492.99	466.10
493.36	468.43
493.72	472.00
494.08	475.00
494.45	477.81
494.81	481.38
495.17	484.52
495.54	488.43
495.90	491.48
496.26	495.43
496.63	498.81
496.99	502.43
497.35	505.86
497.72	510.10
498.08	514.14
498.44	518.05
498.80	523.19
499.17	527.19
499.53	532.05
499.89	536.81
500.26	541.33
500.62	546.05
500.98	551.38
501.34	556.43
501.71	562.19
502.07	567.81
502.43	572.62
502.79	577.43
503.16	582.10
503.52	586.95
503.88	591.71
504.24	597.14
504.60	602.57
504.97	608.43
505.33	613.67
505.69	619.76
506.05	625.10
506.41	630.33
506.78	635.76
507.14	640.24
507.50	645.48
507.86	651.38
508.22	656.90
508.59	661.71
508.95	667.33
509.31	673.81
509.67	678.38
510.03	683.48
510.39	688.43
510.75	693.29
511.12	698.76
511.48	704.14
511.84	709.29
512.20	714.05
512.56	718.81
512.92	723.86
513.28	728.76
513.64	733.10
514.00	738.19
514.37	743.48
514.73	749.48
515.09	754.81
515.45	758.62
515.81	763.62
516.17	768.29
516.53	771.76
516.89	774.38
517.25	778.48
517.61	782.76
517.97	787.19
518.33	791.38
518.69	796.14
519.05	799.76
519.41	803.90
519.77	809.62
520.13	812.76
520.49	816.05
520.85	818.24
521.21	822.90
521.57	825.90
521.93	828.29
522.29	831.14
522.65	832.76
523.01	835.67
523.37	837.24
523.73	839.52
524.09	842.29
524.45	844.62
524.81	847.29
525.17	849.71
525.53	851.86
525.89	853.62
526.25	854.76
526.61	856.67
526.97	857.24
527.33	858.24
527.68	862.48
528.04	864.19
528.40	866.05
528.76	867.14
529.12	868.71
529.48	870.71
529.84	871.19
530.20	873.24
530.56	875.19
530.91	877.52
531.27	878.81
531.63	879.67
531.99	880.71
532.35	881.52
532.71	882.48
533.07	883.43
533.42	887.29
533.78	888.14
534.14	888.67
534.50	889.29
534.86	890.29
535.21	889.90
535.57	891.00
535.93	892.00
536.29	894.24
536.65	895.10
537.00	896.24
537.36	898.29
537.72	899.52
538.08	901.62
538.44	902.43
538.79	904.14
539.15	906.10
539.51	907.48
539.87	909.52
540.22	909.95
540.58	910.81
540.94	909.33
541.29	911.24
541.65	913.43
542.01	916.48
542.37	918.00
542.72	917.48
543.08	917.48
543.44	918.14
543.79	915.90
544.15	916.10
544.51	916.10
544.87	915.24
545.22	913.67
545.58	912.05
545.94	910.38
546.29	908.76
546.65	906.38
547.01	904.00
547.36	900.90
547.72	898.95
548.07	896.90
548.43	895.29
548.79	892.14
549.14	888.95
549.50	885.38
549.86	881.71
550.21	880.19
550.57	878.05
550.92	875.43
551.28	874.33
551.64	872.10
551.99	870.00
552.35	867.48
552.70	864.67
553.06	862.86
553.41	861.29
553.77	861.10
554.13	859.33
554.48	858.52
554.84	858.10
555.19	856.81
555.55	857.95
555.90	855.52
556.26	854.05
556.61	852.62
556.97	850.90
557.32	848.57
557.68	847.00
558.03	845.29
558.39	843.71
558.74	840.90
559.10	838.90
559.45	836.71
559.81	834.81
560.16	834.38
560.52	832.95
560.87	830.62
561.23	827.71
561.58	828.62
561.94	826.24
562.29	824.00
562.64	822.43
563.00	818.62
563.35	817.43
563.71	815.71
564.06	814.24
564.42	812.90
564.77	811.19
565.12	809.05
565.48	810.24
565.83	809.38
566.19	808.62
566.54	806.71
566.89	804.62
567.25	804.29
567.60	803.90
567.96	804.33
568.31	804.81
568.66	804.43
569.02	800.33
569.37	799.05
569.72	798.05
570.08	796.19
570.43	794.67
570.78	792.90
571.14	791.95
571.49	789.90
571.84	788.76
572.20	787.48
572.55	786.00
572.90	781.81
573.26	779.57
573.61	777.29
573.96	776.48
574.31	775.43
574.67	773.00
575.02	770.76
575.37	765.62
575.72	762.57
576.08	759.71
576.43	757.52
576.78	756.38
577.13	753.43
577.49	752.48
577.84	750.81
578.19	748.81
578.54	746.43
578.90	744.43
579.25	741.76
579.60	740.10
579.95	738.52
580.30	737.62
580.66	736.38
581.01	735.38
581.36	733.19
581.71	731.38
582.06	730.76
582.42	728.67
582.77	727.86
583.12	726.19
583.47	724.43
583.82	723.67
584.17	722.05
584.53	722.00
584.88	719.76
585.23	718.76
585.58	716.62
585.93	714.62
586.28	713.00
586.63	711.43
586.98	710.05
587.34	707.76
587.69	704.67
588.04	702.00
588.39	699.57
588.74	697.24
589.09	695.48
589.44	691.14
589.79	688.24
590.14	685.81
590.49	682.52
590.84	679.05
591.19	675.67
591.54	671.95
591.89	667.38
592.25	666.29
592.60	662.33
592.95	660.05
593.30	657.48
593.65	655.14
594.00	651.81
594.35	655.33
594.70	652.10
595.05	648.90
595.40	646.48
595.75	643.52
596.10	640.76
596.45	638.00
596.80	636.29
597.15	634.00
597.50	630.76
597.85	629.52
598.19	627.62
598.54	625.48
598.89	623.00
599.24	621.00
599.59	616.76
599.94	614.33
600.29	611.76
600.64	609.38
600.99	607.57
601.34	606.10
601.69	596.90
602.04	594.76
602.39	592.62
602.74	590.76
603.08	588.71
603.43	587.71
603.78	585.19
604.13	583.14
604.48	581.33
604.83	580.48
605.18	578.67
605.53	577.86
605.87	577.38
606.22	579.57
606.57	581.76
606.92	584.05
607.27	586.67
607.62	590.00
607.96	592.67
608.31	594.33
608.66	595.29
609.01	597.10
609.36	598.19
609.70	600.57
610.05	601.05
610.40	602.19
610.75	601.52
611.10	602.05
611.44	601.38
611.79	600.90
612.14	599.76
612.49	598.33
612.83	596.24
613.18	593.10
613.53	588.62
613.88	583.29
614.22	577.38
614.57	571.33
614.92	564.81
615.27	559.71
615.61	553.43
615.96	548.52
616.31	543.76
616.65	540.38
617.00	535.29
617.35	530.71
617.70	525.67
618.04	521.33
618.39	517.33
618.74	514.90
619.08	511.29
619.43	507.52
619.78	503.90
620.12	500.67
620.47	498.71
620.82	495.43
621.16	493.24
621.51	492.57
621.85	490.43
622.20	488.62
622.55	485.62
622.89	483.67
623.24	481.67
623.59	478.62
623.93	476.71
624.28	474.62
624.62	475.48
624.97	475.57
625.32	474.14
625.66	472.38
626.01	469.90
626.35	468.67
626.70	467.43
627.04	467.14
627.39	465.95
627.73	464.95
628.08	463.81
628.43	461.24
628.77	458.33
629.12	456.33
629.46	454.38
629.81	452.62
630.15	450.95
630.50	449.10
630.84	447.62
631.19	444.76
631.53	442.76
631.88	438.00
632.22	434.52
632.57	433.29
632.91	431.14
633.26	429.62
633.60	426.86
633.95	424.81
634.29	421.90
634.64	419.62
634.98	416.71
635.32	415.00
635.67	414.05
636.01	412.24
636.36	410.29
636.70	409.29
637.05	407.10
637.39	405.33
637.73	403.71
638.08	402.62
638.42	401.05
638.77	399.71
639.11	398.43
639.45	396.19
639.80	394.05
640.14	392.90
640.49	391.29
640.83	390.14
641.17	388.76
641.52	387.29
641.86	386.38
642.20	385.90
642.55	384.67
642.89	383.24
643.23	381.76
643.58	381.29
643.92	379.29
644.26	378.57
644.61	377.71
644.95	376.62
645.29	375.19
645.64	374.57
645.98	373.14
646.32	372.43
646.66	371.90
647.01	370.76
647.35	369.95
647.69	369.19
648.04	368.48
648.38	367.76
648.72	367.00
649.06	365.38
649.41	363.95
649.75	362.43
650.09	361.71
650.43	360.95
650.78	359.52
651.12	359.10
651.46	358.05
651.80	357.05
652.14	355.81
652.49	355.29
652.83	353.67
653.17	352.76
653.51	351.33
653.85	350.67
654.20	349.90
654.54	348.33
654.88	346.76
655.22	345.19
655.56	344.14
655.90	343.00
656.25	341.95
656.59	340.62
656.93	340.14
657.27	339.71
657.61	338.62
657.95	338.19
658.29	336.62
658.64	336.24
658.98	335.19
659.32	334.14
659.66	333.19
660.00	333.00
660.34	331.95
660.68	331.19
661.02	330.33
661.36	329.33
661.70	328.86
662.05	328.14
662.39	328.57
662.73	328.29
663.07	329.33
663.41	329.14
663.75	328.43
664.09	327.57
664.43	325.95
664.77	325.38
665.11	324.52
665.45	324.29
665.79	324.24
666.13	323.19
666.47	323.05
666.81	322.57
667.15	321.29
667.49	321.14
667.83	321.33
668.17	320.62
668.51	320.05
668.85	319.43
669.19	319.67
669.53	318.10
669.87	317.05
670.21	315.00
670.55	314.52
670.89	315.00
671.23	314.24
671.57	313.81
671.91	313.33
672.25	312.76
672.58	312.57
672.92	310.86
673.26	310.62
673.60	309.81
673.94	309.05
674.28	308.86
674.62	308.57
674.96	307.38
675.30	306.90
675.64	306.52
675.97	305.90
676.31	304.71
676.65	304.24
676.99	304.24
677.33	303.86
677.67	303.43
678.01	301.71
678.34	301.24
678.68	301.33
679.02	300.76
679.36	300.00
679.70	298.76
680.04	298.43
680.37	298.05
680.71	297.71
681.05	297.29
681.39	296.67
681.73	295.57
682.06	295.19
682.40	294.71
682.74	294.43
683.08	295.19
683.42	294.71
683.75	294.95
684.09	294.14
684.43	293.67
684.77	293.05
685.10	292.90
685.44	292.76
685.78	291.81
686.12	291.67
686.45	291.33
686.79	291.19
687.13	291.05
687.46	290.43
687.80	290.33
688.14	289.52
688.48	289.29
688.81	289.43
689.15	289.57
689.49	289.14
689.82	288.95
690.16	287.00
690.50	287.14
690.83	286.05
691.17	285.33
691.51	284.71
691.84	284.81
692.18	284.24
692.52	283.52
692.85	283.43
693.19	283.86
693.52	283.52
693.86	283.05
694.20	283.05
694.53	282.67
694.87	282.14
695.21	282.00
695.54	281.76
695.88	280.95
696.21	279.81
696.55	279.52
696.88	278.95
697.22	278.76
697.56	278.29
697.89	278.00
698.23	278.29
698.56	277.95
698.90	277.81
699.23	277.76
699.57	277.62
699.90	277.19
700.24	276.10
700.58	276.19
700.91	276.14
701.25	277.90
701.58	279.29
701.92	280.10
702.25	280.14
702.59	280.14
702.92	280.71
703.26	281.19
703.59	281.24
703.93	283.62
704.26	284.00
704.60	284.48
704.93	284.81
705.26	284.10
705.60	284.62
705.93	284.19
706.27	285.29
706.60	286.29
706.94	287.52
707.27	287.52
707.61	287.76
707.94	288.05
708.27	286.05
708.61	284.67
708.94	283.76
709.28	283.52
709.61	283.24
709.94	282.62
710.28	282.29
710.61	282.10
710.95	279.24
711.28	280.62
711.61	279.76
711.95	279.90
712.28	279.57
712.61	279.05
712.95	279.57
713.28	279.52
713.61	278.05
713.95	276.38
714.28	275.57
714.61	274.29
714.95	273.00
715.28	272.24
715.61	272.05
715.95	271.71
716.28	270.90
716.61	270.43
716.95	269.71
717.28	269.48
717.61	268.86
717.94	268.43
718.28	266.33
718.61	265.71
718.94	264.62
719.27	264.38
719.61	264.14
719.94	263.14
720.27	261.71
720.60	261.38
720.94	261.62
721.27	261.57
721.60	262.10
721.93	261.90
722.27	262.14
722.60	261.71
722.93	261.24
723.26	261.33
723.59	260.76
723.93	261.14
724.26	260.95
724.59	260.76
724.92	261.38
725.25	261.76
725.59	261.38
725.92	261.81
726.25	261.71
726.58	261.62
726.91	261.33
727.24	261.38
727.57	261.29
727.91	260.48
728.24	260.76
728.57	260.10
728.90	260.57
729.23	259.67
729.56	260.86
729.89	260.81
730.22	260.48
730.55	260.52
730.89	260.19
731.22	259.71
731.55	259.38
731.88	258.90
732.21	258.19
732.54	258.10
732.87	257.67
733.20	257.48
733.53	257.57
733.86	257.81
734.19	257.10
734.52	257.29
734.85	258.90
735.18	258.29
735.51	259.19
735.84	258.86
736.17	259.33
736.50	257.95
736.83	260.81
737.16	260.95
737.49	261.05
737.82	260.71
738.15	260.67
738.48	260.67
738.81	260.43
739.14	260.24
739.47	259.95
739.80	259.48
740.13	259.62
740.46	258.90
740.79	258.38
741.12	258.62
741.45	258.14
741.78	256.67
742.11	257.52
742.44	256.81
742.77	257.33
743.10	256.76
743.43	256.52
743.75	253.86
744.08	256.62
744.41	256.52
744.74	256.57
745.07	256.38
745.40	256.71
745.73	257.38
746.06	257.24
746.39	257.67
746.71	258.00
747.04	257.81
747.37	257.38
747.70	257.76
748.03	257.86
748.36	258.19
748.68	258.00
749.01	257.00
749.34	256.90
749.67	256.71
750.00	257.14
750.33	259.05
750.65	259.05
750.98	256.10
751.31	255.90
751.64	255.86
751.97	257.29
752.29	257.14
752.62	256.00
752.95	255.95
753.28	255.48
753.60	255.00
753.93	255.38
754.26	255.95
754.59	255.00
754.91	254.57
755.24	254.19
755.57	254.05
755.90	254.10
756.22	253.57
756.55	252.81
756.88	252.00
757.20	250.24
757.53	249.48
757.86	249.19
758.19	249.52
758.51	249.57
758.84	248.14
759.17	247.76
759.49	248.10
759.82	249.38
760.15	249.62
760.47	249.71
760.80	249.00
761.13	249.14
761.45	249.33
761.78	249.14
762.11	249.43
762.43	249.48
762.76	249.14
763.08	249.67
763.41	250.05
763.74	250.71
764.06	250.57
764.39	250.81
764.71	251.19
765.04	250.52
765.37	249.90
765.69	249.86
766.02	249.90
766.34	249.86
766.67	249.14
767.00	249.52
767.32	250.71
767.65	252.33
767.97	252.24
768.30	252.05
768.62	252.29
768.95	251.67
769.27	251.57
769.60	251.90
769.92	251.43
770.25	251.19
770.57	250.43
770.90	250.52
771.22	249.95
771.55	249.57
771.87	249.86
772.20	249.95
772.52	251.95
772.85	255.00
773.17	254.48
773.50	253.71
773.82	253.24
774.15	252.05
774.47	250.10
774.80	249.71
775.12	249.67
775.45	249.38
775.77	249.71
776.09	249.86
776.42	249.67
776.74	250.48
777.07	250.14
777.39	250.43
777.72	250.19
778.04	250.43
778.36	250.48
778.69	250.38
779.01	250.90
779.33	248.57
779.66	245.62
779.98	245.48
780.31	245.95
780.63	246.86
780.95	247.00
781.28	247.05
781.60	246.76
781.92	246.52
782.25	246.62
782.57	246.67
782.89	246.52
783.22	246.71
783.54	245.71
783.86	245.67
784.19	245.29
784.51	245.71
784.83	245.62
785.16	245.52
785.48	245.29
785.80	244.95
786.12	245.19
786.45	245.43
786.77	245.33
787.09	244.95
787.42	244.29
787.74	244.62
788.06	244.76
788.38	244.62
788.71	244.52
789.03	244.19
789.35	243.90
789.67	243.33
789.99	243.29
790.32	243.29
790.64	243.52
790.96	245.48
791.28	244.67
791.61	244.67
791.93	244.52
792.25	244.62
792.57	246.48
792.89	246.10
793.21	245.81
793.54	245.81
793.86	245.33
