SpectraSuite Data File
++++++++++++++++++++++++++++++++++++
Date: Wed Nov 07 18:31:17 EST 2012
User: group
Dark Spectrum Present: No
Reference Spectrum Present: No
Number of Sampled Component Spectra: 1
Spectrometers: USB2E7196
Integration Time (usec): 1000000 (USB2E7196)
Spectra Averaged: 1 (USB2E7196)
Boxcar Smoothing: 10 (USB2E7196)
Correct for Electrical Dark: No (USB2E7196)
Strobe/Lamp Enabled: No (USB2E7196)
Correct for Detector Non-linearity: No (USB2E7196)
Correct for Stray Light: No (USB2E7196)
Number of Pixels in Processed Spectrum: 2048
>>>>>Begin Processed Spectral Data<<<<<
339.09	0.00
339.48	220.00
339.86	223.00
340.24	226.00
340.63	228.00
341.01	268.00
341.39	227.00
341.78	234.00
342.16	238.00
342.54	227.00
342.93	224.71
343.31	235.90
343.69	236.67
344.07	237.33
344.46	238.19
344.84	238.76
345.22	237.33
345.60	237.81
345.99	237.95
346.37	237.62
346.75	237.90
347.13	237.95
347.52	238.00
347.90	238.67
348.28	238.57
348.66	238.86
349.05	237.95
349.43	238.81
349.81	239.00
350.19	238.62
350.57	239.00
350.96	239.43
351.34	239.71
351.72	239.71
352.10	239.57
352.48	239.19
352.87	238.81
353.25	238.81
353.63	238.57
354.01	238.38
354.39	239.10
354.77	238.95
355.15	239.43
355.54	239.10
355.92	237.95
356.30	237.95
356.68	239.24
357.06	239.43
357.44	238.52
357.82	238.33
358.20	238.57
358.58	238.29
358.97	238.43
359.35	238.57
359.73	238.95
360.11	239.00
360.49	239.24
360.87	239.43
361.25	239.52
361.63	240.38
362.01	240.90
362.39	240.29
362.77	240.57
363.15	240.62
363.53	240.52
363.91	240.86
364.29	240.81
364.67	238.52
365.05	238.67
365.43	239.10
365.81	239.57
366.19	240.29
366.57	241.24
366.95	241.05
367.33	240.24
367.71	240.19
368.09	240.62
368.47	240.24
368.85	240.10
369.23	240.76
369.61	240.00
369.99	240.52
370.37	240.86
370.75	242.19
371.13	241.48
371.51	241.62
371.89	242.05
372.27	242.33
372.65	242.71
373.03	242.52
373.41	242.24
373.78	241.95
374.16	240.86
374.54	240.05
374.92	240.14
375.30	240.24
375.68	239.76
376.06	239.67
376.44	239.67
376.82	239.95
377.19	239.43
377.57	239.48
377.95	238.62
378.33	238.43
378.71	236.76
379.09	237.14
379.47	237.29
379.84	237.05
380.22	236.57
380.60	236.33
380.98	236.38
381.36	236.67
381.73	236.52
382.11	237.05
382.49	237.05
382.87	236.38
383.25	236.95
383.62	240.10
384.00	239.57
384.38	239.95
384.76	240.52
385.13	241.52
385.51	241.52
385.89	241.57
386.27	241.62
386.64	242.10
387.02	242.00
387.40	241.90
387.78	242.29
388.15	242.33
388.53	242.00
388.91	242.05
389.29	241.71
389.66	242.10
390.04	241.81
390.42	242.38
390.79	242.67
391.17	242.62
391.55	239.62
391.92	239.95
392.30	240.00
392.68	239.71
393.05	239.38
393.43	239.52
393.81	239.62
394.18	239.43
394.56	239.86
394.94	240.71
395.31	240.57
395.69	241.19
396.06	241.71
396.44	242.10
396.82	241.81
397.19	243.05
397.57	242.86
397.95	243.33
398.32	242.76
398.70	243.05
399.07	243.43
399.45	243.43
399.82	243.33
400.20	243.10
400.58	242.81
400.95	242.19
401.33	242.86
401.70	244.43
402.08	244.76
402.45	244.67
402.83	245.24
403.20	245.57
403.58	245.43
403.95	246.00
404.33	246.76
404.71	247.33
405.08	248.81
405.46	249.05
405.83	249.33
406.21	249.76
406.58	250.43
406.96	250.52
407.33	251.24
407.70	252.24
408.08	254.81
408.45	255.81
408.83	257.19
409.20	257.19
409.58	256.57
409.95	257.90
410.33	258.62
410.70	258.48
411.08	259.86
411.45	260.86
411.82	261.52
412.20	263.43
412.57	265.81
412.95	265.24
413.32	267.05
413.69	268.52
414.07	270.24
414.44	271.90
414.82	274.24
415.19	276.52
415.56	278.33
415.94	279.43
416.31	282.62
416.68	285.14
417.06	288.38
417.43	292.00
417.81	295.52
418.18	299.33
418.55	303.19
418.93	307.14
419.30	311.33
419.67	316.05
420.04	320.29
420.42	324.90
420.79	332.48
421.16	338.00
421.54	345.48
421.91	352.10
422.28	359.00
422.66	365.24
423.03	373.62
423.40	380.90
423.77	388.14
424.15	395.10
424.52	402.67
424.89	411.67
425.26	419.52
425.64	427.19
426.01	435.67
426.38	444.52
426.75	453.67
427.13	462.81
427.50	472.29
427.87	481.52
428.24	491.29
428.61	499.05
428.99	510.43
429.36	521.00
429.73	532.00
430.10	544.14
430.47	557.19
430.85	568.57
431.22	582.29
431.59	598.24
431.96	611.95
432.33	626.81
432.70	641.33
433.08	658.67
433.45	674.14
433.82	690.10
434.19	707.38
434.56	723.48
434.93	739.24
435.30	754.90
435.68	772.67
436.05	789.38
436.42	806.29
436.79	822.10
437.16	837.95
437.53	855.33
437.90	871.19
438.27	887.86
438.64	904.48
439.01	919.57
439.38	931.10
439.75	944.14
440.13	958.90
440.50	972.24
440.87	981.95
441.24	993.43
441.61	1005.24
441.98	1013.76
442.35	1023.71
442.72	1034.86
443.09	1046.71
443.46	1052.24
443.83	1055.14
444.20	1058.48
444.57	1062.00
444.94	1063.19
445.31	1064.76
445.68	1068.95
446.05	1068.10
446.42	1064.71
446.79	1061.95
447.16	1057.76
447.53	1054.52
447.90	1046.38
448.27	1038.00
448.64	1028.52
449.01	1020.67
449.37	1008.48
449.74	996.90
450.11	985.76
450.48	970.67
450.85	954.05
451.22	941.38
451.59	929.48
451.96	916.90
452.33	901.48
452.70	887.86
453.07	870.19
453.43	850.00
453.80	833.57
454.17	818.19
454.54	803.19
454.91	788.14
455.28	771.67
455.65	757.43
456.02	748.05
456.38	735.81
456.75	720.57
457.12	708.38
457.49	695.67
457.86	681.81
458.23	671.81
458.59	660.38
458.96	648.52
459.33	638.81
459.70	628.86
460.07	620.71
460.43	610.76
460.80	603.33
461.17	595.71
461.54	588.10
461.91	580.05
462.27	572.00
462.64	564.86
463.01	559.14
463.38	553.76
463.74	542.57
464.11	536.67
464.48	531.95
464.85	526.05
465.21	522.57
465.58	518.62
465.95	512.29
466.32	508.05
466.68	503.71
467.05	498.86
467.42	494.29
467.78	489.48
468.15	485.43
468.52	481.86
468.88	477.90
469.25	473.48
469.62	470.71
469.98	467.10
470.35	464.00
470.72	460.52
471.08	455.95
471.45	453.71
471.82	451.05
472.18	448.10
472.55	445.86
472.92	442.05
473.28	439.10
473.65	436.95
474.02	434.57
474.38	432.52
474.75	431.10
475.11	428.95
475.48	427.71
475.85	426.29
476.21	424.76
476.58	423.71
476.94	423.05
477.31	421.86
477.67	420.81
478.04	420.38
478.41	420.38
478.77	422.76
479.14	421.81
479.50	421.48
479.87	421.43
480.23	422.19
480.60	423.00
480.96	423.81
481.33	425.52
481.69	426.48
482.06	428.19
482.42	429.48
482.79	431.57
483.15	433.10
483.52	435.57
483.88	437.52
484.25	439.48
484.61	441.19
484.98	443.29
485.34	446.57
485.71	449.24
486.07	451.10
486.44	450.81
486.80	453.10
487.17	455.05
487.53	458.00
487.90	460.19
488.26	463.43
488.62	466.00
488.99	467.24
489.35	469.62
489.72	471.29
490.08	472.62
490.44	473.95
490.81	476.05
491.17	477.52
491.54	479.43
491.90	481.95
492.26	484.05
492.63	486.00
492.99	487.38
493.36	489.62
493.72	492.38
494.08	495.00
494.45	498.19
494.81	501.38
495.17	503.71
495.54	506.67
495.90	508.33
496.26	510.81
496.63	514.14
496.99	516.90
497.35	519.62
497.72	523.71
498.08	526.90
498.44	530.29
498.80	534.43
499.17	537.81
499.53	540.86
499.89	544.95
500.26	548.95
500.62	552.62
500.98	557.00
501.34	560.57
501.71	565.24
502.07	569.29
502.43	573.62
502.79	577.76
503.16	582.62
503.52	587.90
503.88	591.95
504.24	596.90
504.60	602.67
504.97	608.38
505.33	612.43
505.69	618.48
506.05	623.24
506.41	627.86
506.78	633.00
507.14	638.33
507.50	643.38
507.86	649.24
508.22	655.33
508.59	659.05
508.95	664.10
509.31	669.48
509.67	674.05
510.03	678.81
510.39	684.38
510.75	688.76
511.12	693.71
511.48	699.38
511.84	703.71
512.20	707.71
512.56	711.90
512.92	717.29
513.28	721.57
513.64	726.10
514.00	730.95
514.37	736.10
514.73	740.76
515.09	745.57
515.45	749.10
515.81	752.76
516.17	757.76
516.53	762.14
516.89	764.57
517.25	768.62
517.61	772.33
517.97	776.10
518.33	779.29
518.69	783.48
519.05	786.71
519.41	790.71
519.77	795.14
520.13	798.71
520.49	801.24
520.85	804.19
521.21	807.86
521.57	810.43
521.93	811.71
522.29	813.76
522.65	815.71
523.01	818.38
523.37	820.43
523.73	822.81
524.09	825.05
524.45	827.95
524.81	830.05
525.17	832.52
525.53	834.00
525.89	835.48
526.25	836.62
526.61	838.43
526.97	839.10
527.33	839.38
527.68	842.43
528.04	843.57
528.40	845.00
528.76	846.38
529.12	847.24
529.48	849.76
529.84	851.24
530.20	853.24
530.56	854.90
530.91	856.71
531.27	858.57
531.63	859.86
531.99	860.67
532.35	862.90
532.71	863.62
533.07	864.62
533.42	869.10
533.78	870.10
534.14	871.38
534.50	873.86
534.86	876.33
535.21	877.05
535.57	879.95
535.93	882.62
536.29	887.14
536.65	891.24
537.00	895.24
537.36	900.29
537.72	906.10
538.08	913.14
538.44	920.67
538.79	928.71
539.15	936.33
539.51	946.24
539.87	953.57
540.22	962.71
540.58	972.90
540.94	980.57
541.29	989.90
541.65	999.29
542.01	1007.76
542.37	1015.81
542.72	1020.38
543.08	1024.62
543.44	1027.52
543.79	1026.52
544.15	1028.00
544.51	1028.48
544.87	1026.48
545.22	1023.81
545.58	1018.95
545.94	1013.48
546.29	1006.52
546.65	1000.33
547.01	991.48
547.36	984.57
547.72	976.38
548.07	966.86
548.43	957.10
548.79	947.38
549.14	936.52
549.50	927.57
549.86	917.38
550.21	909.95
550.57	903.95
550.92	897.24
551.28	893.29
551.64	887.62
551.99	881.76
552.35	877.43
552.70	871.43
553.06	867.00
553.41	862.57
553.77	860.05
554.13	856.57
554.48	853.81
554.84	850.95
555.19	847.90
555.55	846.14
555.90	842.43
556.26	839.52
556.61	837.19
556.97	832.52
557.32	829.81
557.68	827.95
558.03	825.14
558.39	822.76
558.74	820.05
559.10	817.38
559.45	815.14
559.81	812.76
560.16	811.48
560.52	809.52
560.87	808.24
561.23	805.33
561.58	804.57
561.94	801.67
562.29	798.90
562.64	797.38
563.00	793.81
563.35	792.76
563.71	790.57
564.06	789.52
564.42	788.33
564.77	786.95
565.12	785.90
565.48	786.71
565.83	786.67
566.19	785.67
566.54	784.71
566.89	783.57
567.25	783.52
567.60	783.71
567.96	785.00
568.31	784.76
568.66	784.52
569.02	781.05
569.37	780.90
569.72	779.57
570.08	777.76
570.43	776.90
570.78	774.95
571.14	774.38
571.49	773.24
571.84	772.38
572.20	770.90
572.55	769.10
572.90	765.24
573.26	762.90
573.61	760.29
573.96	759.10
574.31	758.29
574.67	756.24
575.02	753.57
575.37	749.95
575.72	747.52
576.08	745.52
576.43	745.29
576.78	743.81
577.13	742.76
577.49	742.71
577.84	743.00
578.19	742.86
578.54	742.86
578.90	741.76
579.25	740.95
579.60	740.52
579.95	739.05
580.30	738.19
580.66	737.33
581.01	737.52
581.36	736.38
581.71	734.67
582.06	734.90
582.42	734.14
582.77	733.24
583.12	732.62
583.47	731.86
583.82	730.90
584.17	730.43
584.53	729.76
584.88	726.90
585.23	725.76
585.58	723.43
585.93	720.24
586.28	718.14
586.63	717.00
586.98	715.00
587.34	713.52
587.69	710.71
588.04	708.81
588.39	706.00
588.74	702.81
589.09	700.71
589.44	696.14
589.79	692.29
590.14	688.90
590.49	685.00
590.84	680.90
591.19	677.76
591.54	673.81
591.89	669.86
592.25	668.76
592.60	663.29
592.95	660.29
593.30	657.48
593.65	654.14
594.00	649.90
594.35	653.24
594.70	649.33
595.05	646.71
595.40	643.43
595.75	640.38
596.10	637.24
596.45	634.19
596.80	631.24
597.15	628.67
597.50	626.14
597.85	624.00
598.19	621.52
598.54	619.00
598.89	615.38
599.24	613.10
599.59	608.48
599.94	606.38
600.29	603.57
600.64	600.81
600.99	599.67
601.34	597.43
601.69	588.29
602.04	586.29
602.39	583.62
602.74	581.48
603.08	578.90
603.43	578.57
603.78	576.38
604.13	574.95
604.48	573.76
604.83	573.29
605.18	572.95
605.53	572.90
605.87	575.05
606.22	579.76
606.57	585.05
606.92	591.00
607.27	597.76
607.62	604.43
607.96	611.29
608.31	615.29
608.66	620.76
609.01	624.67
609.36	628.81
609.70	632.95
610.05	636.10
610.40	639.71
610.75	641.62
611.10	643.76
611.44	645.38
611.79	645.81
612.14	645.52
612.49	643.90
612.83	642.52
613.18	638.33
613.53	632.14
613.88	624.48
614.22	615.90
614.57	606.62
614.92	597.33
615.27	588.19
615.61	580.43
615.96	572.24
616.31	565.29
616.65	558.81
617.00	552.48
617.35	546.38
617.70	540.10
618.04	534.19
618.39	528.95
618.74	524.14
619.08	520.14
619.43	515.95
619.78	512.52
620.12	508.86
620.47	505.48
620.82	501.86
621.16	498.43
621.51	497.38
621.85	494.29
622.20	491.76
622.55	489.10
622.89	486.52
623.24	485.00
623.59	482.71
623.93	480.57
624.28	478.48
624.62	478.86
624.97	478.38
625.32	476.62
625.66	473.95
626.01	471.76
626.35	470.29
626.70	468.14
627.04	466.67
627.39	464.95
627.73	464.10
628.08	462.86
628.43	461.24
628.77	458.00
629.12	456.43
629.46	454.57
629.81	452.38
630.15	449.90
630.50	447.24
630.84	445.33
631.19	442.95
631.53	440.52
631.88	435.33
632.22	431.29
632.57	429.10
632.91	427.10
633.26	425.29
633.60	422.43
633.95	419.95
634.29	416.90
634.64	414.29
634.98	410.62
635.32	409.19
635.67	407.67
636.01	405.48
636.36	403.38
636.70	402.05
637.05	400.38
637.39	398.71
637.73	396.90
638.08	395.71
638.42	393.71
638.77	392.71
639.11	391.57
639.45	390.29
639.80	388.52
640.14	387.38
640.49	385.76
640.83	384.33
641.17	383.71
641.52	382.38
641.86	381.76
642.20	381.38
642.55	379.14
642.89	377.76
643.23	377.00
643.58	377.05
643.92	375.48
644.26	374.48
644.61	373.76
644.95	372.76
645.29	371.57
645.64	371.57
645.98	370.19
646.32	370.00
646.66	369.24
647.01	368.00
647.35	367.24
647.69	366.90
648.04	366.48
648.38	365.48
648.72	365.00
649.06	363.57
649.41	362.48
649.75	361.86
650.09	361.43
650.43	360.76
650.78	358.71
651.12	357.57
651.46	356.62
651.80	355.43
652.14	354.24
652.49	353.48
652.83	351.81
653.17	350.43
653.51	348.62
653.85	347.57
654.20	347.10
654.54	345.67
654.88	343.62
655.22	342.33
655.56	340.81
655.90	339.67
656.25	338.67
656.59	337.62
656.93	337.10
657.27	336.48
657.61	335.48
657.95	335.52
658.29	335.00
658.64	335.05
658.98	334.24
659.32	333.52
659.66	332.76
660.00	332.33
660.34	332.10
660.68	331.43
661.02	330.67
661.36	329.29
661.70	328.90
662.05	328.52
662.39	328.71
662.73	329.10
663.07	330.00
663.41	329.90
663.75	329.10
664.09	328.76
664.43	327.43
664.77	326.57
665.11	325.05
665.45	324.57
665.79	324.00
666.13	323.76
666.47	323.14
666.81	322.24
667.15	320.90
667.49	320.52
667.83	320.95
668.17	320.14
668.51	319.95
668.85	319.86
669.19	320.24
669.53	318.38
669.87	317.14
670.21	315.38
670.55	314.19
670.89	314.67
671.23	313.67
671.57	313.38
671.91	312.90
672.25	312.62
672.58	312.52
672.92	311.00
673.26	310.52
673.60	310.05
673.94	309.62
674.28	309.57
674.62	309.24
674.96	307.67
675.30	307.52
675.64	306.71
675.97	305.90
676.31	304.71
676.65	304.33
676.99	304.86
677.33	303.81
677.67	303.52
678.01	301.67
678.34	301.05
678.68	300.57
679.02	299.67
679.36	299.29
679.70	298.00
680.04	297.86
680.37	297.10
680.71	296.67
681.05	296.52
681.39	296.10
681.73	295.29
682.06	295.10
682.40	294.48
682.74	294.43
683.08	295.38
683.42	295.05
683.75	295.33
684.09	294.19
684.43	294.00
684.77	293.29
685.10	293.05
685.44	292.95
685.78	292.52
686.12	292.05
686.45	291.33
686.79	290.90
687.13	290.76
687.46	290.10
687.80	290.14
688.14	289.29
688.48	289.00
688.81	288.71
689.15	289.10
689.49	288.81
689.82	288.33
690.16	286.38
690.50	285.86
690.83	285.10
691.17	284.24
691.51	283.81
691.84	284.33
692.18	284.14
692.52	283.71
692.85	283.33
693.19	283.95
693.52	283.81
693.86	283.81
694.20	283.38
694.53	283.33
694.87	282.57
695.21	282.24
695.54	282.00
695.88	281.14
696.21	279.43
696.55	279.10
696.88	278.67
697.22	278.14
697.56	278.29
697.89	277.95
698.23	278.05
698.56	277.67
698.90	277.24
699.23	276.86
699.57	276.71
699.90	276.10
700.24	275.43
700.58	275.67
700.91	275.48
701.25	277.24
701.58	277.86
701.92	278.67
702.25	278.76
702.59	278.67
702.92	279.29
703.26	280.14
703.59	280.33
703.93	283.10
704.26	284.00
704.60	284.05
704.93	283.86
705.26	283.71
705.60	284.81
705.93	284.62
706.27	285.67
706.60	286.57
706.94	288.00
707.27	288.14
707.61	288.10
707.94	288.33
708.27	286.71
708.61	286.19
708.94	285.86
709.28	285.67
709.61	285.29
709.94	284.57
710.28	284.14
710.61	283.71
710.95	280.52
711.28	281.14
711.61	280.48
711.95	281.00
712.28	280.19
712.61	279.29
712.95	280.24
713.28	280.05
713.61	278.52
713.95	276.81
714.28	276.05
714.61	275.14
714.95	274.19
715.28	272.95
715.61	272.05
715.95	271.52
716.28	271.10
716.61	271.00
716.95	270.62
717.28	269.95
717.61	269.52
717.94	269.33
718.28	267.19
718.61	266.62
718.94	265.62
719.27	265.14
719.61	264.95
719.94	263.81
720.27	262.38
720.60	261.67
720.94	261.33
721.27	261.24
721.60	261.38
721.93	261.24
722.27	261.86
722.60	262.19
722.93	261.43
723.26	261.10
723.59	260.29
723.93	260.29
724.26	260.43
724.59	259.95
724.92	259.86
725.25	260.52
725.59	260.48
725.92	260.52
726.25	260.90
726.58	260.62
726.91	259.81
727.24	259.86
727.57	260.19
727.91	260.19
728.24	260.43
728.57	259.81
728.90	259.90
729.23	258.95
729.56	259.33
729.89	259.33
730.22	259.19
730.55	259.24
730.89	259.10
731.22	259.10
731.55	259.33
731.88	259.29
732.21	258.71
732.54	258.38
732.87	258.29
733.20	258.14
733.53	258.10
733.86	258.33
734.19	258.10
734.52	258.10
734.85	259.48
735.18	258.62
735.51	259.67
735.84	259.57
736.17	260.29
736.50	259.24
736.83	262.48
737.16	262.14
737.49	262.19
737.82	261.95
738.15	261.95
738.48	261.81
738.81	261.57
739.14	261.33
739.47	261.29
739.80	261.29
740.13	261.57
740.46	261.14
740.79	260.90
741.12	261.05
741.45	260.95
741.78	259.43
742.11	260.52
742.44	259.71
742.77	260.00
743.10	259.81
743.43	259.86
743.75	256.90
744.08	260.38
744.41	260.14
744.74	259.95
745.07	259.33
745.40	259.43
745.73	260.24
746.06	260.29
746.39	260.29
746.71	260.00
747.04	259.24
747.37	258.67
747.70	259.00
748.03	259.10
748.36	259.14
748.68	259.00
749.01	257.86
749.34	257.76
749.67	257.81
750.00	257.81
750.33	259.38
750.65	259.48
750.98	256.33
751.31	256.05
751.64	256.19
751.97	257.43
752.29	257.00
752.62	255.76
752.95	255.76
753.28	255.52
753.60	255.24
753.93	256.00
754.26	256.38
754.59	255.48
754.91	255.00
755.24	254.48
755.57	254.33
755.90	254.33
756.22	254.14
756.55	253.29
756.88	252.48
757.20	250.86
757.53	250.19
757.86	250.10
758.19	250.43
758.51	250.19
758.84	248.90
759.17	248.52
759.49	248.86
759.82	249.86
760.15	249.81
760.47	249.62
760.80	248.81
761.13	249.33
761.45	249.33
761.78	249.19
762.11	249.33
762.43	249.10
762.76	248.86
763.08	249.00
763.41	249.29
763.74	249.48
764.06	249.24
764.39	249.19
764.71	248.90
765.04	248.67
765.37	248.33
765.69	248.14
766.02	248.33
766.34	248.00
766.67	246.57
767.00	246.95
767.32	248.24
767.65	249.62
767.97	248.81
768.30	248.67
768.62	248.57
768.95	248.19
769.27	248.10
769.60	248.76
769.92	248.19
770.25	247.86
770.57	247.38
770.90	247.48
771.22	246.95
771.55	247.05
771.87	246.95
772.20	247.00
772.52	249.14
772.85	251.81
773.17	251.57
773.50	251.90
773.82	251.67
774.15	250.48
774.47	249.10
774.80	249.00
775.12	249.05
775.45	248.76
775.77	249.24
776.09	249.38
776.42	249.19
776.74	249.90
777.07	249.43
777.39	249.33
777.72	249.05
778.04	249.24
778.36	248.67
778.69	248.76
779.01	248.67
779.33	246.57
779.66	243.81
779.98	244.00
780.31	243.71
780.63	244.43
780.95	244.81
781.28	244.52
781.60	244.29
781.92	244.38
782.25	244.43
782.57	244.33
782.89	244.24
783.22	244.00
783.54	243.38
783.86	243.71
784.19	243.52
784.51	244.05
784.83	243.90
785.16	243.86
785.48	243.62
785.80	243.71
786.12	243.67
786.45	243.81
786.77	243.76
787.09	243.57
787.42	242.62
787.74	242.71
788.06	242.67
788.38	242.90
788.71	242.48
789.03	242.90
789.35	242.95
789.67	242.57
789.99	242.76
790.32	242.43
790.64	242.67
790.96	244.71
791.28	244.00
791.61	243.90
791.93	244.14
792.25	244.29
792.57	246.19
792.89	245.95
793.21	245.81
793.54	245.62
