SpectraSuite Data File
++++++++++++++++++++++++++++++++++++
Date: Wed Nov 07 18:31:46 EST 2012
User: group
Dark Spectrum Present: No
Reference Spectrum Present: No
Number of Sampled Component Spectra: 1
Spectrometers: USB2E7196
Integration Time (usec): 1000000 (USB2E7196)
Spectra Averaged: 1 (USB2E7196)
Boxcar Smoothing: 10 (USB2E7196)
Correct for Electrical Dark: No (USB2E7196)
Strobe/Lamp Enabled: No (USB2E7196)
Correct for Detector Non-linearity: No (USB2E7196)
Correct for Stray Light: No (USB2E7196)
Number of Pixels in Processed Spectrum: 2048
>>>>>Begin Processed Spectral Data<<<<<
339.09	0.00
339.48	217.00
339.86	226.00
340.24	223.00
340.63	226.00
341.01	266.00
341.39	223.00
341.78	240.00
342.16	245.00
342.54	230.00
342.93	223.14
343.31	234.29
343.69	234.86
344.07	235.19
344.46	235.71
344.84	236.43
345.22	234.86
345.60	235.57
345.99	235.62
346.37	235.19
346.75	235.33
347.13	235.48
347.52	235.52
347.90	236.33
348.28	236.43
348.66	237.33
349.05	236.48
349.43	236.62
349.81	237.19
350.19	237.43
350.57	237.33
350.96	237.52
351.34	237.43
351.72	237.52
352.10	237.33
352.48	237.29
352.87	237.00
353.25	236.95
353.63	236.76
354.01	236.48
354.39	236.62
354.77	236.62
355.15	237.05
355.54	236.81
355.92	236.24
356.30	236.29
356.68	237.52
357.06	237.62
357.44	237.24
357.82	236.76
358.20	236.52
358.58	236.71
358.97	236.95
359.35	237.62
359.73	238.29
360.11	238.33
360.49	238.48
360.87	238.38
361.25	239.00
361.63	240.00
362.01	240.19
362.39	240.00
362.77	240.29
363.15	240.52
363.53	240.43
363.91	240.67
364.29	240.33
364.67	238.29
365.05	238.62
365.43	238.81
365.81	239.62
366.19	240.95
366.57	242.24
366.95	242.10
367.33	241.43
367.71	241.43
368.09	242.38
368.47	242.38
368.85	242.57
369.23	243.10
369.61	242.19
369.99	243.05
370.37	243.52
370.75	244.76
371.13	244.19
371.51	243.95
371.89	244.14
372.27	244.62
372.65	244.86
373.03	244.86
373.41	245.00
373.78	244.86
374.16	243.52
374.54	242.67
374.92	242.52
375.30	242.86
375.68	242.29
376.06	242.48
376.44	242.24
376.82	242.24
377.19	241.95
377.57	242.00
377.95	241.05
378.33	241.10
378.71	239.71
379.09	240.33
379.47	240.76
379.84	240.57
380.22	240.24
380.60	239.90
380.98	239.90
381.36	239.76
381.73	239.48
382.11	240.14
382.49	240.43
382.87	240.24
383.25	240.10
383.62	242.95
384.00	242.10
384.38	242.57
384.76	243.38
385.13	244.48
385.51	244.43
385.89	244.29
386.27	243.86
386.64	244.29
387.02	244.00
387.40	243.90
387.78	244.19
388.15	244.38
388.53	244.24
388.91	243.81
389.29	243.76
389.66	244.00
390.04	243.43
390.42	243.57
390.79	243.48
391.17	243.57
391.55	241.10
391.92	241.14
392.30	241.29
392.68	240.52
393.05	240.10
393.43	240.10
393.81	240.00
394.18	239.81
394.56	239.76
394.94	240.05
395.31	239.67
395.69	240.38
396.06	240.81
396.44	241.10
396.82	241.00
397.19	242.29
397.57	242.24
397.95	242.71
398.32	242.38
398.70	243.00
399.07	243.52
399.45	243.48
399.82	243.48
400.20	243.24
400.58	243.48
400.95	242.86
401.33	243.48
401.70	245.86
402.08	246.19
402.45	246.00
402.83	246.95
403.20	247.48
403.58	246.76
403.95	247.48
404.33	248.05
404.71	248.86
405.08	250.24
405.46	250.48
405.83	250.76
406.21	251.10
406.58	251.43
406.96	251.24
407.33	251.76
407.70	252.57
408.08	255.05
408.45	255.57
408.83	256.33
409.20	256.76
409.58	255.81
409.95	257.00
410.33	258.19
410.70	258.14
411.08	259.38
411.45	260.57
411.82	260.86
412.20	262.33
412.57	265.10
412.95	264.38
413.32	266.24
413.69	267.71
414.07	269.19
414.44	271.00
414.82	273.57
415.19	275.67
415.56	277.95
415.94	279.00
416.31	282.43
416.68	285.33
417.06	288.38
417.43	291.86
417.81	295.29
418.18	299.10
418.55	302.71
418.93	306.71
419.30	311.33
419.67	316.14
420.04	320.52
420.42	324.43
420.79	331.52
421.16	336.86
421.54	344.19
421.91	350.38
422.28	356.76
422.66	362.90
423.03	371.67
423.40	378.29
423.77	385.52
424.15	392.19
424.52	399.71
424.89	408.57
425.26	415.81
425.64	423.52
426.01	431.57
426.38	440.67
426.75	450.43
427.13	459.29
427.50	468.52
427.87	478.48
428.24	488.05
428.61	496.19
428.99	507.71
429.36	517.71
429.73	528.71
430.10	541.14
430.47	553.38
430.85	563.62
431.22	577.33
431.59	592.81
431.96	606.76
432.33	621.76
432.70	636.24
433.08	653.10
433.45	668.76
433.82	683.90
434.19	701.10
434.56	717.05
434.93	733.57
435.30	749.52
435.68	766.95
436.05	783.90
436.42	800.90
436.79	816.52
437.16	833.38
437.53	850.57
437.90	866.14
438.27	882.71
438.64	899.76
439.01	914.95
439.38	926.52
439.75	939.86
440.13	955.29
440.50	968.81
440.87	980.95
441.24	992.24
441.61	1005.67
441.98	1014.29
442.35	1024.43
442.72	1034.57
443.09	1046.43
443.46	1051.57
443.83	1055.10
444.20	1057.95
444.57	1061.19
444.94	1062.24
445.31	1064.57
445.68	1069.67
446.05	1069.14
446.42	1065.33
446.79	1062.57
447.16	1060.38
447.53	1056.90
447.90	1048.19
448.27	1040.24
448.64	1029.38
449.01	1021.52
449.37	1009.52
449.74	997.67
450.11	987.05
450.48	971.76
450.85	955.19
451.22	942.05
451.59	929.86
451.96	917.19
452.33	902.19
452.70	888.00
453.07	870.67
453.43	850.57
453.80	834.95
454.17	820.38
454.54	805.05
454.91	788.24
455.28	772.00
455.65	757.62
456.02	747.33
456.38	735.00
456.75	721.14
457.12	707.81
457.49	695.33
457.86	680.33
458.23	671.00
458.59	660.00
458.96	649.29
459.33	638.81
459.70	630.00
460.07	622.14
460.43	613.10
460.80	605.52
461.17	597.10
461.54	589.43
461.91	581.71
462.27	574.14
462.64	567.43
463.01	561.24
463.38	555.14
463.74	544.43
464.11	538.62
464.48	532.52
464.85	526.86
465.21	523.19
465.58	518.81
465.95	512.19
466.32	507.71
466.68	502.81
467.05	498.52
467.42	493.67
467.78	488.43
468.15	484.14
468.52	480.43
468.88	476.81
469.25	472.19
469.62	469.48
469.98	466.05
470.35	463.14
470.72	460.33
471.08	456.67
471.45	453.81
471.82	450.95
472.18	448.48
472.55	446.57
472.92	443.24
473.28	440.81
473.65	438.57
474.02	436.10
474.38	434.67
474.75	432.86
475.11	430.38
475.48	429.05
475.85	427.48
476.21	425.62
476.58	424.14
476.94	423.29
477.31	422.05
477.67	421.19
478.04	420.00
478.41	419.24
478.77	420.67
479.14	420.14
479.50	419.81
479.87	419.57
480.23	419.29
480.60	419.48
480.96	419.24
481.33	420.29
481.69	420.52
482.06	420.38
482.42	421.62
482.79	422.57
483.15	423.29
483.52	424.62
483.88	425.33
484.25	426.62
484.61	427.71
484.98	428.52
485.34	430.19
485.71	431.71
486.07	432.62
486.44	431.81
486.80	432.86
487.17	434.29
487.53	436.67
487.90	438.52
488.26	441.00
488.62	443.76
488.99	445.00
489.35	446.90
489.72	449.00
490.08	450.19
490.44	451.95
490.81	454.38
491.17	456.10
491.54	458.76
491.90	461.05
492.26	463.10
492.63	465.29
492.99	467.29
493.36	470.57
493.72	473.95
494.08	476.95
494.45	480.48
494.81	484.14
495.17	486.24
495.54	489.48
495.90	491.67
496.26	494.52
496.63	498.71
496.99	502.62
497.35	506.86
497.72	511.29
498.08	515.38
498.44	519.19
498.80	523.62
499.17	527.29
499.53	531.38
499.89	536.38
500.26	540.86
500.62	545.33
500.98	550.10
501.34	554.67
501.71	560.19
502.07	565.38
502.43	569.81
502.79	574.48
503.16	579.43
503.52	584.52
503.88	589.29
504.24	593.86
504.60	598.71
504.97	603.48
505.33	607.90
505.69	614.57
506.05	619.86
506.41	625.00
506.78	630.86
507.14	636.14
507.50	641.05
507.86	647.00
508.22	652.29
508.59	657.38
508.95	662.14
509.31	667.86
509.67	672.52
510.03	677.62
510.39	682.95
510.75	688.00
511.12	693.29
511.48	698.95
511.84	704.14
512.20	708.67
512.56	713.67
512.92	719.48
513.28	723.14
513.64	727.81
514.00	732.52
514.37	736.76
514.73	741.90
515.09	747.05
515.45	750.71
515.81	755.48
516.17	759.29
516.53	764.19
516.89	766.43
517.25	770.48
517.61	773.90
517.97	777.76
518.33	781.57
518.69	786.19
519.05	790.14
519.41	794.19
519.77	799.81
520.13	803.10
520.49	805.38
520.85	808.76
521.21	813.38
521.57	817.43
521.93	820.10
522.29	822.86
522.65	824.71
523.01	828.29
523.37	830.05
523.73	833.29
524.09	834.95
524.45	837.19
524.81	839.43
525.17	842.95
525.53	845.05
525.89	847.05
526.25	848.33
526.61	848.90
526.97	850.14
527.33	850.86
527.68	854.62
528.04	856.90
528.40	858.05
528.76	858.71
529.12	858.95
529.48	860.71
529.84	861.05
530.20	862.62
530.56	863.62
530.91	865.05
531.27	865.14
531.63	867.05
531.99	869.14
532.35	870.67
532.71	870.05
533.07	871.38
533.42	874.76
533.78	875.48
534.14	877.14
534.50	878.86
534.86	879.81
535.21	878.52
535.57	879.67
535.93	880.67
536.29	882.81
536.65	884.48
537.00	886.38
537.36	888.24
537.72	890.19
538.08	892.19
538.44	894.05
538.79	896.48
539.15	897.57
539.51	900.10
539.87	901.76
540.22	904.19
540.58	906.24
540.94	906.48
541.29	909.24
541.65	911.05
542.01	913.00
542.37	915.00
542.72	916.00
543.08	916.05
543.44	916.38
543.79	915.05
544.15	914.71
544.51	914.38
544.87	913.86
545.22	912.95
545.58	911.48
545.94	909.81
546.29	907.90
546.65	906.10
547.01	902.48
547.36	900.33
547.72	897.95
548.07	895.29
548.43	891.48
548.79	887.33
549.14	884.14
549.50	880.76
549.86	876.19
550.21	874.10
550.57	872.14
550.92	869.14
551.28	866.81
551.64	864.14
551.99	861.00
552.35	858.14
552.70	855.76
553.06	853.52
553.41	851.38
553.77	850.00
554.13	847.62
554.48	846.43
554.84	843.95
555.19	842.19
555.55	841.38
555.90	840.14
556.26	838.95
556.61	836.76
556.97	833.71
557.32	832.24
557.68	829.86
558.03	827.48
558.39	826.57
558.74	824.86
559.10	822.81
559.45	821.33
559.81	820.10
560.16	817.33
560.52	815.33
560.87	814.05
561.23	811.33
561.58	811.57
561.94	809.52
562.29	808.38
562.64	806.95
563.00	803.71
563.35	801.95
563.71	800.00
564.06	799.10
564.42	798.00
564.77	797.19
565.12	796.14
565.48	796.81
565.83	795.29
566.19	793.81
566.54	792.48
566.89	790.95
567.25	790.43
567.60	791.10
567.96	792.14
568.31	792.19
568.66	792.90
569.02	789.95
569.37	788.29
569.72	787.10
570.08	785.95
570.43	784.90
570.78	783.38
571.14	782.38
571.49	780.33
571.84	779.48
572.20	777.67
572.55	776.24
572.90	773.71
573.26	772.05
573.61	770.29
573.96	770.24
574.31	769.19
574.67	766.90
575.02	764.76
575.37	760.67
575.72	757.81
576.08	755.38
576.43	754.14
576.78	752.76
577.13	751.71
577.49	750.05
577.84	748.52
578.19	748.05
578.54	747.43
578.90	746.76
579.25	745.24
579.60	744.43
579.95	743.00
580.30	741.43
580.66	740.57
581.01	739.62
581.36	737.29
581.71	735.81
582.06	736.19
582.42	734.33
582.77	733.62
583.12	732.52
583.47	730.10
583.82	729.10
584.17	727.57
584.53	726.43
584.88	724.67
585.23	724.29
585.58	721.05
585.93	717.95
586.28	715.81
586.63	713.71
586.98	711.52
587.34	709.43
587.69	706.48
588.04	703.48
588.39	700.38
588.74	697.62
589.09	695.19
589.44	691.05
589.79	688.19
590.14	685.10
590.49	682.14
590.84	679.19
591.19	676.00
591.54	673.52
591.89	669.14
592.25	668.43
592.60	664.10
592.95	662.29
593.30	660.24
593.65	657.43
594.00	653.48
594.35	657.33
594.70	654.24
595.05	652.00
595.40	649.81
595.75	647.29
596.10	644.62
596.45	641.48
596.80	639.00
597.15	636.43
597.50	633.24
597.85	631.24
598.19	629.14
598.54	626.43
598.89	622.90
599.24	620.33
599.59	615.76
599.94	613.24
600.29	610.19
600.64	607.52
600.99	605.95
601.34	604.76
601.69	594.71
602.04	592.14
602.39	589.76
602.74	587.71
603.08	586.19
603.43	584.76
603.78	582.76
604.13	580.57
604.48	579.14
604.83	578.71
605.18	577.38
605.53	577.86
605.87	579.29
606.22	583.05
606.57	587.81
606.92	592.86
607.27	598.86
607.62	603.52
607.96	608.43
608.31	611.57
608.66	615.52
609.01	619.67
609.36	623.05
609.70	626.86
610.05	628.81
610.40	630.76
610.75	633.14
611.10	635.76
611.44	636.86
611.79	637.10
612.14	636.86
612.49	635.52
612.83	633.19
613.18	629.43
613.53	623.71
613.88	616.86
614.22	608.67
614.57	600.24
614.92	592.48
615.27	584.76
615.61	577.76
615.96	570.71
616.31	564.29
616.65	558.67
617.00	551.57
617.35	545.57
617.70	539.62
618.04	533.43
618.39	527.48
618.74	523.67
619.08	519.67
619.43	516.29
619.78	512.71
620.12	509.43
620.47	506.43
620.82	503.29
621.16	500.24
621.51	499.10
621.85	496.95
622.20	495.24
622.55	492.24
622.89	489.38
623.24	486.81
623.59	484.10
623.93	482.19
624.28	480.48
624.62	481.90
624.97	481.81
625.32	480.05
625.66	478.86
626.01	476.29
626.35	474.43
626.70	472.43
627.04	471.52
627.39	469.90
627.73	468.90
628.08	467.62
628.43	465.71
628.77	462.90
629.12	460.48
629.46	458.19
629.81	456.76
630.15	455.33
630.50	453.52
630.84	451.43
631.19	448.76
631.53	446.33
631.88	441.24
632.22	437.33
632.57	435.33
632.91	432.52
633.26	430.33
633.60	427.48
633.95	424.81
634.29	421.81
634.64	419.19
634.98	416.38
635.32	415.05
635.67	413.33
636.01	411.48
636.36	409.24
636.70	408.10
637.05	405.90
637.39	404.00
637.73	402.48
638.08	401.76
638.42	399.86
638.77	398.24
639.11	396.67
639.45	395.10
639.80	393.76
640.14	392.52
640.49	391.14
640.83	390.14
641.17	389.14
641.52	387.95
641.86	387.00
642.20	386.52
642.55	384.52
642.89	383.19
643.23	381.95
643.58	381.76
643.92	379.62
644.26	378.76
644.61	378.24
644.95	377.05
645.29	375.43
645.64	375.57
645.98	374.62
646.32	374.29
646.66	373.67
647.01	372.52
647.35	371.81
647.69	371.38
648.04	371.38
648.38	370.19
648.72	368.90
649.06	367.43
649.41	366.14
649.75	365.33
650.09	364.62
650.43	363.29
650.78	361.95
651.12	361.10
651.46	360.05
651.80	358.48
652.14	357.05
652.49	356.62
652.83	354.81
653.17	353.90
653.51	352.33
653.85	351.10
654.20	349.90
654.54	348.57
654.88	346.57
655.22	344.62
655.56	343.29
655.90	342.67
656.25	341.76
656.59	340.19
656.93	339.14
657.27	338.43
657.61	337.67
657.95	336.86
658.29	336.67
658.64	336.57
658.98	335.81
659.32	335.29
659.66	333.90
660.00	333.52
660.34	332.52
660.68	331.76
661.02	331.14
661.36	330.38
661.70	329.57
662.05	329.19
662.39	329.71
662.73	330.38
663.07	331.14
663.41	331.10
663.75	330.52
664.09	330.19
664.43	329.19
664.77	328.62
665.11	327.86
665.45	326.62
665.79	326.00
666.13	325.38
666.47	324.76
666.81	324.10
667.15	322.52
667.49	322.43
667.83	322.57
668.17	321.86
668.51	321.19
668.85	321.00
669.19	321.38
669.53	319.33
669.87	317.57
670.21	315.52
670.55	315.00
670.89	315.76
671.23	315.00
671.57	314.48
671.91	313.81
672.25	313.29
672.58	313.81
672.92	312.14
673.26	311.38
673.60	311.19
673.94	310.86
674.28	310.67
674.62	310.19
674.96	309.19
675.30	308.95
675.64	308.57
675.97	307.62
676.31	306.62
676.65	306.14
676.99	306.62
677.33	305.95
677.67	305.14
678.01	302.95
678.34	302.57
678.68	302.43
679.02	301.76
679.36	300.90
679.70	299.71
680.04	299.71
680.37	299.24
680.71	298.38
681.05	298.24
681.39	298.14
681.73	297.57
682.06	297.10
682.40	296.86
682.74	297.00
683.08	297.67
683.42	296.95
683.75	297.38
684.09	296.43
684.43	296.10
684.77	295.33
685.10	295.52
685.44	295.19
685.78	294.71
686.12	294.43
686.45	294.24
686.79	293.24
687.13	293.19
687.46	293.14
687.80	293.38
688.14	292.48
688.48	292.48
688.81	291.95
689.15	292.14
689.49	291.38
689.82	290.81
690.16	289.33
690.50	288.81
690.83	287.90
691.17	287.29
691.51	287.05
691.84	286.90
692.18	286.14
692.52	285.33
692.85	285.14
693.19	285.86
693.52	285.48
693.86	285.14
694.20	284.76
694.53	284.29
694.87	283.33
695.21	282.38
695.54	281.67
695.88	280.90
696.21	279.43
696.55	279.19
696.88	278.62
697.22	278.05
697.56	278.10
697.89	278.00
698.23	277.86
698.56	277.33
698.90	277.38
699.23	276.90
699.57	276.90
699.90	276.29
700.24	275.43
700.58	275.29
700.91	275.95
701.25	277.62
701.58	278.52
701.92	279.24
702.25	280.14
702.59	279.95
702.92	280.57
703.26	281.38
703.59	282.05
703.93	284.24
704.26	285.14
704.60	285.81
704.93	286.29
705.26	286.67
705.60	287.29
705.93	287.19
706.27	288.48
706.60	289.43
706.94	290.62
707.27	290.33
707.61	290.57
707.94	290.33
708.27	288.57
708.61	287.76
708.94	287.52
709.28	287.24
709.61	286.90
709.94	286.52
710.28	285.48
710.61	284.43
710.95	281.52
711.28	282.52
711.61	281.29
711.95	280.81
712.28	279.62
712.61	278.90
712.95	279.43
713.28	279.62
713.61	278.10
713.95	276.62
714.28	276.14
714.61	275.33
714.95	274.33
715.28	273.24
715.61	272.52
715.95	271.71
716.28	271.05
716.61	271.00
716.95	270.29
717.28	270.00
717.61	269.33
717.94	268.95
718.28	266.43
718.61	265.81
718.94	264.62
719.27	264.10
719.61	263.76
719.94	262.57
720.27	260.81
720.60	260.43
720.94	259.71
721.27	259.43
721.60	259.43
721.93	259.48
722.27	260.10
722.60	259.95
722.93	259.48
723.26	259.52
723.59	258.90
723.93	258.86
724.26	258.81
724.59	258.90
724.92	258.76
725.25	259.52
725.59	259.62
725.92	260.14
726.25	260.33
726.58	260.10
726.91	259.76
727.24	259.86
727.57	259.76
727.91	259.76
728.24	260.19
728.57	259.86
728.90	259.57
729.23	258.67
729.56	259.81
729.89	259.86
730.22	259.29
730.55	259.00
730.89	258.71
731.22	258.76
731.55	258.86
731.88	259.29
732.21	258.95
732.54	258.52
732.87	258.10
733.20	257.71
733.53	257.81
733.86	258.14
734.19	257.76
734.52	257.95
734.85	259.24
735.18	258.48
735.51	259.05
735.84	259.52
736.17	260.10
736.50	258.43
736.83	261.10
737.16	261.00
737.49	261.24
737.82	260.81
738.15	260.81
738.48	260.38
738.81	260.05
739.14	259.24
739.47	259.14
739.80	259.00
740.13	259.48
740.46	259.05
740.79	258.33
741.12	258.43
741.45	258.05
741.78	257.00
742.11	257.67
742.44	256.90
742.77	256.86
743.10	256.67
743.43	256.57
743.75	253.76
744.08	256.95
744.41	256.52
744.74	256.57
745.07	256.24
745.40	256.62
745.73	257.52
746.06	257.52
746.39	257.57
746.71	257.19
747.04	256.38
747.37	256.14
747.70	256.57
748.03	256.67
748.36	256.76
748.68	256.48
749.01	255.33
749.34	255.10
749.67	255.14
750.00	255.29
750.33	257.24
750.65	257.43
750.98	254.05
751.31	253.95
751.64	253.90
751.97	255.05
752.29	254.62
752.62	253.19
752.95	253.19
753.28	252.81
753.60	252.81
753.93	253.62
754.26	253.57
754.59	252.90
754.91	252.52
755.24	252.43
755.57	252.29
755.90	252.38
756.22	252.29
756.55	251.62
756.88	250.62
757.20	248.57
757.53	247.71
757.86	248.10
758.19	248.29
758.51	248.62
758.84	247.57
759.17	247.24
759.49	247.43
759.82	248.43
760.15	249.10
760.47	248.81
760.80	248.38
761.13	248.95
761.45	248.90
761.78	248.81
762.11	248.90
762.43	248.48
762.76	248.81
763.08	248.86
763.41	249.14
763.74	249.43
764.06	249.33
764.39	249.52
764.71	249.19
765.04	248.76
765.37	248.10
765.69	247.81
766.02	247.81
766.34	247.76
766.67	246.90
767.00	247.19
767.32	248.76
767.65	250.10
767.97	249.71
768.30	249.62
768.62	249.48
768.95	249.19
769.27	249.48
769.60	249.62
769.92	249.38
770.25	249.00
770.57	248.43
770.90	248.38
771.22	248.19
771.55	248.33
771.87	248.71
772.20	249.00
772.52	251.33
772.85	254.33
773.17	254.48
773.50	254.48
773.82	253.90
774.15	252.76
774.47	251.38
774.80	251.14
775.12	251.33
775.45	251.38
775.77	251.48
776.09	251.71
776.42	251.52
776.74	252.57
777.07	252.24
777.39	252.71
777.72	252.57
778.04	253.00
778.36	252.33
778.69	252.19
779.01	252.14
779.33	249.76
779.66	246.67
779.98	246.29
780.31	245.90
780.63	246.86
780.95	247.10
781.28	246.71
781.60	246.43
781.92	246.24
782.25	246.10
782.57	246.10
782.89	245.71
783.22	245.38
783.54	244.43
783.86	244.62
784.19	244.14
784.51	245.14
784.83	244.86
785.16	244.76
785.48	244.62
785.80	244.90
786.12	245.29
786.45	245.43
786.77	245.71
787.09	245.95
787.42	245.24
787.74	245.29
788.06	245.33
788.38	245.43
788.71	245.05
789.03	245.14
789.35	245.52
789.67	245.33
789.99	245.57
790.32	245.33
790.64	245.57
790.96	247.38
791.28	246.62
791.61	246.29
791.93	246.71
792.25	246.76
792.57	248.33
792.89	247.90
793.21	248.29
793.54	248.10
793.86	247.90
