SpectraSuite Data File
++++++++++++++++++++++++++++++++++++
Date: Wed Nov 07 18:32:08 EST 2012
User: group
Dark Spectrum Present: No
Reference Spectrum Present: No
Number of Sampled Component Spectra: 1
Spectrometers: USB2E7196
Integration Time (usec): 1000000 (USB2E7196)
Spectra Averaged: 1 (USB2E7196)
Boxcar Smoothing: 10 (USB2E7196)
Correct for Electrical Dark: No (USB2E7196)
Strobe/Lamp Enabled: No (USB2E7196)
Correct for Detector Non-linearity: No (USB2E7196)
Correct for Stray Light: No (USB2E7196)
Number of Pixels in Processed Spectrum: 2048
>>>>>Begin Processed Spectral Data<<<<<
339.09	0.00
339.48	218.00
339.86	221.00
340.24	222.00
340.63	229.00
341.01	257.00
341.39	230.00
341.78	234.00
342.16	236.00
342.54	237.00
342.93	223.86
343.31	234.86
343.69	235.62
344.07	236.33
344.46	237.38
344.84	237.71
345.22	236.67
345.60	236.90
345.99	237.10
346.37	236.95
346.75	236.76
347.13	236.90
347.52	236.81
347.90	237.67
348.28	237.86
348.66	238.38
349.05	237.76
349.43	238.14
349.81	238.24
350.19	238.10
350.57	238.19
350.96	238.57
351.34	238.81
351.72	238.76
352.10	238.62
352.48	238.05
352.87	237.86
353.25	237.81
353.63	237.81
354.01	237.52
354.39	237.71
354.77	237.86
355.15	238.48
355.54	238.48
355.92	237.81
356.30	237.81
356.68	238.95
357.06	239.24
357.44	238.67
357.82	238.52
358.20	238.67
358.58	238.52
358.97	238.52
359.35	239.10
359.73	239.81
360.11	239.90
360.49	240.05
360.87	239.95
361.25	240.38
361.63	241.29
362.01	241.62
362.39	241.33
362.77	241.24
363.15	240.95
363.53	240.90
363.91	241.43
364.29	241.19
364.67	238.86
365.05	238.71
365.43	238.95
365.81	239.33
366.19	240.14
366.57	240.67
366.95	240.43
367.33	239.76
367.71	239.57
368.09	240.00
368.47	239.90
368.85	240.05
369.23	240.29
369.61	239.19
369.99	239.86
370.37	240.33
370.75	241.86
371.13	241.43
371.51	241.19
371.89	241.10
372.27	241.24
372.65	241.48
373.03	241.62
373.41	241.57
373.78	241.33
374.16	240.00
374.54	239.81
374.92	239.67
375.30	239.76
375.68	239.29
376.06	239.14
376.44	239.05
376.82	239.05
377.19	238.86
377.57	239.05
377.95	238.29
378.33	238.10
378.71	236.57
379.09	236.86
379.47	237.14
379.84	237.14
380.22	237.14
380.60	237.24
380.98	236.95
381.36	236.86
381.73	236.62
382.11	237.48
382.49	237.48
382.87	236.86
383.25	236.95
383.62	239.90
384.00	239.86
384.38	240.14
384.76	241.10
385.13	241.90
385.51	241.81
385.89	241.38
386.27	241.67
386.64	241.95
387.02	241.86
387.40	241.48
387.78	241.52
388.15	241.76
388.53	241.38
388.91	241.52
389.29	241.52
389.66	242.14
390.04	241.76
390.42	242.38
390.79	243.14
391.17	243.00
391.55	240.48
391.92	240.52
392.30	241.00
392.68	240.19
393.05	239.95
393.43	240.19
393.81	240.38
394.18	239.95
394.56	240.10
394.94	240.48
395.31	240.48
395.69	241.00
396.06	240.86
396.44	241.48
396.82	241.52
397.19	242.33
397.57	242.00
397.95	242.62
398.32	241.71
398.70	242.10
399.07	242.76
399.45	242.57
399.82	242.71
400.20	242.29
400.58	242.52
400.95	241.90
401.33	242.48
401.70	244.24
402.08	244.24
402.45	244.62
402.83	245.33
403.20	245.86
403.58	245.33
403.95	246.05
404.33	246.43
404.71	246.81
405.08	248.52
405.46	248.95
405.83	248.86
406.21	249.43
406.58	249.71
406.96	250.10
407.33	250.71
407.70	251.29
408.08	253.62
408.45	254.43
408.83	255.76
409.20	255.90
409.58	255.52
409.95	256.95
410.33	257.67
410.70	257.57
411.08	258.76
411.45	260.67
411.82	261.62
412.20	263.19
412.57	265.57
412.95	265.19
413.32	267.14
413.69	268.95
414.07	270.38
414.44	272.05
414.82	274.29
415.19	276.57
415.56	278.90
415.94	280.29
416.31	283.48
416.68	286.00
417.06	289.90
417.43	293.67
417.81	297.10
418.18	300.76
418.55	304.81
418.93	309.10
419.30	312.90
419.67	317.43
420.04	322.05
420.42	326.29
420.79	333.71
421.16	339.10
421.54	346.62
421.91	353.43
422.28	360.00
422.66	366.00
423.03	375.48
423.40	382.86
423.77	390.19
424.15	397.05
424.52	404.48
424.89	412.57
425.26	420.19
425.64	428.05
426.01	436.14
426.38	445.24
426.75	454.90
427.13	464.29
427.50	473.71
427.87	483.43
428.24	493.48
428.61	501.67
428.99	512.90
429.36	522.76
429.73	533.81
430.10	545.52
430.47	558.10
430.85	567.43
431.22	580.14
431.59	595.76
431.96	608.71
432.33	623.05
432.70	637.48
433.08	654.05
433.45	669.57
433.82	685.10
434.19	701.71
434.56	717.52
434.93	732.38
435.30	748.10
435.68	764.57
436.05	781.48
436.42	797.71
436.79	812.67
437.16	827.95
437.53	844.90
437.90	862.05
438.27	878.24
438.64	894.95
439.01	910.76
439.38	922.29
439.75	936.48
440.13	951.71
440.50	964.52
440.87	975.90
441.24	987.33
441.61	1000.19
441.98	1009.00
442.35	1018.57
442.72	1030.71
443.09	1043.00
443.46	1049.00
443.83	1053.14
444.20	1056.29
444.57	1060.86
444.94	1063.14
445.31	1065.33
445.68	1068.95
446.05	1068.57
446.42	1065.71
446.79	1063.05
447.16	1059.71
447.53	1056.48
447.90	1049.33
448.27	1041.95
448.64	1031.86
449.01	1024.43
449.37	1011.62
449.74	1000.10
450.11	988.90
450.48	972.67
450.85	955.81
451.22	943.10
451.59	929.86
451.96	918.10
452.33	902.33
452.70	888.62
453.07	871.29
453.43	851.76
453.80	835.48
454.17	820.00
454.54	803.86
454.91	788.14
455.28	772.05
455.65	757.00
456.02	747.67
456.38	735.14
456.75	720.67
457.12	708.38
457.49	696.95
457.86	683.71
458.23	675.00
458.59	663.71
458.96	652.71
459.33	642.67
459.70	632.38
460.07	624.95
460.43	615.33
460.80	607.10
461.17	598.67
461.54	591.33
461.91	584.14
462.27	576.52
462.64	569.76
463.01	563.71
463.38	558.67
463.74	547.33
464.11	541.33
464.48	535.67
464.85	529.95
465.21	525.24
465.58	521.14
465.95	514.95
466.32	510.52
466.68	505.19
467.05	501.38
467.42	497.29
467.78	491.90
468.15	487.71
468.52	484.48
468.88	480.95
469.25	476.76
469.62	473.67
469.98	470.24
470.35	467.62
470.72	464.19
471.08	458.95
471.45	456.81
471.82	453.95
472.18	450.95
472.55	449.10
472.92	446.10
473.28	442.48
473.65	439.81
474.02	437.00
474.38	435.67
474.75	433.33
475.11	430.90
475.48	429.76
475.85	427.81
476.21	426.33
476.58	425.10
476.94	423.67
477.31	422.29
477.67	421.52
478.04	420.14
478.41	419.62
478.77	421.67
479.14	420.38
479.50	420.10
479.87	420.19
480.23	419.81
480.60	419.38
480.96	419.43
481.33	420.52
481.69	421.24
482.06	421.29
482.42	422.29
482.79	423.67
483.15	424.43
483.52	426.67
483.88	427.52
484.25	428.00
484.61	429.33
484.98	430.52
485.34	432.43
485.71	433.76
486.07	434.71
486.44	433.62
486.80	434.86
487.17	436.52
487.53	438.33
487.90	440.48
488.26	443.38
488.62	445.76
488.99	446.43
489.35	448.48
489.72	450.67
490.08	451.86
490.44	452.86
490.81	454.81
491.17	456.05
491.54	458.71
491.90	461.52
492.26	463.62
492.63	466.48
492.99	468.29
493.36	471.10
493.72	474.14
494.08	477.90
494.45	480.86
494.81	484.67
495.17	487.14
495.54	490.76
495.90	493.10
496.26	496.33
496.63	500.76
496.99	504.14
497.35	508.48
497.72	513.24
498.08	517.48
498.44	521.71
498.80	526.52
499.17	530.14
499.53	534.19
499.89	539.19
500.26	543.48
500.62	548.33
500.98	553.57
501.34	558.19
501.71	562.86
502.07	568.05
502.43	571.95
502.79	576.81
503.16	581.81
503.52	587.10
503.88	591.33
504.24	596.71
504.60	602.10
504.97	607.10
505.33	611.76
505.69	617.67
506.05	622.62
506.41	627.62
506.78	633.05
507.14	638.48
507.50	643.86
507.86	649.10
508.22	654.29
508.59	658.57
508.95	663.90
509.31	670.29
509.67	675.62
510.03	681.10
510.39	686.67
510.75	690.95
511.12	696.14
511.48	701.43
511.84	705.81
512.20	710.90
512.56	715.81
512.92	720.29
513.28	724.76
513.64	729.48
514.00	734.43
514.37	739.29
514.73	743.38
515.09	747.33
515.45	751.48
515.81	756.14
516.17	759.76
516.53	764.10
516.89	767.10
517.25	770.90
517.61	775.86
517.97	779.19
518.33	783.24
518.69	786.90
519.05	791.48
519.41	795.62
519.77	799.95
520.13	802.71
520.49	805.57
520.85	808.90
521.21	813.48
521.57	816.05
521.93	818.24
522.29	821.43
522.65	823.38
523.01	825.90
523.37	827.29
523.73	830.52
524.09	832.76
524.45	834.86
524.81	836.86
525.17	838.43
525.53	841.05
525.89	843.14
526.25	844.76
526.61	845.71
526.97	847.00
527.33	848.24
527.68	852.67
528.04	854.86
528.40	855.33
528.76	856.14
529.12	857.62
529.48	860.00
529.84	861.33
530.20	863.52
530.56	865.38
530.91	867.81
531.27	869.19
531.63	870.67
531.99	872.00
532.35	874.05
532.71	874.10
533.07	875.00
533.42	878.71
533.78	879.81
534.14	882.00
534.50	882.86
534.86	884.24
535.21	883.24
535.57	885.62
535.93	887.43
536.29	890.71
536.65	892.10
537.00	892.81
537.36	894.43
537.72	896.52
538.08	899.05
538.44	900.67
538.79	904.10
539.15	906.67
539.51	908.90
539.87	911.00
540.22	914.00
540.58	916.24
540.94	916.43
541.29	918.76
541.65	919.95
542.01	922.24
542.37	923.33
542.72	924.43
543.08	924.00
543.44	924.19
543.79	921.76
544.15	922.67
544.51	923.38
544.87	923.14
545.22	921.95
545.58	919.29
545.94	917.14
546.29	914.33
546.65	911.67
547.01	908.90
547.36	906.33
547.72	903.62
548.07	900.86
548.43	897.38
548.79	894.10
549.14	890.33
549.50	887.00
549.86	883.48
550.21	880.81
550.57	878.57
550.92	875.71
551.28	873.48
551.64	869.76
551.99	867.24
552.35	864.71
552.70	861.90
553.06	860.33
553.41	858.95
553.77	858.00
554.13	855.76
554.48	854.48
554.84	852.29
555.19	850.00
555.55	849.95
555.90	848.29
556.26	846.29
556.61	844.57
556.97	842.62
557.32	840.00
557.68	838.48
558.03	836.67
558.39	835.10
558.74	833.14
559.10	831.76
559.45	829.19
559.81	827.10
560.16	825.43
560.52	823.48
560.87	822.14
561.23	818.67
561.58	817.95
561.94	815.19
562.29	814.05
562.64	813.19
563.00	809.71
563.35	807.67
563.71	806.29
564.06	804.76
564.42	802.52
564.77	802.19
565.12	800.48
565.48	801.29
565.83	800.62
566.19	799.38
566.54	798.00
566.89	796.38
567.25	796.10
567.60	796.76
567.96	797.62
568.31	797.86
568.66	797.76
569.02	795.38
569.37	794.62
569.72	793.48
570.08	791.43
570.43	790.19
570.78	789.19
571.14	787.95
571.49	787.19
571.84	786.86
572.20	785.48
572.55	783.86
572.90	780.10
573.26	778.33
573.61	776.71
573.96	775.33
574.31	775.05
574.67	772.43
575.02	769.43
575.37	765.95
575.72	762.05
576.08	759.95
576.43	758.19
576.78	756.76
577.13	754.52
577.49	753.52
577.84	752.24
578.19	749.71
578.54	748.62
578.90	747.19
579.25	746.00
579.60	745.14
579.95	743.38
580.30	742.57
580.66	741.33
581.01	740.48
581.36	739.19
581.71	737.14
582.06	737.48
582.42	736.38
582.77	734.38
583.12	734.14
583.47	733.14
583.82	732.43
584.17	730.95
584.53	730.76
584.88	728.67
585.23	727.67
585.58	726.90
585.93	724.00
586.28	722.24
586.63	720.29
586.98	718.19
587.34	716.24
587.69	713.52
588.04	711.62
588.39	708.90
588.74	705.62
589.09	703.38
589.44	699.24
589.79	696.38
590.14	693.90
590.49	690.10
590.84	686.43
591.19	683.48
591.54	680.52
591.89	675.67
592.25	674.86
592.60	670.52
592.95	666.90
593.30	665.10
593.65	661.86
594.00	657.10
594.35	660.14
594.70	656.90
595.05	653.81
595.40	650.52
595.75	648.29
596.10	646.14
596.45	642.90
596.80	640.67
597.15	637.90
597.50	635.62
597.85	634.48
598.19	632.38
598.54	629.67
598.89	626.05
599.24	624.43
599.59	619.43
599.94	616.95
600.29	614.95
600.64	611.86
600.99	610.33
601.34	608.67
601.69	599.57
602.04	597.76
602.39	595.57
602.74	593.62
603.08	590.43
603.43	589.29
603.78	587.86
604.13	585.29
604.48	583.33
604.83	582.43
605.18	580.71
605.53	581.05
605.87	582.38
606.22	586.71
606.57	590.71
606.92	595.90
607.27	601.81
607.62	607.43
607.96	612.86
608.31	616.48
608.66	621.76
609.01	625.29
609.36	628.48
609.70	632.10
610.05	635.24
610.40	638.43
610.75	640.14
611.10	641.52
611.44	643.10
611.79	643.57
612.14	642.86
612.49	640.71
612.83	637.76
613.18	633.71
613.53	628.00
613.88	621.05
614.22	613.38
614.57	605.19
614.92	596.67
615.27	589.00
615.61	581.86
615.96	574.33
616.31	568.10
616.65	562.67
617.00	555.57
617.35	548.90
617.70	542.67
618.04	536.67
618.39	531.81
618.74	527.76
619.08	524.00
619.43	520.43
619.78	517.19
620.12	514.33
620.47	511.10
620.82	508.05
621.16	504.76
621.51	503.43
621.85	500.76
622.20	498.76
622.55	495.52
622.89	492.24
623.24	490.05
623.59	487.10
623.93	484.48
624.28	482.43
624.62	483.10
624.97	482.95
625.32	481.24
625.66	479.00
626.01	476.76
626.35	475.33
626.70	473.19
627.04	472.62
627.39	471.00
627.73	470.38
628.08	469.19
628.43	467.62
628.77	464.62
629.12	462.38
629.46	460.05
629.81	458.57
630.15	457.33
630.50	454.62
630.84	452.86
631.19	450.24
631.53	448.52
631.88	443.62
632.22	439.05
632.57	436.71
632.91	434.43
633.26	432.52
633.60	429.24
633.95	426.57
634.29	423.29
634.64	420.38
634.98	417.71
635.32	415.38
635.67	413.81
636.01	411.71
636.36	410.05
636.70	408.67
637.05	406.57
637.39	403.90
637.73	402.71
638.08	401.67
638.42	399.76
638.77	398.29
639.11	396.24
639.45	395.10
639.80	393.48
640.14	392.10
640.49	390.10
640.83	389.14
641.17	388.19
641.52	387.14
641.86	386.05
642.20	384.95
642.55	383.33
642.89	381.90
643.23	380.76
643.58	380.57
643.92	378.57
644.26	377.52
644.61	377.90
644.95	376.81
645.29	375.24
645.64	375.19
645.98	374.00
646.32	374.05
646.66	372.90
647.01	371.81
647.35	371.33
647.69	370.71
648.04	369.81
648.38	369.29
648.72	368.29
649.06	367.29
649.41	365.71
649.75	364.57
650.09	364.14
650.43	363.24
650.78	360.71
651.12	359.71
651.46	358.95
651.80	357.05
652.14	355.67
652.49	355.52
652.83	353.95
653.17	352.62
653.51	350.81
653.85	350.10
654.20	348.95
654.54	346.95
654.88	345.38
655.22	344.00
655.56	342.48
655.90	341.48
656.25	340.48
656.59	340.00
656.93	339.05
657.27	338.29
657.61	337.52
657.95	337.57
658.29	337.00
658.64	336.38
658.98	335.76
659.32	335.05
659.66	333.62
660.00	333.19
660.34	332.67
660.68	332.57
661.02	332.29
661.36	331.71
661.70	331.19
662.05	330.38
662.39	330.33
662.73	330.52
663.07	331.33
663.41	331.14
663.75	330.00
664.09	329.76
664.43	328.33
664.77	327.86
665.11	326.48
665.45	325.67
665.79	325.24
666.13	324.48
666.47	323.76
666.81	323.24
667.15	322.10
667.49	321.62
667.83	321.29
668.17	319.95
668.51	319.19
668.85	318.95
669.19	319.48
669.53	318.29
669.87	316.86
670.21	315.05
670.55	314.38
670.89	315.05
671.23	314.00
671.57	313.52
671.91	312.62
672.25	312.48
672.58	312.86
672.92	311.38
673.26	311.05
673.60	310.43
673.94	309.95
674.28	309.33
674.62	309.05
674.96	307.95
675.30	308.10
675.64	308.05
675.97	307.24
676.31	306.10
676.65	305.67
676.99	305.81
677.33	304.71
677.67	304.14
678.01	302.52
678.34	301.90
678.68	301.62
679.02	301.05
679.36	300.38
679.70	299.33
680.04	299.05
680.37	298.62
680.71	298.24
681.05	297.90
681.39	298.00
681.73	297.19
682.06	296.90
682.40	296.29
682.74	296.00
683.08	296.86
683.42	296.05
683.75	296.19
684.09	295.19
684.43	295.19
684.77	294.57
685.10	294.48
685.44	294.52
685.78	294.14
686.12	293.81
686.45	293.52
686.79	292.62
687.13	292.90
687.46	292.57
687.80	293.05
688.14	292.29
688.48	291.90
688.81	292.14
689.15	292.43
689.49	291.71
689.82	291.38
690.16	289.76
690.50	289.52
690.83	288.67
691.17	288.14
691.51	287.86
691.84	287.57
692.18	286.90
692.52	286.24
692.85	285.71
693.19	285.90
693.52	285.52
693.86	285.19
694.20	284.43
694.53	284.00
694.87	283.19
695.21	282.62
695.54	281.86
695.88	280.71
696.21	279.33
696.55	279.29
696.88	278.57
697.22	278.24
697.56	278.14
697.89	277.71
698.23	277.67
698.56	277.00
698.90	276.67
699.23	276.29
699.57	276.38
699.90	276.05
700.24	275.38
700.58	275.43
700.91	276.19
701.25	278.14
701.58	278.67
701.92	279.19
702.25	279.81
702.59	279.90
702.92	280.38
703.26	280.95
703.59	281.05
703.93	283.81
704.26	284.62
704.60	285.57
704.93	286.19
705.26	286.48
705.60	287.48
705.93	287.29
706.27	288.24
706.60	288.90
706.94	290.52
707.27	290.43
707.61	290.76
707.94	290.48
708.27	288.71
708.61	288.00
708.94	287.43
709.28	287.05
709.61	286.76
709.94	286.24
710.28	285.48
710.61	284.95
710.95	281.48
711.28	282.33
711.61	281.14
711.95	280.67
712.28	279.76
712.61	278.81
712.95	279.71
713.28	279.95
713.61	278.57
713.95	276.67
714.28	276.19
714.61	274.95
714.95	274.10
715.28	272.76
715.61	271.95
715.95	271.62
716.28	270.67
716.61	270.19
716.95	269.62
717.28	269.33
717.61	268.86
717.94	268.71
718.28	266.33
718.61	265.71
718.94	265.00
719.27	264.57
719.61	264.29
719.94	263.00
720.27	261.29
720.60	261.00
720.94	260.71
721.27	260.62
721.60	260.90
721.93	260.43
722.27	261.38
722.60	261.76
722.93	261.00
723.26	261.14
723.59	260.71
723.93	260.67
724.26	260.52
724.59	260.14
724.92	260.24
725.25	261.00
725.59	260.76
725.92	260.86
726.25	260.76
726.58	260.38
726.91	260.33
727.24	260.71
727.57	260.57
727.91	260.05
728.24	260.24
728.57	259.38
728.90	259.62
729.23	258.48
729.56	259.14
729.89	259.52
730.22	259.05
730.55	258.76
730.89	258.67
731.22	258.43
731.55	258.43
731.88	258.43
732.21	257.52
732.54	257.19
732.87	256.95
733.20	257.05
733.53	256.90
733.86	256.67
734.19	256.14
734.52	256.52
734.85	258.19
735.18	257.48
735.51	258.38
735.84	258.24
736.17	259.19
736.50	257.86
736.83	260.14
737.16	260.24
737.49	260.52
737.82	260.24
738.15	260.67
738.48	260.48
738.81	259.86
739.14	259.71
739.47	259.81
739.80	259.76
740.13	259.86
740.46	259.43
740.79	259.52
741.12	259.10
741.45	258.57
741.78	257.00
742.11	257.76
742.44	257.43
742.77	258.05
743.10	257.48
743.43	257.52
743.75	255.14
744.08	258.00
744.41	257.62
744.74	257.43
745.07	257.10
745.40	257.71
745.73	259.24
746.06	259.14
746.39	259.19
746.71	258.71
747.04	258.19
747.37	258.43
747.70	258.71
748.03	259.05
748.36	259.19
748.68	259.29
749.01	258.24
749.34	257.86
749.67	257.57
750.00	257.76
750.33	259.48
750.65	259.29
750.98	256.00
751.31	256.14
751.64	256.19
751.97	257.33
752.29	256.71
752.62	255.24
752.95	255.10
753.28	255.14
753.60	255.43
753.93	256.14
754.26	256.05
754.59	255.05
754.91	254.52
755.24	254.29
755.57	253.95
755.90	253.81
756.22	253.48
756.55	252.86
756.88	251.90
757.20	249.95
757.53	249.67
757.86	249.95
758.19	249.81
758.51	249.52
758.84	248.33
759.17	247.90
759.49	247.81
759.82	249.10
760.15	248.86
760.47	248.38
760.80	247.52
761.13	247.71
761.45	247.95
761.78	247.95
762.11	247.86
762.43	247.81
762.76	248.05
763.08	248.38
763.41	248.67
763.74	249.14
764.06	249.14
764.39	248.57
764.71	248.38
765.04	248.29
765.37	248.24
765.69	248.00
766.02	247.90
766.34	247.62
766.67	246.52
767.00	246.95
767.32	248.24
767.65	249.81
767.97	249.52
768.30	249.57
768.62	249.67
768.95	249.14
769.27	248.90
769.60	248.95
769.92	248.52
770.25	248.00
770.57	247.29
770.90	247.19
771.22	247.05
771.55	246.90
771.87	247.24
772.20	247.14
772.52	249.19
772.85	252.29
773.17	252.48
773.50	252.19
773.82	251.67
774.15	250.57
774.47	248.71
774.80	248.52
775.12	248.19
775.45	248.19
775.77	248.43
776.09	248.81
776.42	248.90
776.74	249.86
777.07	249.43
777.39	249.81
777.72	249.76
778.04	250.33
778.36	250.10
778.69	249.57
779.01	249.67
779.33	247.52
779.66	244.90
779.98	244.48
780.31	244.57
780.63	245.86
780.95	246.05
781.28	246.33
781.60	246.10
781.92	246.14
782.25	246.24
782.57	246.05
782.89	245.52
783.22	245.38
783.54	244.52
783.86	245.14
784.19	244.95
784.51	245.48
784.83	244.90
785.16	244.90
785.48	245.14
785.80	245.05
786.12	245.14
786.45	244.81
786.77	245.24
787.09	245.10
787.42	244.00
787.74	244.24
788.06	244.10
788.38	244.10
788.71	243.67
789.03	243.62
789.35	244.19
789.67	244.19
789.99	244.19
790.32	244.00
790.64	244.00
790.96	245.67
791.28	244.57
791.61	244.52
791.93	244.67
792.25	244.76
792.57	246.86
792.89	246.14
793.21	246.14
793.54	245.86
793.86	245.71
