SpectraSuite Data File
++++++++++++++++++++++++++++++++++++
Date: Wed Nov 07 18:32:43 EST 2012
User: group
Dark Spectrum Present: No
Reference Spectrum Present: No
Number of Sampled Component Spectra: 1
Spectrometers: USB2E7196
Integration Time (usec): 1000000 (USB2E7196)
Spectra Averaged: 1 (USB2E7196)
Boxcar Smoothing: 10 (USB2E7196)
Correct for Electrical Dark: No (USB2E7196)
Strobe/Lamp Enabled: No (USB2E7196)
Correct for Detector Non-linearity: No (USB2E7196)
Correct for Stray Light: No (USB2E7196)
Number of Pixels in Processed Spectrum: 2048
>>>>>Begin Processed Spectral Data<<<<<
339.09	0.00
339.48	220.00
339.86	221.00
340.24	218.00
340.63	219.00
341.01	259.00
341.39	232.00
341.78	233.00
342.16	235.00
342.54	232.00
342.93	221.76
343.31	232.86
343.69	233.43
344.07	234.05
344.46	234.86
344.84	235.71
345.22	234.71
345.60	234.95
345.99	235.14
346.37	235.14
346.75	235.29
347.13	235.33
347.52	235.43
347.90	236.19
348.28	236.19
348.66	236.62
349.05	235.86
349.43	236.29
349.81	237.14
350.19	237.14
350.57	237.29
350.96	238.10
351.34	238.24
351.72	238.48
352.10	238.52
352.48	238.71
352.87	238.71
353.25	238.52
353.63	238.43
354.01	238.33
354.39	238.90
354.77	239.33
355.15	240.10
355.54	240.19
355.92	239.62
356.30	239.48
356.68	241.43
357.06	241.81
357.44	241.76
357.82	241.29
358.20	241.90
358.58	241.90
358.97	242.24
359.35	242.90
359.73	243.24
360.11	243.24
360.49	243.57
360.87	243.48
361.25	243.95
361.63	245.00
362.01	245.43
362.39	245.24
362.77	245.43
363.15	245.43
363.53	245.52
363.91	245.95
364.29	246.14
364.67	243.62
365.05	243.76
365.43	243.71
365.81	244.05
366.19	245.05
366.57	245.90
366.95	245.67
367.33	244.90
367.71	244.95
368.09	245.52
368.47	245.33
368.85	245.52
369.23	245.95
369.61	244.67
369.99	245.24
370.37	245.24
370.75	245.81
371.13	245.38
371.51	245.10
371.89	245.05
372.27	245.05
372.65	245.24
373.03	245.38
373.41	245.48
373.78	245.48
374.16	244.14
374.54	243.14
374.92	242.86
375.30	243.19
375.68	242.52
376.06	242.57
376.44	242.38
376.82	242.29
377.19	241.95
377.57	242.57
377.95	241.90
378.33	241.76
378.71	240.43
379.09	240.81
379.47	241.10
379.84	240.57
380.22	240.14
380.60	239.57
380.98	239.00
381.36	238.81
381.73	238.14
382.11	238.76
382.49	239.14
382.87	238.71
383.25	238.71
383.62	241.71
384.00	240.90
384.38	240.90
384.76	241.90
385.13	242.67
385.51	242.14
385.89	241.62
386.27	241.48
386.64	241.67
387.02	241.00
387.40	240.76
387.78	241.00
388.15	241.86
388.53	241.71
388.91	241.76
389.29	241.57
389.66	242.05
390.04	241.38
390.42	241.38
390.79	241.67
391.17	241.57
391.55	238.95
391.92	239.43
392.30	239.57
392.68	238.52
393.05	238.38
393.43	238.67
393.81	238.90
394.18	238.90
394.56	239.33
394.94	240.29
395.31	240.33
395.69	241.14
396.06	240.90
396.44	241.33
396.82	241.48
397.19	242.71
397.57	242.43
397.95	243.00
398.32	242.52
398.70	242.86
399.07	243.19
399.45	243.33
399.82	243.10
400.20	242.95
400.58	242.95
400.95	242.29
401.33	242.67
401.70	244.62
402.08	244.52
402.45	244.57
402.83	244.81
403.20	244.90
403.58	244.90
403.95	245.52
404.33	245.76
404.71	246.05
405.08	247.48
405.46	248.29
405.83	248.81
406.21	249.33
406.58	249.67
406.96	249.52
407.33	249.90
407.70	250.86
408.08	253.24
408.45	254.14
408.83	255.38
409.20	255.71
409.58	255.05
409.95	256.38
410.33	257.24
410.70	257.43
411.08	258.95
411.45	259.81
411.82	260.62
412.20	262.52
412.57	265.29
412.95	264.52
413.32	266.10
413.69	267.24
414.07	269.14
414.44	270.76
414.82	273.43
415.19	276.05
415.56	278.24
415.94	279.00
416.31	281.86
416.68	284.19
417.06	288.00
417.43	291.43
417.81	295.24
418.18	299.43
418.55	303.57
418.93	307.24
419.30	311.62
419.67	316.38
420.04	320.86
420.42	324.62
420.79	332.67
421.16	338.57
421.54	345.62
421.91	351.48
422.28	358.43
422.66	365.24
423.03	373.43
423.40	380.57
423.77	387.86
424.15	395.00
424.52	402.81
424.89	411.43
425.26	419.38
425.64	426.95
426.01	434.86
426.38	443.38
426.75	453.10
427.13	462.10
427.50	471.43
427.87	481.71
428.24	491.43
428.61	499.10
428.99	510.48
429.36	521.10
429.73	532.48
430.10	543.57
430.47	555.14
430.85	565.19
431.22	577.81
431.59	594.05
431.96	607.24
432.33	621.95
432.70	635.95
433.08	652.24
433.45	667.33
433.82	682.62
434.19	700.10
434.56	716.14
434.93	731.52
435.30	747.33
435.68	763.76
436.05	781.10
436.42	798.00
436.79	813.90
437.16	831.38
437.53	848.57
437.90	865.24
438.27	882.48
438.64	899.76
439.01	915.62
439.38	927.19
439.75	941.29
440.13	955.67
440.50	969.29
440.87	981.19
441.24	993.14
441.61	1006.57
441.98	1015.10
442.35	1026.43
442.72	1038.29
443.09	1049.33
443.46	1055.71
443.83	1059.24
444.20	1062.29
444.57	1065.90
444.94	1066.86
445.31	1069.10
445.68	1073.95
446.05	1072.81
446.42	1068.86
446.79	1066.10
447.16	1062.10
447.53	1059.24
447.90	1051.81
448.27	1044.00
448.64	1033.71
449.01	1026.38
449.37	1013.33
449.74	1002.10
450.11	990.90
450.48	975.05
450.85	958.57
451.22	945.00
451.59	933.19
451.96	920.33
452.33	903.86
452.70	888.71
453.07	871.52
453.43	851.10
453.80	835.52
454.17	821.14
454.54	806.33
454.91	791.24
455.28	775.43
455.65	761.00
456.02	751.24
456.38	738.52
456.75	723.71
457.12	711.43
457.49	698.95
457.86	683.81
458.23	674.71
458.59	663.95
458.96	653.14
459.33	641.95
459.70	632.14
460.07	624.71
460.43	616.00
460.80	607.76
461.17	599.67
461.54	591.57
461.91	583.81
462.27	575.48
462.64	568.57
463.01	561.86
463.38	556.14
463.74	544.95
464.11	538.62
464.48	532.67
464.85	527.19
465.21	523.10
465.58	518.86
465.95	512.43
466.32	508.62
466.68	503.67
467.05	500.00
467.42	496.05
467.78	490.86
468.15	486.95
468.52	483.86
468.88	480.43
469.25	476.00
469.62	473.71
469.98	470.43
470.35	467.52
470.72	463.81
471.08	459.67
471.45	457.19
471.82	455.33
472.18	452.95
472.55	450.29
472.92	446.81
473.28	443.95
473.65	441.29
474.02	438.71
474.38	436.90
474.75	434.71
475.11	432.05
475.48	430.57
475.85	428.38
476.21	425.81
476.58	424.71
476.94	423.76
477.31	422.10
477.67	420.86
478.04	419.43
478.41	419.10
478.77	421.57
479.14	420.52
479.50	419.29
479.87	418.81
480.23	419.10
480.60	419.24
480.96	419.38
481.33	420.81
481.69	421.29
482.06	422.52
482.42	423.24
482.79	424.95
483.15	426.33
483.52	427.76
483.88	429.14
484.25	429.86
484.61	431.19
484.98	432.52
485.34	434.90
485.71	437.00
486.07	438.62
486.44	436.90
486.80	438.43
487.17	440.19
487.53	442.62
487.90	444.52
488.26	446.86
488.62	448.76
488.99	449.76
489.35	451.19
489.72	452.14
490.08	453.81
490.44	455.00
490.81	456.71
491.17	458.33
491.54	460.57
491.90	463.76
492.26	466.10
492.63	468.33
492.99	470.24
493.36	472.71
493.72	475.14
494.08	478.24
494.45	481.48
494.81	485.10
495.17	487.67
495.54	491.05
495.90	494.19
496.26	497.48
496.63	501.00
496.99	504.86
497.35	509.10
497.72	513.48
498.08	517.43
498.44	522.10
498.80	526.62
499.17	530.90
499.53	534.57
499.89	539.05
500.26	543.62
500.62	547.86
500.98	553.33
501.34	557.57
501.71	563.14
502.07	567.71
502.43	572.86
502.79	577.24
503.16	581.29
503.52	586.00
503.88	590.90
504.24	596.62
504.60	602.10
504.97	607.52
505.33	613.10
505.69	619.71
506.05	624.67
506.41	629.86
506.78	635.10
507.14	640.43
507.50	645.86
507.86	651.48
508.22	657.24
508.59	661.33
508.95	667.81
509.31	673.62
509.67	679.52
510.03	684.05
510.39	689.57
510.75	695.62
511.12	700.76
511.48	706.05
511.84	710.71
512.20	715.14
512.56	719.52
512.92	724.05
513.28	727.76
513.64	731.57
514.00	737.05
514.37	742.14
514.73	746.05
515.09	751.00
515.45	755.38
515.81	759.43
516.17	763.33
516.53	766.76
516.89	769.95
517.25	773.71
517.61	777.95
517.97	781.57
518.33	785.52
518.69	790.29
519.05	794.24
519.41	798.67
519.77	804.00
520.13	807.76
520.49	810.10
520.85	813.14
521.21	817.62
521.57	820.90
521.93	823.05
522.29	826.52
522.65	828.67
523.01	830.90
523.37	833.90
523.73	836.76
524.09	839.33
524.45	841.62
524.81	843.19
525.17	845.90
525.53	848.24
525.89	849.81
526.25	851.62
526.61	852.71
526.97	854.00
527.33	854.52
527.68	858.57
528.04	861.24
528.40	862.86
528.76	864.67
529.12	864.67
529.48	866.90
529.84	868.43
530.20	870.05
530.56	871.52
530.91	872.52
531.27	874.57
531.63	876.10
531.99	876.52
532.35	878.10
532.71	878.14
533.07	879.95
533.42	883.90
533.78	884.38
534.14	885.29
534.50	885.86
534.86	887.95
535.21	887.10
535.57	888.38
535.93	889.00
536.29	891.33
536.65	894.00
537.00	894.81
537.36	896.43
537.72	899.00
538.08	901.86
538.44	904.00
538.79	905.95
539.15	907.90
539.51	910.38
539.87	912.43
540.22	915.76
540.58	917.62
540.94	917.38
541.29	919.81
541.65	922.67
542.01	925.29
542.37	926.38
542.72	927.05
543.08	927.29
543.44	928.90
543.79	927.62
544.15	927.29
544.51	927.48
544.87	925.86
545.22	924.05
545.58	920.90
545.94	918.81
546.29	916.43
546.65	913.81
547.01	910.67
547.36	908.57
547.72	905.52
548.07	902.62
548.43	899.24
548.79	895.05
549.14	891.14
549.50	887.57
549.86	883.29
550.21	880.71
550.57	877.67
550.92	874.76
551.28	872.24
551.64	869.38
551.99	866.86
552.35	865.10
552.70	862.33
553.06	861.33
553.41	860.14
553.77	860.14
554.13	858.33
554.48	857.81
554.84	855.86
555.19	853.81
555.55	853.57
555.90	852.24
556.26	851.52
556.61	850.43
556.97	848.29
557.32	846.95
557.68	845.24
558.03	844.05
558.39	842.29
558.74	840.43
559.10	838.43
559.45	837.52
559.81	835.76
560.16	834.52
560.52	832.67
560.87	830.38
561.23	826.86
561.58	827.10
561.94	824.71
562.29	823.71
562.64	822.14
563.00	819.10
563.35	817.29
563.71	815.33
564.06	813.57
564.42	812.29
564.77	810.19
565.12	808.71
565.48	809.71
565.83	808.81
566.19	807.19
566.54	805.76
566.89	803.62
567.25	803.52
567.60	803.76
567.96	805.48
568.31	805.90
568.66	806.43
569.02	803.14
569.37	801.76
569.72	800.62
570.08	799.33
570.43	797.29
570.78	795.38
571.14	793.62
571.49	792.24
571.84	790.24
572.20	789.05
572.55	787.52
572.90	784.05
573.26	782.43
573.61	781.05
573.96	780.10
574.31	779.38
574.67	776.76
575.02	773.76
575.37	769.81
575.72	767.33
576.08	765.10
576.43	764.81
576.78	763.67
577.13	761.86
577.49	760.38
577.84	760.33
578.19	759.43
578.54	758.95
578.90	757.48
579.25	756.95
579.60	756.19
579.95	754.81
580.30	753.29
580.66	751.71
581.01	750.29
581.36	748.62
581.71	746.38
582.06	746.52
582.42	745.71
582.77	743.48
583.12	742.29
583.47	740.38
583.82	738.81
584.17	737.67
584.53	737.00
584.88	734.19
585.23	732.86
585.58	730.43
585.93	727.86
586.28	726.10
586.63	724.38
586.98	722.24
587.34	720.57
587.69	717.81
588.04	716.05
588.39	713.43
588.74	711.19
589.09	709.86
589.44	705.76
589.79	702.38
590.14	699.48
590.49	695.14
590.84	691.57
591.19	687.57
591.54	684.57
591.89	679.52
592.25	679.33
592.60	674.71
592.95	671.67
593.30	669.38
593.65	666.19
594.00	661.90
594.35	665.81
594.70	662.24
595.05	660.10
595.40	656.71
595.75	653.33
596.10	650.33
596.45	646.14
596.80	644.00
597.15	641.05
597.50	638.10
597.85	637.29
598.19	635.29
598.54	632.71
598.89	629.33
599.24	627.76
599.59	623.29
599.94	621.05
600.29	618.95
600.64	615.76
600.99	613.90
601.34	612.48
601.69	602.76
602.04	600.57
602.39	597.57
602.74	595.71
603.08	594.19
603.43	592.81
603.78	591.05
604.13	588.71
604.48	587.62
604.83	587.19
605.18	585.33
605.53	584.90
605.87	586.38
606.22	589.76
606.57	594.24
606.92	598.90
607.27	605.24
607.62	610.52
607.96	616.24
608.31	620.00
608.66	623.76
609.01	627.81
609.36	631.29
609.70	635.48
610.05	637.62
610.40	640.71
610.75	642.00
611.10	643.86
611.44	644.95
611.79	645.00
612.14	645.43
612.49	643.71
612.83	642.00
613.18	638.67
613.53	633.14
613.88	625.48
614.22	618.05
614.57	608.57
614.92	600.33
615.27	591.76
615.61	584.62
615.96	577.81
616.31	570.62
616.65	564.29
617.00	557.29
617.35	551.38
617.70	545.10
618.04	540.19
618.39	535.14
618.74	530.86
619.08	526.76
619.43	521.90
619.78	518.67
620.12	515.05
620.47	511.48
620.82	508.48
621.16	505.71
621.51	504.62
621.85	502.52
622.20	501.10
622.55	498.95
622.89	496.33
623.24	494.14
623.59	492.05
623.93	490.24
624.28	488.38
624.62	489.24
624.97	488.48
625.32	486.14
625.66	484.05
626.01	481.62
626.35	480.19
626.70	478.57
627.04	478.05
627.39	476.52
627.73	475.71
628.08	474.10
628.43	472.38
628.77	469.52
629.12	467.62
629.46	465.29
629.81	463.33
630.15	461.33
630.50	459.00
630.84	457.10
631.19	454.19
631.53	452.33
631.88	446.95
632.22	443.19
632.57	441.38
632.91	439.14
633.26	437.43
633.60	434.62
633.95	432.33
634.29	428.81
634.64	426.52
634.98	423.29
635.32	421.81
635.67	419.71
636.01	417.10
636.36	414.52
636.70	412.71
637.05	410.81
637.39	409.10
637.73	408.00
638.08	407.43
638.42	405.62
638.77	403.81
639.11	402.24
639.45	400.86
639.80	399.00
640.14	397.86
640.49	396.19
640.83	394.81
641.17	393.33
641.52	392.05
641.86	390.76
642.20	391.05
642.55	388.81
642.89	387.52
643.23	386.81
643.58	386.67
643.92	384.81
644.26	383.67
644.61	383.14
644.95	381.57
645.29	379.29
645.64	379.29
645.98	377.67
646.32	377.67
646.66	376.67
647.01	375.67
647.35	375.43
647.69	374.81
648.04	374.05
648.38	373.62
648.72	372.76
649.06	371.71
649.41	369.67
649.75	368.86
650.09	368.76
650.43	367.52
650.78	365.67
651.12	364.71
651.46	363.24
651.80	361.67
652.14	360.14
652.49	359.57
652.83	357.43
653.17	356.57
653.51	354.90
653.85	353.71
654.20	352.57
654.54	350.00
654.88	348.10
655.22	346.48
655.56	344.90
655.90	343.81
656.25	342.62
656.59	341.62
656.93	340.67
657.27	339.62
657.61	338.38
657.95	338.00
658.29	337.05
658.64	336.76
658.98	335.90
659.32	335.33
659.66	334.29
660.00	334.00
660.34	333.52
660.68	332.57
661.02	332.52
661.36	331.81
661.70	331.86
662.05	331.76
662.39	332.24
662.73	332.19
663.07	333.10
663.41	332.76
663.75	332.00
664.09	332.29
664.43	331.05
664.77	330.29
665.11	329.00
665.45	328.14
665.79	328.33
666.13	327.71
666.47	327.05
666.81	326.29
667.15	325.43
667.49	324.43
667.83	324.90
668.17	323.67
668.51	322.90
668.85	322.10
669.19	322.24
669.53	320.86
669.87	319.86
670.21	317.57
670.55	316.81
670.89	317.48
671.23	316.00
671.57	315.43
671.91	315.57
672.25	315.43
672.58	316.00
672.92	314.57
673.26	314.38
673.60	313.90
673.94	313.81
674.28	313.76
674.62	313.76
674.96	312.81
675.30	312.90
675.64	312.33
675.97	311.90
676.31	310.57
676.65	310.29
676.99	310.29
677.33	309.81
677.67	309.67
678.01	307.67
678.34	307.38
678.68	307.10
679.02	306.05
679.36	305.33
679.70	304.24
680.04	303.57
680.37	302.62
680.71	301.67
681.05	301.14
681.39	300.38
681.73	300.05
682.06	299.29
682.40	298.24
682.74	298.52
683.08	299.24
683.42	298.67
683.75	298.71
684.09	297.57
684.43	297.29
684.77	296.29
685.10	296.14
685.44	295.86
685.78	295.48
686.12	295.33
686.45	295.10
686.79	294.52
687.13	294.38
687.46	294.24
687.80	294.95
688.14	294.10
688.48	293.67
688.81	292.95
689.15	293.10
689.49	292.90
689.82	292.52
690.16	290.43
690.50	290.05
690.83	288.86
691.17	287.76
691.51	287.43
691.84	287.38
692.18	286.71
692.52	285.81
692.85	285.52
693.19	286.00
693.52	285.76
693.86	285.00
694.20	284.71
694.53	284.38
694.87	283.14
695.21	282.81
695.54	282.38
695.88	281.57
696.21	280.43
696.55	280.10
696.88	279.33
697.22	279.38
697.56	279.38
697.89	279.14
698.23	279.43
698.56	278.52
698.90	277.95
699.23	277.90
699.57	277.90
699.90	277.14
700.24	276.10
700.58	275.76
700.91	276.10
701.25	277.76
701.58	278.29
701.92	279.14
702.25	279.67
702.59	279.86
702.92	280.48
703.26	280.90
703.59	281.62
703.93	283.81
704.26	284.48
704.60	284.62
704.93	284.81
705.26	285.48
705.60	286.52
705.93	286.52
706.27	287.33
706.60	288.43
706.94	289.90
707.27	290.19
707.61	290.62
707.94	290.95
708.27	289.38
708.61	288.71
708.94	288.24
709.28	287.76
709.61	287.14
709.94	286.90
710.28	286.14
710.61	285.43
710.95	282.71
711.28	283.38
711.61	282.62
711.95	282.57
712.28	281.19
712.61	280.10
712.95	281.05
713.28	281.00
713.61	279.43
713.95	277.57
714.28	276.62
714.61	275.29
714.95	274.38
715.28	273.05
715.61	272.14
715.95	271.29
716.28	270.38
716.61	270.38
716.95	269.48
717.28	269.24
717.61	268.43
717.94	267.95
718.28	265.71
718.61	265.19
718.94	264.05
719.27	263.67
719.61	263.95
719.94	262.52
720.27	260.90
720.60	260.67
720.94	260.43
721.27	260.19
721.60	260.67
721.93	259.95
722.27	260.57
722.60	260.90
722.93	260.62
723.26	260.38
723.59	259.48
723.93	259.43
724.26	259.52
724.59	258.95
724.92	258.95
725.25	259.57
725.59	259.33
725.92	259.95
726.25	260.00
726.58	259.67
726.91	259.57
727.24	259.67
727.57	259.24
727.91	259.14
728.24	259.43
728.57	258.86
728.90	259.00
729.23	257.90
729.56	258.48
729.89	258.62
730.22	258.48
730.55	258.19
730.89	258.14
731.22	257.71
731.55	258.00
731.88	258.24
732.21	257.57
732.54	257.43
732.87	256.76
733.20	257.10
733.53	256.95
733.86	257.33
734.19	257.29
734.52	257.67
734.85	259.10
735.18	258.71
735.51	259.29
735.84	259.38
736.17	260.38
736.50	259.10
736.83	261.71
737.16	261.76
737.49	262.29
737.82	262.00
738.15	262.48
738.48	262.19
738.81	261.71
739.14	261.52
739.47	261.52
739.80	261.52
740.13	261.43
740.46	261.05
740.79	260.19
741.12	259.67
741.45	259.33
741.78	257.81
742.11	257.86
742.44	257.14
742.77	257.24
743.10	256.52
743.43	256.33
743.75	253.81
744.08	257.00
744.41	256.57
744.74	256.43
745.07	255.52
745.40	256.05
745.73	256.95
746.06	256.81
746.39	257.05
746.71	256.81
747.04	256.43
747.37	256.19
747.70	256.52
748.03	256.95
748.36	257.10
748.68	257.38
749.01	257.10
749.34	257.10
749.67	257.33
750.00	257.29
750.33	259.00
750.65	259.00
750.98	255.90
751.31	256.00
751.64	255.95
751.97	257.62
752.29	257.05
752.62	255.81
752.95	255.57
753.28	254.95
753.60	255.00
753.93	255.38
754.26	255.33
754.59	254.62
754.91	254.05
755.24	253.71
755.57	253.24
755.90	252.86
756.22	252.76
756.55	252.05
756.88	251.95
757.20	250.24
757.53	249.33
757.86	249.24
758.19	249.24
758.51	249.00
758.84	247.48
759.17	247.43
759.49	247.90
759.82	249.19
760.15	249.38
760.47	248.90
760.80	248.19
761.13	248.62
761.45	248.52
761.78	248.62
762.11	249.00
762.43	248.81
762.76	248.86
763.08	248.90
763.41	249.00
763.74	248.90
764.06	249.05
764.39	249.38
764.71	248.90
765.04	248.57
765.37	248.81
765.69	248.62
766.02	248.24
766.34	247.38
766.67	246.38
767.00	247.14
767.32	248.76
767.65	250.29
767.97	250.05
768.30	250.10
768.62	250.19
768.95	249.52
769.27	249.38
769.60	249.48
769.92	249.05
770.25	248.67
770.57	248.24
770.90	247.86
771.22	247.48
771.55	247.90
771.87	248.14
772.20	247.76
772.52	249.71
772.85	252.71
773.17	253.05
773.50	252.62
773.82	251.90
774.15	250.38
774.47	248.48
774.80	248.48
775.12	248.52
775.45	247.81
775.77	247.95
776.09	248.29
776.42	248.14
776.74	249.14
777.07	249.33
777.39	249.43
777.72	249.48
778.04	249.81
778.36	249.67
778.69	249.62
779.01	249.76
779.33	247.67
779.66	245.00
779.98	244.76
780.31	245.00
780.63	246.14
780.95	246.33
781.28	246.62
781.60	246.19
781.92	245.86
782.25	246.29
782.57	246.29
782.89	245.95
783.22	246.00
783.54	245.10
783.86	244.86
784.19	244.76
784.51	245.43
784.83	245.00
785.16	244.33
785.48	244.38
785.80	244.24
786.12	244.24
786.45	243.95
786.77	244.24
787.09	244.52
787.42	243.19
787.74	243.48
788.06	243.81
788.38	243.76
788.71	243.86
789.03	243.95
789.35	244.29
789.67	243.95
789.99	244.29
790.32	244.00
790.64	244.29
790.96	246.33
791.28	245.33
791.61	245.29
791.93	245.90
792.25	245.33
792.57	247.33
792.89	247.33
793.21	247.52
793.54	247.05
793.86	246.43
