SpectraSuite Data File
++++++++++++++++++++++++++++++++++++
Date: Wed Nov 07 18:31:13 EST 2012
User: group
Dark Spectrum Present: No
Reference Spectrum Present: No
Number of Sampled Component Spectra: 1
Spectrometers: USB2E7196
Integration Time (usec): 1000000 (USB2E7196)
Spectra Averaged: 1 (USB2E7196)
Boxcar Smoothing: 10 (USB2E7196)
Correct for Electrical Dark: No (USB2E7196)
Strobe/Lamp Enabled: No (USB2E7196)
Correct for Detector Non-linearity: No (USB2E7196)
Correct for Stray Light: No (USB2E7196)
Number of Pixels in Processed Spectrum: 2048
>>>>>Begin Processed Spectral Data<<<<<
339.09	0.00
339.48	222.00
339.86	216.00
340.24	223.00
340.63	224.00
341.01	258.00
341.39	229.00
341.78	237.00
342.16	234.00
342.54	234.00
342.93	224.29
343.31	235.57
343.69	236.29
344.07	236.81
344.46	237.76
344.84	238.52
345.22	237.52
345.60	237.90
345.99	237.86
346.37	238.05
346.75	238.05
347.13	238.29
347.52	238.43
347.90	239.48
348.28	239.57
348.66	240.14
349.05	239.19
349.43	239.67
349.81	239.67
350.19	240.24
350.57	240.24
350.96	240.86
351.34	241.19
351.72	241.19
352.10	241.76
352.48	241.62
352.87	241.57
353.25	241.67
353.63	241.76
354.01	242.00
354.39	242.24
354.77	242.38
355.15	242.76
355.54	242.43
355.92	241.67
356.30	241.62
356.68	243.05
357.06	243.24
357.44	242.62
357.82	242.76
358.20	242.57
358.58	242.90
358.97	242.67
359.35	243.19
359.73	243.57
360.11	243.57
360.49	243.71
360.87	243.52
361.25	244.00
361.63	245.10
362.01	245.05
362.39	244.86
362.77	245.10
363.15	245.14
363.53	245.19
363.91	245.29
364.29	245.14
364.67	242.95
365.05	242.62
365.43	242.95
365.81	243.10
366.19	244.19
366.57	244.81
366.95	244.67
367.33	243.76
367.71	243.86
368.09	244.33
368.47	244.19
368.85	244.29
369.23	244.52
369.61	243.14
369.99	243.81
370.37	243.95
370.75	245.19
371.13	244.48
371.51	244.14
371.89	244.38
372.27	244.43
372.65	244.76
373.03	244.95
373.41	244.71
373.78	244.52
374.16	243.05
374.54	242.19
374.92	241.81
375.30	241.81
375.68	240.95
376.06	240.43
376.44	240.19
376.82	240.48
377.19	240.00
377.57	240.10
377.95	239.19
378.33	238.90
378.71	237.19
379.09	237.71
379.47	238.05
379.84	237.76
380.22	237.76
380.60	236.95
380.98	237.00
381.36	237.05
381.73	236.76
382.11	237.38
382.49	237.43
382.87	237.43
383.25	237.29
383.62	240.43
384.00	240.33
384.38	240.29
384.76	240.38
385.13	241.33
385.51	241.24
385.89	241.05
386.27	241.19
386.64	241.62
387.02	241.10
387.40	241.00
387.78	241.29
388.15	241.48
388.53	241.43
388.91	241.67
389.29	241.19
389.66	241.62
390.04	241.52
390.42	242.14
390.79	242.19
391.17	242.24
391.55	239.33
391.92	239.38
392.30	239.71
392.68	239.14
393.05	239.05
393.43	239.14
393.81	239.48
394.18	239.24
394.56	239.43
394.94	240.29
395.31	240.19
395.69	240.71
396.06	240.95
396.44	241.43
396.82	240.95
397.19	242.57
397.57	242.52
397.95	242.90
398.32	242.05
398.70	242.43
399.07	243.33
399.45	243.57
399.82	243.57
400.20	243.29
400.58	243.86
400.95	242.95
401.33	243.43
401.70	245.38
402.08	245.90
402.45	245.81
402.83	246.10
403.20	246.33
403.58	245.71
403.95	246.24
404.33	246.57
404.71	246.90
405.08	248.24
405.46	248.43
405.83	248.71
406.21	249.19
406.58	249.57
406.96	249.43
407.33	250.33
407.70	251.38
408.08	254.19
408.45	254.90
408.83	256.24
409.20	256.52
409.58	255.67
409.95	256.52
410.33	257.67
410.70	258.10
411.08	259.62
411.45	261.29
411.82	262.00
412.20	263.67
412.57	266.67
412.95	265.81
413.32	267.52
413.69	268.67
414.07	270.62
414.44	272.38
414.82	274.67
415.19	276.90
415.56	279.00
415.94	279.81
416.31	283.10
416.68	285.81
417.06	289.38
417.43	293.43
417.81	296.90
418.18	300.14
418.55	303.86
418.93	307.76
419.30	312.14
419.67	316.62
420.04	321.05
420.42	324.95
420.79	332.90
421.16	338.86
421.54	346.38
421.91	352.48
422.28	358.86
422.66	366.00
423.03	374.67
423.40	381.76
423.77	389.38
424.15	396.00
424.52	403.76
424.89	412.33
425.26	419.52
425.64	427.29
426.01	436.00
426.38	444.90
426.75	454.24
427.13	463.19
427.50	472.95
427.87	482.90
428.24	492.24
428.61	500.05
428.99	511.38
429.36	521.57
429.73	532.95
430.10	545.57
430.47	558.05
430.85	569.48
431.22	583.71
431.59	600.86
431.96	614.71
432.33	630.76
432.70	645.62
433.08	663.10
433.45	678.48
433.82	694.67
434.19	712.33
434.56	728.67
434.93	744.29
435.30	759.71
435.68	777.24
436.05	794.14
436.42	810.81
436.79	826.29
437.16	843.00
437.53	860.29
437.90	876.76
438.27	892.52
438.64	907.57
439.01	921.57
439.38	931.62
439.75	944.14
440.13	957.33
440.50	970.57
440.87	981.00
441.24	992.29
441.61	1004.19
441.98	1013.33
442.35	1023.14
442.72	1034.33
443.09	1046.19
443.46	1051.95
443.83	1055.86
444.20	1058.33
444.57	1062.14
444.94	1063.05
445.31	1064.43
445.68	1067.81
446.05	1066.38
446.42	1063.52
446.79	1061.24
447.16	1057.29
447.53	1054.71
447.90	1046.81
448.27	1038.76
448.64	1029.00
449.01	1022.24
449.37	1009.71
449.74	997.19
450.11	986.48
450.48	971.48
450.85	954.71
451.22	940.81
451.59	928.81
451.96	917.29
452.33	901.86
452.70	887.19
453.07	870.48
453.43	850.62
453.80	834.71
454.17	819.05
454.54	803.14
454.91	787.81
455.28	772.14
455.65	757.76
456.02	748.43
456.38	735.29
456.75	720.48
457.12	707.57
457.49	695.67
457.86	681.19
458.23	672.05
458.59	661.38
458.96	650.38
459.33	640.05
459.70	630.00
460.07	622.33
460.43	613.95
460.80	605.81
461.17	598.10
461.54	590.95
461.91	584.10
462.27	577.38
462.64	570.81
463.01	564.00
463.38	558.62
463.74	547.38
464.11	541.57
464.48	536.24
464.85	530.90
465.21	526.48
465.58	521.95
465.95	515.19
466.32	510.90
466.68	505.95
467.05	501.52
467.42	497.48
467.78	492.00
468.15	487.33
468.52	484.05
468.88	480.52
469.25	476.38
469.62	473.52
469.98	470.24
470.35	467.00
470.72	464.14
471.08	459.48
471.45	457.14
471.82	454.67
472.18	451.86
472.55	450.00
472.92	446.76
473.28	444.38
473.65	442.10
474.02	439.52
474.38	438.33
474.75	436.29
475.11	433.71
475.48	432.52
475.85	431.29
476.21	430.00
476.58	428.95
476.94	428.10
477.31	426.67
477.67	425.19
478.04	424.29
478.41	423.57
478.77	426.19
479.14	425.19
479.50	425.62
479.87	425.52
480.23	426.05
480.60	426.90
480.96	428.43
481.33	430.29
481.69	431.19
482.06	432.43
482.42	434.86
482.79	437.57
483.15	439.71
483.52	442.52
483.88	444.48
484.25	446.71
484.61	449.24
484.98	451.86
485.34	454.81
485.71	458.29
486.07	461.05
486.44	460.76
486.80	463.43
487.17	465.57
487.53	468.43
487.90	470.71
488.26	474.00
488.62	475.76
488.99	477.05
489.35	479.29
489.72	481.43
490.08	482.57
490.44	483.43
490.81	485.14
491.17	485.62
491.54	487.29
491.90	488.71
492.26	490.29
492.63	491.95
492.99	493.19
493.36	494.81
493.72	497.33
494.08	499.57
494.45	501.76
494.81	504.57
495.17	506.33
495.54	509.43
495.90	510.67
496.26	513.52
496.63	516.62
496.99	519.00
497.35	522.29
497.72	525.48
498.08	529.57
498.44	533.67
498.80	537.43
499.17	541.81
499.53	545.86
499.89	550.14
500.26	554.24
500.62	558.00
500.98	562.05
501.34	566.14
501.71	571.86
502.07	575.76
502.43	580.19
502.79	584.57
503.16	588.48
503.52	593.67
503.88	597.52
504.24	602.76
504.60	608.29
504.97	613.52
505.33	618.29
505.69	623.38
506.05	626.90
506.41	632.48
506.78	636.05
507.14	640.48
507.50	644.95
507.86	649.95
508.22	655.62
508.59	660.29
508.95	664.76
509.31	669.86
509.67	675.24
510.03	679.71
510.39	684.71
510.75	689.57
511.12	694.29
511.48	699.48
511.84	703.38
512.20	708.48
512.56	713.00
512.92	718.19
513.28	722.57
513.64	727.57
514.00	732.19
514.37	737.62
514.73	742.38
515.09	747.05
515.45	751.05
515.81	755.05
516.17	759.71
516.53	763.52
516.89	765.29
517.25	769.43
517.61	774.14
517.97	777.81
518.33	782.48
518.69	786.24
519.05	790.00
519.41	794.19
519.77	798.52
520.13	801.33
520.49	803.33
520.85	806.14
521.21	809.76
521.57	813.00
521.93	815.24
522.29	817.67
522.65	819.76
523.01	821.48
523.37	823.38
523.73	826.00
524.09	828.52
524.45	831.57
524.81	833.76
525.17	835.52
525.53	838.05
525.89	838.71
526.25	841.05
526.61	842.90
526.97	844.10
527.33	844.81
527.68	848.38
528.04	850.76
528.40	851.67
528.76	853.33
529.12	854.29
529.48	855.81
529.84	856.62
530.20	858.81
530.56	861.71
530.91	863.95
531.27	864.90
531.63	865.95
531.99	867.38
532.35	867.95
532.71	868.10
533.07	869.00
533.42	873.81
533.78	875.24
534.14	876.81
534.50	879.10
534.86	882.19
535.21	882.52
535.57	886.29
535.93	889.43
536.29	893.76
536.65	898.00
537.00	904.38
537.36	912.24
537.72	919.14
538.08	928.10
538.44	936.90
538.79	948.24
539.15	959.38
539.51	971.05
539.87	982.67
540.22	994.95
540.58	1007.57
540.94	1017.95
541.29	1030.19
541.65	1041.76
542.01	1052.33
542.37	1061.52
542.72	1069.33
543.08	1074.10
543.44	1079.24
543.79	1080.19
544.15	1082.43
544.51	1082.52
544.87	1080.38
545.22	1078.24
545.58	1072.90
545.94	1067.14
546.29	1059.00
546.65	1050.10
547.01	1039.86
547.36	1030.67
547.72	1020.81
548.07	1010.19
548.43	997.43
548.79	984.38
549.14	972.67
549.50	961.71
549.86	949.81
550.21	940.24
550.57	931.81
550.92	923.48
551.28	918.33
551.64	912.10
551.99	905.19
552.35	898.71
552.70	892.38
553.06	887.48
553.41	881.86
553.77	877.90
554.13	873.76
554.48	870.67
554.84	867.24
555.19	863.24
555.55	861.00
555.90	857.57
556.26	854.81
556.61	850.43
556.97	845.95
557.32	843.52
557.68	841.05
558.03	838.90
558.39	836.62
558.74	832.86
559.10	829.24
559.45	826.81
559.81	825.38
560.16	823.29
560.52	820.52
560.87	819.05
561.23	815.90
561.58	816.57
561.94	813.57
562.29	810.67
562.64	809.33
563.00	805.76
563.35	804.29
563.71	802.19
564.06	800.95
564.42	800.24
564.77	798.05
565.12	796.33
565.48	796.86
565.83	796.29
566.19	795.14
566.54	794.14
566.89	792.29
567.25	791.05
567.60	790.43
567.96	791.62
568.31	792.43
568.66	792.67
569.02	788.62
569.37	787.62
569.72	786.33
570.08	784.76
570.43	783.00
570.78	781.71
571.14	780.29
571.49	779.43
571.84	777.81
572.20	776.71
572.55	775.76
572.90	772.52
573.26	771.33
573.61	770.10
573.96	769.33
574.31	769.24
574.67	768.14
575.02	766.43
575.37	763.57
575.72	761.05
576.08	759.71
576.43	759.67
576.78	759.48
577.13	759.62
577.49	758.10
577.84	757.62
578.19	757.62
578.54	757.48
578.90	756.90
579.25	756.62
579.60	756.33
579.95	755.62
580.30	755.43
580.66	753.86
581.01	752.76
581.36	751.95
581.71	750.76
582.06	750.95
582.42	750.76
582.77	749.24
583.12	748.90
583.47	747.33
583.82	747.14
584.17	746.29
584.53	745.14
584.88	743.90
585.23	743.29
585.58	740.57
585.93	738.14
586.28	737.43
586.63	735.43
586.98	733.19
587.34	730.81
587.69	728.38
588.04	726.14
588.39	723.95
588.74	720.33
589.09	717.90
589.44	713.33
589.79	709.57
590.14	706.29
590.49	701.71
590.84	697.86
591.19	693.24
591.54	688.81
591.89	684.24
592.25	682.57
592.60	677.90
592.95	674.62
593.30	671.67
593.65	666.76
594.00	662.57
594.35	665.38
594.70	661.76
595.05	658.19
595.40	654.48
595.75	651.29
596.10	648.90
596.45	645.14
596.80	642.33
597.15	639.10
597.50	636.29
597.85	634.29
598.19	631.43
598.54	628.24
598.89	625.10
599.24	622.90
599.59	618.76
599.94	615.81
600.29	612.71
600.64	610.48
600.99	609.00
601.34	607.76
601.69	598.81
602.04	596.05
602.39	593.10
602.74	592.24
603.08	590.19
603.43	588.76
603.78	587.10
604.13	585.10
604.48	583.29
604.83	582.52
605.18	581.67
605.53	583.38
605.87	586.95
606.22	592.90
606.57	599.43
606.92	606.71
607.27	615.43
607.62	624.19
607.96	631.62
608.31	638.71
608.66	644.14
609.01	649.71
609.36	655.43
609.70	660.52
610.05	664.52
610.40	668.48
610.75	671.43
611.10	674.71
611.44	677.33
611.79	679.33
612.14	679.86
612.49	678.86
612.83	675.90
613.18	670.33
613.53	663.05
613.88	653.86
614.22	643.62
614.57	633.00
614.92	622.05
615.27	612.14
615.61	601.52
615.96	592.95
616.31	584.71
616.65	577.33
617.00	569.43
617.35	561.62
617.70	554.38
618.04	547.52
618.39	540.90
618.74	535.48
619.08	530.14
619.43	525.05
619.78	520.81
620.12	516.52
620.47	513.76
620.82	510.05
621.16	507.00
621.51	505.95
621.85	503.67
622.20	501.48
622.55	498.14
622.89	495.62
623.24	493.00
623.59	490.62
623.93	487.86
624.28	485.76
624.62	485.86
624.97	485.05
625.32	483.52
625.66	481.29
626.01	478.71
626.35	477.38
626.70	475.62
627.04	474.86
627.39	473.57
627.73	472.95
628.08	471.19
628.43	468.95
628.77	465.19
629.12	462.62
629.46	460.19
629.81	458.05
630.15	455.57
630.50	453.00
630.84	451.10
631.19	448.62
631.53	446.19
631.88	441.24
632.22	437.14
632.57	434.76
632.91	432.33
633.26	430.14
633.60	427.14
633.95	424.43
634.29	420.71
634.64	418.14
634.98	414.05
635.32	412.76
635.67	411.19
636.01	409.71
636.36	407.19
636.70	405.43
637.05	403.76
637.39	402.24
637.73	400.71
638.08	399.24
638.42	397.05
638.77	396.24
639.11	394.24
639.45	393.00
639.80	390.95
640.14	389.57
640.49	388.24
640.83	386.76
641.17	386.33
641.52	385.33
641.86	384.05
642.20	384.00
642.55	382.00
642.89	380.48
643.23	379.48
643.58	379.10
643.92	377.29
644.26	376.48
644.61	376.00
644.95	375.14
645.29	373.52
645.64	373.95
645.98	372.29
646.32	372.76
646.66	372.10
647.01	371.43
647.35	370.90
647.69	370.24
648.04	369.43
648.38	368.52
648.72	367.43
649.06	366.48
649.41	365.10
649.75	364.10
650.09	363.81
650.43	362.67
650.78	361.14
651.12	360.71
651.46	359.33
651.80	357.95
652.14	356.57
652.49	356.38
652.83	354.43
653.17	353.67
653.51	352.00
653.85	351.14
654.20	350.00
654.54	348.33
654.88	346.71
655.22	345.38
655.56	343.81
655.90	342.71
656.25	341.57
656.59	340.52
656.93	339.81
657.27	339.29
657.61	338.29
657.95	337.86
658.29	336.71
658.64	336.67
658.98	335.95
659.32	335.10
659.66	334.19
660.00	334.19
660.34	333.43
660.68	332.19
661.02	331.43
661.36	330.67
661.70	330.05
662.05	329.48
662.39	329.76
662.73	329.86
663.07	331.00
663.41	330.67
663.75	329.57
664.09	328.76
664.43	327.10
664.77	326.10
665.11	325.19
665.45	324.81
665.79	324.10
666.13	322.95
666.47	322.05
666.81	321.24
667.15	319.29
667.49	318.62
667.83	319.00
668.17	317.90
668.51	316.81
668.85	316.71
669.19	317.52
669.53	316.14
669.87	314.95
670.21	313.29
670.55	312.81
670.89	313.81
671.23	313.29
671.57	313.05
671.91	312.62
672.25	311.95
672.58	312.29
672.92	311.05
673.26	310.67
673.60	310.43
673.94	309.81
674.28	309.86
674.62	309.48
674.96	308.48
675.30	308.43
675.64	308.62
675.97	307.90
676.31	306.33
676.65	305.90
676.99	306.24
677.33	305.38
677.67	304.90
678.01	302.76
678.34	302.19
678.68	302.00
679.02	301.38
679.36	300.81
679.70	299.48
680.04	299.43
680.37	298.86
680.71	298.48
681.05	298.05
681.39	297.81
681.73	297.19
682.06	296.71
682.40	295.76
682.74	295.48
683.08	296.10
683.42	295.67
683.75	296.14
684.09	294.71
684.43	294.62
684.77	293.86
685.10	293.90
685.44	293.57
685.78	293.05
686.12	292.86
686.45	292.52
686.79	291.90
687.13	291.62
687.46	291.52
687.80	291.86
688.14	291.14
688.48	290.86
688.81	290.86
689.15	291.24
689.49	291.05
689.82	290.52
690.16	289.19
690.50	288.62
690.83	287.67
691.17	287.00
691.51	286.48
691.84	286.19
692.18	285.76
692.52	285.29
692.85	285.10
693.19	285.62
693.52	285.19
693.86	284.86
694.20	284.33
694.53	283.81
694.87	282.71
695.21	282.29
695.54	281.86
695.88	280.76
696.21	279.52
696.55	279.38
696.88	279.05
697.22	278.29
697.56	278.62
697.89	277.81
698.23	278.05
698.56	277.52
698.90	277.67
699.23	277.05
699.57	276.86
699.90	276.33
700.24	275.52
700.58	275.67
700.91	276.14
701.25	278.24
701.58	278.76
701.92	279.71
702.25	280.10
702.59	280.05
702.92	280.76
703.26	281.38
703.59	281.86
703.93	283.90
704.26	284.95
704.60	285.24
704.93	285.67
705.26	285.76
705.60	286.90
705.93	286.76
706.27	287.95
706.60	289.24
706.94	290.71
707.27	290.57
707.61	290.76
707.94	290.52
708.27	288.52
708.61	287.81
708.94	287.67
709.28	287.52
709.61	286.95
709.94	286.33
710.28	285.76
710.61	284.76
710.95	282.00
711.28	282.62
711.61	281.43
711.95	281.19
712.28	280.24
712.61	278.95
712.95	279.19
713.28	279.10
713.61	277.43
713.95	275.62
714.28	274.76
714.61	273.76
714.95	272.86
715.28	271.90
715.61	271.29
715.95	270.57
716.28	269.43
716.61	269.24
716.95	268.52
717.28	267.90
717.61	267.76
717.94	267.24
718.28	265.05
718.61	264.62
718.94	263.81
719.27	263.48
719.61	263.33
719.94	262.81
720.27	261.24
720.60	260.86
720.94	260.62
721.27	260.71
721.60	260.95
721.93	260.67
722.27	261.24
722.60	261.38
722.93	260.67
723.26	260.86
723.59	260.62
723.93	260.95
724.26	260.95
724.59	260.43
724.92	260.43
725.25	261.24
725.59	261.14
725.92	261.33
726.25	261.38
726.58	261.29
726.91	260.86
727.24	261.38
727.57	261.33
727.91	260.95
728.24	261.10
728.57	260.71
728.90	261.00
729.23	260.05
729.56	261.14
729.89	261.14
730.22	260.76
730.55	260.48
730.89	260.24
731.22	260.10
731.55	259.86
731.88	259.76
732.21	258.95
732.54	258.29
732.87	258.14
733.20	258.10
733.53	258.00
733.86	257.81
734.19	256.95
734.52	257.00
734.85	258.76
735.18	258.19
735.51	258.90
735.84	258.86
736.17	259.38
736.50	258.05
736.83	260.62
737.16	260.43
737.49	260.24
737.82	260.10
738.15	260.10
738.48	260.57
738.81	260.48
739.14	260.10
739.47	260.38
739.80	260.14
740.13	260.57
740.46	260.14
740.79	259.95
741.12	260.05
741.45	259.71
741.78	257.86
742.11	258.52
742.44	257.71
742.77	257.71
743.10	257.14
743.43	256.81
743.75	254.05
744.08	257.33
744.41	257.05
744.74	256.67
745.07	256.29
745.40	256.19
745.73	257.00
746.06	256.95
746.39	257.33
746.71	257.19
747.04	256.29
747.37	256.10
747.70	256.43
748.03	256.67
748.36	257.14
748.68	257.33
749.01	256.52
749.34	256.57
749.67	256.67
750.00	257.24
750.33	258.67
750.65	258.67
750.98	255.57
751.31	255.71
751.64	255.81
751.97	256.67
752.29	256.43
752.62	255.14
752.95	254.86
753.28	254.48
753.60	254.24
753.93	254.81
754.26	254.81
754.59	254.05
754.91	253.48
755.24	253.14
755.57	252.67
755.90	252.57
756.22	252.33
756.55	251.81
756.88	250.67
757.20	249.05
757.53	248.48
757.86	248.19
758.19	248.52
758.51	248.33
758.84	247.33
759.17	246.95
759.49	247.10
759.82	248.71
760.15	248.57
760.47	248.71
760.80	247.86
761.13	248.00
761.45	247.95
761.78	247.81
762.11	247.52
762.43	247.57
762.76	247.24
763.08	247.43
763.41	247.62
763.74	248.14
764.06	248.43
764.39	249.10
764.71	249.05
765.04	248.33
765.37	248.38
765.69	248.29
766.02	248.33
766.34	248.05
766.67	246.67
767.00	247.10
767.32	248.43
767.65	250.29
767.97	250.38
768.30	250.43
768.62	250.38
768.95	250.14
769.27	249.95
769.60	250.43
769.92	250.10
770.25	249.43
770.57	249.29
770.90	249.00
771.22	248.38
771.55	248.57
771.87	249.05
772.20	249.05
772.52	251.38
772.85	254.14
773.17	254.52
773.50	254.19
773.82	254.14
774.15	252.57
774.47	250.71
774.80	250.33
775.12	250.10
775.45	250.24
775.77	250.52
776.09	250.71
776.42	250.14
776.74	250.71
777.07	250.86
777.39	250.76
777.72	250.81
778.04	251.19
778.36	250.81
778.69	250.67
779.01	250.43
779.33	248.05
779.66	245.33
779.98	244.90
780.31	245.19
780.63	245.62
780.95	245.81
781.28	245.90
781.60	245.71
781.92	245.71
782.25	245.86
782.57	245.62
782.89	245.43
783.22	245.62
783.54	245.05
783.86	244.90
784.19	244.62
784.51	245.19
784.83	244.67
785.16	244.48
785.48	244.29
785.80	244.43
786.12	244.48
786.45	244.10
786.77	244.24
787.09	244.00
787.42	243.43
787.74	243.81
788.06	243.90
788.38	243.62
788.71	243.43
789.03	243.33
789.35	243.38
789.67	243.29
789.99	243.52
790.32	243.19
790.64	243.62
790.96	245.57
791.28	244.57
791.61	244.38
791.93	244.71
792.25	244.90
792.57	246.48
792.89	245.90
793.21	246.38
