SpectraSuite Data File
++++++++++++++++++++++++++++++++++++
Date: Wed Nov 07 18:31:27 EST 2012
User: group
Dark Spectrum Present: No
Reference Spectrum Present: No
Number of Sampled Component Spectra: 1
Spectrometers: USB2E7196
Integration Time (usec): 1000000 (USB2E7196)
Spectra Averaged: 1 (USB2E7196)
Boxcar Smoothing: 10 (USB2E7196)
Correct for Electrical Dark: No (USB2E7196)
Strobe/Lamp Enabled: No (USB2E7196)
Correct for Detector Non-linearity: No (USB2E7196)
Correct for Stray Light: No (USB2E7196)
Number of Pixels in Processed Spectrum: 2048
>>>>>Begin Processed Spectral Data<<<<<
339.09	0.00
339.48	220.00
339.86	218.00
340.24	222.00
340.63	224.00
341.01	261.00
341.39	228.00
341.78	226.00
342.16	242.00
342.54	232.00
342.93	221.29
343.31	232.33
343.69	232.95
344.07	233.57
344.46	234.33
344.84	235.10
345.22	233.71
345.60	233.90
345.99	234.38
346.37	233.95
346.75	233.95
347.13	233.95
347.52	234.43
347.90	235.71
348.28	235.95
348.66	236.57
349.05	235.90
349.43	236.29
349.81	236.52
350.19	236.57
350.57	236.62
350.96	236.95
351.34	237.05
351.72	237.29
352.10	237.33
352.48	237.14
352.87	236.95
353.25	236.86
353.63	237.24
354.01	237.10
354.39	237.38
354.77	237.24
355.15	237.95
355.54	237.86
355.92	236.86
356.30	237.05
356.68	238.86
357.06	239.48
357.44	239.05
357.82	238.86
358.20	239.00
358.58	239.00
358.97	239.10
359.35	239.95
359.73	240.24
360.11	240.48
360.49	240.43
360.87	240.76
361.25	241.33
361.63	241.90
362.01	242.29
362.39	242.43
362.77	242.95
363.15	242.81
363.53	242.86
363.91	243.24
364.29	243.24
364.67	240.95
365.05	240.86
365.43	241.24
365.81	241.90
366.19	243.19
366.57	244.10
366.95	243.95
367.33	243.05
367.71	243.24
368.09	243.52
368.47	243.86
368.85	243.48
369.23	244.10
369.61	243.19
369.99	244.05
370.37	244.29
370.75	245.29
371.13	244.90
371.51	244.33
371.89	244.52
372.27	244.86
372.65	245.14
373.03	245.52
373.41	245.14
373.78	244.76
374.16	243.52
374.54	243.10
374.92	242.86
375.30	242.90
375.68	242.10
376.06	242.52
376.44	242.29
376.82	242.38
377.19	242.14
377.57	242.19
377.95	241.24
378.33	241.29
378.71	239.90
379.09	240.29
379.47	240.71
379.84	240.29
380.22	239.90
380.60	239.57
380.98	239.00
381.36	239.05
381.73	238.81
382.11	239.33
382.49	239.05
382.87	239.05
383.25	239.57
383.62	242.52
384.00	241.95
384.38	242.10
384.76	242.76
385.13	243.52
385.51	243.29
385.89	242.76
386.27	242.57
386.64	243.14
387.02	242.86
387.40	242.67
387.78	243.14
388.15	243.14
388.53	242.90
388.91	242.86
389.29	242.95
389.66	243.52
390.04	243.33
390.42	243.67
390.79	243.67
391.17	243.29
391.55	240.71
391.92	240.71
392.30	241.00
392.68	240.33
393.05	240.33
393.43	240.57
393.81	241.29
394.18	240.57
394.56	240.29
394.94	240.90
395.31	240.62
395.69	241.00
396.06	241.29
396.44	241.43
396.82	241.43
397.19	242.57
397.57	242.29
397.95	242.48
398.32	241.86
398.70	242.19
399.07	242.76
399.45	242.95
399.82	242.95
400.20	242.62
400.58	242.95
400.95	242.24
401.33	243.10
401.70	244.90
402.08	245.57
402.45	245.71
402.83	246.14
403.20	246.76
403.58	246.33
403.95	247.29
404.33	247.81
404.71	248.38
405.08	250.05
405.46	250.14
405.83	250.62
406.21	251.52
406.58	251.81
406.96	252.10
407.33	252.62
407.70	253.57
408.08	256.24
408.45	256.90
408.83	257.67
409.20	257.90
409.58	257.14
409.95	258.00
410.33	259.29
410.70	259.52
411.08	260.95
411.45	262.43
411.82	262.95
412.20	265.10
412.57	267.52
412.95	266.57
413.32	268.48
413.69	269.81
414.07	271.05
414.44	273.14
414.82	275.24
415.19	277.76
415.56	280.00
415.94	280.90
416.31	283.43
416.68	286.19
417.06	289.90
417.43	293.76
417.81	297.62
418.18	301.48
418.55	305.57
418.93	309.71
419.30	314.00
419.67	318.62
420.04	322.48
420.42	326.81
420.79	334.52
421.16	340.52
421.54	347.90
421.91	354.57
422.28	360.86
422.66	367.76
423.03	376.10
423.40	382.90
423.77	390.38
424.15	397.81
424.52	405.62
424.89	413.95
425.26	421.43
425.64	429.00
426.01	437.00
426.38	445.67
426.75	455.00
427.13	464.33
427.50	473.86
427.87	484.33
428.24	494.10
428.61	501.81
428.99	513.19
429.36	523.86
429.73	535.14
430.10	547.19
430.47	559.62
430.85	570.19
431.22	583.43
431.59	599.48
431.96	612.62
432.33	627.67
432.70	641.62
433.08	657.71
433.45	673.43
433.82	688.95
434.19	705.71
434.56	721.76
434.93	736.76
435.30	753.33
435.68	769.81
436.05	786.29
436.42	803.29
436.79	818.24
437.16	835.19
437.53	852.48
437.90	868.48
438.27	884.00
438.64	900.90
439.01	916.29
439.38	927.95
439.75	941.19
440.13	955.33
440.50	970.10
440.87	980.52
441.24	991.71
441.61	1004.67
441.98	1014.86
442.35	1025.43
442.72	1036.43
443.09	1046.71
443.46	1052.67
443.83	1056.19
444.20	1059.81
444.57	1063.76
444.94	1064.43
445.31	1066.14
445.68	1071.10
446.05	1071.52
446.42	1067.90
446.79	1064.95
447.16	1061.14
447.53	1058.95
447.90	1051.43
448.27	1042.10
448.64	1033.62
449.01	1025.90
449.37	1013.14
449.74	1001.05
450.11	989.24
450.48	974.33
450.85	957.52
451.22	944.10
451.59	932.52
451.96	919.52
452.33	903.95
452.70	889.52
453.07	871.81
453.43	850.95
453.80	834.24
454.17	819.38
454.54	803.95
454.91	787.52
455.28	771.71
455.65	756.76
456.02	747.52
456.38	734.57
456.75	719.81
457.12	707.52
457.49	694.86
457.86	680.67
458.23	671.81
458.59	661.71
458.96	650.24
459.33	639.48
459.70	629.52
460.07	621.05
460.43	611.52
460.80	604.00
461.17	596.86
461.54	588.86
461.91	580.81
462.27	573.38
462.64	567.05
463.01	560.33
463.38	555.14
463.74	544.24
464.11	538.05
464.48	533.00
464.85	527.57
465.21	523.29
465.58	518.67
465.95	511.90
466.32	506.95
466.68	502.81
467.05	498.62
467.42	494.24
467.78	490.05
468.15	486.29
468.52	483.57
468.88	479.05
469.25	474.90
469.62	472.81
469.98	469.00
470.35	466.38
470.72	463.00
471.08	458.29
471.45	455.76
471.82	453.33
472.18	450.76
472.55	448.05
472.92	444.43
473.28	441.71
473.65	439.33
474.02	436.95
474.38	435.29
474.75	433.29
475.11	430.90
475.48	429.62
475.85	428.00
476.21	425.86
476.58	425.05
476.94	423.86
477.31	422.10
477.67	421.52
478.04	420.33
478.41	419.76
478.77	422.00
479.14	420.48
479.50	420.05
479.87	419.38
480.23	419.29
480.60	419.71
480.96	420.67
481.33	422.00
481.69	422.90
482.06	423.95
482.42	425.81
482.79	427.95
483.15	428.67
483.52	430.24
483.88	431.14
484.25	432.48
484.61	434.48
484.98	435.48
485.34	437.95
485.71	440.05
486.07	441.86
486.44	441.24
486.80	443.05
487.17	444.81
487.53	447.86
487.90	450.24
488.26	452.95
488.62	455.14
488.99	456.29
489.35	458.43
489.72	460.38
490.08	461.19
490.44	462.00
490.81	463.81
491.17	465.14
491.54	467.48
491.90	469.90
492.26	471.95
492.63	474.43
492.99	475.76
493.36	478.24
493.72	481.05
494.08	483.71
494.45	487.19
494.81	490.81
495.17	493.10
495.54	496.48
495.90	499.10
496.26	502.43
496.63	506.29
496.99	509.19
497.35	512.48
497.72	516.71
498.08	520.67
498.44	524.57
498.80	529.05
499.17	532.81
499.53	536.00
499.89	540.67
500.26	544.90
500.62	549.38
500.98	554.67
501.34	559.00
501.71	564.38
502.07	569.10
502.43	573.38
502.79	577.67
503.16	582.19
503.52	586.81
503.88	590.76
504.24	596.00
504.60	601.67
504.97	606.86
505.33	611.00
505.69	616.81
506.05	622.48
506.41	627.48
506.78	632.76
507.14	638.14
507.50	643.05
507.86	649.10
508.22	654.76
508.59	658.95
508.95	664.24
509.31	670.29
509.67	675.52
510.03	680.57
510.39	685.71
510.75	691.00
511.12	695.95
511.48	701.71
511.84	706.33
512.20	710.67
512.56	715.19
512.92	721.43
513.28	726.33
513.64	730.52
514.00	735.19
514.37	739.43
514.73	745.14
515.09	750.05
515.45	753.24
515.81	757.57
516.17	761.48
516.53	764.86
516.89	767.76
517.25	770.95
517.61	775.33
517.97	779.29
518.33	782.95
518.69	786.90
519.05	790.43
519.41	793.95
519.77	799.33
520.13	802.86
520.49	805.05
520.85	807.38
521.21	811.86
521.57	815.10
521.93	817.76
522.29	819.81
522.65	821.90
523.01	824.76
523.37	826.10
523.73	828.19
524.09	831.43
524.45	832.67
524.81	835.57
525.17	837.05
525.53	839.38
525.89	840.48
526.25	842.71
526.61	843.38
526.97	845.00
527.33	845.05
527.68	849.38
528.04	850.76
528.40	852.33
528.76	853.10
529.12	854.33
529.48	855.33
529.84	855.86
530.20	857.33
530.56	859.38
530.91	861.76
531.27	863.52
531.63	865.24
531.99	866.67
532.35	866.48
532.71	867.62
533.07	868.19
533.42	872.52
533.78	873.57
534.14	876.05
534.50	876.57
534.86	878.29
535.21	876.90
535.57	880.14
535.93	881.48
536.29	884.52
536.65	885.95
537.00	889.19
537.36	892.43
537.72	895.33
538.08	899.57
538.44	902.71
538.79	907.48
539.15	911.48
539.51	916.52
539.87	922.19
540.22	926.81
540.58	932.05
540.94	934.14
541.29	938.86
541.65	943.10
542.01	948.95
542.37	953.62
542.72	956.14
543.08	956.76
543.44	958.43
543.79	956.95
544.15	958.38
544.51	958.86
544.87	958.33
545.22	957.05
545.58	953.95
545.94	951.57
546.29	947.19
546.65	942.48
547.01	939.05
547.36	934.71
547.72	929.62
548.07	925.10
548.43	920.24
548.79	914.19
549.14	908.81
549.50	902.71
549.86	895.86
550.21	892.10
550.57	888.38
550.92	884.00
551.28	881.90
551.64	877.81
551.99	873.24
552.35	869.62
552.70	866.00
553.06	863.05
553.41	859.52
553.77	858.10
554.13	856.33
554.48	853.10
554.84	850.90
555.19	849.33
555.55	848.33
555.90	845.90
556.26	843.48
556.61	841.33
556.97	838.00
557.32	836.38
557.68	833.62
558.03	831.52
558.39	830.05
558.74	827.48
559.10	825.29
559.45	823.76
559.81	822.62
560.16	820.57
560.52	818.48
560.87	817.43
561.23	815.19
561.58	814.19
561.94	812.19
562.29	810.00
562.64	807.90
563.00	804.14
563.35	803.10
563.71	801.95
564.06	800.14
564.42	799.19
564.77	797.14
565.12	796.57
565.48	797.43
565.83	796.62
566.19	795.57
566.54	794.14
566.89	792.86
567.25	792.67
567.60	793.05
567.96	794.67
568.31	794.86
568.66	794.95
569.02	792.62
569.37	791.76
569.72	791.29
570.08	790.00
570.43	789.10
570.78	786.67
571.14	785.67
571.49	783.76
571.84	782.48
572.20	782.00
572.55	780.76
572.90	776.90
573.26	775.57
573.61	773.67
573.96	773.24
574.31	772.48
574.67	770.71
575.02	769.33
575.37	765.81
575.72	763.10
576.08	761.57
576.43	760.33
576.78	759.10
577.13	757.33
577.49	756.90
577.84	755.86
578.19	755.19
578.54	754.10
578.90	753.76
579.25	753.57
579.60	752.43
579.95	751.43
580.30	751.19
580.66	750.19
581.01	749.67
581.36	748.00
581.71	746.38
582.06	745.24
582.42	743.76
582.77	742.29
583.12	741.29
583.47	739.90
583.82	739.62
584.17	738.90
584.53	738.67
584.88	736.86
585.23	735.95
585.58	734.14
585.93	732.48
586.28	731.57
586.63	729.71
586.98	728.05
587.34	725.67
587.69	722.48
588.04	719.81
588.39	717.00
588.74	714.38
589.09	712.52
589.44	708.67
589.79	705.24
590.14	702.14
590.49	698.29
590.84	693.71
591.19	689.95
591.54	686.62
591.89	681.86
592.25	680.62
592.60	676.38
592.95	673.67
593.30	669.95
593.65	665.33
594.00	661.29
594.35	664.29
594.70	660.57
595.05	658.14
595.40	655.19
595.75	652.33
596.10	649.43
596.45	646.29
596.80	643.95
597.15	640.76
597.50	638.05
597.85	637.10
598.19	634.38
598.54	631.43
598.89	627.71
599.24	625.14
599.59	620.62
599.94	618.14
600.29	615.29
600.64	612.86
600.99	611.14
601.34	609.00
601.69	599.38
602.04	596.76
602.39	593.76
602.74	592.38
603.08	590.05
603.43	589.00
603.78	586.24
604.13	584.24
604.48	583.05
604.83	582.10
605.18	580.57
605.53	582.14
605.87	584.57
606.22	589.33
606.57	596.19
606.92	603.00
607.27	609.95
607.62	617.24
607.96	624.24
608.31	630.33
608.66	635.67
609.01	640.33
609.36	645.24
609.70	650.10
610.05	653.62
610.40	656.95
610.75	660.05
611.10	663.19
611.44	664.62
611.79	665.67
612.14	665.90
612.49	665.05
612.83	661.90
613.18	657.10
613.53	651.14
613.88	642.67
614.22	632.86
614.57	623.14
614.92	613.33
615.27	604.57
615.61	595.48
615.96	587.62
616.31	580.14
616.65	573.38
617.00	566.38
617.35	559.19
617.70	553.10
618.04	546.57
618.39	541.10
618.74	537.38
619.08	532.86
619.43	528.62
619.78	524.57
620.12	521.76
620.47	519.43
620.82	515.33
621.16	511.95
621.51	511.10
621.85	508.43
622.20	505.76
622.55	502.62
622.89	499.90
623.24	497.19
623.59	495.00
623.93	492.24
624.28	489.81
624.62	490.48
624.97	489.71
625.32	487.19
625.66	484.81
626.01	482.19
626.35	480.52
626.70	478.86
627.04	477.95
627.39	476.10
627.73	474.57
628.08	472.90
628.43	471.00
628.77	467.57
629.12	465.71
629.46	463.76
629.81	461.81
630.15	459.81
630.50	457.33
630.84	455.52
631.19	453.10
631.53	450.86
631.88	445.71
632.22	441.86
632.57	439.76
632.91	436.86
633.26	434.14
633.60	431.24
633.95	428.76
634.29	425.24
634.64	422.29
634.98	419.29
635.32	417.33
635.67	415.57
636.01	413.57
636.36	411.14
636.70	410.00
637.05	407.48
637.39	405.71
637.73	404.67
638.08	403.67
638.42	402.10
638.77	400.71
639.11	399.14
639.45	397.33
639.80	395.76
640.14	395.29
640.49	393.90
640.83	392.33
641.17	390.86
641.52	389.67
641.86	389.10
642.20	388.57
642.55	386.71
642.89	385.10
643.23	383.76
643.58	383.71
643.92	381.86
644.26	381.38
644.61	380.29
644.95	378.81
645.29	377.10
645.64	377.24
645.98	375.95
646.32	375.10
646.66	374.05
647.01	372.81
647.35	371.90
647.69	371.10
648.04	370.57
648.38	369.81
648.72	368.71
649.06	367.19
649.41	364.95
649.75	364.29
650.09	363.71
650.43	362.86
650.78	360.90
651.12	359.81
651.46	358.48
651.80	357.38
652.14	356.52
652.49	355.67
652.83	353.76
653.17	352.81
653.51	351.43
653.85	350.81
654.20	349.81
654.54	347.90
654.88	346.33
655.22	345.19
655.56	343.38
655.90	342.48
656.25	341.29
656.59	340.90
656.93	340.19
657.27	339.71
657.61	338.48
657.95	338.10
658.29	337.29
658.64	337.05
658.98	336.10
659.32	335.24
659.66	334.14
660.00	333.38
660.34	332.62
660.68	331.86
661.02	330.81
661.36	329.90
661.70	329.38
662.05	328.81
662.39	328.71
662.73	329.19
663.07	330.14
663.41	330.10
663.75	329.00
664.09	328.95
664.43	327.62
664.77	327.05
665.11	325.67
665.45	325.10
665.79	324.95
666.13	324.10
666.47	323.14
666.81	322.62
667.15	321.48
667.49	320.90
667.83	321.10
668.17	320.29
668.51	319.71
668.85	319.38
669.19	319.81
669.53	318.33
669.87	317.10
670.21	315.05
670.55	314.10
670.89	314.86
671.23	313.71
671.57	313.10
671.91	312.71
672.25	312.57
672.58	312.71
672.92	311.05
673.26	310.67
673.60	310.33
673.94	309.76
674.28	309.48
674.62	309.43
674.96	308.48
675.30	308.14
675.64	307.95
675.97	307.33
676.31	305.86
676.65	305.33
676.99	305.48
677.33	304.52
677.67	304.10
678.01	302.24
678.34	301.81
678.68	301.71
679.02	300.90
679.36	300.43
679.70	299.00
680.04	298.76
680.37	298.67
680.71	298.19
681.05	297.57
681.39	297.10
681.73	296.14
682.06	295.48
682.40	294.95
682.74	294.38
683.08	294.67
683.42	294.33
683.75	294.52
684.09	293.48
684.43	293.38
684.77	292.81
685.10	292.52
685.44	292.05
685.78	291.43
686.12	291.24
686.45	290.62
686.79	290.05
687.13	290.19
687.46	289.57
687.80	289.57
688.14	289.24
688.48	289.10
688.81	288.76
689.15	289.29
689.49	289.00
689.82	288.90
690.16	287.81
690.50	287.33
690.83	286.62
691.17	285.76
691.51	285.95
691.84	285.90
692.18	285.57
692.52	285.10
692.85	285.19
693.19	285.48
693.52	285.33
693.86	284.62
694.20	283.86
694.53	283.57
694.87	282.95
695.21	282.48
695.54	281.86
695.88	280.95
696.21	279.43
696.55	279.19
696.88	278.48
697.22	277.76
697.56	277.90
697.89	277.76
698.23	278.14
698.56	277.52
698.90	277.05
699.23	276.67
699.57	276.24
699.90	275.29
700.24	274.24
700.58	274.24
700.91	274.67
701.25	276.71
701.58	277.52
701.92	278.05
702.25	278.67
702.59	278.90
702.92	279.48
703.26	280.29
703.59	280.76
703.93	283.71
704.26	284.86
704.60	285.57
704.93	285.90
705.26	285.95
705.60	286.90
705.93	286.90
706.27	287.90
706.60	289.38
706.94	291.19
707.27	291.62
707.61	292.00
707.94	292.52
708.27	290.76
708.61	289.81
708.94	289.71
709.28	289.14
709.61	288.81
709.94	288.81
710.28	288.29
710.61	287.62
710.95	284.00
711.28	284.62
711.61	283.29
711.95	283.00
712.28	281.81
712.61	280.76
712.95	281.48
713.28	281.52
713.61	279.86
713.95	277.81
714.28	277.33
714.61	276.19
714.95	275.38
715.28	273.95
715.61	273.24
715.95	272.24
716.28	271.52
716.61	271.24
716.95	270.14
717.28	269.24
717.61	268.62
717.94	268.38
718.28	266.05
718.61	265.57
718.94	264.57
719.27	264.14
719.61	263.86
719.94	262.81
720.27	261.00
720.60	260.76
720.94	260.57
721.27	260.24
721.60	260.10
721.93	259.33
722.27	260.76
722.60	261.19
722.93	260.67
723.26	260.52
723.59	260.10
723.93	260.29
724.26	260.67
724.59	260.67
724.92	260.90
725.25	261.62
725.59	261.43
725.92	261.38
726.25	261.33
726.58	261.00
726.91	260.67
727.24	261.48
727.57	261.19
727.91	260.43
728.24	260.52
728.57	260.14
728.90	260.29
729.23	258.76
729.56	259.24
729.89	259.48
730.22	259.29
730.55	258.90
730.89	258.67
731.22	258.52
731.55	258.19
731.88	257.90
732.21	257.00
732.54	256.43
732.87	256.38
733.20	256.57
733.53	256.52
733.86	256.81
734.19	256.00
734.52	256.29
734.85	258.14
735.18	257.43
735.51	258.29
735.84	258.38
736.17	258.95
736.50	257.67
736.83	259.90
737.16	260.10
737.49	260.19
737.82	260.19
738.15	260.05
738.48	260.14
738.81	260.14
739.14	259.90
739.47	260.14
739.80	260.14
740.13	260.00
740.46	259.52
740.79	258.81
741.12	258.76
741.45	258.00
741.78	256.33
742.11	257.14
742.44	256.67
742.77	256.90
743.10	256.29
743.43	256.38
743.75	254.05
744.08	257.00
744.41	256.71
744.74	256.10
745.07	255.52
745.40	255.57
745.73	256.57
746.06	256.90
746.39	257.10
746.71	257.00
747.04	256.76
747.37	256.57
747.70	256.67
748.03	256.71
748.36	257.67
748.68	257.76
749.01	256.90
749.34	256.52
749.67	256.43
750.00	256.71
750.33	258.14
750.65	258.19
750.98	254.57
751.31	254.71
751.64	255.29
751.97	256.43
752.29	256.29
752.62	254.76
752.95	254.19
753.28	253.71
753.60	253.19
753.93	253.76
754.26	253.95
754.59	253.29
754.91	252.95
755.24	252.33
755.57	252.57
755.90	252.52
756.22	252.24
756.55	251.95
756.88	251.57
757.20	250.00
757.53	249.43
757.86	249.71
758.19	249.81
758.51	249.38
758.84	248.19
759.17	247.57
759.49	248.00
759.82	249.19
760.15	249.24
760.47	249.48
760.80	248.76
761.13	249.10
761.45	249.48
761.78	249.33
762.11	249.29
762.43	249.00
762.76	248.86
763.08	249.00
763.41	248.76
763.74	248.86
764.06	248.81
764.39	248.62
764.71	248.52
765.04	248.19
765.37	248.05
765.69	248.19
766.02	248.33
766.34	247.90
766.67	247.05
767.00	247.62
767.32	248.71
767.65	250.10
767.97	249.95
768.30	249.86
768.62	249.48
768.95	249.05
769.27	249.00
769.60	249.33
769.92	249.14
770.25	248.86
770.57	248.33
770.90	248.10
771.22	248.14
771.55	248.24
771.87	248.24
772.20	248.10
772.52	250.00
772.85	252.95
773.17	252.86
773.50	252.86
773.82	252.29
774.15	251.24
774.47	249.81
774.80	249.43
775.12	249.24
775.45	249.67
775.77	249.71
776.09	249.76
776.42	249.52
776.74	250.48
777.07	250.62
777.39	250.81
777.72	250.57
778.04	250.81
778.36	250.38
778.69	250.38
779.01	250.62
779.33	248.62
779.66	245.67
779.98	245.62
780.31	245.33
780.63	246.38
780.95	246.48
781.28	246.43
781.60	246.10
781.92	246.43
782.25	246.24
782.57	246.00
782.89	245.67
783.22	245.29
783.54	244.57
783.86	244.52
784.19	244.05
784.51	244.81
784.83	244.10
785.16	244.10
785.48	243.71
785.80	243.52
786.12	243.57
786.45	243.71
786.77	243.76
787.09	244.00
787.42	242.86
787.74	243.00
788.06	243.29
788.38	243.57
788.71	243.19
789.03	243.38
789.35	244.00
789.67	243.86
789.99	244.00
790.32	243.67
790.64	244.00
790.96	246.14
791.28	245.29
791.61	245.43
791.93	245.38
792.25	245.52
792.57	247.24
792.89	247.00
793.21	246.86
793.54	246.62
793.86	246.19
