SpectraSuite Data File
++++++++++++++++++++++++++++++++++++
Date: Wed Nov 07 18:33:13 EST 2012
User: group
Dark Spectrum Present: No
Reference Spectrum Present: No
Number of Sampled Component Spectra: 1
Spectrometers: USB2E7196
Integration Time (usec): 1000000 (USB2E7196)
Spectra Averaged: 1 (USB2E7196)
Boxcar Smoothing: 10 (USB2E7196)
Correct for Electrical Dark: No (USB2E7196)
Strobe/Lamp Enabled: No (USB2E7196)
Correct for Detector Non-linearity: No (USB2E7196)
Correct for Stray Light: No (USB2E7196)
Number of Pixels in Processed Spectrum: 2048
>>>>>Begin Processed Spectral Data<<<<<
339.09	0.00
339.48	218.00
339.86	216.00
340.24	223.00
340.63	223.00
341.01	255.00
341.39	225.00
341.78	238.00
342.16	242.00
342.54	231.00
342.93	220.90
343.31	231.76
343.69	232.24
344.07	232.86
344.46	233.62
344.84	234.19
345.22	233.10
345.60	233.52
345.99	233.67
346.37	233.43
346.75	233.67
347.13	233.71
347.52	233.90
347.90	234.81
348.28	234.90
348.66	235.57
349.05	234.95
349.43	235.38
349.81	235.43
350.19	235.57
350.57	235.81
350.96	236.33
351.34	236.81
351.72	237.00
352.10	237.33
352.48	237.29
352.87	237.29
353.25	237.57
353.63	237.71
354.01	237.38
354.39	237.52
354.77	237.33
355.15	238.38
355.54	238.19
355.92	237.71
356.30	237.90
356.68	239.52
357.06	239.62
357.44	239.29
357.82	238.95
358.20	239.29
358.58	239.33
358.97	239.33
359.35	240.05
359.73	240.71
360.11	240.57
360.49	240.62
360.87	240.76
361.25	240.90
361.63	241.67
362.01	241.71
362.39	241.57
362.77	242.19
363.15	241.67
363.53	241.81
363.91	241.71
364.29	241.62
364.67	239.33
365.05	239.67
365.43	239.81
365.81	240.62
366.19	241.86
366.57	242.81
366.95	242.52
367.33	241.86
367.71	241.57
368.09	242.24
368.47	242.00
368.85	241.81
369.23	242.43
369.61	241.57
369.99	242.24
370.37	242.52
370.75	243.48
371.13	243.19
371.51	242.81
371.89	243.19
372.27	243.33
372.65	243.52
373.03	243.43
373.41	243.43
373.78	243.00
374.16	241.43
374.54	240.62
374.92	240.62
375.30	240.43
375.68	240.05
376.06	239.86
376.44	239.90
376.82	239.81
377.19	239.33
377.57	239.33
377.95	238.48
378.33	238.29
378.71	236.71
379.09	237.38
379.47	238.05
379.84	237.76
380.22	237.57
380.60	237.29
380.98	237.00
381.36	236.90
381.73	236.71
382.11	237.52
382.49	238.00
382.87	237.52
383.25	237.62
383.62	240.48
384.00	240.10
384.38	240.24
384.76	241.10
385.13	242.19
385.51	242.00
385.89	242.29
386.27	242.57
386.64	242.95
387.02	242.48
387.40	242.29
387.78	242.57
388.15	242.71
388.53	242.43
388.91	242.71
389.29	242.67
389.66	242.90
390.04	242.14
390.42	242.14
390.79	242.67
391.17	242.76
391.55	240.10
391.92	239.90
392.30	240.14
392.68	239.43
393.05	239.05
393.43	239.67
393.81	239.86
394.18	239.29
394.56	239.43
394.94	240.05
395.31	239.71
395.69	240.48
396.06	240.86
396.44	241.29
396.82	240.95
397.19	242.19
397.57	242.33
397.95	242.76
398.32	242.24
398.70	242.38
399.07	243.00
399.45	242.90
399.82	243.10
400.20	242.71
400.58	242.86
400.95	242.33
401.33	242.43
401.70	244.19
402.08	244.48
402.45	244.14
402.83	244.90
403.20	245.24
403.58	244.86
403.95	245.38
404.33	245.86
404.71	246.19
405.08	247.33
405.46	247.71
405.83	248.29
406.21	248.62
406.58	249.24
406.96	249.05
407.33	249.95
407.70	250.90
408.08	253.86
408.45	255.10
408.83	255.90
409.20	256.19
409.58	255.43
409.95	256.48
410.33	258.19
410.70	257.86
411.08	258.86
411.45	260.29
411.82	260.90
412.20	262.67
412.57	265.52
412.95	264.95
413.32	267.00
413.69	268.38
414.07	270.14
414.44	271.86
414.82	274.38
415.19	276.76
415.56	279.00
415.94	279.95
416.31	282.48
416.68	285.90
417.06	289.43
417.43	293.33
417.81	297.00
418.18	300.76
418.55	305.10
418.93	309.29
419.30	313.33
419.67	318.43
420.04	323.19
420.42	327.33
420.79	335.00
421.16	340.29
421.54	347.71
421.91	353.95
422.28	360.10
422.66	366.76
423.03	375.05
423.40	382.43
423.77	389.48
424.15	397.05
424.52	404.10
424.89	412.90
425.26	420.48
425.64	428.71
426.01	436.52
426.38	445.71
426.75	455.67
427.13	464.76
427.50	474.29
427.87	483.38
428.24	492.67
428.61	500.86
428.99	512.19
429.36	522.00
429.73	533.14
430.10	545.00
430.47	556.95
430.85	567.95
431.22	580.24
431.59	596.10
431.96	609.14
432.33	623.86
432.70	637.71
433.08	654.14
433.45	668.76
433.82	684.00
434.19	700.81
434.56	716.24
434.93	732.24
435.30	747.71
435.68	765.05
436.05	782.52
436.42	798.71
436.79	813.38
437.16	829.67
437.53	846.90
437.90	863.86
438.27	880.62
438.64	896.95
439.01	912.95
439.38	924.33
439.75	937.81
440.13	953.43
440.50	968.14
440.87	979.86
441.24	992.00
441.61	1005.52
441.98	1014.48
442.35	1025.95
442.72	1036.90
443.09	1048.67
443.46	1055.10
443.83	1058.24
444.20	1061.90
444.57	1066.52
444.94	1068.14
445.31	1069.81
445.68	1074.43
446.05	1073.24
446.42	1070.52
446.79	1067.86
447.16	1064.57
447.53	1061.81
447.90	1053.52
448.27	1044.38
448.64	1033.38
449.01	1025.57
449.37	1012.24
449.74	1000.43
450.11	988.62
450.48	973.81
450.85	956.24
451.22	942.29
451.59	930.48
451.96	918.00
452.33	902.38
452.70	888.48
453.07	872.05
453.43	852.00
453.80	836.48
454.17	821.19
454.54	805.29
454.91	789.14
455.28	772.81
455.65	757.90
456.02	749.00
456.38	736.62
456.75	722.10
457.12	710.05
457.49	697.29
457.86	682.71
458.23	672.67
458.59	662.43
458.96	651.48
459.33	641.48
459.70	632.10
460.07	624.24
460.43	615.00
460.80	606.14
461.17	598.48
461.54	590.19
461.91	582.05
462.27	575.10
462.64	568.76
463.01	562.76
463.38	557.33
463.74	545.57
464.11	539.86
464.48	534.24
464.85	528.76
465.21	525.00
465.58	521.00
465.95	514.57
466.32	509.95
466.68	505.43
467.05	500.38
467.42	495.38
467.78	490.14
468.15	485.43
468.52	482.38
468.88	477.81
469.25	473.76
469.62	471.43
469.98	467.52
470.35	464.43
470.72	460.95
471.08	456.24
471.45	453.81
471.82	451.71
472.18	448.57
472.55	446.33
472.92	442.76
473.28	439.76
473.65	437.38
474.02	434.86
474.38	433.05
474.75	432.14
475.11	430.05
475.48	429.10
475.85	427.67
476.21	426.10
476.58	424.95
476.94	424.19
477.31	421.95
477.67	421.48
478.04	420.43
478.41	419.43
478.77	421.38
479.14	420.38
479.50	419.24
479.87	419.24
480.23	418.71
480.60	418.90
480.96	418.67
481.33	419.52
481.69	420.38
482.06	420.86
482.42	421.29
482.79	422.57
483.15	423.43
483.52	424.67
483.88	425.52
484.25	425.90
484.61	426.81
484.98	428.43
485.34	430.05
485.71	431.81
486.07	433.00
486.44	432.43
486.80	433.76
487.17	435.14
487.53	437.00
487.90	439.05
488.26	441.19
488.62	443.62
488.99	444.95
489.35	446.52
489.72	448.05
490.08	449.81
490.44	451.05
490.81	452.76
491.17	454.90
491.54	457.29
491.90	460.33
492.26	462.38
492.63	464.38
492.99	466.67
493.36	469.38
493.72	472.86
494.08	475.81
494.45	478.95
494.81	482.62
495.17	485.81
495.54	489.71
495.90	492.62
496.26	495.86
496.63	499.57
496.99	503.14
497.35	507.10
497.72	511.00
498.08	515.14
498.44	519.71
498.80	524.24
499.17	528.05
499.53	532.57
499.89	538.05
500.26	543.05
500.62	547.43
500.98	552.43
501.34	557.10
501.71	562.10
502.07	567.38
502.43	572.19
502.79	576.57
503.16	581.05
503.52	586.67
503.88	591.95
504.24	598.10
504.60	603.43
504.97	609.19
505.33	613.90
505.69	619.90
506.05	625.00
506.41	630.62
506.78	635.90
507.14	640.19
507.50	646.33
507.86	651.71
508.22	657.24
508.59	662.24
508.95	668.48
509.31	674.43
509.67	679.14
510.03	684.57
510.39	690.76
510.75	695.48
511.12	700.62
511.48	705.10
511.84	709.52
512.20	714.86
512.56	719.81
512.92	725.38
513.28	730.52
513.64	735.52
514.00	739.76
514.37	744.76
514.73	750.05
515.09	753.33
515.45	758.05
515.81	762.57
516.17	767.10
516.53	769.67
516.89	773.24
517.25	778.10
517.61	782.38
517.97	785.71
518.33	790.05
518.69	794.48
519.05	799.62
519.41	803.10
519.77	808.00
520.13	811.10
520.49	814.19
520.85	816.33
521.21	820.67
521.57	824.24
521.93	827.19
522.29	830.33
522.65	832.62
523.01	834.71
523.37	836.14
523.73	838.14
524.09	840.81
524.45	843.19
524.81	845.05
525.17	846.57
525.53	849.24
525.89	850.86
526.25	853.05
526.61	853.48
526.97	855.29
527.33	855.48
527.68	859.67
528.04	861.62
528.40	863.43
528.76	863.86
529.12	864.95
529.48	866.33
529.84	867.57
530.20	869.05
530.56	871.62
530.91	874.19
531.27	876.43
531.63	878.19
531.99	879.33
532.35	880.57
532.71	881.67
533.07	882.48
533.42	886.24
533.78	885.90
534.14	888.29
534.50	889.48
534.86	891.19
535.21	889.57
535.57	890.62
535.93	891.10
536.29	892.90
536.65	894.81
537.00	896.67
537.36	898.57
537.72	900.62
538.08	902.67
538.44	903.95
538.79	905.24
539.15	907.00
539.51	908.90
539.87	910.86
540.22	913.71
540.58	915.90
540.94	916.67
541.29	919.95
541.65	921.00
542.01	923.24
542.37	924.81
542.72	925.81
543.08	926.52
543.44	927.81
543.79	926.95
544.15	926.52
544.51	926.10
544.87	925.10
545.22	924.24
545.58	922.33
545.94	920.81
546.29	919.38
546.65	917.38
547.01	914.90
547.36	912.43
547.72	909.48
548.07	906.81
548.43	903.14
548.79	899.05
549.14	895.62
549.50	892.67
549.86	888.67
550.21	886.24
550.57	883.90
550.92	881.29
551.28	879.71
551.64	877.00
551.99	874.10
552.35	872.05
552.70	869.52
553.06	867.10
553.41	865.67
553.77	864.48
554.13	862.62
554.48	861.76
554.84	860.19
555.19	858.76
555.55	858.67
555.90	857.24
556.26	855.29
556.61	853.38
556.97	850.48
557.32	849.19
557.68	847.67
558.03	844.90
558.39	843.05
558.74	841.14
559.10	838.90
559.45	838.48
559.81	836.48
560.16	835.14
560.52	833.10
560.87	830.95
561.23	828.00
561.58	828.19
561.94	825.00
562.29	823.29
562.64	821.14
563.00	817.67
563.35	815.90
563.71	814.19
564.06	812.67
564.42	811.10
564.77	809.48
565.12	808.48
565.48	809.43
565.83	808.38
566.19	806.67
566.54	805.86
566.89	803.52
567.25	802.90
567.60	802.95
567.96	804.14
568.31	804.05
568.66	804.48
569.02	801.95
569.37	801.57
569.72	800.48
570.08	799.52
570.43	797.67
570.78	795.95
571.14	795.14
571.49	794.05
571.84	793.29
572.20	792.05
572.55	790.00
572.90	786.38
573.26	784.43
573.61	782.81
573.96	781.86
574.31	780.52
574.67	778.57
575.02	776.00
575.37	772.10
575.72	769.57
576.08	766.81
576.43	764.43
576.78	762.71
577.13	761.00
577.49	759.62
577.84	758.90
578.19	757.52
578.54	756.05
578.90	754.43
579.25	753.00
579.60	752.24
579.95	751.10
580.30	750.43
580.66	749.81
581.01	748.24
581.36	746.19
581.71	744.67
582.06	744.52
582.42	742.57
582.77	741.10
583.12	740.57
583.47	739.29
583.82	738.24
584.17	736.71
584.53	736.52
584.88	734.19
585.23	733.14
585.58	730.48
585.93	728.00
586.28	726.71
586.63	725.10
586.98	722.90
587.34	720.57
587.69	718.19
588.04	715.62
588.39	713.67
588.74	710.52
589.09	708.62
589.44	704.00
589.79	701.62
590.14	698.76
590.49	694.76
590.84	691.57
591.19	688.57
591.54	685.48
591.89	681.38
592.25	680.67
592.60	676.38
592.95	674.29
593.30	672.14
593.65	668.14
594.00	664.43
594.35	667.14
594.70	663.90
595.05	660.48
595.40	657.38
595.75	653.76
596.10	651.76
596.45	648.71
596.80	646.29
597.15	644.14
597.50	641.95
597.85	639.90
598.19	637.14
598.54	634.62
598.89	631.67
599.24	628.57
599.59	624.29
599.94	621.71
600.29	619.14
600.64	616.43
600.99	615.67
601.34	613.38
601.69	605.24
602.04	602.90
602.39	600.57
602.74	598.76
603.08	597.52
603.43	596.76
603.78	594.86
604.13	592.62
604.48	590.71
604.83	589.57
605.18	588.71
605.53	588.48
605.87	589.86
606.22	593.29
606.57	598.43
606.92	603.14
607.27	609.19
607.62	615.05
607.96	620.62
608.31	624.24
608.66	627.95
609.01	631.19
609.36	634.90
609.70	638.29
610.05	640.90
610.40	643.19
610.75	643.81
611.10	645.24
611.44	646.57
611.79	646.86
612.14	646.71
612.49	644.81
612.83	643.19
613.18	639.57
613.53	633.90
613.88	626.10
614.22	618.24
614.57	609.67
614.92	600.14
615.27	592.14
615.61	584.33
615.96	577.90
616.31	571.10
616.65	565.33
617.00	559.24
617.35	553.14
617.70	546.86
618.04	541.62
618.39	536.10
618.74	532.38
619.08	528.10
619.43	523.67
619.78	520.19
620.12	516.24
620.47	512.81
620.82	509.71
621.16	507.19
621.51	506.33
621.85	503.76
622.20	502.33
622.55	498.71
622.89	496.43
623.24	494.19
623.59	491.81
623.93	489.14
624.28	486.43
624.62	487.24
624.97	487.10
625.32	484.81
625.66	483.52
626.01	480.86
626.35	478.81
626.70	477.14
627.04	476.10
627.39	474.67
627.73	473.90
628.08	472.33
628.43	470.38
628.77	466.19
629.12	463.95
629.46	461.86
629.81	460.62
630.15	459.00
630.50	456.48
630.84	454.24
631.19	451.90
631.53	450.24
631.88	444.81
632.22	440.52
632.57	438.71
632.91	436.10
633.26	434.29
633.60	431.67
633.95	429.52
634.29	426.29
634.64	424.10
634.98	420.71
635.32	419.19
635.67	417.19
636.01	415.57
636.36	413.62
636.70	412.10
637.05	410.24
637.39	407.95
637.73	406.62
638.08	405.43
638.42	403.86
638.77	402.33
639.11	400.71
639.45	399.19
639.80	397.62
640.14	396.00
640.49	394.29
640.83	393.19
641.17	391.76
641.52	390.38
641.86	389.38
642.20	389.24
642.55	387.14
642.89	385.86
643.23	385.43
643.58	385.00
643.92	382.95
644.26	381.71
644.61	381.38
644.95	380.33
645.29	378.95
645.64	378.57
645.98	377.52
646.32	377.48
646.66	376.86
647.01	375.57
647.35	375.29
647.69	374.90
648.04	373.95
648.38	373.33
648.72	372.43
649.06	370.90
649.41	369.05
649.75	368.24
650.09	367.76
650.43	366.14
650.78	364.48
651.12	363.52
651.46	362.57
651.80	361.57
652.14	360.14
652.49	359.57
652.83	357.52
653.17	356.48
653.51	354.81
653.85	353.86
654.20	353.19
654.54	351.24
654.88	349.19
655.22	347.67
655.56	345.90
655.90	345.19
656.25	344.10
656.59	342.67
656.93	341.67
657.27	341.10
657.61	340.05
657.95	339.57
658.29	338.86
658.64	338.29
658.98	337.33
659.32	336.76
659.66	336.10
660.00	335.95
660.34	335.19
660.68	334.48
661.02	333.76
661.36	332.43
661.70	331.90
662.05	331.10
662.39	331.29
662.73	331.43
663.07	331.95
663.41	331.90
663.75	331.14
664.09	330.67
664.43	329.19
664.77	328.43
665.11	326.86
665.45	326.19
665.79	325.86
666.13	324.33
666.47	323.14
666.81	322.24
667.15	320.76
667.49	320.38
667.83	320.19
668.17	319.10
668.51	318.86
668.85	318.48
669.19	319.10
669.53	317.67
669.87	316.67
670.21	315.24
670.55	314.24
670.89	315.19
671.23	314.43
671.57	313.90
671.91	313.67
672.25	313.57
672.58	314.00
672.92	312.81
673.26	312.57
673.60	312.48
673.94	311.71
674.28	311.71
674.62	311.24
674.96	310.67
675.30	310.67
675.64	310.29
675.97	309.38
676.31	307.81
676.65	307.33
676.99	307.67
677.33	306.67
677.67	306.05
678.01	304.33
678.34	303.67
678.68	303.57
679.02	302.81
679.36	302.57
679.70	301.00
680.04	300.48
680.37	300.05
680.71	299.29
681.05	298.95
681.39	298.52
681.73	297.95
682.06	297.00
682.40	296.14
682.74	295.81
683.08	296.57
683.42	296.57
683.75	297.00
684.09	295.90
684.43	295.67
684.77	295.00
685.10	295.33
685.44	295.24
685.78	294.76
686.12	294.43
686.45	293.52
686.79	293.38
687.13	293.67
687.46	293.00
687.80	292.95
688.14	292.90
688.48	292.62
688.81	292.14
689.15	292.38
689.49	292.48
689.82	292.00
690.16	290.71
690.50	290.00
690.83	288.95
691.17	287.95
691.51	287.57
691.84	287.81
692.18	286.67
692.52	286.00
692.85	285.57
693.19	286.05
693.52	286.05
693.86	285.48
694.20	284.90
694.53	285.05
694.87	284.43
695.21	283.24
695.54	282.71
695.88	281.81
696.21	280.43
696.55	279.90
696.88	279.48
697.22	278.95
697.56	279.00
697.89	278.62
698.23	279.00
698.56	278.33
698.90	277.95
699.23	277.57
699.57	277.57
699.90	276.81
700.24	275.90
700.58	276.00
700.91	276.19
701.25	277.81
701.58	278.33
701.92	279.05
702.25	279.81
702.59	280.05
702.92	280.86
703.26	281.67
703.59	282.00
703.93	284.29
704.26	285.10
704.60	285.86
704.93	286.29
705.26	286.05
705.60	287.24
705.93	287.24
706.27	288.29
706.60	289.38
706.94	291.00
707.27	291.10
707.61	291.00
707.94	291.05
708.27	289.48
708.61	288.81
708.94	288.62
709.28	288.19
709.61	287.71
709.94	287.48
710.28	287.14
710.61	286.76
710.95	284.33
711.28	285.48
711.61	284.86
711.95	284.71
712.28	284.24
712.61	283.00
712.95	283.81
713.28	283.90
713.61	282.29
713.95	280.71
714.28	280.24
714.61	279.67
714.95	278.62
715.28	277.29
715.61	276.57
715.95	276.10
716.28	275.33
716.61	274.95
716.95	274.24
717.28	273.71
717.61	273.10
717.94	272.38
718.28	269.62
718.61	268.71
718.94	268.05
719.27	267.52
719.61	267.57
719.94	266.43
720.27	265.19
720.60	265.05
720.94	264.90
721.27	264.52
721.60	264.67
721.93	264.67
722.27	265.71
722.60	265.52
722.93	265.10
723.26	264.95
723.59	264.67
723.93	264.57
724.26	264.62
724.59	264.05
724.92	264.05
725.25	264.95
725.59	265.10
725.92	265.24
726.25	265.10
726.58	264.76
726.91	264.57
727.24	264.76
727.57	264.57
727.91	264.00
728.24	264.43
728.57	263.95
728.90	263.95
729.23	263.14
729.56	264.33
729.89	264.10
730.22	263.86
730.55	263.52
730.89	263.33
731.22	263.05
731.55	262.76
731.88	262.76
732.21	261.86
732.54	261.38
732.87	261.05
733.20	260.95
733.53	261.05
733.86	260.57
734.19	259.67
734.52	259.71
734.85	261.00
735.18	260.19
735.51	260.67
735.84	260.52
736.17	260.71
736.50	259.10
736.83	261.81
737.16	261.86
737.49	261.86
737.82	261.67
738.15	261.62
738.48	261.76
738.81	261.33
739.14	260.81
739.47	260.38
739.80	259.95
740.13	260.19
740.46	259.67
740.79	259.10
741.12	259.00
741.45	258.95
741.78	257.95
742.11	258.29
742.44	257.57
742.77	257.95
743.10	257.29
743.43	257.24
743.75	254.38
744.08	257.24
744.41	257.05
744.74	256.81
745.07	256.48
745.40	257.10
745.73	258.14
746.06	258.38
746.39	258.57
746.71	258.43
747.04	257.81
747.37	257.76
747.70	258.29
748.03	258.57
748.36	258.76
748.68	258.43
749.01	257.71
749.34	257.43
749.67	257.24
750.00	257.38
750.33	258.86
750.65	258.81
750.98	255.67
751.31	255.67
751.64	255.52
751.97	256.67
752.29	255.95
752.62	254.33
752.95	254.19
753.28	253.86
753.60	253.90
753.93	254.38
754.26	254.14
754.59	253.48
754.91	252.76
755.24	252.14
755.57	251.95
755.90	251.95
756.22	251.67
756.55	251.33
756.88	250.95
757.20	249.24
757.53	248.43
757.86	248.29
758.19	248.24
758.51	248.19
758.84	247.05
759.17	247.05
759.49	247.48
759.82	248.62
760.15	248.86
760.47	248.67
760.80	248.05
761.13	248.62
761.45	248.90
761.78	249.24
762.11	249.19
762.43	248.81
762.76	248.71
763.08	249.33
763.41	249.33
763.74	249.38
764.06	249.24
764.39	249.43
764.71	249.33
765.04	249.05
765.37	248.71
765.69	247.95
766.02	247.67
766.34	247.48
766.67	246.24
767.00	246.57
767.32	247.62
767.65	248.95
767.97	248.48
768.30	248.29
768.62	248.38
768.95	247.86
769.27	247.86
769.60	247.95
769.92	247.10
770.25	246.62
770.57	246.10
770.90	246.29
771.22	246.19
771.55	246.00
771.87	246.29
772.20	246.24
772.52	248.76
772.85	251.67
773.17	251.57
773.50	251.62
773.82	251.14
774.15	249.86
774.47	248.24
774.80	247.86
775.12	247.71
775.45	247.43
775.77	247.62
776.09	247.90
776.42	248.00
776.74	248.86
777.07	248.90
777.39	248.86
777.72	248.52
778.04	248.57
778.36	248.38
778.69	248.10
779.01	248.19
779.33	246.05
779.66	243.19
779.98	243.00
780.31	242.95
780.63	244.10
780.95	244.62
781.28	244.67
781.60	244.76
781.92	244.90
782.25	245.00
782.57	244.81
782.89	244.38
783.22	244.29
783.54	243.86
783.86	243.86
784.19	243.81
784.51	244.71
784.83	244.33
785.16	244.71
785.48	244.52
785.80	244.67
786.12	244.62
786.45	244.48
786.77	244.71
787.09	244.90
787.42	243.52
787.74	243.24
788.06	243.33
788.38	243.05
788.71	242.76
789.03	242.71
789.35	243.14
789.67	243.05
789.99	243.10
790.32	242.76
790.64	242.81
790.96	244.86
791.28	243.81
791.61	243.81
791.93	243.81
792.25	243.71
792.57	245.00
792.89	244.71
793.21	245.00
793.54	244.67
793.86	244.14
