SpectraSuite Data File
++++++++++++++++++++++++++++++++++++
Date: Wed Nov 07 18:32:06 EST 2012
User: group
Dark Spectrum Present: No
Reference Spectrum Present: No
Number of Sampled Component Spectra: 1
Spectrometers: USB2E7196
Integration Time (usec): 1000000 (USB2E7196)
Spectra Averaged: 1 (USB2E7196)
Boxcar Smoothing: 10 (USB2E7196)
Correct for Electrical Dark: No (USB2E7196)
Strobe/Lamp Enabled: No (USB2E7196)
Correct for Detector Non-linearity: No (USB2E7196)
Correct for Stray Light: No (USB2E7196)
Number of Pixels in Processed Spectrum: 2048
>>>>>Begin Processed Spectral Data<<<<<
339.09	0.00
339.48	226.00
339.86	219.00
340.24	222.00
340.63	217.00
341.01	263.00
341.39	226.00
341.78	234.00
342.16	240.00
342.54	233.00
342.93	223.86
343.31	234.95
343.69	235.43
344.07	236.29
344.46	237.29
344.84	238.33
345.22	236.81
345.60	237.29
345.99	237.48
346.37	237.24
346.75	237.19
347.13	237.05
347.52	237.14
347.90	238.05
348.28	238.19
348.66	238.62
349.05	237.90
349.43	238.33
349.81	238.43
350.19	238.24
350.57	238.19
350.96	238.48
351.34	238.67
351.72	238.48
352.10	238.24
352.48	237.86
352.87	237.52
353.25	237.62
353.63	237.24
354.01	237.00
354.39	237.38
354.77	237.33
355.15	238.05
355.54	237.57
355.92	236.86
356.30	236.48
356.68	237.71
357.06	237.38
357.44	237.00
357.82	236.95
358.20	237.05
358.58	236.86
358.97	237.05
359.35	237.38
359.73	237.90
360.11	237.90
360.49	238.00
360.87	238.19
361.25	238.52
361.63	239.57
362.01	239.67
362.39	239.10
362.77	239.48
363.15	239.48
363.53	239.67
363.91	239.86
364.29	240.00
364.67	237.67
365.05	238.24
365.43	238.62
365.81	238.67
366.19	239.52
366.57	240.57
366.95	240.71
367.33	240.10
367.71	239.76
368.09	240.38
368.47	240.38
368.85	240.19
369.23	240.48
369.61	239.43
369.99	240.33
370.37	240.90
370.75	242.10
371.13	241.24
371.51	241.10
371.89	241.29
372.27	241.43
372.65	241.71
373.03	241.62
373.41	241.33
373.78	241.00
374.16	239.95
374.54	239.38
374.92	239.29
375.30	239.57
375.68	239.57
376.06	239.71
376.44	239.67
376.82	239.81
377.19	239.86
377.57	240.14
377.95	239.38
378.33	239.33
378.71	237.76
379.09	238.19
379.47	238.38
379.84	238.10
380.22	237.90
380.60	237.90
380.98	237.90
381.36	238.33
381.73	238.43
382.11	239.10
382.49	239.14
382.87	238.43
383.25	238.57
383.62	241.57
384.00	241.00
384.38	240.67
384.76	241.52
385.13	242.62
385.51	242.57
385.89	242.24
386.27	241.95
386.64	242.19
387.02	242.14
387.40	242.14
387.78	242.19
388.15	242.62
388.53	242.57
388.91	242.48
389.29	242.14
389.66	242.38
390.04	241.81
390.42	242.19
390.79	242.43
391.17	242.48
391.55	239.62
391.92	239.62
392.30	240.38
392.68	239.52
393.05	238.95
393.43	238.90
393.81	239.19
394.18	239.05
394.56	239.29
394.94	239.71
395.31	239.52
395.69	240.29
396.06	240.14
396.44	240.52
396.82	240.29
397.19	241.43
397.57	241.10
397.95	241.52
398.32	240.71
398.70	241.05
399.07	241.38
399.45	241.29
399.82	241.57
400.20	241.14
400.58	241.48
400.95	241.00
401.33	241.81
401.70	243.90
402.08	244.57
402.45	244.67
402.83	245.14
403.20	245.67
403.58	245.48
403.95	246.29
404.33	246.76
404.71	247.52
405.08	249.14
405.46	249.62
405.83	249.95
406.21	250.38
406.58	250.81
406.96	251.00
407.33	251.43
407.70	252.10
408.08	254.38
408.45	255.05
408.83	255.95
409.20	256.19
409.58	255.05
409.95	255.52
410.33	256.52
410.70	256.90
411.08	258.19
411.45	259.38
411.82	259.86
412.20	261.33
412.57	263.86
412.95	263.05
413.32	265.00
413.69	266.67
414.07	268.62
414.44	270.57
414.82	272.57
415.19	274.90
415.56	276.90
415.94	278.33
416.31	281.24
416.68	284.24
417.06	287.62
417.43	291.71
417.81	295.33
418.18	299.00
418.55	302.81
418.93	306.86
419.30	311.57
419.67	316.67
420.04	321.10
420.42	325.48
420.79	332.90
421.16	338.67
421.54	345.95
421.91	352.00
422.28	358.33
422.66	365.43
423.03	374.33
423.40	381.43
423.77	388.76
424.15	395.62
424.52	403.57
424.89	412.33
425.26	420.10
425.64	428.10
426.01	435.86
426.38	444.67
426.75	453.48
427.13	462.76
427.50	471.67
427.87	481.62
428.24	491.33
428.61	499.43
428.99	510.95
429.36	520.76
429.73	532.38
430.10	544.10
430.47	555.86
430.85	566.00
431.22	579.52
431.59	595.05
431.96	609.38
432.33	623.86
432.70	637.67
433.08	654.00
433.45	669.29
433.82	685.05
434.19	702.43
434.56	718.62
434.93	733.33
435.30	749.48
435.68	766.19
436.05	782.48
436.42	798.33
436.79	812.67
437.16	829.86
437.53	846.57
437.90	863.10
438.27	879.48
438.64	897.05
439.01	912.19
439.38	923.67
439.75	936.67
440.13	951.33
440.50	966.05
440.87	976.90
441.24	988.57
441.61	1002.10
441.98	1010.81
442.35	1022.14
442.72	1033.81
443.09	1046.05
443.46	1052.05
443.83	1056.14
444.20	1059.71
444.57	1064.14
444.94	1064.95
445.31	1066.62
445.68	1071.24
446.05	1072.00
446.42	1068.19
446.79	1065.57
447.16	1062.14
447.53	1059.19
447.90	1051.38
448.27	1042.90
448.64	1032.90
449.01	1025.71
449.37	1013.19
449.74	1001.52
450.11	990.19
450.48	974.52
450.85	957.19
451.22	943.76
451.59	931.38
451.96	919.71
452.33	904.10
452.70	890.05
453.07	873.43
453.43	853.14
453.80	836.00
454.17	821.05
454.54	805.76
454.91	790.86
455.28	774.71
455.65	760.76
456.02	750.57
456.38	738.48
456.75	722.90
457.12	710.00
457.49	697.71
457.86	682.81
458.23	673.24
458.59	662.19
458.96	652.19
459.33	642.00
459.70	632.24
460.07	624.24
460.43	614.76
460.80	606.43
461.17	599.14
461.54	590.33
461.91	582.86
462.27	574.95
462.64	567.62
463.01	560.71
463.38	554.90
463.74	543.57
464.11	537.10
464.48	532.10
464.85	526.14
465.21	522.48
465.58	517.86
465.95	511.67
466.32	507.29
466.68	501.62
467.05	497.38
467.42	492.81
467.78	488.57
468.15	484.52
468.52	482.10
468.88	477.57
469.25	474.19
469.62	471.10
469.98	467.76
470.35	464.86
470.72	461.95
471.08	457.19
471.45	455.10
471.82	453.19
472.18	450.29
472.55	448.43
472.92	444.14
473.28	442.00
473.65	439.57
474.02	436.81
474.38	435.38
474.75	433.24
475.11	430.57
475.48	428.86
475.85	427.62
476.21	425.05
476.58	424.10
476.94	423.10
477.31	421.43
477.67	420.33
478.04	419.52
478.41	419.05
478.77	420.62
479.14	419.57
479.50	419.00
479.87	419.00
480.23	418.90
480.60	419.29
480.96	419.29
481.33	420.76
481.69	421.33
482.06	421.48
482.42	422.62
482.79	424.38
483.15	425.14
483.52	425.86
483.88	426.90
484.25	427.48
484.61	429.00
484.98	430.29
485.34	432.48
485.71	433.86
486.07	435.14
486.44	434.33
486.80	435.76
487.17	437.43
487.53	439.48
487.90	441.29
488.26	443.71
488.62	446.00
488.99	446.52
489.35	448.67
489.72	450.57
490.08	451.90
490.44	453.38
490.81	455.52
491.17	457.81
491.54	459.90
491.90	462.38
492.26	464.29
492.63	466.57
492.99	468.10
493.36	470.52
493.72	473.24
494.08	475.95
494.45	479.24
494.81	482.24
495.17	484.67
495.54	488.33
495.90	491.33
496.26	494.95
496.63	499.00
496.99	502.90
497.35	506.90
497.72	510.81
498.08	514.43
498.44	518.52
498.80	523.24
499.17	527.48
499.53	531.90
499.89	536.67
500.26	541.71
500.62	546.71
500.98	551.38
501.34	556.57
501.71	562.48
502.07	567.57
502.43	572.05
502.79	577.14
503.16	581.52
503.52	586.14
503.88	589.86
504.24	594.76
504.60	599.48
504.97	604.71
505.33	609.76
505.69	616.14
506.05	621.38
506.41	626.14
506.78	631.10
507.14	635.57
507.50	641.10
507.86	646.95
508.22	652.10
508.59	657.57
508.95	663.05
509.31	668.33
509.67	673.24
510.03	678.95
510.39	684.62
510.75	690.67
511.12	696.52
511.48	702.57
511.84	707.71
512.20	713.00
512.56	717.67
512.92	722.90
513.28	726.90
513.64	731.10
514.00	735.90
514.37	740.81
514.73	746.43
515.09	750.57
515.45	753.76
515.81	758.67
516.17	763.29
516.53	766.81
516.89	769.71
517.25	773.95
517.61	778.29
517.97	781.00
518.33	784.14
518.69	787.76
519.05	791.67
519.41	795.29
519.77	799.90
520.13	803.67
520.49	806.62
520.85	810.10
521.21	814.81
521.57	817.95
521.93	820.14
522.29	822.48
522.65	825.14
523.01	828.33
523.37	829.81
523.73	831.48
524.09	834.29
524.45	837.00
524.81	839.29
525.17	841.29
525.53	843.95
525.89	845.81
526.25	847.86
526.61	848.24
526.97	850.10
527.33	850.95
527.68	855.33
528.04	856.90
528.40	858.29
528.76	858.62
529.12	859.33
529.48	861.62
529.84	862.81
530.20	864.24
530.56	866.00
530.91	867.52
531.27	869.67
531.63	871.00
531.99	872.29
532.35	873.38
532.71	873.19
533.07	874.71
533.42	878.48
533.78	879.38
534.14	881.05
534.50	881.57
534.86	883.10
535.21	880.95
535.57	883.14
535.93	883.48
536.29	886.00
536.65	887.67
537.00	889.71
537.36	892.05
537.72	893.81
538.08	896.19
538.44	898.48
538.79	900.14
539.15	901.48
539.51	904.38
539.87	906.52
540.22	909.10
540.58	910.76
540.94	910.76
541.29	912.81
541.65	914.76
542.01	917.67
542.37	919.48
542.72	921.19
543.08	921.19
543.44	921.57
543.79	920.14
544.15	920.86
544.51	920.38
544.87	920.10
545.22	918.57
545.58	916.38
545.94	915.29
546.29	913.90
546.65	911.76
547.01	907.71
547.36	905.33
547.72	902.57
548.07	900.19
548.43	895.86
548.79	893.10
549.14	890.38
549.50	887.10
549.86	883.24
550.21	880.52
550.57	877.90
550.92	875.33
551.28	873.57
551.64	870.38
551.99	867.71
552.35	864.19
552.70	862.48
553.06	860.43
553.41	857.81
553.77	856.14
554.13	854.24
554.48	853.24
554.84	851.00
555.19	849.10
555.55	849.76
555.90	848.24
556.26	845.81
556.61	843.05
556.97	840.29
557.32	837.86
557.68	835.81
558.03	833.24
558.39	831.90
558.74	830.14
559.10	828.33
559.45	827.14
559.81	825.90
560.16	823.43
560.52	821.10
560.87	819.57
561.23	817.57
561.58	817.95
561.94	816.14
562.29	814.86
562.64	813.29
563.00	808.29
563.35	807.81
563.71	806.00
564.06	804.62
564.42	803.71
564.77	801.67
565.12	800.29
565.48	801.43
565.83	800.81
566.19	799.14
566.54	797.62
566.89	795.14
567.25	795.29
567.60	796.00
567.96	797.81
568.31	797.71
568.66	797.00
569.02	793.71
569.37	792.00
569.72	789.86
570.08	788.62
570.43	787.57
570.78	785.57
571.14	784.33
571.49	783.71
571.84	782.52
572.20	782.19
572.55	780.29
572.90	777.29
573.26	775.24
573.61	774.19
573.96	773.33
574.31	772.05
574.67	769.43
575.02	766.76
575.37	762.48
575.72	760.00
576.08	757.67
576.43	756.29
576.78	755.00
577.13	753.57
577.49	752.57
577.84	751.14
578.19	749.71
578.54	748.62
578.90	747.29
579.25	746.19
579.60	744.43
579.95	743.00
580.30	741.52
580.66	740.62
581.01	739.05
581.36	737.24
581.71	735.90
582.06	735.52
582.42	734.19
582.77	732.76
583.12	731.62
583.47	730.00
583.82	728.38
584.17	727.00
584.53	726.81
584.88	724.90
585.23	724.24
585.58	722.14
585.93	719.62
586.28	717.48
586.63	715.33
586.98	714.19
587.34	712.90
587.69	710.43
588.04	708.10
588.39	705.24
588.74	702.48
589.09	700.43
589.44	695.95
589.79	692.86
590.14	689.81
590.49	686.00
590.84	682.95
591.19	680.29
591.54	677.71
591.89	673.76
592.25	672.76
592.60	669.10
592.95	666.71
593.30	664.19
593.65	661.00
594.00	657.67
594.35	660.62
594.70	656.52
595.05	653.52
595.40	650.29
595.75	647.48
596.10	644.90
596.45	642.29
596.80	639.86
597.15	637.19
597.50	634.33
597.85	632.19
598.19	629.67
598.54	626.62
598.89	623.00
599.24	620.62
599.59	616.29
599.94	613.57
600.29	611.29
600.64	609.14
600.99	607.81
601.34	605.62
601.69	596.81
602.04	594.76
602.39	592.67
602.74	590.76
603.08	588.67
603.43	587.71
603.78	584.95
604.13	582.38
604.48	580.62
604.83	579.76
605.18	578.71
605.53	579.05
605.87	581.24
606.22	584.95
606.57	589.19
606.92	593.71
607.27	599.43
607.62	604.90
607.96	610.71
608.31	614.86
608.66	619.05
609.01	622.90
609.36	626.48
609.70	629.43
610.05	632.33
610.40	635.19
610.75	636.57
611.10	639.14
611.44	640.95
611.79	641.43
612.14	641.76
612.49	640.67
612.83	638.14
613.18	633.67
613.53	628.43
613.88	621.57
614.22	613.81
614.57	606.00
614.92	596.95
615.27	588.57
615.61	580.71
615.96	573.48
616.31	566.14
616.65	560.33
617.00	554.24
617.35	548.00
617.70	541.86
618.04	536.52
618.39	530.43
618.74	526.90
619.08	522.86
619.43	519.00
619.78	515.19
620.12	511.81
620.47	508.95
620.82	505.48
621.16	502.14
621.51	501.57
621.85	498.24
622.20	496.86
622.55	493.19
622.89	491.05
623.24	488.67
623.59	486.67
623.93	484.81
624.28	482.90
624.62	483.62
624.97	483.29
625.32	481.05
625.66	479.76
626.01	477.43
626.35	476.19
626.70	474.00
627.04	473.67
627.39	472.19
627.73	471.43
628.08	470.38
628.43	468.95
628.77	465.10
629.12	463.57
629.46	461.76
629.81	460.52
630.15	458.00
630.50	456.00
630.84	453.76
631.19	451.43
631.53	448.90
631.88	443.43
632.22	439.24
632.57	437.38
632.91	435.00
633.26	432.81
633.60	430.10
633.95	427.33
634.29	423.76
634.64	421.10
634.98	417.57
635.32	415.24
635.67	413.62
636.01	411.95
636.36	409.67
636.70	407.67
637.05	405.81
637.39	404.57
637.73	403.14
638.08	402.10
638.42	399.81
638.77	398.67
639.11	397.38
639.45	396.19
639.80	394.19
640.14	393.19
640.49	391.33
640.83	390.05
641.17	389.38
641.52	388.05
641.86	387.05
642.20	386.95
642.55	385.24
642.89	384.00
643.23	383.05
643.58	382.57
643.92	380.48
644.26	379.67
644.61	378.76
644.95	377.86
645.29	376.52
645.64	376.67
645.98	375.48
646.32	375.29
646.66	374.43
647.01	373.67
647.35	372.95
647.69	372.86
648.04	372.62
648.38	371.76
648.72	371.10
649.06	369.71
649.41	368.29
649.75	367.48
650.09	366.81
650.43	365.90
650.78	364.24
651.12	363.62
651.46	362.24
651.80	360.67
652.14	358.95
652.49	358.29
652.83	356.48
653.17	355.67
653.51	353.90
653.85	353.10
654.20	352.00
654.54	350.33
654.88	347.90
655.22	345.62
655.56	344.05
655.90	342.90
656.25	342.05
656.59	341.33
656.93	340.43
657.27	339.90
657.61	338.57
657.95	338.10
658.29	337.10
658.64	336.90
658.98	336.57
659.32	336.10
659.66	335.05
660.00	334.76
660.34	333.57
660.68	332.95
661.02	331.95
661.36	331.05
661.70	330.57
662.05	330.76
662.39	331.38
662.73	331.67
663.07	332.33
663.41	332.33
663.75	331.14
664.09	330.67
664.43	329.14
664.77	328.57
665.11	327.57
665.45	327.00
665.79	326.67
666.13	325.38
666.47	324.19
666.81	323.67
667.15	322.38
667.49	322.43
667.83	322.48
668.17	321.76
668.51	321.33
668.85	320.43
669.19	320.67
669.53	319.05
669.87	317.57
670.21	316.10
670.55	315.05
670.89	315.90
671.23	315.29
671.57	314.76
671.91	314.24
672.25	313.95
672.58	314.19
672.92	312.57
673.26	312.00
673.60	311.90
673.94	311.62
674.28	311.43
674.62	311.05
674.96	310.38
675.30	310.57
675.64	309.71
675.97	309.29
676.31	307.71
676.65	307.33
676.99	307.81
677.33	306.48
677.67	306.38
678.01	304.19
678.34	303.71
678.68	303.57
679.02	302.90
679.36	301.95
679.70	300.38
680.04	300.00
680.37	300.05
680.71	299.24
681.05	298.67
681.39	298.05
681.73	297.33
682.06	296.43
682.40	295.57
682.74	296.10
683.08	296.57
683.42	296.29
683.75	296.48
684.09	295.29
684.43	295.10
684.77	294.00
685.10	294.33
685.44	294.05
685.78	293.81
686.12	293.29
686.45	293.14
686.79	292.62
687.13	292.57
687.46	291.71
687.80	292.14
688.14	291.52
688.48	291.38
688.81	291.05
689.15	291.71
689.49	291.43
689.82	290.67
690.16	289.43
690.50	289.14
690.83	288.43
691.17	288.00
691.51	287.81
691.84	288.00
692.18	286.90
692.52	286.05
692.85	285.62
693.19	286.67
693.52	286.33
693.86	286.10
694.20	285.95
694.53	285.86
694.87	284.81
695.21	283.81
695.54	283.52
695.88	282.62
696.21	280.81
696.55	280.14
696.88	279.95
697.22	279.33
697.56	278.86
697.89	277.95
698.23	277.86
698.56	277.43
698.90	277.33
699.23	277.14
699.57	277.10
699.90	276.24
700.24	275.24
700.58	275.24
700.91	275.62
701.25	277.38
701.58	278.14
701.92	278.81
702.25	279.71
702.59	279.33
702.92	279.90
703.26	281.00
703.59	281.57
703.93	283.81
704.26	284.95
704.60	285.62
704.93	286.48
705.26	286.57
705.60	287.38
705.93	287.19
706.27	288.24
706.60	289.19
706.94	290.71
707.27	290.81
707.61	290.95
707.94	291.19
708.27	289.43
708.61	288.67
708.94	288.62
709.28	288.10
709.61	287.52
709.94	287.29
710.28	286.52
710.61	285.67
710.95	282.38
711.28	282.14
711.61	281.14
711.95	280.62
712.28	279.62
712.61	278.62
712.95	278.90
713.28	279.00
713.61	277.52
713.95	275.81
714.28	275.24
714.61	274.48
714.95	273.00
715.28	271.67
715.61	271.00
715.95	270.10
716.28	269.29
716.61	269.24
716.95	268.29
717.28	267.67
717.61	267.24
717.94	267.38
718.28	265.81
718.61	265.29
718.94	264.33
719.27	264.19
719.61	264.00
719.94	263.05
720.27	261.71
720.60	261.43
720.94	261.52
721.27	261.00
721.60	260.81
721.93	260.90
722.27	261.76
722.60	261.86
722.93	261.43
723.26	261.52
723.59	261.24
723.93	261.52
724.26	261.67
724.59	261.86
724.92	261.48
725.25	262.10
725.59	262.10
725.92	262.48
726.25	262.10
726.58	262.10
726.91	262.14
727.24	262.33
727.57	262.10
727.91	261.33
728.24	261.67
728.57	261.29
728.90	261.43
729.23	260.38
729.56	260.95
729.89	260.95
730.22	260.43
730.55	260.10
730.89	259.67
731.22	259.14
731.55	258.52
731.88	258.48
732.21	257.71
732.54	257.29
732.87	256.95
733.20	257.10
733.53	257.29
733.86	257.05
734.19	256.67
734.52	257.19
734.85	258.86
735.18	257.95
735.51	258.76
735.84	258.57
736.17	259.24
736.50	257.95
736.83	260.57
737.16	260.76
737.49	260.76
737.82	260.67
738.15	261.33
738.48	261.57
738.81	261.10
739.14	260.86
739.47	260.81
739.80	260.48
740.13	260.67
740.46	259.95
740.79	259.57
741.12	259.38
741.45	258.86
741.78	257.24
742.11	257.71
742.44	257.10
742.77	257.52
743.10	257.05
743.43	256.90
743.75	254.10
744.08	257.05
744.41	256.86
744.74	256.52
745.07	255.48
745.40	255.71
745.73	256.90
746.06	257.05
746.39	257.10
746.71	257.10
747.04	256.67
747.37	256.43
747.70	256.71
748.03	256.48
748.36	256.62
748.68	256.48
749.01	256.29
749.34	256.14
749.67	255.90
750.00	256.24
750.33	257.76
750.65	258.00
750.98	254.67
751.31	254.71
751.64	254.95
751.97	256.38
752.29	256.00
752.62	254.71
752.95	254.33
753.28	254.00
753.60	253.67
753.93	254.19
754.26	254.14
754.59	253.62
754.91	253.19
755.24	252.67
755.57	252.48
755.90	252.29
756.22	252.00
756.55	251.71
756.88	250.57
757.20	249.14
757.53	248.48
757.86	248.48
758.19	248.76
758.51	248.48
758.84	247.05
759.17	246.67
759.49	247.14
759.82	248.29
760.15	248.52
760.47	248.62
760.80	248.05
761.13	248.52
761.45	248.24
761.78	248.29
762.11	248.43
762.43	248.33
762.76	248.10
763.08	248.24
763.41	248.19
763.74	248.81
764.06	248.43
764.39	248.29
764.71	248.33
765.04	247.81
765.37	247.90
765.69	247.86
766.02	247.81
766.34	247.43
766.67	246.62
767.00	246.90
767.32	248.05
767.65	249.33
767.97	249.43
768.30	249.62
768.62	249.57
768.95	249.57
769.27	249.76
769.60	249.62
769.92	249.10
770.25	248.62
770.57	248.10
770.90	248.33
771.22	248.24
771.55	248.33
771.87	248.52
772.20	248.00
772.52	250.10
772.85	253.57
773.17	253.57
773.50	253.29
773.82	252.71
774.15	251.62
774.47	249.76
774.80	249.29
775.12	249.14
775.45	249.05
775.77	248.81
776.09	248.76
776.42	249.24
776.74	250.29
777.07	250.19
777.39	250.05
777.72	249.67
778.04	249.90
778.36	249.48
778.69	249.29
779.01	249.67
779.33	247.71
779.66	244.29
779.98	244.00
780.31	244.24
780.63	245.33
780.95	245.76
781.28	245.71
781.60	245.10
781.92	245.05
782.25	245.14
782.57	245.38
782.89	245.05
783.22	244.62
783.54	243.86
783.86	243.90
784.19	243.95
784.51	244.90
784.83	244.48
785.16	244.48
785.48	244.43
785.80	244.33
786.12	244.19
786.45	244.62
786.77	244.86
787.09	244.67
787.42	243.71
787.74	243.48
788.06	244.05
788.38	244.00
788.71	243.90
789.03	244.38
789.35	244.38
789.67	244.24
789.99	244.76
790.32	244.38
790.64	244.62
790.96	246.52
791.28	245.62
791.61	245.81
791.93	245.95
792.25	245.81
792.57	247.48
792.89	247.19
793.21	247.00
793.54	246.86
793.86	246.62
