SpectraSuite Data File
++++++++++++++++++++++++++++++++++++
Date: Wed Nov 07 18:32:21 EST 2012
User: group
Dark Spectrum Present: No
Reference Spectrum Present: No
Number of Sampled Component Spectra: 1
Spectrometers: USB2E7196
Integration Time (usec): 1000000 (USB2E7196)
Spectra Averaged: 1 (USB2E7196)
Boxcar Smoothing: 10 (USB2E7196)
Correct for Electrical Dark: No (USB2E7196)
Strobe/Lamp Enabled: No (USB2E7196)
Correct for Detector Non-linearity: No (USB2E7196)
Correct for Stray Light: No (USB2E7196)
Number of Pixels in Processed Spectrum: 2048
>>>>>Begin Processed Spectral Data<<<<<
339.09	0.00
339.48	217.00
339.86	220.00
340.24	223.00
340.63	223.00
341.01	263.00
341.39	228.00
341.78	231.00
342.16	238.00
342.54	229.00
342.93	222.10
343.31	233.00
343.69	233.43
344.07	234.19
344.46	234.95
344.84	235.33
345.22	233.76
345.60	234.14
345.99	234.62
346.37	234.29
346.75	234.38
347.13	234.14
347.52	234.05
347.90	234.81
348.28	235.10
348.66	235.67
349.05	234.71
349.43	235.24
349.81	235.62
350.19	235.81
350.57	235.95
350.96	236.43
351.34	236.86
351.72	237.00
352.10	237.00
352.48	236.76
352.87	236.71
353.25	236.86
353.63	236.90
354.01	236.43
354.39	236.81
354.77	237.14
355.15	238.29
355.54	238.33
355.92	237.62
356.30	237.76
356.68	239.29
357.06	239.76
357.44	239.19
357.82	239.24
358.20	239.14
358.58	239.57
358.97	239.48
359.35	240.14
359.73	240.81
360.11	240.90
360.49	241.00
360.87	241.52
361.25	241.86
361.63	242.90
362.01	243.52
362.39	243.48
362.77	243.86
363.15	243.48
363.53	243.67
363.91	243.95
364.29	243.90
364.67	241.71
365.05	241.81
365.43	242.38
365.81	242.81
366.19	244.05
366.57	244.76
366.95	244.76
367.33	244.05
367.71	243.81
368.09	244.05
368.47	244.33
368.85	244.14
369.23	244.67
369.61	243.76
369.99	244.43
370.37	244.90
370.75	245.76
371.13	245.38
371.51	245.43
371.89	245.71
372.27	246.24
372.65	246.57
373.03	246.71
373.41	246.48
373.78	246.10
374.16	244.95
374.54	244.33
374.92	243.86
375.30	243.71
375.68	243.57
376.06	243.43
376.44	243.19
376.82	243.57
377.19	243.29
377.57	243.00
377.95	242.00
378.33	241.62
378.71	240.14
379.09	240.57
379.47	240.38
379.84	240.19
380.22	239.48
380.60	239.19
380.98	238.86
381.36	238.52
381.73	238.29
382.11	238.62
382.49	238.90
382.87	238.90
383.25	239.14
383.62	242.00
384.00	241.86
384.38	242.05
384.76	242.14
385.13	243.24
385.51	243.00
385.89	242.71
386.27	242.90
386.64	243.29
387.02	242.62
387.40	242.38
387.78	242.62
388.15	242.76
388.53	242.57
388.91	242.67
389.29	242.81
389.66	242.95
390.04	242.48
390.42	242.71
390.79	242.81
391.17	242.95
391.55	240.19
391.92	240.14
392.30	240.19
392.68	239.76
393.05	239.48
393.43	239.71
393.81	239.95
394.18	239.38
394.56	239.81
394.94	240.76
395.31	240.76
395.69	241.33
396.06	241.86
396.44	242.14
396.82	241.95
397.19	243.19
397.57	243.19
397.95	243.71
398.32	242.86
398.70	243.00
399.07	243.38
399.45	243.38
399.82	243.67
400.20	243.86
400.58	244.14
400.95	243.24
401.33	243.95
401.70	245.71
402.08	246.10
402.45	245.86
402.83	246.14
403.20	246.38
403.58	245.71
403.95	246.24
404.33	247.00
404.71	247.24
405.08	248.81
405.46	249.00
405.83	249.62
406.21	250.10
406.58	250.71
406.96	251.00
407.33	252.05
407.70	252.71
408.08	254.95
408.45	255.86
408.83	257.05
409.20	257.24
409.58	256.43
409.95	257.71
410.33	259.05
410.70	259.38
411.08	261.05
411.45	262.86
411.82	263.38
412.20	264.52
412.57	267.48
412.95	266.62
413.32	268.67
413.69	270.00
414.07	271.76
414.44	273.90
414.82	276.10
415.19	278.19
415.56	280.33
415.94	281.19
416.31	284.14
416.68	286.95
417.06	290.62
417.43	294.48
417.81	297.76
418.18	301.57
418.55	305.48
418.93	309.29
419.30	313.33
419.67	318.24
420.04	323.05
420.42	327.14
420.79	334.67
421.16	340.14
421.54	347.29
421.91	353.57
422.28	359.19
422.66	365.86
423.03	373.90
423.40	380.90
423.77	388.48
424.15	394.86
424.52	402.19
424.89	410.48
425.26	418.14
425.64	425.90
426.01	433.57
426.38	442.76
426.75	452.76
427.13	461.81
427.50	470.67
427.87	480.19
428.24	489.62
428.61	497.38
428.99	509.14
429.36	519.29
429.73	530.43
430.10	542.62
430.47	554.90
430.85	565.81
431.22	578.81
431.59	593.90
431.96	607.71
432.33	622.33
432.70	636.57
433.08	653.19
433.45	669.00
433.82	684.33
434.19	700.95
434.56	715.90
434.93	731.67
435.30	748.43
435.68	765.57
436.05	782.57
436.42	799.71
436.79	815.10
437.16	832.24
437.53	849.67
437.90	866.43
438.27	882.67
438.64	900.81
439.01	915.95
439.38	928.29
439.75	941.19
440.13	956.67
440.50	970.33
440.87	981.86
441.24	993.43
441.61	1006.29
441.98	1015.86
442.35	1027.05
442.72	1038.52
443.09	1048.57
443.46	1055.29
443.83	1059.24
444.20	1062.14
444.57	1065.71
444.94	1066.38
445.31	1067.52
445.68	1071.57
446.05	1070.38
446.42	1066.57
446.79	1064.52
447.16	1060.62
447.53	1058.10
447.90	1049.76
448.27	1042.19
448.64	1031.62
449.01	1023.52
449.37	1012.10
449.74	999.67
450.11	989.29
450.48	973.14
450.85	957.67
451.22	943.67
451.59	931.00
451.96	918.52
452.33	902.95
452.70	888.43
453.07	871.29
453.43	851.19
453.80	835.52
454.17	819.05
454.54	803.05
454.91	787.38
455.28	771.24
455.65	756.52
456.02	746.52
456.38	734.43
456.75	719.86
457.12	706.33
457.49	694.05
457.86	678.86
458.23	669.38
458.59	658.48
458.96	647.48
459.33	637.71
459.70	628.19
460.07	620.19
460.43	611.67
460.80	604.33
461.17	596.57
461.54	588.52
461.91	581.05
462.27	573.62
462.64	566.71
463.01	559.95
463.38	554.52
463.74	543.76
464.11	537.29
464.48	532.38
464.85	527.33
465.21	523.86
465.58	519.43
465.95	513.43
466.32	508.52
466.68	503.90
467.05	499.10
467.42	494.29
467.78	489.38
468.15	484.95
468.52	481.19
468.88	477.00
469.25	473.29
469.62	471.00
469.98	467.76
470.35	465.05
470.72	462.14
471.08	458.05
471.45	455.38
471.82	453.14
472.18	449.57
472.55	447.24
472.92	443.14
473.28	440.76
473.65	438.24
474.02	435.86
474.38	433.71
474.75	432.10
475.11	430.05
475.48	428.67
475.85	426.62
476.21	425.05
476.58	424.71
476.94	423.43
477.31	421.57
477.67	420.81
478.04	419.62
478.41	419.00
478.77	421.00
479.14	419.90
479.50	419.38
479.87	419.19
480.23	419.10
480.60	419.24
480.96	418.76
481.33	420.00
481.69	420.24
482.06	421.19
482.42	421.76
482.79	423.14
483.15	423.95
483.52	425.81
483.88	426.57
484.25	427.38
484.61	428.52
484.98	429.43
485.34	431.33
485.71	433.38
486.07	434.67
486.44	433.43
486.80	434.90
487.17	436.57
487.53	438.29
487.90	440.00
488.26	442.95
488.62	445.43
488.99	446.81
489.35	449.43
489.72	450.19
490.08	452.10
490.44	453.48
490.81	455.29
491.17	456.81
491.54	458.90
491.90	461.29
492.26	463.67
492.63	466.38
492.99	467.90
493.36	470.10
493.72	473.71
494.08	477.00
494.45	480.14
494.81	483.10
495.17	486.19
495.54	489.71
495.90	492.29
496.26	495.62
496.63	499.33
496.99	502.29
497.35	506.86
497.72	510.86
498.08	514.90
498.44	519.76
498.80	524.33
499.17	528.90
499.53	532.95
499.89	537.86
500.26	542.43
500.62	547.19
500.98	552.67
501.34	557.24
501.71	562.52
502.07	566.71
502.43	571.67
502.79	576.67
503.16	581.05
503.52	586.05
503.88	591.10
504.24	596.57
504.60	602.76
504.97	607.95
505.33	613.29
505.69	619.48
506.05	624.76
506.41	629.81
506.78	635.19
507.14	640.14
507.50	645.43
507.86	651.19
508.22	657.10
508.59	661.95
508.95	667.57
509.31	673.24
509.67	678.62
510.03	683.57
510.39	689.10
510.75	694.10
511.12	699.38
511.48	704.29
511.84	708.81
512.20	713.00
512.56	717.52
512.92	722.05
513.28	726.81
513.64	731.00
514.00	735.29
514.37	740.00
514.73	744.62
515.09	750.10
515.45	753.90
515.81	757.90
516.17	761.38
516.53	764.62
516.89	767.38
517.25	772.05
517.61	776.76
517.97	780.24
518.33	785.33
518.69	789.38
519.05	793.81
519.41	797.48
519.77	802.38
520.13	806.76
520.49	809.62
520.85	812.90
521.21	817.24
521.57	821.24
521.93	823.29
522.29	826.67
522.65	827.62
523.01	830.00
523.37	831.57
523.73	835.14
524.09	837.43
524.45	839.90
524.81	841.57
525.17	844.62
525.53	846.57
525.89	847.24
526.25	848.90
526.61	849.24
526.97	850.86
527.33	851.52
527.68	854.81
528.04	856.86
528.40	857.10
528.76	857.67
529.12	858.95
529.48	860.67
529.84	861.38
530.20	863.62
530.56	865.57
530.91	868.00
531.27	868.33
531.63	869.62
531.99	871.24
532.35	873.24
532.71	873.10
533.07	874.38
533.42	878.71
533.78	879.10
534.14	880.81
534.50	882.67
534.86	884.10
535.21	882.76
535.57	884.00
535.93	884.95
536.29	887.19
536.65	887.95
537.00	889.62
537.36	892.00
537.72	893.95
538.08	896.52
538.44	899.29
538.79	901.86
539.15	903.86
539.51	906.76
539.87	908.86
540.22	910.90
540.58	912.90
540.94	912.00
541.29	915.10
541.65	916.81
542.01	918.33
542.37	920.38
542.72	921.81
543.08	922.00
543.44	922.67
543.79	921.00
544.15	921.19
544.51	921.90
544.87	920.86
545.22	919.19
545.58	916.86
545.94	914.24
546.29	911.86
546.65	909.29
547.01	905.57
547.36	903.19
547.72	900.29
548.07	897.43
548.43	894.52
548.79	890.05
549.14	886.24
549.50	883.76
549.86	878.90
550.21	876.33
550.57	874.29
550.92	872.52
551.28	870.48
551.64	868.24
551.99	865.24
552.35	862.43
552.70	860.52
553.06	859.05
553.41	856.43
553.77	856.33
554.13	855.48
554.48	853.95
554.84	851.33
555.19	849.86
555.55	851.24
555.90	849.52
556.26	848.90
556.61	847.95
556.97	844.38
557.32	843.57
557.68	841.81
558.03	840.43
558.39	838.19
558.74	836.48
559.10	834.57
559.45	831.90
559.81	830.81
560.16	828.67
560.52	827.05
560.87	825.48
561.23	822.52
561.58	822.52
561.94	820.81
562.29	819.24
562.64	817.67
563.00	813.48
563.35	811.81
563.71	810.00
564.06	807.90
564.42	806.24
564.77	804.48
565.12	802.48
565.48	802.33
565.83	801.33
566.19	800.52
566.54	799.95
566.89	798.90
567.25	798.10
567.60	798.33
567.96	799.52
568.31	799.76
568.66	799.29
569.02	796.14
569.37	794.33
569.72	793.19
570.08	792.29
570.43	791.19
570.78	789.43
571.14	787.81
571.49	786.95
571.84	786.19
572.20	784.90
572.55	784.05
572.90	780.38
573.26	778.71
573.61	777.48
573.96	775.10
574.31	774.10
574.67	773.10
575.02	770.57
575.37	766.76
575.72	764.24
576.08	762.05
576.43	760.43
576.78	759.05
577.13	757.33
577.49	755.48
577.84	753.38
578.19	752.52
578.54	751.67
578.90	750.38
579.25	749.67
579.60	748.67
579.95	747.05
580.30	746.76
580.66	745.24
581.01	743.67
581.36	742.33
581.71	740.81
582.06	738.76
582.42	737.14
582.77	734.90
583.12	733.71
583.47	731.81
583.82	730.48
584.17	729.95
584.53	730.00
584.88	727.90
585.23	727.71
585.58	726.00
585.93	724.14
586.28	722.71
586.63	720.76
586.98	718.86
587.34	717.24
587.69	714.71
588.04	712.14
588.39	709.57
588.74	706.71
589.09	704.71
589.44	701.00
589.79	698.43
590.14	696.10
590.49	692.67
590.84	689.43
591.19	685.95
591.54	682.67
591.89	678.29
592.25	677.48
592.60	672.95
592.95	669.48
593.30	666.29
593.65	662.81
594.00	659.33
594.35	663.05
594.70	660.19
595.05	657.38
595.40	655.10
595.75	652.14
596.10	650.14
596.45	647.38
596.80	644.86
597.15	641.62
597.50	638.81
597.85	637.33
598.19	635.67
598.54	633.14
598.89	629.67
599.24	627.71
599.59	623.48
599.94	620.86
600.29	619.33
600.64	616.81
600.99	615.29
601.34	613.00
601.69	603.62
602.04	600.29
602.39	597.38
602.74	595.62
603.08	593.14
603.43	591.19
603.78	588.76
604.13	587.19
604.48	585.43
604.83	584.67
605.18	583.33
605.53	583.19
605.87	585.33
606.22	589.19
606.57	592.95
606.92	597.33
607.27	602.76
607.62	607.86
607.96	614.14
608.31	618.29
608.66	622.48
609.01	626.57
609.36	630.38
609.70	634.24
610.05	636.81
610.40	640.05
610.75	641.67
611.10	644.10
611.44	645.62
611.79	646.81
612.14	646.62
612.49	644.95
612.83	642.62
613.18	638.52
613.53	632.86
613.88	625.86
614.22	618.43
614.57	610.05
614.92	601.71
615.27	592.76
615.61	584.57
615.96	577.24
616.31	569.90
616.65	564.52
617.00	558.19
617.35	552.05
617.70	545.86
618.04	541.00
618.39	535.76
618.74	531.71
619.08	527.24
619.43	523.10
619.78	519.43
620.12	516.33
620.47	513.81
620.82	510.29
621.16	507.52
621.51	506.90
621.85	504.67
622.20	502.43
622.55	499.29
622.89	496.95
623.24	494.57
623.59	492.43
623.93	489.57
624.28	487.29
624.62	488.10
624.97	487.52
625.32	484.86
625.66	482.90
626.01	480.52
626.35	479.14
626.70	477.29
627.04	477.19
627.39	475.62
627.73	474.29
628.08	473.57
628.43	471.76
628.77	468.05
629.12	466.10
629.46	464.43
629.81	462.62
630.15	460.52
630.50	458.76
630.84	456.90
631.19	454.81
631.53	452.52
631.88	446.81
632.22	442.86
632.57	441.38
632.91	438.29
633.26	436.29
633.60	433.48
633.95	430.76
634.29	427.00
634.64	424.24
634.98	420.86
635.32	418.38
635.67	416.29
636.01	414.10
636.36	411.86
636.70	409.81
637.05	407.95
637.39	406.24
637.73	404.29
638.08	403.10
638.42	400.81
638.77	399.67
639.11	398.62
639.45	396.95
639.80	395.33
640.14	394.71
640.49	392.52
640.83	391.29
641.17	390.52
641.52	389.05
641.86	388.00
642.20	388.05
642.55	386.14
642.89	385.05
643.23	384.29
643.58	384.43
643.92	382.57
644.26	381.43
644.61	381.10
644.95	380.05
645.29	377.90
645.64	377.48
645.98	376.00
646.32	375.43
646.66	374.57
647.01	373.05
647.35	372.10
647.69	371.67
648.04	371.14
648.38	369.76
648.72	369.00
649.06	367.95
649.41	366.00
649.75	365.57
650.09	365.10
650.43	363.81
650.78	361.90
651.12	360.90
651.46	360.19
651.80	358.38
652.14	357.52
652.49	357.48
652.83	356.00
653.17	355.00
653.51	353.33
653.85	352.90
654.20	352.43
654.54	350.67
654.88	349.38
655.22	347.62
655.56	346.52
655.90	345.48
656.25	344.05
656.59	343.14
656.93	342.10
657.27	341.33
657.61	340.00
657.95	339.14
658.29	338.05
658.64	338.00
658.98	337.38
659.32	336.10
659.66	334.95
660.00	334.76
660.34	334.10
660.68	333.19
661.02	331.90
661.36	330.52
661.70	330.00
662.05	329.00
662.39	329.10
662.73	328.95
663.07	329.62
663.41	329.38
663.75	328.29
664.09	327.86
664.43	326.48
664.77	326.29
665.11	325.48
665.45	325.24
665.79	324.33
666.13	323.67
666.47	323.29
666.81	322.48
667.15	321.57
667.49	320.81
667.83	321.33
668.17	320.62
668.51	319.95
668.85	319.57
669.19	319.95
669.53	318.38
669.87	317.48
670.21	315.48
670.55	315.14
670.89	316.10
671.23	315.19
671.57	314.81
671.91	314.33
672.25	313.95
672.58	314.14
672.92	312.71
673.26	312.10
673.60	311.43
673.94	310.81
674.28	310.24
674.62	310.33
674.96	309.24
675.30	309.48
675.64	309.00
675.97	308.57
676.31	307.67
676.65	307.43
676.99	307.67
677.33	306.95
677.67	306.00
678.01	304.52
678.34	304.24
678.68	304.14
679.02	303.33
679.36	302.48
679.70	301.29
680.04	301.24
680.37	300.86
680.71	300.24
681.05	300.00
681.39	299.57
681.73	298.62
682.06	297.62
682.40	296.67
682.74	296.81
683.08	297.38
683.42	296.71
683.75	296.52
684.09	295.38
684.43	295.57
684.77	295.33
685.10	294.76
685.44	294.57
685.78	294.05
686.12	293.67
686.45	293.52
686.79	292.71
687.13	292.71
687.46	292.43
687.80	292.67
688.14	291.95
688.48	291.57
688.81	291.19
689.15	291.86
689.49	291.52
689.82	291.29
690.16	289.38
690.50	288.71
690.83	288.62
691.17	287.95
691.51	287.43
691.84	287.38
692.18	286.71
692.52	286.00
692.85	285.62
693.19	286.33
693.52	286.00
693.86	285.71
694.20	285.29
694.53	285.00
694.87	284.57
695.21	284.14
695.54	283.90
695.88	283.14
696.21	281.48
696.55	280.90
696.88	280.29
697.22	279.86
697.56	280.05
697.89	279.48
698.23	279.67
698.56	279.43
698.90	279.19
699.23	279.05
699.57	279.10
699.90	278.52
700.24	277.24
700.58	277.38
700.91	277.86
701.25	280.00
701.58	280.76
701.92	281.33
702.25	281.86
702.59	281.76
702.92	282.67
703.26	283.81
703.59	284.38
703.93	286.95
704.26	287.90
704.60	288.14
704.93	288.43
705.26	288.48
705.60	288.62
705.93	288.05
706.27	289.00
706.60	289.38
706.94	290.86
707.27	290.95
707.61	291.10
707.94	291.19
708.27	289.24
708.61	288.38
708.94	288.10
709.28	287.33
709.61	286.86
709.94	286.57
710.28	285.86
710.61	285.38
710.95	282.43
711.28	283.38
711.61	282.33
711.95	281.67
712.28	280.71
712.61	279.95
712.95	281.10
713.28	281.24
713.61	279.90
713.95	278.10
714.28	277.67
714.61	276.10
714.95	274.76
715.28	273.05
715.61	271.57
715.95	270.95
716.28	270.43
716.61	270.05
716.95	269.00
717.28	268.33
717.61	267.81
717.94	267.24
718.28	264.86
718.61	264.62
718.94	264.19
719.27	263.81
719.61	263.48
719.94	261.95
720.27	260.33
720.60	259.86
720.94	259.62
721.27	259.57
721.60	260.24
721.93	260.19
722.27	261.38
722.60	261.62
722.93	260.71
723.26	260.67
723.59	260.33
723.93	260.52
724.26	260.67
724.59	260.14
724.92	260.24
725.25	260.90
725.59	260.76
725.92	261.05
726.25	261.00
726.58	260.76
726.91	260.86
727.24	260.71
727.57	260.90
727.91	260.33
728.24	260.05
728.57	259.67
728.90	259.71
729.23	258.29
729.56	259.52
729.89	259.67
730.22	259.52
730.55	259.05
730.89	258.81
731.22	258.19
731.55	257.86
731.88	257.67
732.21	256.86
732.54	256.33
732.87	255.67
733.20	255.67
733.53	255.62
733.86	255.33
734.19	255.00
734.52	255.00
734.85	256.57
735.18	256.52
735.51	257.38
735.84	257.71
736.17	258.71
736.50	257.38
736.83	260.05
737.16	260.10
737.49	260.29
737.82	259.76
738.15	260.33
738.48	260.48
738.81	260.29
739.14	260.10
739.47	260.29
739.80	260.14
740.13	260.48
740.46	260.38
740.79	259.90
741.12	259.86
741.45	259.62
741.78	258.29
742.11	258.48
742.44	257.57
742.77	257.48
743.10	256.90
743.43	256.81
743.75	254.05
744.08	257.10
744.41	256.95
744.74	256.76
745.07	256.00
745.40	256.29
745.73	257.38
746.06	257.52
746.39	257.67
746.71	257.33
747.04	256.62
747.37	256.48
747.70	257.14
748.03	257.52
748.36	258.19
748.68	258.29
749.01	257.76
749.34	257.86
749.67	257.67
750.00	257.90
750.33	259.57
750.65	260.14
750.98	257.05
751.31	257.29
751.64	257.62
751.97	259.10
752.29	258.67
752.62	257.38
752.95	256.95
753.28	256.76
753.60	256.67
753.93	257.43
754.26	257.19
754.59	256.14
754.91	255.62
755.24	254.57
755.57	253.90
755.90	253.90
756.22	253.38
756.55	253.24
756.88	252.76
757.20	251.05
757.53	249.62
757.86	249.33
758.19	249.33
758.51	249.19
758.84	247.76
759.17	247.48
759.49	247.52
759.82	248.95
760.15	248.76
760.47	248.90
760.80	247.90
761.13	248.43
761.45	248.67
761.78	248.71
762.11	249.14
762.43	249.33
762.76	249.05
763.08	249.52
763.41	249.48
763.74	249.33
764.06	249.24
764.39	249.43
764.71	249.24
765.04	248.71
765.37	248.62
765.69	248.71
766.02	248.76
766.34	248.52
766.67	247.33
767.00	247.86
767.32	249.38
767.65	251.00
767.97	250.81
768.30	250.86
768.62	250.76
768.95	250.43
769.27	250.48
769.60	250.95
769.92	250.33
770.25	249.57
770.57	249.48
770.90	249.38
771.22	248.95
771.55	249.24
771.87	249.38
772.20	248.76
772.52	250.71
772.85	253.76
773.17	253.86
773.50	253.67
773.82	252.90
774.15	251.19
774.47	249.52
774.80	249.14
775.12	248.76
775.45	248.57
775.77	248.57
776.09	248.71
776.42	248.67
776.74	249.14
777.07	249.24
777.39	249.43
777.72	249.24
778.04	249.62
778.36	249.14
778.69	249.05
779.01	249.48
779.33	247.48
779.66	244.48
779.98	244.10
780.31	244.05
780.63	245.43
780.95	246.29
781.28	246.29
781.60	246.33
781.92	246.14
782.25	246.19
782.57	246.14
782.89	245.71
783.22	245.48
783.54	245.10
783.86	245.33
784.19	244.76
784.51	245.38
784.83	245.05
785.16	245.00
785.48	244.76
785.80	244.95
786.12	244.71
786.45	244.90
786.77	245.14
787.09	244.90
787.42	243.86
787.74	243.52
788.06	243.38
788.38	243.19
788.71	243.43
789.03	243.38
789.35	243.48
789.67	243.38
789.99	243.38
790.32	243.14
790.64	243.38
790.96	245.29
791.28	244.57
791.61	244.62
791.93	244.90
792.25	245.10
792.57	246.86
792.89	246.67
793.21	246.62
793.54	246.24
793.86	246.19
