SpectraSuite Data File
++++++++++++++++++++++++++++++++++++
Date: Wed Nov 07 18:31:48 EST 2012
User: group
Dark Spectrum Present: No
Reference Spectrum Present: No
Number of Sampled Component Spectra: 1
Spectrometers: USB2E7196
Integration Time (usec): 1000000 (USB2E7196)
Spectra Averaged: 1 (USB2E7196)
Boxcar Smoothing: 10 (USB2E7196)
Correct for Electrical Dark: No (USB2E7196)
Strobe/Lamp Enabled: No (USB2E7196)
Correct for Detector Non-linearity: No (USB2E7196)
Correct for Stray Light: No (USB2E7196)
Number of Pixels in Processed Spectrum: 2048
>>>>>Begin Processed Spectral Data<<<<<
339.09	0.00
339.48	218.00
339.86	215.00
340.24	224.00
340.63	224.00
341.01	259.00
341.39	223.00
341.78	232.00
342.16	234.00
342.54	233.00
342.93	221.14
343.31	232.24
343.69	232.81
344.07	233.62
344.46	234.14
344.84	234.95
345.22	233.57
345.60	234.14
345.99	234.29
346.37	234.00
346.75	233.81
347.13	234.38
347.52	234.90
347.90	235.76
348.28	235.62
348.66	236.05
349.05	235.43
349.43	235.71
349.81	236.05
350.19	236.14
350.57	236.05
350.96	236.62
351.34	236.95
351.72	237.05
352.10	237.05
352.48	237.14
352.87	236.81
353.25	236.76
353.63	236.81
354.01	236.76
354.39	237.52
354.77	237.67
355.15	237.86
355.54	237.62
355.92	237.05
356.30	237.05
356.68	238.76
357.06	238.86
357.44	238.71
357.82	238.43
358.20	238.81
358.58	239.14
358.97	239.00
359.35	239.76
359.73	240.10
360.11	240.33
360.49	240.52
360.87	240.76
361.25	241.43
361.63	241.95
362.01	242.19
362.39	241.90
362.77	242.33
363.15	242.71
363.53	242.86
363.91	242.86
364.29	242.76
364.67	240.14
365.05	240.48
365.43	240.67
365.81	241.10
366.19	242.19
366.57	243.33
366.95	243.10
367.33	242.29
367.71	242.33
368.09	242.86
368.47	242.62
368.85	242.62
369.23	243.05
369.61	242.43
369.99	243.14
370.37	243.38
370.75	244.48
371.13	243.81
371.51	243.43
371.89	243.62
372.27	243.62
372.65	244.14
373.03	244.10
373.41	243.90
373.78	243.38
374.16	242.00
374.54	240.76
374.92	240.71
375.30	240.67
375.68	240.19
376.06	239.95
376.44	239.81
376.82	239.76
377.19	239.62
377.57	239.48
377.95	238.76
378.33	238.90
378.71	237.33
379.09	237.76
379.47	238.05
379.84	237.86
380.22	237.81
380.60	237.24
380.98	237.05
381.36	236.86
381.73	236.76
382.11	237.33
382.49	237.33
382.87	237.19
383.25	237.05
383.62	240.10
384.00	239.52
384.38	239.81
384.76	240.38
385.13	241.10
385.51	241.29
385.89	241.19
386.27	241.10
386.64	241.57
387.02	241.43
387.40	241.43
387.78	241.62
388.15	242.24
388.53	242.24
388.91	242.19
389.29	242.24
389.66	242.67
390.04	242.62
390.42	243.19
390.79	243.33
391.17	243.48
391.55	240.81
391.92	241.29
392.30	241.48
392.68	240.81
393.05	240.38
393.43	240.48
393.81	240.67
394.18	240.14
394.56	240.24
394.94	240.48
395.31	240.43
395.69	241.24
396.06	240.95
396.44	241.29
396.82	241.29
397.19	242.76
397.57	242.52
397.95	242.86
398.32	242.24
398.70	242.48
399.07	242.86
399.45	242.90
399.82	242.86
400.20	242.43
400.58	242.57
400.95	242.00
401.33	242.71
401.70	244.24
402.08	244.43
402.45	244.67
402.83	245.19
403.20	245.57
403.58	245.10
403.95	245.90
404.33	246.62
404.71	247.43
405.08	248.86
405.46	249.33
405.83	249.48
406.21	250.05
406.58	250.67
406.96	251.38
407.33	252.05
407.70	252.86
408.08	255.38
408.45	256.52
408.83	257.57
409.20	258.00
409.58	257.81
409.95	258.95
410.33	259.57
410.70	260.24
411.08	261.57
411.45	262.95
411.82	263.86
412.20	265.48
412.57	267.86
412.95	267.29
413.32	269.24
413.69	270.86
414.07	272.52
414.44	274.38
414.82	276.33
415.19	278.81
415.56	281.14
415.94	282.14
416.31	284.90
416.68	287.90
417.06	291.00
417.43	294.81
417.81	298.62
418.18	302.95
418.55	306.62
418.93	310.95
419.30	315.24
419.67	319.57
420.04	323.67
420.42	327.67
420.79	335.29
421.16	340.38
421.54	347.52
421.91	353.76
422.28	360.05
422.66	366.81
423.03	374.71
423.40	381.62
423.77	389.05
424.15	396.10
424.52	403.67
424.89	412.57
425.26	419.48
425.64	427.00
426.01	434.90
426.38	443.57
426.75	452.95
427.13	462.10
427.50	471.43
427.87	481.19
428.24	491.14
428.61	498.81
428.99	510.67
429.36	521.57
429.73	532.57
430.10	544.29
430.47	555.95
430.85	567.24
431.22	580.38
431.59	596.00
431.96	609.71
432.33	623.57
432.70	637.57
433.08	654.29
433.45	670.24
433.82	685.67
434.19	702.48
434.56	718.67
434.93	733.05
435.30	749.29
435.68	767.48
436.05	783.52
436.42	799.90
436.79	815.05
437.16	830.57
437.53	848.00
437.90	864.48
438.27	881.14
438.64	897.48
439.01	912.62
439.38	923.90
439.75	936.81
440.13	951.90
440.50	965.57
440.87	976.29
441.24	987.38
441.61	1000.00
441.98	1009.52
442.35	1019.29
442.72	1031.95
443.09	1042.81
443.46	1048.19
443.83	1052.10
444.20	1055.19
444.57	1058.86
444.94	1060.24
445.31	1061.43
445.68	1065.86
446.05	1065.05
446.42	1062.19
446.79	1059.90
447.16	1056.67
447.53	1053.48
447.90	1046.86
448.27	1039.19
448.64	1029.95
449.01	1022.71
449.37	1010.19
449.74	998.10
450.11	987.38
450.48	971.76
450.85	955.52
451.22	942.05
451.59	930.76
451.96	918.62
452.33	903.24
452.70	889.48
453.07	873.24
453.43	853.00
453.80	837.00
454.17	821.38
454.54	805.90
454.91	790.71
455.28	775.38
455.65	759.29
456.02	749.33
456.38	736.33
456.75	721.57
457.12	709.05
457.49	696.90
457.86	681.95
458.23	672.62
458.59	662.14
458.96	650.81
459.33	640.00
459.70	630.76
460.07	623.10
460.43	613.10
460.80	604.71
461.17	597.14
461.54	589.67
461.91	581.95
462.27	574.00
462.64	567.38
463.01	561.00
463.38	555.90
463.74	544.71
464.11	539.05
464.48	533.81
464.85	528.24
465.21	524.05
465.58	520.33
465.95	513.62
466.32	509.00
466.68	504.52
467.05	500.05
467.42	494.86
467.78	489.52
468.15	485.86
468.52	482.81
468.88	478.52
469.25	474.29
469.62	471.48
469.98	468.48
470.35	465.38
470.72	462.05
471.08	457.90
471.45	455.33
471.82	452.76
472.18	449.57
472.55	447.38
472.92	444.19
473.28	441.38
473.65	439.00
474.02	435.90
474.38	434.14
474.75	432.19
475.11	430.10
475.48	428.71
475.85	426.95
476.21	425.19
476.58	423.95
476.94	422.48
477.31	420.90
477.67	420.00
478.04	418.81
478.41	417.48
478.77	419.24
479.14	418.57
479.50	417.90
479.87	417.48
480.23	417.57
480.60	417.10
480.96	416.95
481.33	418.33
481.69	418.76
482.06	418.90
482.42	419.67
482.79	421.29
483.15	422.57
483.52	423.95
483.88	424.05
484.25	425.19
484.61	426.38
484.98	427.67
485.34	428.67
485.71	430.24
486.07	431.81
486.44	430.95
486.80	431.86
487.17	433.38
487.53	435.48
487.90	437.33
488.26	440.43
488.62	442.67
488.99	443.38
489.35	445.95
489.72	448.10
490.08	449.76
490.44	450.95
490.81	453.33
491.17	455.52
491.54	457.86
491.90	460.71
492.26	463.29
492.63	466.00
492.99	468.00
493.36	470.43
493.72	474.05
494.08	477.05
494.45	480.62
494.81	484.29
495.17	487.29
495.54	490.52
495.90	493.24
496.26	496.90
496.63	501.14
496.99	504.48
497.35	507.90
497.72	512.19
498.08	516.14
498.44	519.62
498.80	523.67
499.17	528.43
499.53	532.05
499.89	536.95
500.26	540.95
500.62	545.95
500.98	551.29
501.34	555.24
501.71	561.29
502.07	565.90
502.43	570.71
502.79	575.38
503.16	580.14
503.52	585.00
503.88	588.62
504.24	593.67
504.60	598.81
504.97	604.81
505.33	609.86
505.69	616.33
506.05	621.86
506.41	627.29
506.78	632.38
507.14	637.86
507.50	643.48
507.86	649.81
508.22	655.10
508.59	659.71
508.95	665.48
509.31	670.48
509.67	675.57
510.03	680.48
510.39	685.38
510.75	690.71
511.12	695.48
511.48	701.52
511.84	706.29
512.20	711.43
512.56	715.90
512.92	720.71
513.28	724.86
513.64	728.67
514.00	733.71
514.37	738.71
514.73	743.57
515.09	748.00
515.45	751.90
515.81	756.19
516.17	760.24
516.53	763.76
516.89	766.86
517.25	771.19
517.61	775.14
517.97	779.95
518.33	783.81
518.69	787.76
519.05	792.14
519.41	795.57
519.77	800.29
520.13	803.62
520.49	806.62
520.85	810.05
521.21	815.48
521.57	817.86
521.93	819.86
522.29	823.14
522.65	824.90
523.01	827.43
523.37	829.29
523.73	831.33
524.09	833.95
524.45	835.76
524.81	837.67
525.17	840.24
525.53	841.81
525.89	843.52
526.25	845.90
526.61	846.62
526.97	848.19
527.33	849.00
527.68	852.14
528.04	854.05
528.40	854.67
528.76	854.57
529.12	856.14
529.48	858.90
529.84	859.05
530.20	860.38
530.56	861.67
530.91	863.43
531.27	865.00
531.63	866.52
531.99	867.81
532.35	868.67
532.71	869.10
533.07	869.43
533.42	873.10
533.78	873.38
534.14	874.90
534.50	876.67
534.86	877.95
535.21	877.29
535.57	879.10
535.93	879.71
536.29	882.19
536.65	883.10
537.00	884.14
537.36	885.86
537.72	888.05
538.08	890.57
538.44	891.90
538.79	894.38
539.15	896.10
539.51	898.95
539.87	901.19
540.22	902.81
540.58	905.00
540.94	904.52
541.29	906.14
541.65	907.76
542.01	910.43
542.37	911.86
542.72	912.67
543.08	912.71
543.44	914.14
543.79	912.71
544.15	913.48
544.51	913.10
544.87	912.62
545.22	910.76
545.58	907.86
545.94	907.48
546.29	905.67
546.65	903.62
547.01	900.76
547.36	897.86
547.72	895.86
548.07	894.10
548.43	891.14
548.79	889.24
549.14	885.86
549.50	881.76
549.86	877.43
550.21	875.00
550.57	872.05
550.92	869.43
551.28	867.67
551.64	864.10
551.99	861.76
552.35	858.71
552.70	856.95
553.06	855.86
553.41	853.10
553.77	851.95
554.13	849.24
554.48	847.81
554.84	846.57
555.19	844.29
555.55	843.71
555.90	841.81
556.26	839.19
556.61	836.90
556.97	834.14
557.32	833.24
557.68	831.33
558.03	830.33
558.39	828.67
558.74	825.29
559.10	823.81
559.45	822.14
559.81	820.81
560.16	819.24
560.52	817.19
560.87	816.38
561.23	814.05
561.58	814.81
561.94	812.33
562.29	810.33
562.64	808.48
563.00	804.38
563.35	802.67
563.71	801.19
564.06	800.14
564.42	799.24
564.77	797.38
565.12	796.33
565.48	795.95
565.83	794.48
566.19	794.24
566.54	792.76
566.89	790.86
567.25	790.29
567.60	790.05
567.96	791.38
568.31	790.67
568.66	790.24
569.02	787.19
569.37	786.14
569.72	784.95
570.08	784.43
570.43	783.33
570.78	782.24
571.14	781.38
571.49	779.90
571.84	778.43
572.20	777.76
572.55	776.10
572.90	772.90
573.26	771.52
573.61	770.38
573.96	770.05
574.31	768.48
574.67	766.76
575.02	763.67
575.37	759.90
575.72	757.67
576.08	755.19
576.43	754.19
576.78	753.05
577.13	751.67
577.49	750.52
577.84	749.76
578.19	748.43
578.54	746.62
578.90	745.48
579.25	745.10
579.60	743.38
579.95	741.76
580.30	740.10
580.66	738.57
581.01	736.90
581.36	734.29
581.71	733.19
582.06	733.00
582.42	731.95
582.77	730.62
583.12	728.62
583.47	727.10
583.82	725.14
584.17	723.76
584.53	723.52
584.88	721.38
585.23	719.48
585.58	717.14
585.93	714.86
586.28	713.10
586.63	710.43
586.98	708.05
587.34	706.67
587.69	705.00
588.04	703.14
588.39	700.57
588.74	698.33
589.09	696.24
589.44	692.67
589.79	689.76
590.14	686.43
590.49	683.14
590.84	679.67
591.19	676.67
591.54	673.86
591.89	669.29
592.25	668.05
592.60	665.10
592.95	662.48
593.30	660.90
593.65	657.86
594.00	654.43
594.35	658.43
594.70	654.81
595.05	651.76
595.40	648.29
595.75	645.57
596.10	643.00
596.45	639.95
596.80	637.24
597.15	634.90
597.50	631.86
597.85	630.95
598.19	628.71
598.54	626.05
598.89	623.14
599.24	621.33
599.59	617.38
599.94	614.43
600.29	611.95
600.64	608.90
600.99	607.14
601.34	605.00
601.69	595.71
602.04	593.57
602.39	590.57
602.74	588.95
603.08	586.76
603.43	586.00
603.78	584.24
604.13	581.90
604.48	580.14
604.83	579.62
605.18	578.19
605.53	578.67
605.87	580.57
606.22	583.48
606.57	586.95
606.92	591.52
607.27	597.19
607.62	602.19
607.96	607.29
608.31	611.24
608.66	615.48
609.01	619.05
609.36	622.24
609.70	626.67
610.05	629.48
610.40	632.05
610.75	632.52
611.10	634.14
611.44	635.90
611.79	636.62
612.14	636.48
612.49	634.81
612.83	632.38
613.18	628.00
613.53	622.33
613.88	615.95
614.22	607.67
614.57	599.62
614.92	591.52
615.27	584.19
615.61	576.52
615.96	569.00
616.31	562.57
616.65	556.90
617.00	549.95
617.35	543.43
617.70	537.81
618.04	533.05
618.39	527.57
618.74	522.81
619.08	518.14
619.43	515.19
619.78	511.57
620.12	508.38
620.47	505.86
620.82	502.71
621.16	499.86
621.51	499.24
621.85	496.62
622.20	494.62
622.55	491.29
622.89	488.86
623.24	487.14
623.59	484.62
623.93	482.24
624.28	479.90
624.62	480.76
624.97	480.57
625.32	478.38
625.66	476.76
626.01	474.48
626.35	473.76
626.70	471.38
627.04	470.48
627.39	468.43
627.73	467.38
628.08	466.52
628.43	464.86
628.77	461.24
629.12	459.29
629.46	457.43
629.81	456.00
630.15	454.05
630.50	451.90
630.84	450.43
631.19	448.14
631.53	446.76
631.88	441.38
632.22	437.33
632.57	436.19
632.91	434.00
633.26	432.14
633.60	428.81
633.95	426.00
634.29	422.95
634.64	421.10
634.98	418.05
635.32	416.62
635.67	414.95
636.01	413.57
636.36	411.62
636.70	410.33
637.05	408.33
637.39	406.24
637.73	404.52
638.08	403.24
638.42	401.38
638.77	399.90
639.11	398.62
639.45	397.10
639.80	395.14
640.14	393.86
640.49	391.81
640.83	390.52
641.17	389.48
641.52	387.95
641.86	386.86
642.20	387.00
642.55	384.38
642.89	383.29
643.23	382.24
643.58	381.76
643.92	379.76
644.26	378.90
644.61	378.86
644.95	378.14
645.29	376.24
645.64	376.29
645.98	375.29
646.32	375.24
646.66	374.14
647.01	372.57
647.35	371.81
647.69	371.76
648.04	371.38
648.38	370.81
648.72	370.05
649.06	368.29
649.41	366.05
649.75	365.33
650.09	364.48
650.43	363.52
650.78	361.52
651.12	360.95
651.46	359.43
651.80	357.81
652.14	356.52
652.49	356.14
652.83	354.33
653.17	352.67
653.51	350.95
653.85	350.14
654.20	349.10
654.54	347.62
654.88	345.81
655.22	344.10
655.56	342.57
655.90	341.52
656.25	341.00
656.59	340.29
656.93	339.76
657.27	339.14
657.61	338.14
657.95	338.24
658.29	337.00
658.64	336.90
658.98	336.38
659.32	335.29
659.66	333.90
660.00	333.43
660.34	332.90
660.68	332.24
661.02	331.95
661.36	331.48
661.70	330.67
662.05	330.19
662.39	331.00
662.73	331.33
663.07	332.62
663.41	331.95
663.75	330.81
664.09	329.81
664.43	328.48
664.77	327.62
665.11	326.38
665.45	326.10
665.79	325.48
666.13	324.24
666.47	323.62
666.81	323.29
667.15	322.14
667.49	321.67
667.83	322.00
668.17	320.95
668.51	320.10
668.85	319.76
669.19	320.67
669.53	318.86
669.87	317.52
670.21	315.14
670.55	314.67
670.89	315.29
671.23	314.81
671.57	313.95
671.91	313.29
672.25	313.05
672.58	313.38
672.92	312.05
673.26	311.95
673.60	311.43
673.94	311.14
674.28	310.38
674.62	310.19
674.96	308.90
675.30	308.43
675.64	308.19
675.97	307.62
676.31	305.67
676.65	305.14
676.99	304.90
677.33	304.38
677.67	303.81
678.01	302.48
678.34	302.19
678.68	302.43
679.02	302.24
679.36	301.24
679.70	299.52
680.04	299.29
680.37	298.95
680.71	298.24
681.05	297.86
681.39	297.86
681.73	297.05
682.06	296.24
682.40	295.81
682.74	295.38
683.08	295.86
683.42	295.62
683.75	295.95
684.09	295.48
684.43	295.29
684.77	294.81
685.10	294.48
685.44	293.95
685.78	293.14
686.12	292.57
686.45	292.24
686.79	291.67
687.13	291.57
687.46	290.81
687.80	291.43
688.14	290.95
688.48	290.67
688.81	290.52
689.15	291.38
689.49	291.14
689.82	291.29
690.16	289.62
690.50	289.10
690.83	287.76
691.17	286.67
691.51	286.24
691.84	285.86
692.18	284.90
692.52	283.95
692.85	283.86
693.19	284.38
693.52	284.24
693.86	284.00
694.20	283.81
694.53	283.76
694.87	282.90
695.21	281.90
695.54	281.76
695.88	280.95
696.21	279.24
696.55	278.76
696.88	277.52
697.22	277.24
697.56	276.95
697.89	276.90
698.23	277.00
698.56	276.52
698.90	276.62
699.23	276.33
699.57	276.38
699.90	275.52
700.24	274.38
700.58	273.95
700.91	274.43
701.25	276.05
701.58	276.52
701.92	277.38
702.25	278.48
702.59	278.57
702.92	279.14
703.26	280.29
703.59	280.57
703.93	283.29
704.26	284.29
704.60	285.14
704.93	285.86
705.26	286.29
705.60	287.00
705.93	287.00
706.27	288.00
706.60	289.05
706.94	290.52
707.27	290.52
707.61	291.38
707.94	291.14
708.27	289.48
708.61	288.76
708.94	287.86
709.28	287.19
709.61	286.33
709.94	286.00
710.28	285.14
710.61	284.38
710.95	281.14
711.28	281.76
711.61	280.67
711.95	279.90
712.28	278.57
712.61	277.95
712.95	278.38
713.28	278.43
713.61	277.14
713.95	275.81
714.28	275.24
714.61	273.86
714.95	272.86
715.28	271.43
715.61	270.71
715.95	270.43
716.28	269.38
716.61	269.10
716.95	268.14
717.28	267.71
717.61	267.43
717.94	267.24
718.28	265.00
718.61	264.29
718.94	263.81
719.27	264.14
719.61	263.52
719.94	262.57
720.27	261.14
720.60	260.52
720.94	260.33
721.27	260.19
721.60	260.19
721.93	260.05
722.27	261.24
722.60	261.67
722.93	261.05
723.26	261.10
723.59	260.95
723.93	261.19
724.26	260.76
724.59	260.24
724.92	260.14
725.25	260.67
725.59	261.10
725.92	261.24
726.25	260.62
726.58	260.52
726.91	260.14
727.24	260.24
727.57	260.05
727.91	259.05
728.24	259.48
728.57	259.43
728.90	259.67
729.23	258.43
729.56	258.95
729.89	259.19
730.22	258.90
730.55	258.38
730.89	258.38
731.22	258.33
731.55	258.29
731.88	258.43
732.21	258.00
732.54	257.19
732.87	256.62
733.20	256.48
733.53	256.48
733.86	256.29
734.19	255.90
734.52	256.38
734.85	258.48
735.18	258.00
735.51	258.38
735.84	258.33
736.17	259.05
736.50	257.71
736.83	260.14
737.16	260.29
737.49	260.76
737.82	260.57
738.15	260.52
738.48	260.43
738.81	260.05
739.14	259.57
739.47	259.67
739.80	259.62
740.13	259.62
740.46	259.43
740.79	259.24
741.12	259.33
741.45	259.10
741.78	257.33
742.11	257.62
742.44	257.05
742.77	257.29
743.10	256.62
743.43	256.19
743.75	253.67
744.08	256.52
744.41	255.95
744.74	255.57
745.07	255.38
745.40	255.76
745.73	256.67
746.06	256.71
746.39	256.95
746.71	256.95
747.04	257.05
747.37	256.86
747.70	257.00
748.03	256.90
748.36	256.81
748.68	256.86
749.01	256.29
749.34	256.05
749.67	255.90
750.00	256.24
750.33	258.14
750.65	258.19
750.98	255.19
751.31	255.48
751.64	255.33
751.97	256.62
752.29	256.29
752.62	255.57
752.95	255.14
753.28	254.71
753.60	254.24
753.93	254.52
754.26	254.52
754.59	254.00
754.91	253.67
755.24	253.62
755.57	253.19
755.90	253.14
756.22	253.05
756.55	252.62
756.88	252.10
757.20	250.14
757.53	249.33
757.86	249.14
758.19	249.05
758.51	249.05
758.84	247.52
759.17	247.19
759.49	246.95
759.82	248.57
760.15	248.62
760.47	249.00
760.80	248.29
761.13	248.76
761.45	248.71
761.78	248.86
762.11	248.90
762.43	248.90
762.76	248.43
763.08	249.00
763.41	249.05
763.74	248.86
764.06	249.14
764.39	249.43
764.71	249.10
765.04	248.81
765.37	248.67
765.69	248.81
766.02	248.90
766.34	248.33
766.67	246.62
767.00	247.24
767.32	248.43
767.65	249.62
767.97	249.24
768.30	249.24
768.62	249.24
768.95	248.57
769.27	248.62
769.60	249.14
769.92	248.62
770.25	248.10
770.57	247.52
770.90	247.52
771.22	246.95
771.55	247.19
771.87	247.19
772.20	247.24
772.52	249.10
772.85	252.05
773.17	252.38
773.50	252.67
773.82	252.00
774.15	250.48
774.47	249.33
774.80	249.19
775.12	249.38
775.45	249.10
775.77	249.29
776.09	249.24
776.42	249.33
776.74	250.14
777.07	250.24
777.39	250.76
777.72	250.57
778.04	251.00
778.36	250.62
778.69	250.57
779.01	250.86
779.33	248.81
779.66	245.90
779.98	245.71
780.31	245.95
780.63	247.10
780.95	247.24
781.28	247.00
781.60	246.76
781.92	246.43
782.25	246.52
782.57	246.52
782.89	246.48
783.22	246.29
783.54	245.38
783.86	245.43
784.19	245.19
784.51	245.81
784.83	245.38
785.16	245.48
785.48	245.52
785.80	245.19
786.12	245.14
786.45	245.29
786.77	245.57
787.09	245.43
787.42	244.52
787.74	244.71
788.06	244.57
788.38	244.38
788.71	244.14
789.03	244.29
789.35	244.67
789.67	244.10
789.99	243.95
790.32	243.71
790.64	243.90
790.96	245.76
791.28	244.90
791.61	244.81
791.93	244.81
792.25	244.81
792.57	246.48
792.89	246.29
793.21	246.24
793.54	245.81
793.86	245.05
