SpectraSuite Data File
++++++++++++++++++++++++++++++++++++
Date: Wed Nov 07 18:33:40 EST 2012
User: group
Dark Spectrum Present: No
Reference Spectrum Present: No
Number of Sampled Component Spectra: 1
Spectrometers: USB2E7196
Integration Time (usec): 1000000 (USB2E7196)
Spectra Averaged: 1 (USB2E7196)
Boxcar Smoothing: 10 (USB2E7196)
Correct for Electrical Dark: No (USB2E7196)
Strobe/Lamp Enabled: No (USB2E7196)
Correct for Detector Non-linearity: No (USB2E7196)
Correct for Stray Light: No (USB2E7196)
Number of Pixels in Processed Spectrum: 2048
>>>>>Begin Processed Spectral Data<<<<<
339.09	0.00
339.48	218.00
339.86	222.00
340.24	230.00
340.63	228.00
341.01	258.00
341.39	223.00
341.78	232.00
342.16	237.00
342.54	235.00
342.93	223.95
343.31	235.24
343.69	235.95
344.07	236.48
344.46	236.81
344.84	237.24
345.22	235.95
345.60	236.90
345.99	237.05
346.37	236.90
346.75	236.57
347.13	236.10
347.52	236.10
347.90	236.90
348.28	236.86
348.66	237.33
349.05	236.43
349.43	236.62
349.81	236.67
350.19	236.48
350.57	236.29
350.96	236.67
351.34	236.48
351.72	236.43
352.10	236.14
352.48	235.81
352.87	235.71
353.25	235.67
353.63	235.33
354.01	235.10
354.39	235.38
354.77	235.48
355.15	236.10
355.54	235.52
355.92	234.76
356.30	234.57
356.68	236.24
357.06	236.48
357.44	235.95
357.82	235.71
358.20	236.14
358.58	236.62
358.97	236.43
359.35	237.29
359.73	237.90
360.11	238.10
360.49	238.29
360.87	238.29
361.25	238.90
361.63	239.67
362.01	240.00
362.39	239.86
362.77	240.14
363.15	240.10
363.53	240.67
363.91	240.86
364.29	241.48
364.67	239.00
365.05	238.95
365.43	239.33
365.81	239.95
366.19	241.19
366.57	242.05
366.95	242.14
367.33	241.38
367.71	241.14
368.09	241.76
368.47	241.90
368.85	242.10
369.23	242.48
369.61	241.57
369.99	242.33
370.37	242.62
370.75	244.19
371.13	243.81
371.51	243.62
371.89	243.90
372.27	243.81
372.65	244.19
373.03	244.38
373.41	244.14
373.78	244.10
374.16	242.67
374.54	241.71
374.92	241.62
375.30	241.52
375.68	241.14
376.06	241.19
376.44	241.00
376.82	240.95
377.19	240.95
377.57	241.05
377.95	240.33
378.33	240.67
378.71	238.90
379.09	239.62
379.47	240.19
379.84	239.62
380.22	239.33
380.60	238.86
380.98	238.86
381.36	238.86
381.73	238.57
382.11	238.95
382.49	239.19
382.87	238.81
383.25	238.95
383.62	241.95
384.00	241.52
384.38	241.81
384.76	242.33
385.13	243.00
385.51	242.86
385.89	242.48
386.27	242.24
386.64	242.71
387.02	242.00
387.40	241.52
387.78	241.62
388.15	241.71
388.53	241.62
388.91	241.48
389.29	241.48
389.66	241.81
390.04	241.62
390.42	241.81
390.79	241.90
391.17	241.90
391.55	239.33
391.92	239.29
392.30	239.57
392.68	239.14
393.05	239.05
393.43	239.33
393.81	239.67
394.18	239.19
394.56	239.10
394.94	239.86
395.31	239.81
395.69	240.95
396.06	241.62
396.44	242.00
396.82	241.81
397.19	243.00
397.57	242.81
397.95	243.19
398.32	243.00
398.70	243.52
399.07	244.43
399.45	244.19
399.82	244.67
400.20	244.24
400.58	244.19
400.95	243.38
401.33	243.71
401.70	245.62
402.08	245.48
402.45	245.71
402.83	246.19
403.20	246.33
403.58	245.90
403.95	246.33
404.33	246.90
404.71	247.10
405.08	248.76
405.46	249.24
405.83	249.71
406.21	250.10
406.58	250.76
406.96	250.76
407.33	251.57
407.70	252.10
408.08	255.00
408.45	256.05
408.83	256.95
409.20	257.43
409.58	256.71
409.95	258.33
410.33	259.52
410.70	259.95
411.08	261.48
411.45	262.57
411.82	263.29
412.20	264.90
412.57	267.81
412.95	266.81
413.32	268.86
413.69	270.52
414.07	271.71
414.44	273.57
414.82	275.71
415.19	278.29
415.56	280.62
415.94	281.43
416.31	284.62
416.68	287.90
417.06	291.62
417.43	295.67
417.81	299.29
418.18	302.67
418.55	306.52
418.93	310.67
419.30	315.29
419.67	319.86
420.04	324.19
420.42	328.76
420.79	336.95
421.16	342.33
421.54	349.38
421.91	356.24
422.28	361.95
422.66	368.43
423.03	376.62
423.40	383.62
423.77	390.95
424.15	397.38
424.52	405.05
424.89	413.57
425.26	420.95
425.64	428.76
426.01	437.19
426.38	445.95
426.75	455.38
427.13	464.43
427.50	473.76
427.87	483.24
428.24	492.52
428.61	500.24
428.99	511.76
429.36	522.10
429.73	533.05
430.10	545.24
430.47	557.52
430.85	568.00
431.22	580.90
431.59	596.95
431.96	610.19
432.33	624.24
432.70	638.14
433.08	654.57
433.45	670.57
433.82	685.86
434.19	702.52
434.56	718.43
434.93	733.67
435.30	750.10
435.68	767.62
436.05	784.86
436.42	801.38
436.79	816.71
437.16	832.95
437.53	850.38
437.90	867.33
438.27	883.71
438.64	900.57
439.01	916.86
439.38	928.52
439.75	941.90
440.13	957.67
440.50	971.76
440.87	983.43
441.24	994.90
441.61	1007.19
441.98	1016.00
442.35	1027.14
442.72	1038.05
443.09	1049.00
443.46	1055.48
443.83	1059.57
444.20	1062.71
444.57	1066.76
444.94	1068.67
445.31	1070.33
445.68	1074.90
446.05	1073.81
446.42	1071.52
446.79	1069.19
447.16	1065.43
447.53	1063.19
447.90	1054.57
448.27	1046.81
448.64	1036.33
449.01	1027.29
449.37	1016.10
449.74	1004.57
450.11	992.29
450.48	977.48
450.85	961.19
451.22	947.24
451.59	934.33
451.96	921.90
452.33	906.43
452.70	891.90
453.07	874.76
453.43	854.57
453.80	838.95
454.17	822.52
454.54	805.57
454.91	789.48
455.28	773.33
455.65	758.67
456.02	748.10
456.38	735.62
456.75	721.29
457.12	707.71
457.49	695.67
457.86	681.43
458.23	671.71
458.59	660.38
458.96	649.33
459.33	638.81
459.70	628.71
460.07	620.81
460.43	611.62
460.80	603.43
461.17	595.38
461.54	588.19
461.91	580.67
462.27	573.33
462.64	566.76
463.01	560.33
463.38	555.14
463.74	544.19
464.11	537.86
464.48	533.19
464.85	528.19
465.21	524.62
465.58	520.05
465.95	513.86
466.32	509.57
466.68	505.24
467.05	500.86
467.42	496.95
467.78	491.48
468.15	487.05
468.52	483.62
468.88	479.10
469.25	474.29
469.62	471.76
469.98	468.67
470.35	465.48
470.72	462.19
471.08	456.90
471.45	454.57
471.82	452.71
472.18	449.14
472.55	446.33
472.92	442.57
473.28	439.86
473.65	437.29
474.02	434.67
474.38	432.76
474.75	431.38
475.11	428.52
475.48	427.00
475.85	425.14
476.21	423.29
476.58	422.52
476.94	421.62
477.31	420.10
477.67	418.76
478.04	418.05
478.41	417.38
478.77	420.19
479.14	419.10
479.50	418.19
479.87	418.76
480.23	418.95
480.60	418.90
480.96	419.67
481.33	421.05
481.69	421.38
482.06	421.57
482.42	422.43
482.79	423.81
483.15	424.62
483.52	426.14
483.88	426.95
484.25	427.86
484.61	429.14
484.98	430.19
485.34	432.48
485.71	434.43
486.07	435.76
486.44	434.29
486.80	436.33
487.17	437.52
487.53	439.57
487.90	441.95
488.26	444.57
488.62	446.86
488.99	448.00
489.35	450.33
489.72	452.24
490.08	453.29
490.44	455.10
490.81	457.71
491.17	459.43
491.54	462.38
491.90	464.95
492.26	467.00
492.63	469.62
492.99	470.86
493.36	473.95
493.72	476.62
494.08	480.00
494.45	482.95
494.81	486.67
495.17	488.81
495.54	491.95
495.90	494.86
496.26	497.38
496.63	501.33
496.99	505.10
497.35	509.24
497.72	513.62
498.08	517.29
498.44	521.52
498.80	525.95
499.17	529.62
499.53	533.67
499.89	538.71
500.26	543.52
500.62	549.14
500.98	554.10
501.34	558.90
501.71	564.52
502.07	569.29
502.43	574.00
502.79	579.05
503.16	584.67
503.52	590.00
503.88	595.19
504.24	600.05
504.60	605.48
504.97	610.62
505.33	615.67
505.69	622.10
506.05	627.05
506.41	632.10
506.78	638.19
507.14	643.05
507.50	648.00
507.86	653.38
508.22	658.52
508.59	662.43
508.95	668.24
509.31	673.71
509.67	678.90
510.03	683.95
510.39	689.43
510.75	694.38
511.12	699.38
511.48	704.81
511.84	709.95
512.20	714.76
512.56	719.52
512.92	724.71
513.28	729.67
513.64	734.71
514.00	740.00
514.37	744.90
514.73	750.24
515.09	755.38
515.45	759.19
515.81	763.71
516.17	768.57
516.53	772.48
516.89	775.76
517.25	779.81
517.61	784.76
517.97	788.19
518.33	792.48
518.69	796.38
519.05	800.76
519.41	805.19
519.77	809.48
520.13	812.52
520.49	815.52
520.85	818.71
521.21	823.76
521.57	826.71
521.93	829.19
522.29	832.48
522.65	834.38
523.01	837.71
523.37	840.33
523.73	843.29
524.09	845.62
524.45	848.81
524.81	850.86
525.17	852.90
525.53	855.57
525.89	856.19
526.25	858.52
526.61	859.71
526.97	860.76
527.33	861.86
527.68	866.62
528.04	869.00
528.40	870.05
528.76	869.38
529.12	871.24
529.48	872.95
529.84	873.57
530.20	875.76
530.56	877.33
530.91	878.90
531.27	879.57
531.63	881.05
531.99	882.10
532.35	883.95
532.71	884.24
533.07	885.38
533.42	889.10
533.78	889.86
534.14	890.95
534.50	892.52
534.86	893.81
535.21	892.95
535.57	894.38
535.93	895.67
536.29	898.90
536.65	900.71
537.00	901.81
537.36	904.05
537.72	905.52
538.08	907.19
538.44	908.86
538.79	911.33
539.15	913.24
539.51	914.86
539.87	917.67
540.22	920.76
540.58	923.81
540.94	924.57
541.29	926.38
541.65	928.81
542.01	930.43
542.37	932.43
542.72	932.62
543.08	932.52
543.44	933.19
543.79	930.86
544.15	930.52
544.51	930.52
544.87	929.71
545.22	928.62
545.58	927.19
545.94	925.33
546.29	922.67
546.65	920.62
547.01	918.05
547.36	914.52
547.72	912.24
548.07	908.76
548.43	905.05
548.79	901.95
549.14	898.76
549.50	896.48
549.86	893.33
550.21	891.10
550.57	888.67
550.92	885.90
551.28	884.67
551.64	882.48
551.99	879.86
552.35	877.43
552.70	875.57
553.06	873.76
553.41	871.38
553.77	871.62
554.13	869.95
554.48	868.43
554.84	866.67
555.19	864.29
555.55	864.38
555.90	862.48
556.26	860.76
556.61	858.90
556.97	855.71
557.32	853.19
557.68	851.67
558.03	850.29
558.39	848.86
558.74	847.19
559.10	844.86
559.45	843.62
559.81	841.95
560.16	839.57
560.52	837.33
560.87	836.14
561.23	832.67
561.58	831.86
561.94	829.86
562.29	828.33
562.64	826.57
563.00	822.00
563.35	820.67
563.71	818.43
564.06	816.24
564.42	814.62
564.77	812.62
565.12	811.19
565.48	811.48
565.83	810.57
566.19	809.19
566.54	807.90
566.89	805.81
567.25	805.33
567.60	805.19
567.96	806.10
568.31	806.43
568.66	806.57
569.02	804.29
569.37	803.33
569.72	801.90
570.08	800.19
570.43	799.90
570.78	798.38
571.14	797.48
571.49	796.38
571.84	796.14
572.20	795.67
572.55	793.90
572.90	790.10
573.26	788.10
573.61	786.52
573.96	785.29
574.31	783.57
574.67	781.67
575.02	779.24
575.37	775.33
575.72	772.43
576.08	769.76
576.43	768.24
576.78	766.19
577.13	764.10
577.49	763.10
577.84	761.57
578.19	760.52
578.54	759.24
578.90	757.90
579.25	755.86
579.60	754.90
579.95	753.67
580.30	752.76
580.66	751.90
581.01	750.67
581.36	748.86
581.71	748.00
582.06	747.67
582.42	746.76
582.77	746.05
583.12	744.52
583.47	743.19
583.82	741.90
584.17	740.90
584.53	741.19
584.88	738.81
585.23	737.95
585.58	735.57
585.93	732.76
586.28	730.57
586.63	728.76
586.98	726.67
587.34	724.95
587.69	722.57
588.04	719.48
588.39	716.19
588.74	713.95
589.09	711.33
589.44	707.38
589.79	704.05
590.14	700.29
590.49	696.43
590.84	693.38
591.19	690.71
591.54	687.57
591.89	683.10
592.25	682.71
592.60	678.62
592.95	675.86
593.30	673.81
593.65	670.90
594.00	667.14
594.35	669.95
594.70	665.90
595.05	662.29
595.40	659.00
595.75	656.62
596.10	653.90
596.45	651.29
596.80	648.52
597.15	645.81
597.50	643.67
597.85	642.67
598.19	639.76
598.54	636.52
598.89	633.67
599.24	631.43
599.59	626.90
599.94	623.90
600.29	621.19
600.64	619.14
600.99	617.48
601.34	615.43
601.69	606.71
602.04	604.67
602.39	603.33
602.74	601.95
603.08	599.52
603.43	598.33
603.78	596.24
604.13	593.57
604.48	592.57
604.83	591.52
605.18	589.71
605.53	589.81
605.87	590.90
606.22	594.05
606.57	598.19
606.92	602.43
607.27	608.43
607.62	613.52
607.96	618.57
608.31	622.10
608.66	625.90
609.01	629.05
609.36	632.05
609.70	635.43
610.05	637.76
610.40	640.67
610.75	641.95
611.10	644.43
611.44	646.33
611.79	646.43
612.14	646.00
612.49	645.24
612.83	643.00
613.18	639.67
613.53	634.05
613.88	627.05
614.22	619.38
614.57	610.24
614.92	602.43
615.27	594.48
615.61	587.19
615.96	580.24
616.31	573.76
616.65	567.86
617.00	561.14
617.35	554.90
617.70	548.90
618.04	543.67
618.39	537.86
618.74	533.19
619.08	528.95
619.43	525.57
619.78	521.52
620.12	518.57
620.47	515.00
620.82	512.05
621.16	509.29
621.51	508.52
621.85	506.76
622.20	504.19
622.55	501.10
622.89	498.71
623.24	497.00
623.59	494.76
623.93	493.19
624.28	491.38
624.62	492.24
624.97	491.57
625.32	488.67
625.66	486.81
626.01	485.00
626.35	482.95
626.70	481.29
627.04	480.33
627.39	478.81
627.73	478.67
628.08	476.76
628.43	474.43
628.77	470.86
629.12	468.76
629.46	466.48
629.81	464.48
630.15	462.48
630.50	459.95
630.84	457.67
631.19	454.81
631.53	451.95
631.88	446.43
632.22	442.67
632.57	441.00
632.91	438.10
633.26	435.67
633.60	432.86
633.95	429.43
634.29	426.29
634.64	423.24
634.98	419.29
635.32	417.90
635.67	416.43
636.01	414.48
636.36	412.33
636.70	411.24
637.05	409.19
637.39	407.24
637.73	405.62
638.08	404.38
638.42	402.62
638.77	401.52
639.11	400.00
639.45	398.48
639.80	396.33
640.14	395.38
640.49	393.24
640.83	392.43
641.17	391.71
641.52	390.24
641.86	388.95
642.20	389.33
642.55	387.48
642.89	386.33
643.23	385.33
643.58	385.14
643.92	383.48
644.26	382.62
644.61	382.05
644.95	381.29
645.29	380.05
645.64	379.48
645.98	378.48
646.32	378.24
646.66	377.10
647.01	376.24
647.35	375.43
647.69	375.38
648.04	374.62
648.38	373.05
648.72	372.57
649.06	371.33
649.41	368.81
649.75	367.29
650.09	366.38
650.43	365.38
650.78	363.48
651.12	362.33
651.46	361.43
651.80	360.14
652.14	358.62
652.49	358.10
652.83	356.76
653.17	355.33
653.51	353.86
653.85	353.00
654.20	352.38
654.54	350.52
654.88	349.00
655.22	347.62
655.56	346.76
655.90	345.52
656.25	344.52
656.59	344.10
656.93	343.57
657.27	343.29
657.61	342.33
657.95	342.05
658.29	341.14
658.64	340.81
658.98	339.81
659.32	339.57
659.66	338.57
660.00	338.19
660.34	337.81
660.68	337.05
661.02	336.33
661.36	334.95
661.70	334.76
662.05	334.38
662.39	334.29
662.73	335.00
663.07	335.90
663.41	336.14
663.75	335.19
664.09	334.95
664.43	333.52
664.77	332.90
665.11	331.81
665.45	331.33
665.79	330.71
666.13	330.48
666.47	329.43
666.81	328.76
667.15	327.81
667.49	326.95
667.83	327.05
668.17	326.14
668.51	325.81
668.85	325.48
669.19	325.90
669.53	324.76
669.87	323.19
670.21	321.52
670.55	320.48
670.89	321.10
671.23	320.52
671.57	319.86
671.91	319.62
672.25	319.14
672.58	319.62
672.92	318.05
673.26	317.10
673.60	316.52
673.94	315.90
674.28	315.29
674.62	315.10
674.96	314.43
675.30	313.67
675.64	312.95
675.97	312.48
676.31	310.71
676.65	309.86
676.99	309.95
677.33	308.71
677.67	308.52
678.01	306.71
678.34	306.19
678.68	306.05
679.02	304.95
679.36	304.33
679.70	302.95
680.04	303.05
680.37	302.67
680.71	301.81
681.05	301.14
681.39	300.86
681.73	300.05
682.06	299.33
682.40	299.10
682.74	299.14
683.08	299.24
683.42	299.00
683.75	299.57
684.09	298.57
684.43	298.62
684.77	297.57
685.10	297.43
685.44	297.29
685.78	296.52
686.12	295.95
686.45	295.24
686.79	294.81
687.13	294.48
687.46	293.62
687.80	293.86
688.14	293.67
688.48	293.05
688.81	292.95
689.15	293.10
689.49	292.52
689.82	291.90
690.16	290.38
690.50	289.90
690.83	288.90
691.17	287.95
691.51	287.38
691.84	287.48
692.18	286.67
692.52	285.52
692.85	285.38
693.19	286.19
693.52	285.90
693.86	285.24
694.20	284.76
694.53	284.62
694.87	283.71
695.21	283.00
695.54	282.81
695.88	281.71
696.21	280.14
696.55	280.14
696.88	279.48
697.22	278.95
697.56	278.62
697.89	278.05
698.23	278.29
698.56	277.52
698.90	277.24
699.23	276.81
699.57	276.71
699.90	276.38
700.24	275.33
700.58	275.43
700.91	275.71
701.25	277.57
701.58	278.57
701.92	279.48
702.25	279.71
702.59	279.52
702.92	280.48
703.26	281.52
703.59	281.43
703.93	284.43
704.26	285.81
704.60	286.57
704.93	287.43
705.26	287.67
705.60	288.86
705.93	288.95
706.27	290.48
706.60	291.38
706.94	292.52
707.27	292.52
707.61	292.67
707.94	292.90
708.27	291.24
708.61	290.33
708.94	289.90
709.28	289.48
709.61	289.00
709.94	288.14
710.28	287.57
710.61	286.95
710.95	283.86
711.28	284.19
711.61	283.19
711.95	282.38
712.28	281.10
712.61	280.05
712.95	280.62
713.28	280.48
713.61	279.05
713.95	277.14
714.28	276.43
714.61	275.52
714.95	274.05
715.28	272.62
715.61	271.52
715.95	270.71
716.28	269.67
716.61	269.48
716.95	268.62
717.28	267.76
717.61	267.62
717.94	267.00
718.28	264.76
718.61	264.10
718.94	263.19
719.27	262.48
719.61	262.29
719.94	260.90
720.27	259.24
720.60	258.76
720.94	258.24
721.27	258.33
721.60	258.43
721.93	258.29
722.27	259.14
722.60	259.38
722.93	259.00
723.26	259.29
723.59	258.86
723.93	259.38
724.26	259.57
724.59	259.29
724.92	259.19
725.25	259.76
725.59	259.43
725.92	259.67
726.25	259.71
726.58	259.76
726.91	259.52
727.24	259.71
727.57	259.43
727.91	259.33
728.24	259.14
728.57	258.76
728.90	259.05
729.23	258.00
729.56	259.05
729.89	259.14
730.22	258.95
730.55	258.86
730.89	258.43
731.22	258.05
731.55	257.52
731.88	257.76
732.21	256.86
732.54	256.67
732.87	256.52
733.20	256.48
733.53	255.95
733.86	256.10
734.19	255.48
734.52	255.86
734.85	257.48
735.18	257.00
735.51	257.57
735.84	257.33
736.17	257.81
736.50	256.33
736.83	258.95
737.16	259.05
737.49	258.90
737.82	258.86
738.15	259.14
738.48	259.43
738.81	259.14
739.14	258.95
739.47	259.00
739.80	258.71
740.13	259.05
740.46	259.00
740.79	258.14
741.12	258.19
741.45	257.71
741.78	256.33
742.11	257.00
742.44	256.43
742.77	256.71
743.10	256.29
743.43	256.19
743.75	253.38
744.08	256.19
744.41	255.86
744.74	255.48
745.07	254.76
745.40	255.05
745.73	256.24
746.06	256.62
746.39	256.76
746.71	256.81
747.04	256.48
747.37	255.90
747.70	256.57
748.03	256.52
748.36	256.95
748.68	256.86
749.01	255.71
749.34	255.52
749.67	255.67
750.00	256.00
750.33	258.00
750.65	257.81
750.98	254.43
751.31	254.76
751.64	255.00
751.97	256.38
752.29	256.10
752.62	254.71
752.95	254.57
753.28	254.19
753.60	253.81
753.93	254.81
754.26	255.29
754.59	254.43
754.91	254.38
755.24	253.76
755.57	253.48
755.90	253.90
756.22	253.38
756.55	252.71
756.88	251.71
757.20	249.76
757.53	249.57
757.86	249.52
758.19	249.67
758.51	249.24
758.84	248.00
759.17	247.81
759.49	247.71
759.82	248.57
760.15	248.76
760.47	248.76
760.80	247.86
761.13	248.00
761.45	248.00
761.78	247.71
762.11	247.81
762.43	247.52
762.76	247.29
763.08	247.76
763.41	247.95
763.74	248.43
764.06	248.38
764.39	248.43
764.71	248.38
765.04	247.81
765.37	248.00
765.69	247.95
766.02	247.71
766.34	247.52
766.67	246.33
767.00	246.62
767.32	248.05
767.65	249.29
767.97	249.05
768.30	249.19
768.62	249.48
768.95	249.33
769.27	249.29
769.60	249.38
769.92	248.52
770.25	247.95
770.57	247.71
770.90	247.62
771.22	247.29
771.55	247.43
771.87	247.43
772.20	247.10
772.52	248.90
772.85	251.67
773.17	251.95
773.50	252.00
773.82	251.52
774.15	250.00
774.47	248.48
774.80	247.86
775.12	247.86
775.45	247.52
775.77	247.67
776.09	247.86
776.42	248.05
776.74	249.10
777.07	249.00
777.39	248.95
777.72	248.57
778.04	248.95
778.36	248.90
778.69	249.24
779.01	249.52
779.33	247.43
779.66	244.90
779.98	244.62
780.31	244.38
780.63	245.33
780.95	245.71
781.28	245.48
781.60	245.48
781.92	245.24
782.25	245.14
782.57	244.90
782.89	244.67
783.22	244.43
783.54	244.29
783.86	244.29
784.19	244.19
784.51	244.71
784.83	243.95
785.16	243.95
785.48	243.86
785.80	243.67
786.12	243.81
786.45	243.52
786.77	243.81
787.09	244.00
787.42	243.33
787.74	243.43
788.06	243.71
788.38	243.76
788.71	243.57
789.03	243.76
789.35	244.19
789.67	244.14
789.99	244.43
790.32	243.95
790.64	244.33
790.96	246.00
791.28	245.33
791.61	245.24
791.93	245.05
792.25	244.76
792.57	246.43
792.89	246.33
793.21	246.86
793.54	246.43
793.86	246.19
