SpectraSuite Data File
++++++++++++++++++++++++++++++++++++
Date: Wed Nov 07 18:33:33 EST 2012
User: group
Dark Spectrum Present: No
Reference Spectrum Present: No
Number of Sampled Component Spectra: 1
Spectrometers: USB2E7196
Integration Time (usec): 1000000 (USB2E7196)
Spectra Averaged: 1 (USB2E7196)
Boxcar Smoothing: 10 (USB2E7196)
Correct for Electrical Dark: No (USB2E7196)
Strobe/Lamp Enabled: No (USB2E7196)
Correct for Detector Non-linearity: No (USB2E7196)
Correct for Stray Light: No (USB2E7196)
Number of Pixels in Processed Spectrum: 2048
>>>>>Begin Processed Spectral Data<<<<<
339.09	0.00
339.48	220.00
339.86	218.00
340.24	225.00
340.63	230.00
341.01	267.00
341.39	231.00
341.78	232.00
342.16	238.00
342.54	228.00
342.93	222.81
343.31	234.00
343.69	234.52
344.07	235.14
344.46	235.76
344.84	236.10
345.22	234.62
345.60	234.67
345.99	234.95
346.37	234.86
346.75	235.10
347.13	235.00
347.52	235.38
347.90	235.95
348.28	235.95
348.66	236.33
349.05	235.33
349.43	235.48
349.81	236.00
350.19	236.29
350.57	236.52
350.96	237.00
351.34	236.90
351.72	237.00
352.10	236.81
352.48	236.48
352.87	236.24
353.25	236.05
353.63	236.10
354.01	236.14
354.39	236.14
354.77	235.90
355.15	236.76
355.54	236.38
355.92	235.67
356.30	235.57
356.68	237.14
357.06	237.48
357.44	237.19
357.82	237.14
358.20	237.52
358.58	237.33
358.97	237.05
359.35	237.86
359.73	238.38
360.11	238.90
360.49	239.14
360.87	239.33
361.25	239.71
361.63	240.57
362.01	240.24
362.39	240.48
362.77	241.10
363.15	240.95
363.53	241.19
363.91	241.71
364.29	241.81
364.67	239.48
365.05	239.67
365.43	240.10
365.81	240.48
366.19	241.52
366.57	243.14
366.95	243.62
367.33	242.86
367.71	242.76
368.09	243.00
368.47	243.05
368.85	243.14
369.23	243.81
369.61	243.38
369.99	244.48
370.37	244.52
370.75	245.90
371.13	245.48
371.51	245.43
371.89	245.48
372.27	245.76
372.65	246.24
373.03	246.29
373.41	246.33
373.78	245.95
374.16	244.90
374.54	244.05
374.92	243.57
375.30	244.10
375.68	243.90
376.06	244.10
376.44	244.57
376.82	244.90
377.19	244.57
377.57	244.19
377.95	243.43
378.33	243.81
378.71	242.33
379.09	242.48
379.47	242.57
379.84	242.43
380.22	242.38
380.60	242.19
380.98	242.10
381.36	242.00
381.73	242.14
382.11	242.38
382.49	242.19
382.87	242.10
383.25	241.81
383.62	244.52
384.00	244.48
384.38	244.24
384.76	244.33
385.13	245.33
385.51	245.48
385.89	245.52
386.27	245.10
386.64	245.29
387.02	245.29
387.40	245.19
387.78	245.33
388.15	245.19
388.53	244.62
388.91	244.57
389.29	244.57
389.66	244.62
390.04	244.33
390.42	244.90
390.79	245.29
391.17	245.14
391.55	242.24
391.92	241.71
392.30	241.62
392.68	240.95
393.05	241.00
393.43	240.95
393.81	240.52
394.18	240.10
394.56	240.14
394.94	241.05
395.31	240.86
395.69	241.71
396.06	242.05
396.44	242.14
396.82	242.05
397.19	243.05
397.57	242.67
397.95	243.00
398.32	242.19
398.70	242.33
399.07	243.19
399.45	243.43
399.82	243.52
400.20	243.38
400.58	243.95
400.95	242.76
401.33	243.48
401.70	245.67
402.08	246.10
402.45	246.33
402.83	246.43
403.20	246.81
403.58	246.38
403.95	246.81
404.33	247.90
404.71	248.14
405.08	249.33
405.46	249.71
405.83	250.10
406.21	250.38
406.58	250.76
406.96	250.57
407.33	251.19
407.70	252.24
408.08	254.71
408.45	255.33
408.83	256.33
409.20	256.24
409.58	255.43
409.95	256.57
410.33	257.33
410.70	257.52
411.08	258.76
411.45	259.62
411.82	260.38
412.20	261.81
412.57	264.38
412.95	263.62
413.32	265.48
413.69	266.86
414.07	268.81
414.44	270.43
414.82	272.57
415.19	274.90
415.56	277.00
415.94	278.00
416.31	281.10
416.68	284.00
417.06	287.90
417.43	291.76
417.81	295.57
418.18	299.29
418.55	303.10
418.93	307.43
419.30	311.90
419.67	316.67
420.04	320.81
420.42	325.19
420.79	333.14
421.16	339.24
421.54	346.29
421.91	352.57
422.28	359.57
422.66	366.29
423.03	374.81
423.40	381.81
423.77	389.10
424.15	396.33
424.52	404.48
424.89	413.14
425.26	420.76
425.64	428.33
426.01	436.24
426.38	444.86
426.75	454.29
427.13	463.52
427.50	473.10
427.87	483.76
428.24	493.76
428.61	501.90
428.99	512.86
429.36	523.19
429.73	533.76
430.10	544.43
430.47	556.86
430.85	567.90
431.22	580.62
431.59	596.52
431.96	609.67
432.33	623.76
432.70	637.67
433.08	654.86
433.45	669.71
433.82	685.57
434.19	702.81
434.56	718.86
434.93	733.24
435.30	748.67
435.68	765.57
436.05	782.90
436.42	798.86
436.79	814.33
437.16	831.62
437.53	849.19
437.90	866.95
438.27	883.33
438.64	899.86
439.01	916.24
439.38	928.00
439.75	941.19
440.13	956.86
440.50	971.05
440.87	981.76
441.24	994.10
441.61	1007.38
441.98	1017.33
442.35	1028.33
442.72	1040.86
443.09	1053.24
443.46	1058.38
443.83	1061.43
444.20	1065.38
444.57	1070.10
444.94	1071.00
445.31	1073.24
445.68	1077.86
446.05	1077.52
446.42	1074.43
446.79	1071.62
447.16	1068.10
447.53	1066.19
447.90	1058.62
448.27	1050.05
448.64	1039.95
449.01	1031.62
449.37	1018.48
449.74	1005.71
450.11	993.48
450.48	977.71
450.85	960.71
451.22	947.29
451.59	934.48
451.96	922.33
452.33	906.33
452.70	892.24
453.07	874.90
453.43	854.38
453.80	837.62
454.17	822.24
454.54	806.67
454.91	791.38
455.28	774.86
455.65	759.71
456.02	750.10
456.38	737.81
456.75	723.19
457.12	711.05
457.49	699.62
457.86	686.33
458.23	677.05
458.59	665.57
458.96	655.71
459.33	645.48
459.70	634.71
460.07	626.62
460.43	617.00
460.80	608.90
461.17	600.71
461.54	593.48
461.91	585.95
462.27	578.24
462.64	570.90
463.01	563.90
463.38	557.43
463.74	546.10
464.11	539.62
464.48	534.57
464.85	528.81
465.21	523.95
465.58	518.76
465.95	512.52
466.32	508.29
466.68	502.90
467.05	498.81
467.42	494.76
467.78	489.67
468.15	485.24
468.52	482.48
468.88	478.38
469.25	473.95
469.62	470.71
469.98	467.14
470.35	464.29
470.72	461.33
471.08	457.05
471.45	455.05
471.82	453.10
472.18	449.76
472.55	447.67
472.92	444.76
473.28	442.19
473.65	440.05
474.02	437.48
474.38	436.00
474.75	434.67
475.11	432.14
475.48	430.76
475.85	429.38
476.21	427.00
476.58	426.19
476.94	425.86
477.31	424.57
477.67	423.81
478.04	422.81
478.41	422.19
478.77	424.76
479.14	423.10
479.50	422.52
479.87	422.52
480.23	421.95
480.60	421.48
480.96	421.14
481.33	422.05
481.69	422.52
482.06	423.10
482.42	423.48
482.79	424.76
483.15	425.62
483.52	427.00
483.88	427.90
484.25	428.67
484.61	429.29
484.98	430.43
485.34	432.10
485.71	433.52
486.07	435.10
486.44	433.86
486.80	435.95
487.17	436.62
487.53	438.48
487.90	440.71
488.26	443.57
488.62	445.95
488.99	447.19
489.35	449.19
489.72	450.38
490.08	451.90
490.44	453.48
490.81	455.62
491.17	457.10
491.54	459.38
491.90	462.52
492.26	464.33
492.63	466.29
492.99	468.43
493.36	471.33
493.72	474.05
494.08	476.29
494.45	479.90
494.81	483.95
495.17	487.52
495.54	490.90
495.90	493.67
496.26	497.29
496.63	500.67
496.99	504.48
497.35	508.81
497.72	512.90
498.08	517.05
498.44	521.19
498.80	526.24
499.17	530.76
499.53	534.62
499.89	539.71
500.26	544.19
500.62	548.48
500.98	553.33
501.34	557.76
501.71	564.14
502.07	569.00
502.43	573.76
502.79	578.52
503.16	583.52
503.52	588.19
503.88	592.86
504.24	598.14
504.60	603.81
504.97	609.10
505.33	615.10
505.69	622.10
506.05	627.05
506.41	632.05
506.78	637.43
507.14	642.57
507.50	648.19
507.86	654.48
508.22	659.52
508.59	664.43
508.95	669.86
509.31	675.86
509.67	680.24
510.03	684.71
510.39	689.33
510.75	694.33
511.12	699.90
511.48	705.57
511.84	711.19
512.20	716.00
512.56	720.62
512.92	724.71
513.28	728.62
513.64	733.33
514.00	738.05
514.37	742.19
514.73	746.86
515.09	751.62
515.45	756.14
515.81	761.33
516.17	765.67
516.53	770.10
516.89	773.19
517.25	777.43
517.61	783.14
517.97	787.62
518.33	791.62
518.69	795.62
519.05	800.00
519.41	803.67
519.77	809.05
520.13	812.19
520.49	815.62
520.85	818.86
521.21	823.76
521.57	827.24
521.93	831.14
522.29	834.10
522.65	835.52
523.01	837.86
523.37	840.14
523.73	843.00
524.09	845.48
524.45	847.57
524.81	850.05
525.17	852.00
525.53	853.57
525.89	855.76
526.25	857.86
526.61	858.52
526.97	859.67
527.33	860.10
527.68	864.57
528.04	866.62
528.40	867.52
528.76	867.62
529.12	869.05
529.48	870.29
529.84	871.14
530.20	874.00
530.56	875.95
530.91	877.52
531.27	878.95
531.63	879.86
531.99	880.48
532.35	881.95
532.71	882.86
533.07	884.86
533.42	889.05
533.78	889.71
534.14	891.43
534.50	892.95
534.86	893.76
535.21	892.90
535.57	894.67
535.93	896.14
536.29	898.52
536.65	900.62
537.00	901.38
537.36	904.00
537.72	904.95
538.08	907.38
538.44	908.38
538.79	910.52
539.15	912.62
539.51	915.62
539.87	918.24
540.22	919.71
540.58	921.67
540.94	920.95
541.29	923.48
541.65	925.43
542.01	928.38
542.37	930.10
542.72	930.52
543.08	929.71
543.44	930.05
543.79	929.05
544.15	928.48
544.51	928.95
544.87	927.29
545.22	926.33
545.58	923.67
545.94	922.76
546.29	920.76
546.65	918.76
547.01	915.52
547.36	912.29
547.72	911.00
548.07	908.43
548.43	905.33
548.79	902.62
549.14	898.52
549.50	895.24
549.86	891.67
550.21	889.90
550.57	887.90
550.92	884.57
551.28	883.14
551.64	880.05
551.99	877.57
552.35	875.48
552.70	874.10
553.06	872.90
553.41	871.10
553.77	869.95
554.13	868.24
554.48	867.86
554.84	866.95
555.19	863.38
555.55	864.14
555.90	862.14
556.26	860.14
556.61	859.14
556.97	856.00
557.32	853.24
557.68	851.48
558.03	850.00
558.39	848.52
558.74	846.29
559.10	844.67
559.45	842.62
559.81	841.24
560.16	838.67
560.52	837.00
560.87	835.76
561.23	832.86
561.58	832.81
561.94	829.76
562.29	827.38
562.64	826.81
563.00	822.00
563.35	820.19
563.71	818.29
564.06	816.19
564.42	815.05
564.77	814.62
565.12	813.33
565.48	813.90
565.83	813.19
566.19	811.81
566.54	810.29
566.89	809.10
567.25	808.86
567.60	808.67
567.96	809.57
568.31	809.10
568.66	809.10
569.02	805.90
569.37	804.67
569.72	803.29
570.08	802.14
570.43	801.81
570.78	800.43
571.14	798.90
571.49	797.29
571.84	795.57
572.20	794.62
572.55	792.48
572.90	788.62
573.26	787.43
573.61	785.48
573.96	784.48
574.31	782.43
574.67	780.14
575.02	777.14
575.37	773.38
575.72	770.81
576.08	768.38
576.43	767.43
576.78	766.81
577.13	765.62
577.49	764.05
577.84	762.52
578.19	761.00
578.54	759.67
578.90	758.33
579.25	757.43
579.60	755.90
579.95	754.67
580.30	754.43
580.66	752.52
581.01	751.81
581.36	750.19
581.71	749.43
582.06	748.95
582.42	747.48
582.77	745.52
583.12	744.33
583.47	742.67
583.82	741.24
584.17	739.95
584.53	739.10
584.88	737.10
585.23	735.52
585.58	733.52
585.93	730.76
586.28	729.43
586.63	726.76
586.98	724.29
587.34	722.43
587.69	719.71
588.04	717.76
588.39	714.81
588.74	712.38
589.09	710.76
589.44	706.43
589.79	704.43
590.14	700.71
590.49	696.62
590.84	693.43
591.19	690.10
591.54	686.52
591.89	682.38
592.25	681.29
592.60	677.43
592.95	675.33
593.30	673.14
593.65	669.43
594.00	666.90
594.35	670.81
594.70	666.43
595.05	663.33
595.40	660.19
595.75	657.81
596.10	655.33
596.45	651.81
596.80	649.76
597.15	647.00
597.50	645.00
597.85	643.19
598.19	640.57
598.54	637.81
598.89	635.05
599.24	632.10
599.59	627.52
599.94	624.67
600.29	622.38
600.64	620.33
600.99	619.14
601.34	616.76
601.69	607.76
602.04	605.71
602.39	602.38
602.74	600.71
603.08	598.52
603.43	597.19
603.78	594.71
604.13	592.43
604.48	590.14
604.83	589.95
605.18	589.05
605.53	589.29
605.87	591.00
606.22	593.81
606.57	598.43
606.92	603.24
607.27	608.86
607.62	613.33
607.96	618.05
608.31	621.67
608.66	625.62
609.01	629.05
609.36	632.81
609.70	636.57
610.05	638.62
610.40	641.19
610.75	642.00
611.10	644.33
611.44	646.24
611.79	647.19
612.14	646.24
612.49	644.52
612.83	642.29
613.18	638.00
613.53	632.67
613.88	626.14
614.22	618.00
614.57	610.24
614.92	601.95
615.27	594.24
615.61	587.24
615.96	580.29
616.31	573.43
616.65	567.81
617.00	561.62
617.35	555.62
617.70	549.57
618.04	544.00
618.39	538.43
618.74	534.05
619.08	529.81
619.43	525.33
619.78	522.38
620.12	519.48
620.47	516.57
620.82	513.71
621.16	510.38
621.51	509.67
621.85	506.48
622.20	504.48
622.55	501.52
622.89	498.81
623.24	496.90
623.59	494.38
623.93	492.05
624.28	490.76
624.62	491.76
624.97	490.81
625.32	489.10
625.66	487.38
626.01	484.62
626.35	483.43
626.70	481.76
627.04	480.90
627.39	479.24
627.73	478.33
628.08	476.33
628.43	474.67
628.77	470.95
629.12	469.05
629.46	467.29
629.81	465.00
630.15	463.14
630.50	460.43
630.84	458.76
631.19	456.48
631.53	454.00
631.88	448.67
632.22	444.62
632.57	443.00
632.91	440.71
633.26	438.48
633.60	435.48
633.95	433.43
634.29	429.76
634.64	426.81
634.98	423.86
635.32	422.29
635.67	420.24
636.01	418.10
636.36	415.76
636.70	414.00
637.05	411.95
637.39	409.43
637.73	407.62
638.08	406.29
638.42	404.19
638.77	402.48
639.11	401.29
639.45	400.19
639.80	398.10
640.14	396.48
640.49	395.38
640.83	393.90
641.17	392.48
641.52	390.90
641.86	390.10
642.20	389.48
642.55	387.48
642.89	386.10
643.23	385.05
643.58	385.05
643.92	383.24
644.26	382.48
644.61	382.14
644.95	381.19
645.29	379.29
645.64	379.33
645.98	378.19
646.32	377.81
646.66	376.86
647.01	375.95
647.35	375.24
647.69	374.38
648.04	374.14
648.38	373.48
648.72	372.86
649.06	371.48
649.41	370.19
649.75	369.57
650.09	369.10
650.43	368.52
650.78	366.71
651.12	365.43
651.46	364.81
651.80	363.33
652.14	361.90
652.49	361.71
652.83	359.62
653.17	358.10
653.51	356.62
653.85	355.52
654.20	354.05
654.54	352.29
654.88	350.38
655.22	348.29
655.56	347.05
655.90	346.43
656.25	345.33
656.59	344.05
656.93	343.00
657.27	342.29
657.61	340.95
657.95	340.81
658.29	340.48
658.64	340.00
658.98	339.24
659.32	338.52
659.66	337.90
660.00	337.67
660.34	337.67
660.68	336.71
661.02	336.24
661.36	335.48
661.70	334.90
662.05	334.29
662.39	335.10
662.73	334.86
663.07	335.33
663.41	335.19
663.75	334.48
664.09	333.67
664.43	332.33
664.77	332.00
665.11	330.52
665.45	329.81
665.79	329.33
666.13	328.48
666.47	327.81
666.81	326.76
667.15	325.14
667.49	323.95
667.83	323.81
668.17	322.67
668.51	322.19
668.85	321.81
669.19	322.14
669.53	320.05
669.87	318.90
670.21	317.14
670.55	316.48
670.89	316.57
671.23	316.10
671.57	315.76
671.91	315.24
672.25	315.19
672.58	315.33
672.92	313.86
673.26	313.67
673.60	312.95
673.94	312.33
674.28	312.24
674.62	312.19
674.96	311.24
675.30	310.90
675.64	310.62
675.97	309.95
676.31	308.90
676.65	308.71
676.99	308.71
677.33	307.76
677.67	307.24
678.01	305.86
678.34	305.29
678.68	305.00
679.02	304.10
679.36	303.05
679.70	301.90
680.04	301.67
680.37	301.10
680.71	300.76
681.05	300.43
681.39	300.29
681.73	299.43
682.06	298.81
682.40	298.43
682.74	298.24
683.08	298.95
683.42	298.57
683.75	298.43
684.09	297.52
684.43	297.43
684.77	296.57
685.10	296.24
685.44	295.90
685.78	295.33
686.12	294.67
686.45	294.29
686.79	293.14
687.13	293.52
687.46	293.19
687.80	293.48
688.14	292.71
688.48	292.38
688.81	292.33
689.15	292.76
689.49	292.48
689.82	292.05
690.16	290.62
690.50	289.90
690.83	289.24
691.17	288.52
691.51	287.86
691.84	288.05
692.18	287.24
692.52	286.52
692.85	286.43
693.19	287.00
693.52	286.86
693.86	286.67
694.20	285.76
694.53	285.33
694.87	284.57
695.21	284.10
695.54	283.62
695.88	282.62
696.21	281.14
696.55	280.71
696.88	280.33
697.22	279.48
697.56	279.48
697.89	279.00
698.23	278.81
698.56	278.48
698.90	278.19
699.23	278.05
699.57	277.76
699.90	277.05
700.24	276.00
700.58	275.90
700.91	276.24
701.25	278.14
701.58	278.67
701.92	279.38
702.25	279.86
702.59	279.71
702.92	280.52
703.26	281.33
703.59	281.86
703.93	284.00
704.26	285.10
704.60	285.48
704.93	285.76
705.26	286.24
705.60	286.95
705.93	286.76
706.27	287.86
706.60	289.05
706.94	290.62
707.27	290.90
707.61	291.10
707.94	291.14
708.27	289.19
708.61	288.62
708.94	287.95
709.28	287.43
709.61	286.48
709.94	286.00
710.28	285.38
710.61	284.33
710.95	281.05
711.28	281.48
711.61	280.24
711.95	280.05
712.28	279.10
712.61	278.33
712.95	278.90
713.28	279.10
713.61	277.48
713.95	275.33
714.28	274.67
714.61	273.48
714.95	272.33
715.28	270.86
715.61	270.05
715.95	269.52
716.28	268.86
716.61	269.43
716.95	268.52
717.28	267.86
717.61	267.48
717.94	267.67
718.28	265.81
718.61	265.38
718.94	264.71
719.27	264.14
719.61	263.81
719.94	262.62
720.27	260.67
720.60	260.48
720.94	260.19
721.27	260.19
721.60	260.62
721.93	260.76
722.27	261.57
722.60	261.71
722.93	260.90
723.26	261.10
723.59	260.29
723.93	260.29
724.26	260.43
724.59	260.24
724.92	260.29
725.25	260.67
725.59	260.71
725.92	261.14
726.25	261.19
726.58	260.76
726.91	260.86
727.24	261.24
727.57	261.57
727.91	261.48
728.24	261.19
728.57	260.43
728.90	260.24
729.23	259.38
729.56	260.33
729.89	260.62
730.22	260.33
730.55	260.14
730.89	260.05
731.22	259.76
731.55	259.62
731.88	259.48
732.21	259.14
732.54	258.86
732.87	258.14
733.20	258.00
733.53	258.33
733.86	258.10
734.19	257.62
734.52	257.76
734.85	259.29
735.18	259.14
735.51	260.00
735.84	259.95
736.17	260.76
736.50	259.29
736.83	261.86
737.16	261.62
737.49	261.81
737.82	261.52
738.15	261.76
738.48	261.57
738.81	261.24
739.14	260.86
739.47	260.62
739.80	260.76
740.13	261.19
740.46	260.76
740.79	260.43
741.12	260.67
741.45	260.10
741.78	258.71
742.11	259.33
742.44	258.86
742.77	259.29
743.10	258.52
743.43	258.33
743.75	256.00
744.08	259.10
744.41	258.62
744.74	258.52
745.07	257.86
745.40	258.19
745.73	259.05
746.06	258.90
746.39	259.71
746.71	259.24
747.04	258.48
747.37	258.24
747.70	258.48
748.03	258.33
748.36	258.38
748.68	258.33
749.01	257.33
749.34	256.81
749.67	257.05
750.00	257.48
750.33	259.38
750.65	259.33
750.98	255.81
751.31	255.81
751.64	256.00
751.97	256.90
752.29	256.71
752.62	255.48
752.95	255.19
753.28	254.43
753.60	254.52
753.93	255.33
754.26	255.62
754.59	255.05
754.91	254.67
755.24	254.24
755.57	253.71
755.90	253.81
756.22	253.71
756.55	252.71
756.88	252.29
757.20	250.38
757.53	249.52
757.86	249.67
758.19	249.86
758.51	249.81
758.84	248.76
759.17	248.43
759.49	248.76
759.82	249.81
760.15	249.38
760.47	249.00
760.80	248.05
761.13	247.81
761.45	247.48
761.78	247.67
762.11	247.86
762.43	247.52
762.76	247.33
763.08	247.67
763.41	248.05
763.74	248.14
764.06	248.05
764.39	248.52
764.71	248.48
765.04	248.14
765.37	247.71
765.69	247.81
766.02	247.81
766.34	247.19
766.67	246.24
767.00	247.00
767.32	248.38
767.65	250.19
767.97	249.95
768.30	249.90
768.62	249.95
768.95	249.67
769.27	249.76
769.60	250.29
769.92	249.71
770.25	249.14
770.57	248.19
770.90	248.14
771.22	247.38
771.55	247.33
771.87	247.38
772.20	247.10
772.52	249.05
772.85	251.86
773.17	252.24
773.50	252.48
773.82	251.95
774.15	250.71
774.47	249.00
774.80	249.14
775.12	249.24
775.45	248.90
775.77	249.05
776.09	249.19
776.42	249.14
776.74	250.10
777.07	250.00
777.39	250.33
777.72	249.95
778.04	250.38
778.36	250.14
778.69	250.24
779.01	250.76
779.33	248.67
779.66	245.62
779.98	245.33
780.31	244.86
780.63	245.62
780.95	245.90
781.28	245.86
781.60	245.52
781.92	245.48
782.25	245.48
782.57	245.38
782.89	245.33
783.22	245.05
783.54	244.19
783.86	244.43
784.19	244.33
784.51	245.14
784.83	244.81
785.16	244.57
785.48	244.48
785.80	244.19
786.12	244.29
786.45	244.38
786.77	244.52
787.09	244.86
787.42	244.24
787.74	243.90
788.06	243.76
788.38	243.62
788.71	243.38
789.03	243.43
789.35	243.71
789.67	243.48
789.99	243.10
790.32	242.95
790.64	243.14
790.96	245.24
791.28	244.57
791.61	244.38
791.93	244.71
792.25	244.71
792.57	246.05
792.89	245.71
793.21	245.90
793.54	245.52
793.86	245.48
