SpectraSuite Data File
++++++++++++++++++++++++++++++++++++
Date: Wed Nov 07 18:32:18 EST 2012
User: group
Dark Spectrum Present: No
Reference Spectrum Present: No
Number of Sampled Component Spectra: 1
Spectrometers: USB2E7196
Integration Time (usec): 1000000 (USB2E7196)
Spectra Averaged: 1 (USB2E7196)
Boxcar Smoothing: 10 (USB2E7196)
Correct for Electrical Dark: No (USB2E7196)
Strobe/Lamp Enabled: No (USB2E7196)
Correct for Detector Non-linearity: No (USB2E7196)
Correct for Stray Light: No (USB2E7196)
Number of Pixels in Processed Spectrum: 2048
>>>>>Begin Processed Spectral Data<<<<<
339.09	0.00
339.48	217.00
339.86	227.00
340.24	227.00
340.63	231.00
341.01	264.00
341.39	227.00
341.78	228.00
342.16	241.00
342.54	231.00
342.93	223.81
343.31	234.62
343.69	235.52
344.07	235.86
344.46	236.48
344.84	236.81
345.22	235.48
345.60	235.95
345.99	236.52
346.37	236.14
346.75	236.38
347.13	236.19
347.52	236.38
347.90	237.05
348.28	236.71
348.66	236.76
349.05	235.67
349.43	235.95
349.81	236.05
350.19	236.14
350.57	236.19
350.96	236.62
351.34	237.14
351.72	237.19
352.10	236.95
352.48	236.38
352.87	236.19
353.25	236.10
353.63	235.81
354.01	235.76
354.39	235.86
354.77	235.67
355.15	236.62
355.54	236.19
355.92	235.38
356.30	235.90
356.68	237.62
357.06	238.10
357.44	237.67
357.82	237.71
358.20	237.95
358.58	238.19
358.97	238.19
359.35	238.62
359.73	238.95
360.11	239.14
360.49	239.38
360.87	239.33
361.25	239.81
361.63	240.71
362.01	240.90
362.39	240.90
362.77	241.14
363.15	241.05
363.53	241.33
363.91	241.57
364.29	241.29
364.67	238.95
365.05	239.52
365.43	240.14
365.81	240.81
366.19	241.86
366.57	242.62
366.95	242.62
367.33	242.05
367.71	242.14
368.09	242.71
368.47	242.76
368.85	242.67
369.23	242.90
369.61	242.38
369.99	242.90
370.37	243.19
370.75	244.86
371.13	244.24
371.51	244.00
371.89	244.67
372.27	244.67
372.65	245.05
373.03	244.81
373.41	244.57
373.78	244.29
374.16	243.29
374.54	242.67
374.92	242.57
375.30	242.57
375.68	242.29
376.06	242.48
376.44	242.43
376.82	242.95
377.19	243.10
377.57	242.76
377.95	241.90
378.33	242.14
378.71	240.29
379.09	240.81
379.47	241.29
379.84	240.81
380.22	240.52
380.60	239.76
380.98	239.71
381.36	239.90
381.73	239.71
382.11	240.48
382.49	240.57
382.87	240.48
383.25	240.57
383.62	243.29
384.00	242.62
384.38	242.76
384.76	243.10
385.13	243.67
385.51	244.00
385.89	243.81
386.27	243.62
386.64	244.05
387.02	243.67
387.40	243.24
387.78	243.43
388.15	243.76
388.53	243.95
388.91	243.90
389.29	243.33
389.66	243.52
390.04	242.81
390.42	243.29
390.79	243.38
391.17	243.29
391.55	240.19
391.92	240.33
392.30	240.29
392.68	239.52
393.05	239.33
393.43	239.19
393.81	239.29
394.18	238.76
394.56	238.71
394.94	239.33
395.31	239.10
395.69	239.76
396.06	240.00
396.44	240.14
396.82	239.81
397.19	241.38
397.57	240.95
397.95	241.48
398.32	240.52
398.70	240.67
399.07	241.29
399.45	241.52
399.82	241.62
400.20	241.71
400.58	241.81
400.95	241.05
401.33	241.81
401.70	243.86
402.08	244.14
402.45	244.52
402.83	245.14
403.20	245.71
403.58	245.52
403.95	245.95
404.33	246.43
404.71	246.95
405.08	248.05
405.46	248.33
405.83	248.71
406.21	249.10
406.58	249.62
406.96	249.90
407.33	250.57
407.70	251.24
408.08	253.95
408.45	255.05
408.83	256.33
409.20	256.43
409.58	255.81
409.95	257.19
410.33	257.90
410.70	258.48
411.08	259.48
411.45	260.43
411.82	261.38
412.20	263.29
412.57	265.71
412.95	265.48
413.32	267.95
413.69	269.24
414.07	271.43
414.44	272.95
414.82	274.90
415.19	277.38
415.56	279.33
415.94	279.90
416.31	283.29
416.68	286.10
417.06	289.62
417.43	293.43
417.81	296.90
418.18	300.62
418.55	304.14
418.93	308.71
419.30	313.14
419.67	317.90
420.04	322.19
420.42	326.38
420.79	333.71
421.16	339.24
421.54	346.76
421.91	352.57
422.28	359.19
422.66	365.86
423.03	374.71
423.40	381.95
423.77	389.10
424.15	395.86
424.52	403.71
424.89	412.71
425.26	420.43
425.64	427.71
426.01	435.81
426.38	444.67
426.75	453.90
427.13	462.90
427.50	472.57
427.87	482.24
428.24	491.81
428.61	500.24
428.99	511.86
429.36	522.24
429.73	533.48
430.10	544.95
430.47	557.48
430.85	568.14
431.22	581.14
431.59	597.76
431.96	611.19
432.33	625.05
432.70	638.62
433.08	655.29
433.45	671.38
433.82	686.57
434.19	703.38
434.56	719.48
434.93	734.81
435.30	749.76
435.68	767.14
436.05	784.57
436.42	800.86
436.79	815.76
437.16	831.52
437.53	848.52
437.90	865.05
438.27	881.57
438.64	897.76
439.01	914.38
439.38	926.05
439.75	939.38
440.13	955.24
440.50	969.14
440.87	980.19
441.24	991.62
441.61	1004.52
441.98	1014.19
442.35	1025.43
442.72	1037.19
443.09	1049.29
443.46	1055.57
443.83	1059.05
444.20	1062.33
444.57	1066.48
444.94	1068.33
445.31	1070.81
445.68	1076.24
446.05	1076.57
446.42	1073.33
446.79	1069.38
447.16	1065.57
447.53	1062.62
447.90	1053.95
448.27	1045.33
448.64	1034.76
449.01	1027.48
449.37	1016.67
449.74	1004.52
450.11	992.90
450.48	977.14
450.85	961.14
451.22	947.48
451.59	934.95
451.96	922.81
452.33	907.24
452.70	892.76
453.07	875.76
453.43	855.43
453.80	838.29
454.17	823.05
454.54	808.05
454.91	792.14
455.28	776.38
455.65	762.29
456.02	752.86
456.38	740.48
456.75	725.00
457.12	711.81
457.49	699.24
457.86	684.62
458.23	675.19
458.59	663.00
458.96	651.62
459.33	641.29
459.70	631.24
460.07	623.33
460.43	614.38
460.80	606.33
461.17	598.19
461.54	590.33
461.91	582.90
462.27	575.24
462.64	568.67
463.01	562.33
463.38	556.00
463.74	544.76
464.11	538.71
464.48	533.71
464.85	527.33
465.21	522.95
465.58	518.38
465.95	512.57
466.32	508.24
466.68	503.67
467.05	499.76
467.42	495.29
467.78	490.24
468.15	485.76
468.52	482.86
468.88	478.71
469.25	474.43
469.62	471.29
469.98	467.24
470.35	464.38
470.72	460.43
471.08	456.19
471.45	453.95
471.82	451.86
472.18	448.62
472.55	446.57
472.92	443.67
473.28	441.05
473.65	437.90
474.02	436.29
474.38	434.62
474.75	432.43
475.11	430.00
475.48	428.67
475.85	426.95
476.21	424.52
476.58	423.19
476.94	422.00
477.31	420.81
477.67	420.86
478.04	419.71
478.41	419.43
478.77	421.67
479.14	420.76
479.50	420.14
479.87	420.05
480.23	419.81
480.60	419.76
480.96	419.81
481.33	421.43
481.69	421.71
482.06	422.05
482.42	423.38
482.79	424.38
483.15	424.86
483.52	426.24
483.88	426.81
484.25	428.14
484.61	429.43
484.98	430.57
485.34	431.81
485.71	433.33
486.07	434.62
486.44	433.95
486.80	435.62
487.17	436.95
487.53	439.33
487.90	441.24
488.26	443.52
488.62	445.48
488.99	446.90
489.35	448.48
489.72	450.24
490.08	451.48
490.44	453.10
490.81	455.76
491.17	457.43
491.54	459.71
491.90	461.90
492.26	464.14
492.63	466.48
492.99	469.00
493.36	471.90
493.72	474.71
494.08	478.10
494.45	481.81
494.81	485.48
495.17	487.95
495.54	491.67
495.90	494.62
496.26	498.67
496.63	502.29
496.99	505.81
497.35	509.67
497.72	513.76
498.08	517.90
498.44	521.52
498.80	525.95
499.17	529.62
499.53	534.14
499.89	539.00
500.26	543.33
500.62	547.76
500.98	552.67
501.34	557.10
501.71	562.29
502.07	566.62
502.43	570.71
502.79	575.24
503.16	580.19
503.52	585.24
503.88	589.38
504.24	594.48
504.60	600.14
504.97	605.43
505.33	611.00
505.69	617.29
506.05	622.57
506.41	628.00
506.78	633.81
507.14	639.05
507.50	644.71
507.86	650.10
508.22	655.62
508.59	659.71
508.95	665.81
509.31	671.57
509.67	677.33
510.03	683.38
510.39	689.19
510.75	693.90
511.12	699.14
511.48	704.71
511.84	709.62
512.20	714.33
512.56	719.95
512.92	724.24
513.28	728.14
513.64	732.95
514.00	737.14
514.37	741.95
514.73	746.14
515.09	750.33
515.45	755.19
515.81	759.48
516.17	764.00
516.53	767.81
516.89	770.71
517.25	774.52
517.61	778.90
517.97	782.86
518.33	786.71
518.69	790.14
519.05	794.19
519.41	797.95
519.77	802.43
520.13	805.52
520.49	808.62
520.85	812.24
521.21	816.10
521.57	819.76
521.93	822.62
522.29	825.71
522.65	827.71
523.01	830.00
523.37	831.10
523.73	833.90
524.09	836.33
524.45	838.19
524.81	840.52
525.17	841.90
525.53	843.71
525.89	845.43
526.25	847.24
526.61	847.67
526.97	848.81
527.33	850.14
527.68	853.95
528.04	855.29
528.40	855.57
528.76	856.67
529.12	857.43
529.48	858.86
529.84	860.24
530.20	862.00
530.56	863.67
530.91	865.67
531.27	867.29
531.63	868.81
531.99	870.38
532.35	870.57
532.71	871.71
533.07	873.00
533.42	877.90
533.78	878.95
534.14	881.00
534.50	881.95
534.86	883.14
535.21	882.00
535.57	884.24
535.93	885.05
536.29	887.48
536.65	888.86
537.00	891.05
537.36	892.95
537.72	894.62
538.08	896.48
538.44	898.81
538.79	901.00
539.15	902.24
539.51	904.57
539.87	907.95
540.22	909.48
540.58	911.86
540.94	910.86
541.29	913.43
541.65	915.19
542.01	917.81
542.37	919.62
542.72	920.33
543.08	920.05
543.44	921.52
543.79	919.57
544.15	920.00
544.51	919.71
544.87	918.62
545.22	918.67
545.58	917.33
545.94	915.38
546.29	913.05
546.65	910.62
547.01	908.05
547.36	904.95
547.72	903.24
548.07	900.38
548.43	897.24
548.79	893.81
549.14	890.14
549.50	887.43
549.86	883.33
550.21	881.05
550.57	879.05
550.92	877.14
551.28	875.33
551.64	873.52
551.99	870.81
552.35	868.33
552.70	865.43
553.06	863.95
553.41	861.57
553.77	860.86
554.13	859.81
554.48	857.95
554.84	856.52
555.19	854.81
555.55	855.24
555.90	853.29
556.26	851.48
556.61	849.67
556.97	846.52
557.32	844.71
557.68	843.00
558.03	841.67
558.39	839.71
558.74	838.52
559.10	836.71
559.45	834.48
559.81	831.90
560.16	829.48
560.52	826.43
560.87	825.57
561.23	822.48
561.58	822.95
561.94	821.24
562.29	818.90
562.64	816.71
563.00	812.19
563.35	809.90
563.71	808.29
564.06	807.38
564.42	806.38
564.77	804.57
565.12	803.10
565.48	803.62
565.83	803.10
566.19	801.05
566.54	799.14
566.89	798.14
567.25	798.76
567.60	799.19
567.96	800.24
568.31	799.86
568.66	799.71
569.02	796.62
569.37	794.76
569.72	793.95
570.08	792.57
570.43	792.00
570.78	791.24
571.14	790.19
571.49	788.33
571.84	786.71
572.20	786.00
572.55	784.62
572.90	779.95
573.26	777.52
573.61	776.00
573.96	775.19
574.31	773.95
574.67	771.05
575.02	769.24
575.37	766.86
575.72	764.95
576.08	762.57
576.43	760.81
576.78	759.10
577.13	757.05
577.49	756.00
577.84	754.43
578.19	753.33
578.54	752.00
578.90	750.86
579.25	749.62
579.60	748.29
579.95	746.67
580.30	745.90
580.66	745.38
581.01	743.33
581.36	741.52
581.71	739.24
582.06	739.24
582.42	737.05
582.77	735.19
583.12	733.29
583.47	732.57
583.82	730.86
584.17	730.05
584.53	729.24
584.88	727.38
585.23	726.14
585.58	723.76
585.93	721.67
586.28	720.05
586.63	718.67
586.98	717.38
587.34	715.10
587.69	712.67
588.04	709.33
588.39	707.86
588.74	704.57
589.09	703.05
589.44	699.57
589.79	696.76
590.14	693.52
590.49	690.48
590.84	686.43
591.19	683.67
591.54	680.48
591.89	676.81
592.25	675.76
592.60	671.71
592.95	669.43
593.30	666.95
593.65	663.71
594.00	659.81
594.35	662.43
594.70	659.19
595.05	657.38
595.40	654.43
595.75	651.19
596.10	649.00
596.45	645.86
596.80	643.52
597.15	640.76
597.50	638.00
597.85	636.24
598.19	633.57
598.54	630.71
598.89	627.43
599.24	625.14
599.59	620.62
599.94	618.10
600.29	614.76
600.64	612.29
600.99	610.76
601.34	609.05
601.69	600.57
602.04	598.00
602.39	595.05
602.74	593.62
603.08	591.57
603.43	590.43
603.78	588.52
604.13	586.71
604.48	585.19
604.83	583.86
605.18	582.62
605.53	583.29
605.87	585.29
606.22	588.81
606.57	593.14
606.92	597.71
607.27	603.48
607.62	610.00
607.96	615.38
608.31	618.81
608.66	622.29
609.01	625.81
609.36	629.86
609.70	633.43
610.05	635.76
610.40	638.52
610.75	639.86
611.10	641.95
611.44	643.00
611.79	643.81
612.14	644.24
612.49	642.52
612.83	639.67
613.18	634.81
613.53	629.14
613.88	621.71
614.22	614.19
614.57	605.86
614.92	596.62
615.27	588.29
615.61	581.52
615.96	574.57
616.31	567.24
616.65	561.62
617.00	555.24
617.35	549.14
617.70	543.52
618.04	538.38
618.39	532.48
618.74	528.19
619.08	523.43
619.43	519.19
619.78	515.81
620.12	512.95
620.47	510.62
620.82	508.81
621.16	506.57
621.51	505.52
621.85	503.29
622.20	501.48
622.55	498.76
622.89	495.81
623.24	494.29
623.59	492.05
623.93	489.62
624.28	487.43
624.62	487.62
624.97	487.05
625.32	484.86
625.66	483.24
626.01	481.14
626.35	480.00
626.70	478.86
627.04	477.95
627.39	476.14
627.73	475.48
628.08	473.00
628.43	470.52
628.77	466.81
629.12	464.67
629.46	462.90
629.81	461.14
630.15	459.38
630.50	456.90
630.84	454.95
631.19	452.62
631.53	450.33
631.88	445.48
632.22	441.24
632.57	439.19
632.91	436.43
633.26	433.90
633.60	431.14
633.95	427.81
634.29	424.33
634.64	422.33
634.98	419.38
635.32	417.62
635.67	416.05
636.01	414.71
636.36	412.67
636.70	410.86
637.05	408.90
637.39	406.76
637.73	405.19
638.08	404.29
638.42	402.38
638.77	401.00
639.11	399.71
639.45	398.19
639.80	396.19
640.14	395.19
640.49	393.24
640.83	391.57
641.17	390.67
641.52	389.76
641.86	388.86
642.20	387.86
642.55	386.19
642.89	384.57
643.23	383.57
643.58	383.33
643.92	381.29
644.26	379.95
644.61	379.43
644.95	378.48
645.29	376.76
645.64	376.52
645.98	375.24
646.32	375.05
646.66	374.76
647.01	373.86
647.35	373.29
647.69	373.52
648.04	372.81
648.38	372.29
648.72	371.43
649.06	369.33
649.41	367.48
649.75	366.76
650.09	366.29
650.43	364.95
650.78	363.52
651.12	362.76
651.46	361.62
651.80	360.14
652.14	358.48
652.49	358.14
652.83	356.00
653.17	354.95
653.51	352.86
653.85	351.90
654.20	350.67
654.54	348.71
654.88	346.52
655.22	345.10
655.56	343.38
655.90	342.10
656.25	341.71
656.59	340.76
656.93	339.52
657.27	339.19
657.61	338.29
657.95	337.81
658.29	337.24
658.64	337.29
658.98	336.62
659.32	336.00
659.66	334.95
660.00	334.90
660.34	334.48
660.68	334.43
661.02	333.52
661.36	332.76
661.70	332.48
662.05	331.86
662.39	332.43
662.73	332.86
663.07	333.67
663.41	333.05
663.75	332.62
664.09	332.24
664.43	330.90
664.77	330.57
665.11	329.24
665.45	328.48
665.79	328.05
666.13	327.05
666.47	326.38
666.81	325.67
667.15	324.38
667.49	323.67
667.83	323.71
668.17	322.67
668.51	322.05
668.85	321.67
669.19	322.19
669.53	320.67
669.87	319.29
670.21	317.76
670.55	317.29
670.89	317.62
671.23	316.86
671.57	316.33
671.91	315.52
672.25	315.33
672.58	315.71
672.92	314.14
673.26	314.00
673.60	313.71
673.94	313.19
674.28	312.95
674.62	312.71
674.96	311.67
675.30	311.71
675.64	311.76
675.97	310.81
676.31	309.48
676.65	308.57
676.99	308.67
677.33	307.57
677.67	307.05
678.01	305.57
678.34	305.24
678.68	305.19
679.02	304.57
679.36	303.48
679.70	302.33
680.04	302.05
680.37	301.52
680.71	300.57
681.05	300.10
681.39	299.71
681.73	298.62
682.06	297.76
682.40	297.10
682.74	296.76
683.08	297.19
683.42	296.38
683.75	296.90
684.09	295.81
684.43	295.57
684.77	294.76
685.10	294.38
685.44	293.95
685.78	293.19
686.12	292.71
686.45	292.76
686.79	292.24
687.13	292.24
687.46	291.71
687.80	291.81
688.14	291.05
688.48	290.57
688.81	290.81
689.15	291.38
689.49	291.19
689.82	291.00
690.16	290.00
690.50	290.14
690.83	289.19
691.17	288.48
691.51	288.43
691.84	288.76
692.18	288.10
692.52	287.43
692.85	287.48
693.19	287.57
693.52	286.71
693.86	286.00
694.20	285.71
694.53	285.24
694.87	284.57
695.21	283.71
695.54	283.33
695.88	282.33
696.21	280.57
696.55	279.71
696.88	279.10
697.22	278.62
697.56	278.52
697.89	278.24
698.23	278.52
698.56	277.67
698.90	277.24
699.23	277.10
699.57	277.10
699.90	276.43
700.24	276.00
700.58	276.19
700.91	276.33
701.25	277.90
701.58	279.05
701.92	279.95
702.25	281.00
702.59	281.24
702.92	281.76
703.26	282.81
703.59	283.57
703.93	286.05
704.26	286.76
704.60	287.14
704.93	287.29
705.26	287.57
705.60	288.43
705.93	288.14
706.27	289.10
706.60	290.00
706.94	290.90
707.27	290.81
707.61	291.05
707.94	291.24
708.27	289.29
708.61	288.05
708.94	287.33
709.28	287.14
709.61	286.43
709.94	286.24
710.28	285.14
710.61	283.71
710.95	281.05
711.28	281.90
711.61	280.81
711.95	280.67
712.28	279.52
712.61	278.29
712.95	279.33
713.28	279.43
713.61	277.86
713.95	276.67
714.28	275.90
714.61	274.62
714.95	273.57
715.28	272.29
715.61	271.76
715.95	271.33
716.28	270.14
716.61	270.29
716.95	268.90
717.28	268.62
717.61	268.81
717.94	267.90
718.28	265.43
718.61	264.86
718.94	263.90
719.27	263.14
719.61	263.33
719.94	261.86
720.27	260.38
720.60	260.33
720.94	259.81
721.27	259.81
721.60	260.19
721.93	260.10
722.27	261.19
722.60	261.43
722.93	260.90
723.26	261.05
723.59	260.14
723.93	260.71
724.26	260.81
724.59	260.29
724.92	260.38
725.25	261.24
725.59	261.24
725.92	261.52
726.25	261.95
726.58	261.71
726.91	261.38
727.24	261.33
727.57	261.00
727.91	260.38
728.24	260.29
728.57	259.62
728.90	259.67
729.23	258.67
729.56	259.43
729.89	259.67
730.22	258.95
730.55	259.00
730.89	258.95
731.22	258.57
731.55	258.48
731.88	258.19
732.21	257.71
732.54	257.52
732.87	257.48
733.20	257.43
733.53	257.14
733.86	257.48
734.19	256.90
734.52	257.10
734.85	258.67
735.18	258.33
735.51	259.29
735.84	259.24
736.17	259.90
736.50	258.43
736.83	261.00
737.16	261.48
737.49	261.48
737.82	261.19
738.15	261.57
738.48	261.29
738.81	261.29
739.14	260.52
739.47	260.52
739.80	260.10
740.13	260.00
740.46	260.05
740.79	259.52
741.12	259.33
741.45	258.76
741.78	257.71
742.11	258.14
742.44	257.33
742.77	257.52
743.10	257.29
743.43	257.05
743.75	254.24
744.08	257.00
744.41	256.62
744.74	256.05
745.07	255.52
745.40	255.95
745.73	256.81
746.06	257.05
746.39	257.00
746.71	256.76
747.04	256.38
747.37	255.95
747.70	256.24
748.03	256.38
748.36	256.81
748.68	256.62
749.01	255.86
749.34	255.67
749.67	255.62
750.00	255.71
750.33	257.33
750.65	257.05
750.98	253.76
751.31	253.67
751.64	253.90
751.97	255.05
752.29	255.00
752.62	253.48
752.95	253.48
753.28	253.05
753.60	252.90
753.93	253.10
754.26	253.14
754.59	252.19
754.91	251.86
755.24	251.67
755.57	251.38
755.90	251.43
756.22	251.19
756.55	250.57
756.88	250.00
757.20	248.86
757.53	248.48
757.86	248.71
758.19	248.86
758.51	248.67
758.84	247.33
759.17	246.86
759.49	247.19
759.82	248.19
760.15	248.71
760.47	248.57
760.80	247.95
761.13	248.33
761.45	248.29
761.78	248.67
762.11	248.62
762.43	248.29
762.76	247.90
763.08	248.57
763.41	248.52
763.74	248.57
764.06	248.05
764.39	248.33
764.71	248.33
765.04	248.10
765.37	248.00
765.69	247.95
766.02	248.19
766.34	248.10
766.67	247.00
767.00	247.10
767.32	248.43
767.65	250.29
767.97	250.10
768.30	250.33
768.62	249.95
768.95	249.62
769.27	249.67
769.60	250.33
769.92	249.43
770.25	248.95
770.57	248.33
770.90	248.48
771.22	248.10
771.55	247.90
771.87	248.24
772.20	247.90
772.52	250.10
772.85	252.86
773.17	252.95
773.50	252.76
773.82	252.14
774.15	251.19
774.47	249.52
774.80	249.38
775.12	249.24
775.45	249.19
775.77	249.38
776.09	249.71
776.42	249.86
776.74	250.86
777.07	250.95
777.39	251.29
777.72	251.10
778.04	251.14
778.36	250.67
778.69	250.19
779.01	250.38
779.33	248.05
779.66	245.24
779.98	245.05
780.31	244.90
780.63	245.81
780.95	246.00
781.28	245.71
781.60	245.33
781.92	245.24
782.25	245.33
782.57	245.14
782.89	245.00
783.22	244.33
783.54	243.43
783.86	243.48
784.19	243.19
784.51	243.48
784.83	243.43
785.16	243.38
785.48	243.62
785.80	243.67
786.12	244.00
786.45	243.95
786.77	244.00
787.09	244.10
787.42	243.67
787.74	243.62
788.06	243.95
788.38	244.00
788.71	243.90
789.03	244.05
789.35	244.52
789.67	244.05
789.99	244.52
790.32	244.38
790.64	244.90
790.96	246.81
791.28	246.33
791.61	246.29
791.93	246.57
792.25	246.43
792.57	248.24
792.89	247.67
793.21	247.52
793.54	247.10
793.86	246.71
