SpectraSuite Data File
++++++++++++++++++++++++++++++++++++
Date: Wed Nov 07 18:31:09 EST 2012
User: group
Dark Spectrum Present: No
Reference Spectrum Present: No
Number of Sampled Component Spectra: 1
Spectrometers: USB2E7196
Integration Time (usec): 1000000 (USB2E7196)
Spectra Averaged: 1 (USB2E7196)
Boxcar Smoothing: 10 (USB2E7196)
Correct for Electrical Dark: No (USB2E7196)
Strobe/Lamp Enabled: No (USB2E7196)
Correct for Detector Non-linearity: No (USB2E7196)
Correct for Stray Light: No (USB2E7196)
Number of Pixels in Processed Spectrum: 2048
>>>>>Begin Processed Spectral Data<<<<<
339.09	0.00
339.48	221.00
339.86	223.00
340.24	224.00
340.63	227.00
341.01	267.00
341.39	223.00
341.78	236.00
342.16	241.00
342.54	233.00
342.93	224.57
343.31	235.71
343.69	236.33
344.07	236.67
344.46	237.43
344.84	238.00
345.22	236.38
345.60	237.24
345.99	237.62
346.37	237.43
346.75	237.43
347.13	237.38
347.52	237.33
347.90	238.48
348.28	239.00
348.66	239.38
349.05	238.71
349.43	238.90
349.81	239.67
350.19	239.52
350.57	239.76
350.96	240.33
351.34	240.24
351.72	240.29
352.10	240.57
352.48	240.24
352.87	240.05
353.25	240.00
353.63	239.90
354.01	239.67
354.39	240.00
354.77	240.19
355.15	240.86
355.54	240.71
355.92	239.81
356.30	239.62
356.68	241.19
357.06	241.52
357.44	241.33
357.82	240.57
358.20	240.90
358.58	240.67
358.97	240.67
359.35	241.33
359.73	242.00
360.11	242.19
360.49	242.71
360.87	242.81
361.25	243.24
361.63	243.81
362.01	244.00
362.39	243.71
362.77	243.81
363.15	243.29
363.53	243.14
363.91	243.29
364.29	243.43
364.67	241.19
365.05	240.86
365.43	240.76
365.81	241.67
366.19	242.95
366.57	243.95
366.95	243.71
367.33	243.14
367.71	243.00
368.09	243.24
368.47	243.00
368.85	242.81
369.23	243.29
369.61	242.57
369.99	243.10
370.37	243.19
370.75	244.38
371.13	244.00
371.51	243.43
371.89	243.67
372.27	243.71
372.65	243.86
373.03	244.05
373.41	244.00
373.78	243.62
374.16	242.00
374.54	241.29
374.92	241.33
375.30	241.62
375.68	241.00
376.06	240.90
376.44	240.67
376.82	240.86
377.19	240.67
377.57	240.52
377.95	239.71
378.33	239.76
378.71	238.29
379.09	238.62
379.47	239.43
379.84	239.14
380.22	239.05
380.60	238.67
380.98	238.33
381.36	238.24
381.73	237.86
382.11	238.33
382.49	238.48
382.87	238.05
383.25	238.05
383.62	241.14
384.00	240.95
384.38	240.81
384.76	241.38
385.13	242.29
385.51	242.33
385.89	242.43
386.27	242.71
386.64	243.14
387.02	243.10
387.40	242.81
387.78	243.24
388.15	243.29
388.53	243.29
388.91	243.33
389.29	243.10
389.66	243.67
390.04	243.38
390.42	243.71
390.79	243.90
391.17	243.62
391.55	240.62
391.92	240.38
392.30	241.00
392.68	240.52
393.05	240.52
393.43	240.90
393.81	240.90
394.18	240.29
394.56	240.29
394.94	241.14
395.31	240.90
395.69	241.24
396.06	241.33
396.44	241.48
396.82	241.57
397.19	242.95
397.57	242.33
397.95	242.67
398.32	241.90
398.70	242.00
399.07	242.76
399.45	242.95
399.82	243.19
400.20	242.90
400.58	242.95
400.95	242.05
401.33	242.57
401.70	244.48
402.08	244.90
402.45	244.95
402.83	245.29
403.20	245.62
403.58	245.48
403.95	246.19
404.33	246.62
404.71	247.00
405.08	248.19
405.46	248.62
405.83	249.00
406.21	249.43
406.58	249.76
406.96	249.90
407.33	250.57
407.70	251.33
408.08	253.71
408.45	254.19
408.83	255.14
409.20	255.05
409.58	254.24
409.95	255.24
410.33	256.29
410.70	256.24
411.08	257.52
411.45	258.76
411.82	259.76
412.20	261.76
412.57	264.33
412.95	263.90
413.32	265.86
413.69	267.29
414.07	268.81
414.44	271.14
414.82	273.05
415.19	275.29
415.56	277.71
415.94	279.14
416.31	282.57
416.68	285.19
417.06	288.76
417.43	292.24
417.81	295.71
418.18	299.38
418.55	303.19
418.93	307.67
419.30	311.62
419.67	316.14
420.04	320.29
420.42	324.62
420.79	332.29
421.16	338.33
421.54	345.48
421.91	352.05
422.28	358.10
422.66	365.14
423.03	373.90
423.40	380.90
423.77	387.90
424.15	394.52
424.52	402.29
424.89	410.90
425.26	419.10
425.64	426.86
426.01	434.86
426.38	444.00
426.75	452.86
427.13	462.71
427.50	472.62
427.87	481.81
428.24	491.29
428.61	499.33
428.99	510.43
429.36	520.81
429.73	531.67
430.10	544.14
430.47	556.33
430.85	567.76
431.22	582.00
431.59	598.48
431.96	613.48
432.33	629.95
432.70	645.05
433.08	662.19
433.45	678.33
433.82	695.10
434.19	712.52
434.56	730.24
434.93	745.71
435.30	760.67
435.68	778.67
436.05	795.48
436.42	811.67
436.79	825.95
437.16	842.67
437.53	859.33
437.90	875.52
438.27	891.14
438.64	906.43
439.01	920.62
439.38	931.95
439.75	943.71
440.13	956.67
440.50	969.71
440.87	980.00
441.24	990.76
441.61	1003.19
441.98	1012.00
442.35	1021.19
442.72	1031.71
443.09	1043.14
443.46	1048.76
443.83	1053.76
444.20	1056.86
444.57	1061.95
444.94	1062.95
445.31	1065.29
445.68	1069.71
446.05	1069.48
446.42	1067.48
446.79	1064.81
447.16	1060.95
447.53	1058.57
447.90	1050.71
448.27	1042.86
448.64	1033.05
449.01	1025.38
449.37	1012.52
449.74	1001.00
450.11	989.57
450.48	974.10
450.85	957.81
451.22	944.81
451.59	931.62
451.96	919.86
452.33	904.38
452.70	890.33
453.07	872.62
453.43	853.19
453.80	838.10
454.17	822.00
454.54	806.33
454.91	790.33
455.28	774.52
455.65	760.67
456.02	751.29
456.38	738.76
456.75	724.33
457.12	711.76
457.49	698.90
457.86	684.67
458.23	676.10
458.59	665.29
458.96	654.38
459.33	644.19
459.70	634.52
460.07	626.86
460.43	617.81
460.80	610.81
461.17	602.43
461.54	593.95
461.91	586.81
462.27	579.52
462.64	573.33
463.01	566.67
463.38	560.90
463.74	549.29
464.11	543.19
464.48	538.19
464.85	532.38
465.21	528.90
465.58	525.00
465.95	518.81
466.32	514.29
466.68	509.14
467.05	504.67
467.42	500.19
467.78	495.19
468.15	490.57
468.52	487.76
468.88	483.67
469.25	479.90
469.62	477.00
469.98	473.95
470.35	471.14
470.72	467.86
471.08	463.19
471.45	461.10
471.82	459.00
472.18	455.48
472.55	453.43
472.92	449.43
473.28	446.52
473.65	443.86
474.02	441.10
474.38	439.76
474.75	438.29
475.11	435.86
475.48	434.29
475.85	432.62
476.21	430.76
476.58	429.43
476.94	428.19
477.31	427.24
477.67	425.86
478.04	424.62
478.41	424.43
478.77	426.71
479.14	425.86
479.50	425.76
479.87	426.52
480.23	427.19
480.60	428.14
480.96	429.62
481.33	431.90
481.69	434.14
482.06	435.86
482.42	438.19
482.79	440.62
483.15	442.76
483.52	445.86
483.88	448.19
484.25	450.57
484.61	452.57
484.98	455.05
485.34	458.38
485.71	461.67
486.07	464.57
486.44	465.43
486.80	467.76
487.17	469.86
487.53	472.86
487.90	475.76
488.26	479.43
488.62	481.62
488.99	482.81
489.35	484.43
489.72	486.10
490.08	487.29
490.44	488.90
490.81	491.19
491.17	492.48
491.54	494.90
491.90	497.33
492.26	500.14
492.63	501.05
492.99	502.29
493.36	504.00
493.72	505.90
494.08	507.71
494.45	510.62
494.81	513.52
495.17	515.05
495.54	517.14
495.90	518.43
496.26	521.14
496.63	524.57
496.99	527.57
497.35	530.33
497.72	533.05
498.08	535.62
498.44	538.48
498.80	543.00
499.17	545.62
499.53	548.86
499.89	552.48
500.26	556.62
500.62	560.38
500.98	564.81
501.34	568.71
501.71	573.48
502.07	577.05
502.43	581.19
502.79	585.71
503.16	590.10
503.52	594.57
503.88	598.05
504.24	602.10
504.60	607.00
504.97	612.33
505.33	617.14
505.69	623.29
506.05	628.62
506.41	633.14
506.78	638.14
507.14	643.00
507.50	648.14
507.86	653.71
508.22	659.48
508.59	664.24
508.95	669.76
509.31	675.14
509.67	680.43
510.03	685.19
510.39	690.43
510.75	695.33
511.12	700.52
511.48	706.24
511.84	710.38
512.20	715.05
512.56	719.14
512.92	724.43
513.28	729.38
513.64	733.29
514.00	737.48
514.37	742.10
514.73	746.10
515.09	750.57
515.45	754.43
515.81	758.19
516.17	761.48
516.53	765.14
516.89	767.67
517.25	771.95
517.61	776.71
517.97	780.05
518.33	783.71
518.69	787.71
519.05	791.14
519.41	795.24
519.77	799.43
520.13	803.00
520.49	805.43
520.85	807.43
521.21	811.62
521.57	814.57
521.93	816.62
522.29	820.71
522.65	822.00
523.01	824.29
523.37	825.62
523.73	828.81
524.09	830.86
524.45	833.43
524.81	835.38
525.17	837.14
525.53	839.29
525.89	840.52
526.25	842.62
526.61	843.43
526.97	845.33
527.33	847.33
527.68	851.67
528.04	853.52
528.40	854.52
528.76	855.67
529.12	856.76
529.48	858.95
529.84	859.48
530.20	861.19
530.56	864.19
530.91	866.90
531.27	868.48
531.63	870.00
531.99	870.48
532.35	871.00
532.71	871.19
533.07	873.29
533.42	878.00
533.78	880.05
534.14	882.48
534.50	883.67
534.86	886.05
535.21	886.10
535.57	889.76
535.93	893.00
536.29	897.52
536.65	903.24
537.00	909.00
537.36	916.10
537.72	925.19
538.08	933.48
538.44	943.52
538.79	954.52
539.15	965.14
539.51	978.05
539.87	990.86
540.22	1003.86
540.58	1015.90
540.94	1027.62
541.29	1040.71
541.65	1053.19
542.01	1067.05
542.37	1076.52
542.72	1085.14
543.08	1090.62
543.44	1096.19
543.79	1098.48
544.15	1100.57
544.51	1101.57
544.87	1099.95
545.22	1096.19
545.58	1091.19
545.94	1084.86
546.29	1076.86
546.65	1068.43
547.01	1057.81
547.36	1047.10
547.72	1036.14
548.07	1024.38
548.43	1010.29
548.79	995.48
549.14	982.76
549.50	969.67
549.86	957.71
550.21	947.76
550.57	939.33
550.92	930.43
551.28	923.33
551.64	916.29
551.99	908.52
552.35	901.71
552.70	895.29
553.06	889.90
553.41	884.67
553.77	881.19
554.13	876.24
554.48	873.71
554.84	870.43
555.19	866.05
555.55	864.43
555.90	862.24
556.26	859.48
556.61	856.52
556.97	851.48
557.32	848.10
557.68	844.62
558.03	841.90
558.39	840.00
558.74	836.90
559.10	833.29
559.45	830.38
559.81	828.52
560.16	826.52
560.52	823.81
560.87	822.05
561.23	818.48
561.58	819.67
561.94	816.52
562.29	814.67
562.64	814.43
563.00	810.67
563.35	808.33
563.71	806.81
564.06	804.48
564.42	804.19
564.77	803.43
565.12	802.52
565.48	802.57
565.83	801.67
566.19	799.90
566.54	798.86
566.89	797.95
567.25	797.29
567.60	797.33
567.96	798.62
568.31	798.57
568.66	798.43
569.02	794.95
569.37	793.76
569.72	792.29
570.08	790.00
570.43	789.43
570.78	787.62
571.14	786.62
571.49	785.71
571.84	785.14
572.20	783.57
572.55	782.19
572.90	779.29
573.26	778.57
573.61	778.05
573.96	777.14
574.31	777.24
574.67	776.24
575.02	774.90
575.37	771.76
575.72	770.14
576.08	769.05
576.43	769.05
576.78	769.19
577.13	768.48
577.49	768.33
577.84	768.00
578.19	768.00
578.54	768.48
578.90	768.24
579.25	767.62
579.60	767.62
579.95	768.00
580.30	768.24
580.66	767.95
581.01	767.19
581.36	766.71
581.71	765.05
582.06	765.67
582.42	764.90
582.77	764.52
583.12	763.71
583.47	762.71
583.82	761.33
584.17	760.24
584.53	760.95
584.88	759.00
585.23	757.81
585.58	755.90
585.93	752.86
586.28	751.00
586.63	748.43
586.98	746.29
587.34	742.90
587.69	739.57
588.04	735.86
588.39	733.76
588.74	731.05
589.09	729.00
589.44	723.33
589.79	720.14
590.14	716.29
590.49	711.67
590.84	707.29
591.19	703.10
591.54	698.95
591.89	692.57
592.25	690.24
592.60	685.29
592.95	681.81
593.30	678.76
593.65	674.86
594.00	670.43
594.35	672.52
594.70	668.48
595.05	664.86
595.40	661.29
595.75	657.00
596.10	653.33
596.45	649.38
596.80	646.90
597.15	642.95
597.50	639.10
597.85	637.24
598.19	634.29
598.54	631.29
598.89	627.86
599.24	625.95
599.59	621.52
599.94	619.14
600.29	616.10
600.64	612.86
600.99	610.62
601.34	608.95
601.69	600.48
602.04	597.48
602.39	594.52
602.74	592.19
603.08	590.10
603.43	589.10
603.78	587.10
604.13	585.10
604.48	583.86
604.83	584.00
605.18	583.38
605.53	584.90
605.87	588.76
606.22	595.19
606.57	603.00
606.92	612.76
607.27	621.90
607.62	631.90
607.96	641.57
608.31	649.24
608.66	656.14
609.01	662.10
609.36	668.86
609.70	675.76
610.05	681.52
610.40	687.48
610.75	691.05
611.10	695.14
611.44	698.52
611.79	700.67
612.14	701.90
612.49	700.33
612.83	697.86
613.18	692.43
613.53	685.05
613.88	674.90
614.22	663.14
614.57	651.62
614.92	639.38
615.27	627.52
615.61	617.05
615.96	607.43
616.31	598.95
616.65	590.81
617.00	582.14
617.35	573.62
617.70	564.57
618.04	556.76
618.39	549.71
618.74	543.76
619.08	537.90
619.43	532.67
619.78	528.90
620.12	525.00
620.47	521.86
620.82	517.90
621.16	514.71
621.51	513.29
621.85	510.05
622.20	507.95
622.55	505.05
622.89	502.19
623.24	499.81
623.59	496.67
623.93	493.95
624.28	491.52
624.62	491.90
624.97	490.81
625.32	488.57
625.66	486.57
626.01	484.24
626.35	482.86
626.70	480.57
627.04	479.71
627.39	477.71
627.73	476.57
628.08	475.10
628.43	472.86
628.77	469.76
629.12	467.24
629.46	465.00
629.81	463.19
630.15	460.95
630.50	458.33
630.84	456.33
631.19	453.62
631.53	450.81
631.88	445.38
632.22	442.00
632.57	440.48
632.91	437.29
633.26	434.81
633.60	431.67
633.95	428.86
634.29	424.95
634.64	422.52
634.98	419.19
635.32	416.86
635.67	414.95
636.01	412.71
636.36	410.81
636.70	409.00
637.05	406.67
637.39	404.95
637.73	403.05
638.08	402.19
638.42	400.24
638.77	399.19
639.11	397.95
639.45	396.48
639.80	393.86
640.14	393.05
640.49	391.19
640.83	389.52
641.17	388.43
641.52	387.24
641.86	386.10
642.20	385.19
642.55	383.48
642.89	382.14
643.23	380.57
643.58	380.14
643.92	377.90
644.26	376.95
644.61	376.05
644.95	375.67
645.29	373.95
645.64	374.24
645.98	373.00
646.32	372.81
646.66	372.14
647.01	371.62
647.35	370.62
647.69	370.57
648.04	369.95
648.38	369.00
648.72	368.10
649.06	366.95
649.41	365.76
649.75	365.00
650.09	364.48
650.43	363.43
650.78	362.24
651.12	361.52
651.46	360.43
651.80	359.10
652.14	357.33
652.49	356.48
652.83	354.57
653.17	353.57
653.51	351.71
653.85	350.52
654.20	349.29
654.54	347.86
654.88	345.95
655.22	344.90
655.56	343.76
655.90	342.95
656.25	341.81
656.59	340.81
656.93	339.71
657.27	339.10
657.61	338.24
657.95	337.67
658.29	337.10
658.64	336.95
658.98	336.33
659.32	335.57
659.66	334.71
660.00	334.24
660.34	333.57
660.68	333.62
661.02	333.10
661.36	332.24
661.70	332.19
662.05	331.52
662.39	331.57
662.73	331.67
663.07	332.38
663.41	332.24
663.75	331.33
664.09	330.86
664.43	329.76
664.77	329.29
665.11	328.05
665.45	327.62
665.79	326.86
666.13	326.33
666.47	325.48
666.81	324.81
667.15	323.67
667.49	323.14
667.83	322.86
668.17	321.62
668.51	321.10
668.85	320.29
669.19	320.29
669.53	318.33
669.87	317.24
670.21	315.57
670.55	314.71
670.89	315.33
671.23	314.67
671.57	314.43
671.91	313.57
672.25	313.10
672.58	312.95
672.92	311.57
673.26	311.00
673.60	310.86
673.94	310.29
674.28	310.38
674.62	309.81
674.96	308.57
675.30	308.48
675.64	308.33
675.97	307.62
676.31	306.62
676.65	306.33
676.99	306.24
677.33	304.71
677.67	304.57
678.01	302.67
678.34	302.19
678.68	301.48
679.02	301.24
679.36	300.81
679.70	299.67
680.04	299.67
680.37	298.52
680.71	297.81
681.05	297.38
681.39	296.71
681.73	296.29
682.06	295.43
682.40	294.81
682.74	294.67
683.08	295.24
683.42	294.67
683.75	294.81
684.09	293.95
684.43	294.57
684.77	293.57
685.10	293.48
685.44	293.19
685.78	292.57
686.12	291.86
686.45	291.38
686.79	290.95
687.13	290.71
687.46	291.14
687.80	291.48
688.14	290.62
688.48	290.24
688.81	289.90
689.15	290.57
689.49	290.24
689.82	289.57
690.16	288.29
690.50	288.24
690.83	287.38
691.17	286.14
691.51	285.38
691.84	285.62
692.18	285.14
692.52	284.48
692.85	284.67
693.19	285.43
693.52	285.48
693.86	284.95
694.20	284.71
694.53	284.43
694.87	283.62
695.21	283.24
695.54	282.62
695.88	282.00
696.21	280.48
696.55	280.29
696.88	279.71
697.22	279.24
697.56	279.14
697.89	278.76
698.23	279.29
698.56	278.67
698.90	278.29
699.23	277.95
699.57	278.05
699.90	277.05
700.24	276.19
700.58	275.86
700.91	276.10
701.25	277.90
701.58	278.33
701.92	279.10
702.25	279.76
702.59	279.95
702.92	280.38
703.26	281.48
703.59	282.05
703.93	284.95
704.26	285.67
704.60	285.90
704.93	286.76
705.26	287.19
705.60	287.90
705.93	287.67
706.27	288.95
706.60	289.86
706.94	291.43
707.27	291.52
707.61	292.14
707.94	292.29
708.27	290.38
708.61	289.90
708.94	289.43
709.28	289.05
709.61	288.62
709.94	287.76
710.28	287.00
710.61	286.29
710.95	283.05
711.28	283.76
711.61	282.76
711.95	282.33
712.28	281.29
712.61	280.71
712.95	281.33
713.28	281.14
713.61	279.29
713.95	277.48
714.28	276.81
714.61	275.33
714.95	274.38
715.28	273.33
715.61	272.14
715.95	271.48
716.28	270.38
716.61	270.19
716.95	269.52
717.28	268.90
717.61	268.10
717.94	267.76
718.28	265.52
718.61	265.05
718.94	264.33
719.27	263.86
719.61	263.52
719.94	262.43
720.27	261.00
720.60	260.76
720.94	260.86
721.27	260.52
721.60	260.52
721.93	260.05
722.27	260.81
722.60	261.00
722.93	260.43
723.26	260.57
723.59	259.67
723.93	260.10
724.26	260.19
724.59	260.05
724.92	259.95
725.25	260.67
725.59	260.62
725.92	260.52
726.25	260.52
726.58	260.38
726.91	260.00
727.24	260.05
727.57	260.10
727.91	259.24
728.24	259.24
728.57	258.95
728.90	259.29
729.23	258.33
729.56	259.14
729.89	259.48
730.22	259.29
730.55	259.43
730.89	259.29
731.22	258.62
731.55	258.52
731.88	258.43
732.21	257.52
732.54	257.33
732.87	257.43
733.20	257.33
733.53	257.10
733.86	257.43
734.19	257.00
734.52	257.24
734.85	258.86
735.18	258.38
735.51	259.29
735.84	259.14
736.17	259.52
736.50	257.90
736.83	260.33
737.16	260.48
737.49	260.62
737.82	260.24
738.15	260.95
738.48	260.71
738.81	260.48
739.14	259.76
739.47	259.52
739.80	259.05
740.13	259.24
740.46	258.86
740.79	258.14
741.12	258.14
741.45	257.43
741.78	256.24
742.11	257.10
742.44	256.14
742.77	256.57
743.10	256.14
743.43	256.14
743.75	253.29
744.08	256.14
744.41	256.00
744.74	255.62
745.07	254.76
745.40	255.14
745.73	256.10
746.06	256.76
746.39	256.71
746.71	256.71
747.04	255.95
747.37	255.76
747.70	256.29
748.03	256.29
748.36	256.76
748.68	256.38
749.01	255.52
749.34	255.52
749.67	254.90
750.00	255.05
750.33	256.95
750.65	257.38
750.98	254.29
751.31	254.14
751.64	254.38
751.97	255.71
752.29	255.24
752.62	253.76
752.95	253.43
753.28	253.38
753.60	252.95
753.93	253.48
754.26	253.43
754.59	252.81
754.91	252.33
755.24	252.14
755.57	252.05
755.90	252.00
756.22	251.81
756.55	251.62
756.88	251.24
757.20	249.43
757.53	248.52
757.86	248.57
758.19	248.76
758.51	248.86
758.84	247.67
759.17	247.57
759.49	247.86
759.82	249.00
760.15	248.90
760.47	249.24
760.80	248.71
761.13	249.29
761.45	249.19
761.78	249.14
762.11	249.24
762.43	249.24
762.76	249.00
763.08	249.19
763.41	249.24
763.74	249.38
764.06	249.43
764.39	249.52
764.71	249.05
765.04	248.52
765.37	248.05
765.69	248.05
766.02	247.95
766.34	247.71
766.67	246.81
767.00	247.19
767.32	248.10
767.65	249.57
767.97	249.76
768.30	249.81
768.62	249.95
768.95	249.48
769.27	249.19
769.60	249.48
769.92	249.19
770.25	249.14
770.57	248.48
770.90	248.14
771.22	247.71
771.55	247.95
771.87	248.38
772.20	248.43
772.52	250.48
772.85	253.62
773.17	253.95
773.50	253.81
773.82	253.67
774.15	252.67
774.47	251.14
774.80	250.52
775.12	250.81
775.45	250.62
775.77	250.81
776.09	251.14
776.42	251.14
776.74	252.05
777.07	251.71
777.39	252.00
777.72	252.14
778.04	252.52
778.36	252.19
778.69	251.81
779.01	251.90
779.33	249.71
779.66	246.71
779.98	246.43
780.31	246.38
780.63	247.10
780.95	247.33
781.28	247.29
781.60	247.29
781.92	246.76
782.25	246.90
782.57	246.86
782.89	246.52
783.22	246.33
783.54	245.43
783.86	245.48
784.19	245.48
784.51	246.43
784.83	246.24
785.16	246.10
785.48	246.29
785.80	246.19
786.12	246.43
786.45	246.52
786.77	246.43
787.09	246.43
787.42	245.57
787.74	245.81
788.06	246.10
788.38	245.52
788.71	245.43
789.03	245.48
789.35	245.95
789.67	245.86
789.99	245.86
790.32	246.00
790.64	246.43
790.96	248.29
791.28	247.05
791.61	246.90
791.93	247.24
792.25	247.14
792.57	249.00
792.89	247.90
793.21	247.76
