SpectraSuite Data File
++++++++++++++++++++++++++++++++++++
Date: Wed Nov 07 18:32:27 EST 2012
User: group
Dark Spectrum Present: No
Reference Spectrum Present: No
Number of Sampled Component Spectra: 1
Spectrometers: USB2E7196
Integration Time (usec): 1000000 (USB2E7196)
Spectra Averaged: 1 (USB2E7196)
Boxcar Smoothing: 10 (USB2E7196)
Correct for Electrical Dark: No (USB2E7196)
Strobe/Lamp Enabled: No (USB2E7196)
Correct for Detector Non-linearity: No (USB2E7196)
Correct for Stray Light: No (USB2E7196)
Number of Pixels in Processed Spectrum: 2048
>>>>>Begin Processed Spectral Data<<<<<
339.09	0.00
339.48	225.00
339.86	221.00
340.24	220.00
340.63	232.00
341.01	270.00
341.39	225.00
341.78	237.00
342.16	245.00
342.54	233.00
342.93	226.38
343.31	237.57
343.69	237.86
344.07	238.38
344.46	239.14
344.84	239.48
345.22	237.86
345.60	238.48
345.99	238.48
346.37	237.95
346.75	237.81
347.13	237.81
347.52	237.62
347.90	238.33
348.28	238.10
348.66	238.24
349.05	237.38
349.43	237.43
349.81	237.86
350.19	237.71
350.57	237.71
350.96	238.00
351.34	237.95
351.72	238.24
352.10	238.33
352.48	238.05
352.87	237.57
353.25	237.38
353.63	237.38
354.01	237.24
354.39	237.33
354.77	237.76
355.15	238.29
355.54	237.90
355.92	237.19
356.30	237.43
356.68	238.95
357.06	239.19
357.44	238.76
357.82	238.24
358.20	238.62
358.58	238.71
358.97	238.67
359.35	239.43
359.73	239.62
360.11	239.67
360.49	239.95
360.87	240.19
361.25	240.43
361.63	241.14
362.01	241.38
362.39	241.24
362.77	240.95
363.15	240.67
363.53	241.00
363.91	240.95
364.29	241.14
364.67	238.71
365.05	238.48
365.43	238.76
365.81	239.24
366.19	239.81
366.57	240.62
366.95	240.62
367.33	239.86
367.71	239.90
368.09	240.38
368.47	240.62
368.85	240.81
369.23	241.52
369.61	240.62
369.99	241.67
370.37	242.19
370.75	243.48
371.13	243.24
371.51	242.90
371.89	243.38
372.27	243.24
372.65	243.57
373.03	243.86
373.41	243.67
373.78	243.48
374.16	242.62
374.54	241.81
374.92	241.48
375.30	241.71
375.68	241.19
376.06	241.05
376.44	240.62
376.82	240.67
377.19	240.48
377.57	240.24
377.95	239.24
378.33	239.00
378.71	237.81
379.09	238.19
379.47	238.71
379.84	238.67
380.22	238.57
380.60	238.14
380.98	238.29
381.36	238.24
381.73	238.10
382.11	238.62
382.49	238.81
382.87	238.62
383.25	238.76
383.62	241.81
384.00	241.43
384.38	241.57
384.76	242.05
385.13	242.81
385.51	243.10
385.89	242.67
386.27	242.67
386.64	243.24
387.02	243.10
387.40	243.00
387.78	242.67
388.15	242.48
388.53	242.43
388.91	241.95
389.29	241.81
389.66	242.43
390.04	241.62
390.42	241.86
390.79	241.81
391.17	241.38
391.55	238.76
391.92	238.90
392.30	239.10
392.68	238.48
393.05	238.57
393.43	238.62
393.81	238.90
394.18	238.62
394.56	238.24
394.94	238.67
395.31	238.24
395.69	239.43
396.06	239.57
396.44	239.95
396.82	239.95
397.19	241.38
397.57	240.90
397.95	241.48
398.32	240.86
398.70	241.43
399.07	242.43
399.45	242.10
399.82	242.14
400.20	242.19
400.58	242.29
400.95	241.10
401.33	241.90
401.70	244.00
402.08	244.43
402.45	244.71
402.83	245.24
403.20	245.62
403.58	245.24
403.95	246.14
404.33	246.67
404.71	247.33
405.08	248.95
405.46	249.33
405.83	250.10
406.21	250.33
406.58	250.86
406.96	250.86
407.33	251.76
407.70	252.71
408.08	255.10
408.45	256.00
408.83	257.38
409.20	257.81
409.58	256.71
409.95	257.62
410.33	258.33
410.70	258.57
411.08	260.24
411.45	261.38
411.82	262.05
412.20	263.48
412.57	266.24
412.95	265.48
413.32	267.29
413.69	268.05
414.07	270.43
414.44	272.38
414.82	274.62
415.19	277.05
415.56	279.24
415.94	280.38
416.31	283.62
416.68	286.33
417.06	289.57
417.43	293.43
417.81	297.00
418.18	300.86
418.55	304.62
418.93	308.48
419.30	312.33
419.67	317.38
420.04	322.19
420.42	326.14
420.79	333.81
421.16	339.62
421.54	347.19
421.91	353.14
422.28	359.38
422.66	365.95
423.03	374.29
423.40	380.90
423.77	387.67
424.15	394.67
424.52	402.57
424.89	411.62
425.26	419.43
425.64	426.90
426.01	434.95
426.38	443.62
426.75	452.90
427.13	462.62
427.50	472.48
427.87	482.57
428.24	491.86
428.61	499.29
428.99	511.86
429.36	521.90
429.73	533.38
430.10	545.14
430.47	557.33
430.85	568.10
431.22	581.33
431.59	598.24
431.96	611.67
432.33	625.90
432.70	639.57
433.08	656.33
433.45	671.86
433.82	687.43
434.19	704.71
434.56	721.05
434.93	736.19
435.30	751.95
435.68	768.52
436.05	785.76
436.42	802.67
436.79	816.90
437.16	834.29
437.53	850.76
437.90	866.76
438.27	882.48
438.64	898.81
439.01	915.38
439.38	925.95
439.75	938.67
440.13	953.52
440.50	967.48
440.87	978.33
441.24	990.14
441.61	1002.81
441.98	1011.52
442.35	1023.05
442.72	1033.71
443.09	1044.57
443.46	1051.05
443.83	1054.76
444.20	1057.57
444.57	1061.43
444.94	1062.33
445.31	1064.10
445.68	1068.67
446.05	1068.57
446.42	1065.86
446.79	1062.48
447.16	1059.67
447.53	1057.62
447.90	1049.62
448.27	1042.10
448.64	1031.81
449.01	1024.33
449.37	1012.05
449.74	1000.33
450.11	988.38
450.48	973.67
450.85	956.90
451.22	942.71
451.59	930.67
451.96	918.62
452.33	902.90
452.70	888.29
453.07	871.90
453.43	852.19
453.80	836.81
454.17	821.24
454.54	805.86
454.91	789.71
455.28	773.00
455.65	759.24
456.02	748.52
456.38	736.33
456.75	721.33
457.12	708.67
457.49	696.43
457.86	681.86
458.23	672.57
458.59	661.95
458.96	651.05
459.33	640.43
459.70	630.57
460.07	622.90
460.43	613.76
460.80	605.57
461.17	598.05
461.54	589.10
461.91	581.24
462.27	573.43
462.64	567.19
463.01	560.76
463.38	554.90
463.74	543.76
464.11	537.24
464.48	531.71
464.85	526.52
465.21	522.90
465.58	517.86
465.95	511.62
466.32	507.05
466.68	502.95
467.05	498.57
467.42	493.67
467.78	488.19
468.15	484.19
468.52	480.86
468.88	476.67
469.25	472.95
469.62	470.57
469.98	467.14
470.35	463.81
470.72	461.33
471.08	456.67
471.45	454.33
471.82	452.14
472.18	449.67
472.55	447.95
472.92	444.24
473.28	441.95
473.65	439.57
474.02	436.43
474.38	434.10
474.75	432.10
475.11	430.57
475.48	429.38
475.85	427.52
476.21	425.62
476.58	424.24
476.94	423.62
477.31	422.10
477.67	421.33
478.04	420.76
478.41	419.52
478.77	421.71
479.14	421.00
479.50	420.81
479.87	420.43
480.23	420.29
480.60	419.95
480.96	420.24
481.33	421.43
481.69	422.24
482.06	423.33
482.42	424.62
482.79	425.33
483.15	426.05
483.52	427.38
483.88	428.14
484.25	429.57
484.61	430.52
484.98	431.67
485.34	433.05
485.71	433.95
486.07	435.48
486.44	434.19
486.80	435.62
487.17	436.76
487.53	438.67
487.90	439.52
488.26	442.62
488.62	444.86
488.99	445.62
489.35	447.67
489.72	448.62
490.08	450.00
490.44	452.00
490.81	454.52
491.17	456.38
491.54	458.95
491.90	461.33
492.26	463.43
492.63	465.62
492.99	467.48
493.36	470.62
493.72	473.48
494.08	476.43
494.45	479.57
494.81	483.86
495.17	486.81
495.54	491.00
495.90	493.14
496.26	495.62
496.63	499.90
496.99	503.57
497.35	508.33
497.72	512.90
498.08	517.10
498.44	521.29
498.80	525.24
499.17	529.19
499.53	532.76
499.89	537.81
500.26	542.52
500.62	547.57
500.98	552.00
501.34	556.38
501.71	562.19
502.07	566.90
502.43	571.10
502.79	575.38
503.16	579.90
503.52	584.81
503.88	589.86
504.24	595.00
504.60	600.05
504.97	605.29
505.33	609.90
505.69	615.33
506.05	620.00
506.41	625.95
506.78	631.67
507.14	637.14
507.50	641.86
507.86	646.38
508.22	652.29
508.59	657.86
508.95	663.43
509.31	669.48
509.67	675.62
510.03	680.67
510.39	687.05
510.75	692.38
511.12	698.57
511.48	704.38
511.84	709.19
512.20	714.95
512.56	719.38
512.92	724.38
513.28	728.81
513.64	733.33
514.00	738.10
514.37	742.29
514.73	746.86
515.09	752.62
515.45	758.10
515.81	762.24
516.17	766.19
516.53	770.76
516.89	772.90
517.25	776.14
517.61	780.90
517.97	783.67
518.33	787.71
518.69	791.62
519.05	795.43
519.41	798.76
519.77	803.71
520.13	807.57
520.49	810.52
520.85	814.48
521.21	818.76
521.57	821.76
521.93	824.81
522.29	828.38
522.65	829.62
523.01	832.10
523.37	832.76
523.73	834.95
524.09	837.10
524.45	840.19
524.81	842.29
525.17	844.14
525.53	847.33
525.89	848.71
526.25	850.29
526.61	851.38
526.97	852.76
527.33	852.29
527.68	855.38
528.04	856.86
528.40	857.00
528.76	858.62
529.12	859.57
529.48	861.38
529.84	862.43
530.20	864.48
530.56	866.19
530.91	869.29
531.27	870.67
531.63	871.33
531.99	872.14
532.35	873.24
532.71	873.76
533.07	874.52
533.42	878.76
533.78	879.67
534.14	881.48
534.50	882.67
534.86	884.71
535.21	884.24
535.57	885.95
535.93	887.33
536.29	889.43
536.65	892.19
537.00	893.33
537.36	894.95
537.72	896.90
538.08	899.00
538.44	900.48
538.79	903.05
539.15	906.19
539.51	908.62
539.87	910.67
540.22	912.19
540.58	914.33
540.94	914.52
541.29	917.57
541.65	918.95
542.01	921.24
542.37	922.48
542.72	923.62
543.08	924.14
543.44	924.90
543.79	922.57
544.15	922.00
544.51	922.67
544.87	921.95
545.22	919.95
545.58	918.33
545.94	915.81
546.29	914.24
546.65	911.90
547.01	909.24
547.36	906.57
547.72	904.62
548.07	901.43
548.43	897.10
548.79	892.19
549.14	888.95
549.50	887.05
549.86	883.86
550.21	881.24
550.57	879.05
550.92	876.43
551.28	874.95
551.64	872.57
551.99	869.38
552.35	866.38
552.70	864.62
553.06	862.14
553.41	860.52
553.77	859.24
554.13	856.95
554.48	854.90
554.84	854.19
555.19	852.48
555.55	853.24
555.90	851.33
556.26	850.76
556.61	848.95
556.97	845.57
557.32	842.90
557.68	841.00
558.03	838.76
558.39	836.62
558.74	835.29
559.10	832.19
559.45	830.48
559.81	829.05
560.16	827.29
560.52	824.90
560.87	824.05
561.23	821.48
561.58	822.05
561.94	820.10
562.29	818.05
562.64	816.71
563.00	812.33
563.35	811.29
563.71	809.38
564.06	807.52
564.42	806.00
564.77	805.38
565.12	803.29
565.48	804.05
565.83	803.67
566.19	802.19
566.54	801.90
566.89	799.95
567.25	799.38
567.60	799.43
567.96	801.05
568.31	800.52
568.66	800.57
569.02	796.71
569.37	795.48
569.72	793.62
570.08	792.29
570.43	790.76
570.78	788.43
571.14	786.71
571.49	786.14
571.84	784.52
572.20	782.95
572.55	781.33
572.90	778.24
573.26	776.62
573.61	774.24
573.96	772.71
574.31	772.43
574.67	770.00
575.02	767.90
575.37	764.33
575.72	761.24
576.08	758.24
576.43	757.24
576.78	756.19
577.13	755.52
577.49	754.05
577.84	753.14
578.19	752.48
578.54	751.71
578.90	750.14
579.25	749.38
579.60	748.19
579.95	747.38
580.30	745.19
580.66	743.76
581.01	742.90
581.36	740.71
581.71	738.33
582.06	738.76
582.42	736.90
582.77	735.62
583.12	735.33
583.47	734.05
583.82	732.90
584.17	731.76
584.53	731.19
584.88	729.86
585.23	729.95
585.58	728.33
585.93	725.52
586.28	724.14
586.63	721.95
586.98	720.10
587.34	718.48
587.69	716.33
588.04	713.57
588.39	711.05
588.74	709.00
589.09	707.43
589.44	703.67
589.79	701.10
590.14	698.38
590.49	694.05
590.84	690.48
591.19	686.90
591.54	683.95
591.89	679.05
592.25	677.52
592.60	672.52
592.95	669.48
593.30	667.38
593.65	663.57
594.00	660.19
594.35	663.86
594.70	659.76
595.05	657.19
595.40	653.95
595.75	651.24
596.10	648.52
596.45	645.71
596.80	642.43
597.15	639.67
597.50	635.95
597.85	635.14
598.19	632.81
598.54	630.19
598.89	626.43
599.24	624.52
599.59	619.86
599.94	617.38
600.29	614.62
600.64	611.81
600.99	610.10
601.34	608.67
601.69	598.95
602.04	596.38
602.39	593.52
602.74	592.43
603.08	590.24
603.43	588.81
603.78	586.48
604.13	584.57
604.48	582.86
604.83	582.24
605.18	580.57
605.53	580.76
605.87	582.67
606.22	586.76
606.57	590.33
606.92	594.81
607.27	600.48
607.62	606.19
607.96	612.05
608.31	615.57
608.66	619.05
609.01	622.90
609.36	627.00
609.70	631.14
610.05	634.00
610.40	637.05
610.75	639.10
611.10	641.05
611.44	643.10
611.79	643.14
612.14	643.00
612.49	641.62
612.83	639.05
613.18	634.67
613.53	628.48
613.88	622.24
614.22	614.71
614.57	606.67
614.92	598.00
615.27	589.71
615.61	582.57
615.96	576.14
616.31	569.67
616.65	563.52
617.00	557.00
617.35	550.29
617.70	544.19
618.04	538.29
618.39	532.90
618.74	528.05
619.08	523.86
619.43	520.43
619.78	517.10
620.12	514.57
620.47	511.76
620.82	509.05
621.16	506.24
621.51	504.71
621.85	502.10
622.20	500.43
622.55	497.76
622.89	495.29
623.24	492.95
623.59	490.57
623.93	488.52
624.28	486.33
624.62	486.71
624.97	486.29
625.32	484.24
625.66	482.19
626.01	480.14
626.35	479.24
626.70	477.19
627.04	475.90
627.39	473.52
627.73	472.86
628.08	471.29
628.43	468.57
628.77	465.38
629.12	462.62
629.46	460.81
629.81	459.05
630.15	457.00
630.50	454.48
630.84	452.33
631.19	449.86
631.53	447.29
631.88	442.81
632.22	438.67
632.57	436.95
632.91	434.48
633.26	432.43
633.60	429.43
633.95	426.71
634.29	423.81
634.64	421.52
634.98	418.24
635.32	416.62
635.67	415.29
636.01	413.67
636.36	412.24
636.70	410.10
637.05	408.00
637.39	406.10
637.73	404.19
638.08	403.38
638.42	401.57
638.77	400.81
639.11	399.14
639.45	397.90
639.80	396.10
640.14	395.10
640.49	393.24
640.83	391.67
641.17	390.90
641.52	389.33
641.86	388.14
642.20	387.95
642.55	385.76
642.89	384.71
643.23	383.57
643.58	383.10
643.92	381.29
644.26	380.29
644.61	380.05
644.95	379.62
645.29	378.43
645.64	378.48
645.98	376.81
646.32	377.05
646.66	375.71
647.01	374.24
647.35	373.33
647.69	372.95
648.04	372.90
648.38	371.86
648.72	371.29
649.06	370.00
649.41	368.33
649.75	367.43
650.09	366.33
650.43	365.19
650.78	363.71
651.12	363.29
651.46	362.24
651.80	360.48
652.14	358.95
652.49	358.38
652.83	356.86
653.17	355.81
653.51	353.43
653.85	352.71
654.20	352.10
654.54	350.67
654.88	348.57
655.22	346.71
655.56	345.33
655.90	344.05
656.25	343.19
656.59	341.67
656.93	340.86
657.27	340.86
657.61	339.67
657.95	339.05
658.29	338.14
658.64	337.62
658.98	336.71
659.32	335.57
659.66	333.90
660.00	333.29
660.34	332.57
660.68	332.24
661.02	331.48
661.36	330.62
661.70	329.62
662.05	329.90
662.39	330.29
662.73	330.62
663.07	331.14
663.41	331.10
663.75	330.19
664.09	329.81
664.43	328.05
664.77	327.95
665.11	327.05
665.45	326.29
665.79	325.86
666.13	325.33
666.47	324.81
666.81	324.43
667.15	323.19
667.49	322.71
667.83	322.76
668.17	321.62
668.51	320.76
668.85	320.43
669.19	320.29
669.53	318.95
669.87	317.48
670.21	315.95
670.55	314.86
670.89	315.76
671.23	315.19
671.57	314.67
671.91	313.67
672.25	313.19
672.58	313.71
672.92	311.90
673.26	311.52
673.60	311.29
673.94	310.62
674.28	310.48
674.62	310.33
674.96	309.19
675.30	309.29
675.64	308.90
675.97	308.43
676.31	307.43
676.65	306.10
676.99	306.43
677.33	305.86
677.67	305.62
678.01	303.81
678.34	302.81
678.68	302.67
679.02	302.48
679.36	301.76
679.70	300.19
680.04	299.95
680.37	299.38
680.71	298.48
681.05	297.90
681.39	297.24
681.73	296.57
682.06	295.86
682.40	295.19
682.74	295.14
683.08	295.57
683.42	294.81
683.75	295.38
684.09	294.57
684.43	294.48
684.77	293.81
685.10	293.62
685.44	293.52
685.78	293.10
686.12	292.48
686.45	291.86
686.79	291.19
687.13	291.29
687.46	291.24
687.80	291.52
688.14	290.90
688.48	290.76
688.81	290.33
689.15	290.57
689.49	290.38
689.82	289.86
690.16	288.52
690.50	288.24
690.83	287.57
691.17	286.57
691.51	285.86
691.84	285.29
692.18	284.76
692.52	284.57
692.85	284.29
693.19	284.95
693.52	285.05
693.86	284.86
694.20	284.52
694.53	284.05
694.87	283.43
695.21	282.76
695.54	282.33
695.88	281.29
696.21	280.14
696.55	279.67
696.88	279.05
697.22	278.48
697.56	278.29
697.89	277.62
698.23	277.71
698.56	277.33
698.90	277.57
699.23	276.86
699.57	276.57
699.90	276.10
700.24	275.33
700.58	275.10
700.91	275.33
701.25	277.43
701.58	278.29
701.92	278.95
702.25	279.29
702.59	279.43
702.92	280.38
703.26	281.19
703.59	281.38
703.93	283.81
704.26	284.71
704.60	285.43
704.93	285.86
705.26	286.00
705.60	286.76
705.93	286.52
706.27	288.05
706.60	288.86
706.94	290.05
707.27	290.00
707.61	290.48
707.94	290.43
708.27	288.52
708.61	287.33
708.94	286.86
709.28	286.90
709.61	286.19
709.94	285.67
710.28	285.00
710.61	284.38
710.95	281.86
711.28	282.43
711.61	281.10
711.95	281.05
712.28	280.05
712.61	278.95
712.95	279.76
713.28	279.86
713.61	278.24
713.95	276.62
714.28	276.00
714.61	274.57
714.95	273.67
715.28	272.24
715.61	271.52
715.95	271.10
716.28	270.29
716.61	270.57
716.95	269.81
717.28	269.00
717.61	268.43
717.94	267.90
718.28	265.52
718.61	265.33
718.94	264.38
719.27	264.10
719.61	264.29
719.94	263.29
720.27	261.86
720.60	261.90
720.94	261.71
721.27	261.52
721.60	261.86
721.93	261.86
722.27	262.86
722.60	263.29
722.93	262.57
723.26	262.48
723.59	262.00
723.93	262.29
724.26	262.95
724.59	262.81
724.92	263.00
725.25	263.81
725.59	263.62
725.92	264.05
726.25	264.33
726.58	264.10
726.91	263.76
727.24	264.10
727.57	263.52
727.91	262.90
728.24	262.90
728.57	262.52
728.90	262.67
729.23	261.81
729.56	262.71
729.89	262.76
730.22	262.67
730.55	262.10
730.89	262.10
731.22	261.86
731.55	262.00
731.88	261.57
732.21	261.10
732.54	260.57
732.87	260.33
733.20	259.71
733.53	259.67
733.86	259.67
734.19	258.81
734.52	259.48
734.85	261.19
735.18	261.00
735.51	261.67
735.84	261.71
736.17	262.10
736.50	260.76
736.83	263.24
737.16	263.24
737.49	263.24
737.82	262.76
738.15	262.57
738.48	262.48
738.81	262.00
739.14	261.52
739.47	261.67
739.80	261.52
740.13	262.05
740.46	261.71
740.79	261.48
741.12	261.81
741.45	261.05
741.78	259.62
742.11	260.05
742.44	259.33
742.77	259.33
743.10	258.67
743.43	258.33
743.75	256.00
744.08	258.90
744.41	258.67
744.74	258.57
745.07	257.95
745.40	257.95
745.73	259.24
746.06	259.38
746.39	259.38
746.71	258.81
747.04	258.62
747.37	258.43
747.70	258.10
748.03	257.81
748.36	258.24
748.68	258.29
749.01	257.29
749.34	257.43
749.67	256.95
750.00	257.29
750.33	259.19
750.65	259.05
750.98	256.00
751.31	255.95
751.64	255.90
751.97	257.10
752.29	256.81
752.62	255.71
752.95	255.62
753.28	255.38
753.60	255.52
753.93	255.57
754.26	255.62
754.59	255.19
754.91	254.52
755.24	254.05
755.57	253.86
755.90	253.81
756.22	253.19
756.55	252.90
756.88	252.19
757.20	250.10
757.53	249.33
757.86	249.05
758.19	249.05
758.51	248.71
758.84	247.57
759.17	247.29
759.49	247.19
759.82	248.33
760.15	248.38
760.47	247.86
760.80	247.14
761.13	247.29
761.45	247.24
761.78	247.67
762.11	247.62
762.43	247.71
762.76	247.52
763.08	248.29
763.41	248.48
763.74	248.86
764.06	249.19
764.39	249.10
764.71	249.00
765.04	248.62
765.37	248.38
765.69	248.38
766.02	248.48
766.34	248.62
766.67	247.38
767.00	247.81
767.32	249.33
767.65	251.19
767.97	250.81
768.30	251.33
768.62	250.95
768.95	250.67
769.27	250.05
769.60	250.52
769.92	249.67
770.25	249.19
770.57	248.67
770.90	248.24
771.22	248.29
771.55	248.29
771.87	248.43
772.20	248.48
772.52	250.38
772.85	253.14
773.17	252.90
773.50	252.90
773.82	252.33
774.15	251.33
774.47	249.24
774.80	248.90
775.12	248.38
775.45	248.29
775.77	248.52
776.09	248.62
776.42	248.43
776.74	249.00
777.07	248.52
777.39	248.62
777.72	248.10
778.04	248.00
778.36	247.86
778.69	247.71
779.01	248.05
779.33	246.05
779.66	243.10
779.98	242.71
780.31	242.76
780.63	243.71
780.95	244.00
781.28	244.05
781.60	243.81
781.92	243.90
782.25	243.86
782.57	243.71
782.89	243.67
783.22	243.33
783.54	242.76
783.86	243.10
784.19	243.00
784.51	244.05
784.83	243.76
785.16	243.33
785.48	243.52
785.80	243.29
786.12	243.29
786.45	243.33
786.77	243.57
787.09	243.38
787.42	242.71
787.74	242.38
788.06	242.48
788.38	242.76
788.71	242.52
789.03	242.81
789.35	243.19
789.67	243.05
789.99	243.29
790.32	243.10
790.64	243.48
790.96	245.29
791.28	244.57
791.61	244.33
791.93	244.81
792.25	244.67
792.57	246.24
792.89	245.67
793.21	246.00
793.54	246.00
793.86	245.62
