SpectraSuite Data File
++++++++++++++++++++++++++++++++++++
Date: Wed Nov 07 18:31:30 EST 2012
User: group
Dark Spectrum Present: No
Reference Spectrum Present: No
Number of Sampled Component Spectra: 1
Spectrometers: USB2E7196
Integration Time (usec): 1000000 (USB2E7196)
Spectra Averaged: 1 (USB2E7196)
Boxcar Smoothing: 10 (USB2E7196)
Correct for Electrical Dark: No (USB2E7196)
Strobe/Lamp Enabled: No (USB2E7196)
Correct for Detector Non-linearity: No (USB2E7196)
Correct for Stray Light: No (USB2E7196)
Number of Pixels in Processed Spectrum: 2048
>>>>>Begin Processed Spectral Data<<<<<
339.09	0.00
339.48	217.00
339.86	227.00
340.24	228.00
340.63	222.00
341.01	268.00
341.39	229.00
341.78	232.00
342.16	239.00
342.54	227.00
342.93	224.00
343.31	235.05
343.69	235.81
344.07	235.95
344.46	236.67
344.84	237.43
345.22	235.57
345.60	235.95
345.99	236.52
346.37	236.00
346.75	236.57
347.13	236.86
347.52	237.00
347.90	237.86
348.28	237.76
348.66	238.24
349.05	237.52
349.43	237.81
349.81	238.05
350.19	238.19
350.57	238.10
350.96	238.24
351.34	238.48
351.72	238.62
352.10	238.90
352.48	238.43
352.87	238.33
353.25	238.48
353.63	238.57
354.01	238.00
354.39	238.52
354.77	238.38
355.15	238.71
355.54	238.33
355.92	237.67
356.30	237.24
356.68	238.43
357.06	238.48
357.44	237.86
357.82	237.52
358.20	237.43
358.58	237.52
358.97	237.52
359.35	237.71
359.73	237.81
360.11	237.76
360.49	238.00
360.87	238.05
361.25	238.48
361.63	239.24
362.01	239.52
362.39	239.19
362.77	239.57
363.15	239.52
363.53	239.67
363.91	240.05
364.29	240.76
364.67	238.81
365.05	238.81
365.43	239.10
365.81	239.67
366.19	241.10
366.57	242.19
366.95	242.43
367.33	241.86
367.71	241.90
368.09	242.52
368.47	242.71
368.85	242.81
369.23	243.24
369.61	242.33
369.99	243.10
370.37	243.48
370.75	244.52
371.13	244.14
371.51	244.00
371.89	244.05
372.27	243.81
372.65	244.05
373.03	244.10
373.41	243.90
373.78	243.71
374.16	242.57
374.54	241.86
374.92	241.57
375.30	242.00
375.68	241.62
376.06	241.71
376.44	241.33
376.82	241.48
377.19	241.29
377.57	241.19
377.95	240.14
378.33	240.19
378.71	238.48
379.09	238.81
379.47	238.90
379.84	238.38
380.22	238.43
380.60	237.95
380.98	237.71
381.36	237.76
381.73	237.38
382.11	237.76
382.49	238.00
382.87	237.62
383.25	237.52
383.62	240.86
384.00	240.10
384.38	240.38
384.76	240.81
385.13	242.00
385.51	241.71
385.89	241.67
386.27	241.52
386.64	242.10
387.02	242.00
387.40	242.05
387.78	242.48
388.15	243.00
388.53	242.86
388.91	243.10
389.29	242.95
389.66	243.62
390.04	243.19
390.42	243.48
390.79	243.48
391.17	243.48
391.55	240.10
391.92	240.29
392.30	240.43
392.68	239.76
393.05	239.43
393.43	239.86
393.81	240.00
394.18	239.67
394.56	239.62
394.94	240.05
395.31	239.52
395.69	240.00
396.06	239.81
396.44	240.29
396.82	240.10
397.19	241.48
397.57	241.10
397.95	241.71
398.32	241.00
398.70	241.38
399.07	242.10
399.45	242.52
399.82	242.62
400.20	242.00
400.58	242.14
400.95	241.52
401.33	242.00
401.70	244.00
402.08	244.57
402.45	244.76
402.83	245.43
403.20	245.90
403.58	245.76
403.95	246.29
404.33	246.71
404.71	247.19
405.08	248.33
405.46	248.71
405.83	248.43
406.21	248.90
406.58	249.62
406.96	249.95
407.33	250.43
407.70	251.29
408.08	254.24
408.45	254.81
408.83	255.71
409.20	256.05
409.58	255.00
409.95	256.14
410.33	257.14
410.70	257.00
411.08	258.19
411.45	259.67
411.82	260.57
412.20	262.14
412.57	264.67
412.95	264.29
413.32	266.10
413.69	268.14
414.07	269.90
414.44	271.05
414.82	272.81
415.19	275.38
415.56	277.10
415.94	278.14
416.31	281.67
416.68	284.62
417.06	288.05
417.43	292.29
417.81	296.00
418.18	299.67
418.55	303.95
418.93	308.10
419.30	312.24
419.67	317.57
420.04	322.10
420.42	326.43
420.79	334.48
421.16	340.62
421.54	348.00
421.91	354.24
422.28	360.48
422.66	367.19
423.03	375.57
423.40	382.57
423.77	389.24
424.15	396.10
424.52	403.48
424.89	412.38
425.26	419.86
425.64	427.33
426.01	435.71
426.38	444.33
426.75	454.00
427.13	463.24
427.50	472.86
427.87	483.10
428.24	493.14
428.61	501.10
428.99	512.14
429.36	522.38
429.73	533.48
430.10	546.10
430.47	558.52
430.85	569.43
431.22	584.29
431.59	601.14
431.96	614.76
432.33	630.14
432.70	644.62
433.08	661.43
433.45	677.67
433.82	693.05
434.19	710.38
434.56	726.33
434.93	741.24
435.30	756.43
435.68	773.29
436.05	789.33
436.42	805.00
436.79	819.52
437.16	836.38
437.53	853.38
437.90	869.57
438.27	886.24
438.64	903.00
439.01	917.67
439.38	929.19
439.75	941.67
440.13	955.52
440.50	968.33
440.87	979.05
441.24	989.57
441.61	1002.05
441.98	1011.14
442.35	1021.48
442.72	1033.14
443.09	1045.00
443.46	1051.29
443.83	1055.52
444.20	1059.05
444.57	1064.19
444.94	1064.71
445.31	1066.24
445.68	1071.19
446.05	1070.62
446.42	1067.05
446.79	1063.52
447.16	1059.57
447.53	1057.33
447.90	1049.71
448.27	1042.05
448.64	1032.05
449.01	1024.90
449.37	1013.24
449.74	1001.29
450.11	989.95
450.48	974.29
450.85	957.14
451.22	943.90
451.59	931.71
451.96	919.81
452.33	904.00
452.70	889.81
453.07	873.00
453.43	852.43
453.80	836.43
454.17	821.00
454.54	805.52
454.91	790.00
455.28	773.95
455.65	759.29
456.02	749.90
456.38	737.81
456.75	722.62
457.12	710.00
457.49	697.48
457.86	683.52
458.23	674.76
458.59	664.00
458.96	652.24
459.33	641.62
459.70	631.48
460.07	623.52
460.43	614.71
460.80	607.10
461.17	599.14
461.54	591.19
461.91	583.81
462.27	576.19
462.64	569.29
463.01	562.95
463.38	557.38
463.74	545.90
464.11	539.86
464.48	535.05
464.85	528.76
465.21	525.14
465.58	520.38
465.95	513.48
466.32	508.71
466.68	504.05
467.05	499.90
467.42	495.62
467.78	490.90
468.15	486.24
468.52	482.71
468.88	479.05
469.25	474.43
469.62	471.76
469.98	468.76
470.35	465.86
470.72	462.33
471.08	457.86
471.45	455.81
471.82	453.43
472.18	450.00
472.55	448.33
472.92	444.81
473.28	442.14
473.65	439.81
474.02	437.52
474.38	436.14
474.75	434.24
475.11	431.81
475.48	429.95
475.85	428.48
476.21	426.62
476.58	425.29
476.94	424.43
477.31	423.00
477.67	421.81
478.04	420.71
478.41	420.19
478.77	422.62
479.14	421.71
479.50	420.52
479.87	420.57
480.23	420.29
480.60	420.86
480.96	421.05
481.33	422.86
481.69	423.19
482.06	423.86
482.42	425.48
482.79	427.24
483.15	428.29
483.52	430.10
483.88	431.24
484.25	432.76
484.61	434.38
484.98	436.05
485.34	438.81
485.71	440.76
486.07	442.67
486.44	441.90
486.80	443.43
487.17	445.43
487.53	448.00
487.90	450.19
488.26	452.10
488.62	455.43
488.99	456.43
489.35	458.62
489.72	459.48
490.08	461.19
490.44	462.19
490.81	465.05
491.17	467.14
491.54	469.71
491.90	472.05
492.26	474.19
492.63	475.95
492.99	477.33
493.36	480.48
493.72	483.38
494.08	486.29
494.45	488.76
494.81	492.57
495.17	494.52
495.54	497.62
495.90	500.29
496.26	503.10
496.63	507.05
496.99	510.33
497.35	515.00
497.72	518.10
498.08	522.48
498.44	525.95
498.80	529.67
499.17	533.95
499.53	538.43
499.89	542.62
500.26	547.05
500.62	551.76
500.98	556.33
501.34	560.95
501.71	566.52
502.07	571.62
502.43	575.95
502.79	581.24
503.16	585.90
503.52	590.90
503.88	595.05
504.24	599.05
504.60	604.62
504.97	609.48
505.33	614.43
505.69	619.95
506.05	625.14
506.41	630.48
506.78	635.00
507.14	639.48
507.50	645.10
507.86	650.57
508.22	655.67
508.59	659.95
508.95	664.71
509.31	670.10
509.67	675.00
510.03	680.10
510.39	685.48
510.75	690.95
511.12	696.71
511.48	701.62
511.84	707.57
512.20	712.86
512.56	717.38
512.92	722.52
513.28	726.95
513.64	731.00
514.00	735.71
514.37	740.57
514.73	745.10
515.09	749.24
515.45	753.57
515.81	757.10
516.17	761.33
516.53	765.43
516.89	767.38
517.25	771.67
517.61	776.29
517.97	779.38
518.33	782.57
518.69	785.38
519.05	789.52
519.41	792.48
519.77	796.19
520.13	799.52
520.49	803.14
520.85	806.52
521.21	811.00
521.57	814.48
521.93	816.57
522.29	819.95
522.65	822.14
523.01	824.05
523.37	826.52
523.73	829.05
524.09	831.43
524.45	834.48
524.81	836.14
525.17	837.71
525.53	840.38
525.89	842.19
526.25	844.24
526.61	845.33
526.97	846.38
527.33	847.62
527.68	851.71
528.04	852.19
528.40	853.10
528.76	853.90
529.12	854.43
529.48	856.95
529.84	857.48
530.20	859.24
530.56	861.14
530.91	863.14
531.27	864.24
531.63	865.52
531.99	866.38
532.35	867.62
532.71	868.81
533.07	870.29
533.42	874.48
533.78	875.86
534.14	877.48
534.50	879.33
534.86	881.05
535.21	880.67
535.57	883.52
535.93	885.38
536.29	887.57
536.65	890.05
537.00	891.48
537.36	894.71
537.72	898.76
538.08	904.05
538.44	907.57
538.79	912.95
539.15	917.19
539.51	923.00
539.87	929.29
540.22	934.48
540.58	939.71
540.94	942.86
541.29	948.62
541.65	953.14
542.01	958.62
542.37	962.76
542.72	966.00
543.08	967.33
543.44	969.52
543.79	969.14
544.15	970.43
544.51	970.76
544.87	970.38
545.22	968.29
545.58	965.29
545.94	963.38
546.29	959.43
546.65	955.48
547.01	950.05
547.36	944.67
547.72	939.19
548.07	933.00
548.43	926.76
548.79	919.81
549.14	913.67
549.50	907.90
549.86	901.14
550.21	896.10
550.57	892.38
550.92	887.29
551.28	885.62
551.64	880.81
551.99	877.00
552.35	872.81
552.70	868.90
553.06	865.86
553.41	861.57
553.77	859.57
554.13	857.43
554.48	855.76
554.84	853.52
555.19	850.38
555.55	850.86
555.90	848.67
556.26	846.33
556.61	845.52
556.97	842.71
557.32	841.00
557.68	837.95
558.03	835.86
558.39	834.00
558.74	830.67
559.10	828.95
559.45	827.76
559.81	825.86
560.16	824.62
560.52	822.19
560.87	821.10
561.23	818.38
561.58	818.48
561.94	815.95
562.29	813.86
562.64	813.05
563.00	808.00
563.35	806.38
563.71	805.00
564.06	802.29
564.42	800.00
564.77	798.71
565.12	798.48
565.48	799.81
565.83	798.38
566.19	797.95
566.54	796.71
566.89	795.14
567.25	795.00
567.60	794.90
567.96	795.24
568.31	795.86
568.66	796.10
569.02	792.29
569.37	790.71
569.72	789.10
570.08	787.52
570.43	786.90
570.78	784.90
571.14	783.43
571.49	781.86
571.84	781.29
572.20	780.38
572.55	778.57
572.90	774.57
573.26	774.24
573.61	772.24
573.96	771.67
574.31	770.95
574.67	769.57
575.02	767.90
575.37	765.10
575.72	762.95
576.08	760.48
576.43	760.43
576.78	760.52
577.13	760.38
577.49	759.43
577.84	758.81
578.19	758.57
578.54	759.10
578.90	759.19
579.25	758.81
579.60	757.81
579.95	757.00
580.30	756.48
580.66	754.95
581.01	754.33
581.36	752.81
581.71	751.67
582.06	751.29
582.42	749.90
582.77	748.90
583.12	747.76
583.47	746.90
583.82	746.29
584.17	744.48
584.53	743.19
584.88	741.10
585.23	740.29
585.58	738.14
585.93	735.10
586.28	732.86
586.63	730.71
586.98	728.43
587.34	726.52
587.69	723.38
588.04	721.19
588.39	717.71
588.74	714.76
589.09	712.76
589.44	708.48
589.79	705.14
590.14	702.10
590.49	698.19
590.84	694.10
591.19	689.52
591.54	685.81
591.89	681.67
592.25	680.71
592.60	676.19
592.95	673.43
593.30	670.71
593.65	667.62
594.00	663.67
594.35	666.24
594.70	662.67
595.05	659.05
595.40	655.52
595.75	652.86
596.10	650.48
596.45	646.62
596.80	644.24
597.15	640.95
597.50	638.14
597.85	636.10
598.19	633.33
598.54	630.67
598.89	627.76
599.24	625.62
599.59	621.38
599.94	618.81
600.29	616.19
600.64	613.19
600.99	611.81
601.34	609.76
601.69	601.05
602.04	598.24
602.39	595.67
602.74	594.24
603.08	591.76
603.43	589.43
603.78	587.43
604.13	585.24
604.48	584.05
604.83	583.10
605.18	582.52
605.53	583.76
605.87	586.90
606.22	592.10
606.57	597.52
606.92	604.19
607.27	611.43
607.62	618.90
607.96	626.52
608.31	632.05
608.66	637.71
609.01	643.10
609.36	648.38
609.70	654.10
610.05	658.00
610.40	662.62
610.75	665.67
611.10	668.19
611.44	670.62
611.79	671.76
612.14	671.67
612.49	670.24
612.83	667.90
613.18	662.67
613.53	655.67
613.88	647.33
614.22	637.76
614.57	628.24
614.92	617.52
615.27	608.10
615.61	598.57
615.96	590.43
616.31	582.57
616.65	575.38
617.00	567.52
617.35	560.14
617.70	552.14
618.04	546.10
618.39	540.52
618.74	535.62
619.08	531.05
619.43	527.10
619.78	523.10
620.12	519.05
620.47	516.14
620.82	513.29
621.16	510.43
621.51	508.71
621.85	505.76
622.20	503.76
622.55	500.24
622.89	497.76
623.24	495.33
623.59	492.48
623.93	489.62
624.28	487.24
624.62	487.90
624.97	488.00
625.32	485.52
625.66	483.10
626.01	480.57
626.35	479.00
626.70	476.90
627.04	476.10
627.39	474.81
627.73	474.05
628.08	472.62
628.43	470.24
628.77	467.81
629.12	466.00
629.46	464.00
629.81	462.43
630.15	460.29
630.50	457.52
630.84	455.62
631.19	453.24
631.53	451.00
631.88	445.90
632.22	441.95
632.57	440.71
632.91	438.29
633.26	436.24
633.60	433.14
633.95	430.52
634.29	427.14
634.64	424.76
634.98	420.76
635.32	418.62
635.67	416.62
636.01	414.43
636.36	412.05
636.70	410.48
637.05	408.29
637.39	406.43
637.73	405.43
638.08	404.00
638.42	402.43
638.77	401.62
639.11	399.48
639.45	397.76
639.80	395.33
640.14	394.05
640.49	392.38
640.83	390.86
641.17	389.86
641.52	388.71
641.86	387.24
642.20	387.52
642.55	385.33
642.89	384.57
643.23	383.10
643.58	383.14
643.92	381.48
644.26	380.76
644.61	379.86
644.95	378.33
645.29	377.29
645.64	377.43
645.98	375.90
646.32	376.05
646.66	375.10
647.01	374.00
647.35	373.95
647.69	373.33
648.04	373.05
648.38	372.67
648.72	371.76
649.06	370.86
649.41	368.86
649.75	368.05
650.09	367.19
650.43	366.43
650.78	364.48
651.12	363.10
651.46	361.90
651.80	361.10
652.14	360.00
652.49	359.62
652.83	357.52
653.17	356.33
653.51	354.57
653.85	353.95
654.20	352.86
654.54	350.57
654.88	348.67
655.22	347.19
655.56	345.14
655.90	344.00
656.25	343.00
656.59	341.95
656.93	341.10
657.27	340.57
657.61	339.33
657.95	339.05
658.29	338.62
658.64	338.38
658.98	337.14
659.32	336.10
659.66	334.62
660.00	334.00
660.34	333.19
660.68	332.43
661.02	331.86
661.36	331.10
661.70	330.62
662.05	330.14
662.39	330.33
662.73	330.76
663.07	331.62
663.41	331.29
663.75	330.76
664.09	330.29
664.43	329.38
664.77	328.71
665.11	327.48
665.45	326.86
665.79	326.33
666.13	325.57
666.47	325.10
666.81	324.52
667.15	323.48
667.49	323.19
667.83	323.14
668.17	322.19
668.51	321.38
668.85	320.71
669.19	321.05
669.53	319.48
669.87	317.67
670.21	315.76
670.55	314.81
670.89	315.33
671.23	314.71
671.57	313.86
671.91	313.81
672.25	313.29
672.58	313.67
672.92	312.38
673.26	312.00
673.60	311.33
673.94	310.76
674.28	310.52
674.62	310.14
674.96	309.33
675.30	308.52
675.64	308.57
675.97	308.24
676.31	306.95
676.65	306.43
676.99	306.86
677.33	305.81
677.67	305.67
678.01	303.86
678.34	303.43
678.68	303.57
679.02	302.67
679.36	302.14
679.70	300.29
680.04	299.95
680.37	299.29
680.71	298.62
681.05	298.10
681.39	297.95
681.73	297.33
682.06	296.81
682.40	296.57
682.74	296.52
683.08	297.05
683.42	296.71
683.75	296.76
684.09	296.05
684.43	296.00
684.77	295.10
685.10	294.95
685.44	294.81
685.78	294.14
686.12	293.57
686.45	293.00
686.79	292.95
687.13	292.81
687.46	292.48
687.80	292.95
688.14	292.48
688.48	292.43
688.81	292.38
689.15	292.38
689.49	291.81
689.82	291.05
690.16	289.71
690.50	289.43
690.83	288.67
691.17	287.76
691.51	287.14
691.84	287.38
692.18	286.52
692.52	285.95
692.85	285.33
693.19	285.90
693.52	285.48
693.86	284.76
694.20	284.38
694.53	284.14
694.87	283.24
695.21	282.57
695.54	281.86
695.88	280.81
696.21	279.43
696.55	279.14
696.88	278.43
697.22	278.00
697.56	277.95
697.89	277.24
698.23	277.38
698.56	277.43
698.90	276.81
699.23	276.67
699.57	276.38
699.90	275.95
700.24	275.14
700.58	275.29
700.91	275.57
701.25	277.48
701.58	278.29
701.92	279.29
702.25	279.76
702.59	279.67
702.92	280.24
703.26	281.52
703.59	282.33
703.93	285.24
704.26	285.86
704.60	286.19
704.93	287.00
705.26	287.38
705.60	287.86
705.93	287.81
706.27	289.33
706.60	289.95
706.94	291.76
707.27	292.05
707.61	292.29
707.94	292.71
708.27	291.10
708.61	290.52
708.94	289.86
709.28	289.62
709.61	289.24
709.94	288.76
710.28	288.14
710.61	287.19
710.95	284.05
711.28	285.19
711.61	284.14
711.95	283.90
712.28	282.95
712.61	282.14
712.95	282.57
713.28	282.19
713.61	281.19
713.95	279.14
714.28	278.43
714.61	277.52
714.95	276.76
715.28	275.33
715.61	274.38
715.95	274.14
716.28	273.38
716.61	273.43
716.95	272.67
717.28	271.95
717.61	271.52
717.94	271.05
718.28	268.67
718.61	268.29
718.94	267.10
719.27	266.48
719.61	266.29
719.94	265.52
720.27	264.19
720.60	263.48
720.94	263.33
721.27	263.33
721.60	263.43
721.93	262.76
722.27	263.24
722.60	263.52
722.93	262.57
723.26	262.48
723.59	261.57
723.93	261.76
724.26	261.86
724.59	261.62
724.92	261.71
725.25	262.19
725.59	262.05
725.92	262.38
726.25	262.33
726.58	262.19
726.91	261.86
727.24	261.86
727.57	261.81
727.91	261.10
728.24	260.90
728.57	260.33
728.90	260.29
729.23	259.71
729.56	260.29
729.89	260.33
730.22	259.90
730.55	260.05
730.89	259.81
731.22	259.48
731.55	259.38
731.88	258.95
732.21	258.14
732.54	257.81
732.87	257.62
733.20	257.48
733.53	257.43
733.86	257.43
734.19	257.29
734.52	257.67
734.85	259.52
735.18	259.33
735.51	260.24
735.84	260.62
736.17	260.95
736.50	259.52
736.83	262.00
737.16	262.10
737.49	261.71
737.82	261.67
738.15	261.52
738.48	261.71
738.81	261.71
739.14	261.71
739.47	261.52
739.80	261.57
740.13	261.67
740.46	261.24
740.79	260.71
741.12	260.05
741.45	259.95
741.78	258.24
742.11	259.05
742.44	258.19
742.77	258.14
743.10	257.81
743.43	257.62
743.75	254.90
744.08	257.86
744.41	257.76
744.74	257.62
745.07	257.24
745.40	257.00
745.73	257.76
746.06	257.71
746.39	258.14
746.71	257.76
747.04	257.38
747.37	257.33
747.70	257.95
748.03	258.67
748.36	258.57
748.68	258.67
749.01	257.05
749.34	257.33
749.67	256.86
750.00	257.10
750.33	259.05
750.65	259.38
750.98	256.29
751.31	256.00
751.64	256.00
751.97	257.10
752.29	256.95
752.62	256.10
752.95	255.71
753.28	255.14
753.60	254.90
753.93	255.57
754.26	255.29
754.59	254.29
754.91	253.71
755.24	253.48
755.57	253.24
755.90	253.52
756.22	252.71
756.55	252.33
756.88	251.81
757.20	249.86
757.53	249.19
757.86	248.86
758.19	249.29
758.51	248.95
758.84	247.95
759.17	247.62
759.49	247.48
759.82	248.67
760.15	248.71
760.47	248.67
760.80	247.81
761.13	248.24
761.45	248.19
761.78	247.86
762.11	247.71
762.43	247.71
762.76	247.67
763.08	248.05
763.41	248.29
763.74	248.19
764.06	248.38
764.39	248.05
764.71	248.10
765.04	247.57
765.37	247.43
765.69	247.24
766.02	247.05
766.34	246.57
766.67	245.67
767.00	246.29
767.32	247.57
767.65	248.86
767.97	248.43
768.30	248.52
768.62	248.67
768.95	248.24
769.27	248.00
769.60	248.38
769.92	247.67
770.25	247.38
770.57	247.00
770.90	246.76
771.22	246.86
771.55	247.00
771.87	246.90
772.20	247.29
772.52	249.43
772.85	252.48
773.17	252.90
773.50	252.81
773.82	252.14
774.15	250.76
774.47	249.43
774.80	249.52
775.12	249.43
775.45	249.24
775.77	249.43
776.09	249.52
776.42	249.10
776.74	250.00
777.07	249.81
777.39	249.90
777.72	249.52
778.04	249.86
778.36	249.38
778.69	249.81
779.01	249.43
779.33	246.86
779.66	243.90
779.98	243.48
780.31	243.29
780.63	244.19
780.95	244.67
781.28	244.57
781.60	244.10
781.92	244.14
782.25	243.81
782.57	243.76
782.89	243.19
783.22	243.10
783.54	242.57
783.86	242.90
784.19	242.57
784.51	243.52
784.83	243.10
785.16	243.19
785.48	243.19
785.80	243.33
786.12	243.81
786.45	244.10
786.77	244.33
787.09	244.43
787.42	243.24
787.74	243.33
788.06	243.38
788.38	243.48
788.71	243.33
789.03	243.90
789.35	244.38
789.67	244.48
789.99	244.86
790.32	244.52
790.64	244.71
790.96	246.76
791.28	246.00
791.61	245.52
791.93	245.62
792.25	245.38
792.57	246.90
792.89	246.38
793.21	246.10
793.54	245.81
793.86	245.38
