SpectraSuite Data File
++++++++++++++++++++++++++++++++++++
Date: Wed Nov 07 18:32:36 EST 2012
User: group
Dark Spectrum Present: No
Reference Spectrum Present: No
Number of Sampled Component Spectra: 1
Spectrometers: USB2E7196
Integration Time (usec): 1000000 (USB2E7196)
Spectra Averaged: 1 (USB2E7196)
Boxcar Smoothing: 10 (USB2E7196)
Correct for Electrical Dark: No (USB2E7196)
Strobe/Lamp Enabled: No (USB2E7196)
Correct for Detector Non-linearity: No (USB2E7196)
Correct for Stray Light: No (USB2E7196)
Number of Pixels in Processed Spectrum: 2048
>>>>>Begin Processed Spectral Data<<<<<
339.09	0.00
339.48	222.00
339.86	221.00
340.24	222.00
340.63	221.00
341.01	263.00
341.39	230.00
341.78	231.00
342.16	238.00
342.54	232.00
342.93	224.62
343.31	236.10
343.69	236.38
344.07	236.81
344.46	237.76
344.84	238.67
345.22	237.57
345.60	237.81
345.99	238.19
346.37	238.38
346.75	238.67
347.13	238.67
347.52	239.05
347.90	240.00
348.28	239.95
348.66	240.86
349.05	240.14
349.43	240.29
349.81	240.38
350.19	240.14
350.57	240.19
350.96	240.52
351.34	240.43
351.72	240.81
352.10	241.10
352.48	240.71
352.87	240.38
353.25	240.19
353.63	240.14
354.01	240.00
354.39	240.10
354.77	240.05
355.15	240.52
355.54	240.29
355.92	239.05
356.30	238.86
356.68	239.76
357.06	239.71
357.44	239.57
357.82	239.48
358.20	239.57
358.58	239.48
358.97	239.43
359.35	240.00
359.73	240.38
360.11	240.10
360.49	240.24
360.87	240.29
361.25	240.52
361.63	241.67
362.01	241.57
362.39	241.05
362.77	241.10
363.15	241.10
363.53	240.86
363.91	241.00
364.29	241.33
364.67	239.10
365.05	239.33
365.43	239.00
365.81	239.29
366.19	240.52
366.57	241.48
366.95	241.29
367.33	240.52
367.71	240.24
368.09	240.90
368.47	240.67
368.85	240.48
369.23	240.95
369.61	239.48
369.99	240.52
370.37	240.81
370.75	242.05
371.13	241.38
371.51	241.14
371.89	241.24
372.27	241.19
372.65	241.76
373.03	241.57
373.41	241.81
373.78	241.71
374.16	240.14
374.54	239.33
374.92	238.90
375.30	239.10
375.68	238.81
376.06	238.90
376.44	239.00
376.82	239.38
377.19	238.95
377.57	239.10
377.95	238.24
378.33	238.24
378.71	236.86
379.09	237.19
379.47	237.62
379.84	237.52
380.22	237.33
380.60	236.67
380.98	236.57
381.36	236.71
381.73	236.24
382.11	236.90
382.49	237.33
382.87	237.29
383.25	236.86
383.62	240.10
384.00	239.52
384.38	239.76
384.76	240.43
385.13	241.52
385.51	241.62
385.89	241.24
386.27	241.14
386.64	241.33
387.02	241.19
387.40	241.19
387.78	241.57
388.15	241.52
388.53	241.81
388.91	241.81
389.29	241.43
389.66	242.10
390.04	241.57
390.42	241.43
390.79	241.52
391.17	241.90
391.55	238.76
391.92	239.10
392.30	239.05
392.68	238.33
393.05	238.14
393.43	238.38
393.81	238.43
394.18	238.05
394.56	238.10
394.94	238.48
395.31	238.05
395.69	238.90
396.06	239.48
396.44	239.52
396.82	239.62
397.19	241.10
397.57	240.86
397.95	241.33
398.32	241.10
398.70	241.62
399.07	241.90
399.45	242.00
399.82	241.95
400.20	242.14
400.58	242.19
400.95	241.48
401.33	242.29
401.70	244.10
402.08	244.62
402.45	244.76
402.83	245.57
403.20	246.05
403.58	245.52
403.95	245.62
404.33	246.19
404.71	246.14
405.08	247.48
405.46	247.76
405.83	248.24
406.21	248.67
406.58	249.05
406.96	249.38
407.33	250.33
407.70	251.00
408.08	253.24
408.45	254.14
408.83	254.90
409.20	254.90
409.58	254.48
409.95	255.57
410.33	256.86
410.70	257.24
411.08	258.62
411.45	260.00
411.82	261.14
412.20	263.00
412.57	266.00
412.95	265.33
413.32	267.00
413.69	268.52
414.07	270.62
414.44	272.29
414.82	274.62
415.19	277.00
415.56	279.38
415.94	280.29
416.31	283.24
416.68	286.05
417.06	289.43
417.43	293.00
417.81	296.33
418.18	300.29
418.55	304.33
418.93	308.62
419.30	312.62
419.67	317.14
420.04	321.33
420.42	325.57
420.79	332.95
421.16	338.52
421.54	345.90
421.91	351.43
422.28	358.05
422.66	364.62
423.03	372.71
423.40	379.86
423.77	387.62
424.15	395.14
424.52	402.90
424.89	411.38
425.26	419.10
425.64	426.71
426.01	434.48
426.38	443.19
426.75	452.90
427.13	461.86
427.50	471.71
427.87	481.38
428.24	491.52
428.61	499.90
428.99	511.67
429.36	521.43
429.73	532.67
430.10	543.90
430.47	556.19
430.85	566.81
431.22	579.86
431.59	595.62
431.96	608.57
432.33	623.38
432.70	637.67
433.08	654.52
433.45	670.24
433.82	684.95
434.19	701.33
434.56	716.86
434.93	732.57
435.30	747.76
435.68	765.62
436.05	782.43
436.42	798.57
436.79	813.81
437.16	830.33
437.53	848.29
437.90	865.57
438.27	882.52
438.64	899.19
439.01	915.24
439.38	926.19
439.75	939.24
440.13	954.14
440.50	968.48
440.87	979.81
441.24	992.24
441.61	1006.00
441.98	1015.38
442.35	1025.86
442.72	1038.43
443.09	1050.67
443.46	1056.76
443.83	1060.14
444.20	1063.43
444.57	1067.19
444.94	1069.00
445.31	1069.76
445.68	1074.76
446.05	1073.52
446.42	1070.62
446.79	1067.05
447.16	1063.95
447.53	1061.33
447.90	1053.95
448.27	1046.05
448.64	1035.43
449.01	1027.71
449.37	1014.76
449.74	1002.76
450.11	991.67
450.48	974.67
450.85	957.95
451.22	943.57
451.59	931.43
451.96	919.52
452.33	904.24
452.70	889.38
453.07	872.95
453.43	852.24
453.80	836.43
454.17	820.95
454.54	805.52
454.91	790.38
455.28	774.81
455.65	759.81
456.02	749.62
456.38	737.62
456.75	722.62
457.12	710.10
457.49	697.90
457.86	683.38
458.23	674.10
458.59	662.57
458.96	651.62
459.33	641.57
459.70	631.10
460.07	622.62
460.43	614.10
460.80	606.24
461.17	598.76
461.54	590.24
461.91	582.38
462.27	575.38
462.64	568.29
463.01	561.62
463.38	555.71
463.74	544.19
464.11	537.90
464.48	532.05
464.85	526.43
465.21	522.90
465.58	518.48
465.95	512.33
466.32	508.05
466.68	504.00
467.05	499.10
467.42	494.76
467.78	490.33
468.15	486.10
468.52	482.67
468.88	478.00
469.25	474.43
469.62	471.14
469.98	466.81
470.35	463.67
470.72	460.57
471.08	456.24
471.45	454.38
471.82	452.00
472.18	448.62
472.55	446.76
472.92	443.00
473.28	440.62
473.65	438.33
474.02	436.10
474.38	433.71
474.75	432.24
475.11	430.38
475.48	428.86
475.85	427.10
476.21	425.19
476.58	424.67
476.94	423.24
477.31	422.57
477.67	422.52
478.04	421.52
478.41	420.95
478.77	423.10
479.14	421.86
479.50	421.33
479.87	421.81
480.23	421.62
480.60	421.67
480.96	421.38
481.33	422.81
481.69	423.29
482.06	423.81
482.42	424.43
482.79	425.29
483.15	426.29
483.52	427.81
483.88	428.67
484.25	428.90
484.61	429.81
484.98	430.48
485.34	431.76
485.71	433.43
486.07	434.43
486.44	433.76
486.80	435.33
487.17	436.86
487.53	438.86
487.90	440.90
488.26	443.48
488.62	445.95
488.99	447.05
489.35	449.14
489.72	450.57
490.08	451.95
490.44	453.67
490.81	455.95
491.17	457.10
491.54	460.05
491.90	462.76
492.26	465.57
492.63	469.05
492.99	470.81
493.36	473.19
493.72	475.86
494.08	478.57
494.45	481.71
494.81	485.24
495.17	487.52
495.54	490.33
495.90	492.95
496.26	495.95
496.63	499.86
496.99	503.00
497.35	507.57
497.72	512.05
498.08	515.67
498.44	519.67
498.80	524.52
499.17	527.90
499.53	532.00
499.89	537.48
500.26	540.29
500.62	545.43
500.98	550.86
501.34	556.29
501.71	561.67
502.07	566.48
502.43	570.76
502.79	575.90
503.16	581.38
503.52	586.57
503.88	592.00
504.24	597.00
504.60	601.95
504.97	606.90
505.33	611.71
505.69	618.29
506.05	623.14
506.41	628.29
506.78	633.33
507.14	638.95
507.50	643.86
507.86	650.90
508.22	655.90
508.59	660.62
508.95	665.90
509.31	672.19
509.67	677.62
510.03	682.90
510.39	688.81
510.75	693.95
511.12	699.29
511.48	703.62
511.84	707.62
512.20	712.43
512.56	717.86
512.92	722.52
513.28	727.52
513.64	732.62
514.00	737.52
514.37	742.52
514.73	747.14
515.09	752.48
515.45	756.24
515.81	761.05
516.17	765.19
516.53	768.67
516.89	770.95
517.25	775.71
517.61	781.10
517.97	784.57
518.33	788.90
518.69	792.76
519.05	796.62
519.41	800.76
519.77	805.67
520.13	808.81
520.49	811.62
520.85	814.33
521.21	818.81
521.57	822.19
521.93	824.52
522.29	826.95
522.65	828.14
523.01	831.00
523.37	832.43
523.73	835.24
524.09	838.29
524.45	841.24
524.81	842.33
525.17	843.62
525.53	846.14
525.89	847.57
526.25	849.57
526.61	851.29
526.97	853.14
527.33	854.62
527.68	859.00
528.04	861.38
528.40	862.67
528.76	862.86
529.12	864.10
529.48	866.43
529.84	867.67
530.20	870.19
530.56	871.95
530.91	874.57
531.27	876.10
531.63	877.43
531.99	877.71
532.35	878.86
532.71	879.71
533.07	879.76
533.42	883.67
533.78	884.10
534.14	886.24
534.50	887.67
534.86	888.86
535.21	887.43
535.57	889.43
535.93	889.86
536.29	891.38
536.65	892.52
537.00	894.10
537.36	896.81
537.72	898.00
538.08	900.05
538.44	901.29
538.79	903.52
539.15	904.67
539.51	907.43
539.87	909.76
540.22	913.00
540.58	916.33
540.94	915.24
541.29	917.38
541.65	918.14
542.01	921.33
542.37	922.52
542.72	923.95
543.08	924.67
543.44	926.43
543.79	925.76
544.15	926.43
544.51	926.14
544.87	924.38
545.22	923.57
545.58	921.95
545.94	920.33
546.29	918.48
546.65	916.62
547.01	914.05
547.36	911.71
547.72	907.14
548.07	903.71
548.43	900.62
548.79	897.38
549.14	894.29
549.50	890.76
549.86	887.38
550.21	883.67
550.57	879.62
550.92	876.24
551.28	875.10
551.64	872.10
551.99	869.62
552.35	867.00
552.70	863.76
553.06	861.67
553.41	859.52
553.77	858.57
554.13	856.52
554.48	855.00
554.84	853.05
555.19	851.81
555.55	852.57
555.90	851.71
556.26	849.52
556.61	847.48
556.97	842.90
557.32	841.38
557.68	840.05
558.03	838.81
558.39	837.05
558.74	834.43
559.10	832.00
559.45	830.14
559.81	828.71
560.16	827.24
560.52	825.29
560.87	824.24
561.23	820.86
561.58	821.76
561.94	819.52
562.29	817.71
562.64	816.00
563.00	811.52
563.35	809.71
563.71	808.71
564.06	807.29
564.42	806.90
564.77	805.57
565.12	803.67
565.48	804.38
565.83	803.76
566.19	802.48
566.54	801.33
566.89	799.62
567.25	800.05
567.60	800.29
567.96	801.81
568.31	801.81
568.66	802.43
569.02	799.29
569.37	798.33
569.72	797.43
570.08	796.29
570.43	795.00
570.78	792.86
571.14	791.67
571.49	790.76
571.84	789.62
572.20	787.57
572.55	786.57
572.90	783.00
573.26	780.38
573.61	778.19
573.96	776.90
574.31	776.05
574.67	773.10
575.02	770.29
575.37	766.00
575.72	762.71
576.08	759.67
576.43	757.71
576.78	756.48
577.13	755.57
577.49	754.10
577.84	753.14
578.19	752.24
578.54	751.95
578.90	750.90
579.25	749.95
579.60	749.14
579.95	747.76
580.30	747.24
580.66	746.95
581.01	747.00
581.36	745.43
581.71	744.24
582.06	744.05
582.42	743.05
582.77	741.52
583.12	740.29
583.47	739.05
583.82	737.71
584.17	735.90
584.53	734.00
584.88	732.10
585.23	731.00
585.58	729.24
585.93	726.19
586.28	724.19
586.63	722.67
586.98	721.14
587.34	719.62
587.69	716.38
588.04	713.38
588.39	709.52
588.74	706.86
589.09	704.43
589.44	700.57
589.79	697.81
590.14	695.14
590.49	691.81
590.84	688.29
591.19	684.76
591.54	681.52
591.89	677.57
592.25	676.95
592.60	672.19
592.95	669.95
593.30	666.86
593.65	663.67
594.00	660.00
594.35	663.05
594.70	659.24
595.05	656.67
595.40	653.71
595.75	651.71
596.10	649.05
596.45	645.71
596.80	643.14
597.15	640.10
597.50	637.29
597.85	635.81
598.19	633.48
598.54	631.29
598.89	629.38
599.24	627.57
599.59	623.48
599.94	621.33
600.29	618.19
600.64	616.24
600.99	614.71
601.34	612.95
601.69	604.14
602.04	601.62
602.39	598.86
602.74	597.38
603.08	595.38
603.43	595.29
603.78	593.29
604.13	591.29
604.48	590.10
604.83	589.19
605.18	588.19
605.53	588.10
605.87	589.57
606.22	592.57
606.57	596.90
606.92	601.29
607.27	606.86
607.62	612.81
607.96	618.38
608.31	622.67
608.66	626.24
609.01	629.67
609.36	633.29
609.70	637.48
610.05	640.43
610.40	642.52
610.75	643.19
611.10	645.43
611.44	646.90
611.79	646.52
612.14	646.52
612.49	644.48
612.83	642.19
613.18	638.29
613.53	632.76
613.88	625.14
614.22	617.24
614.57	609.05
614.92	599.62
615.27	591.19
615.61	583.29
615.96	575.86
616.31	568.24
616.65	562.38
617.00	554.90
617.35	548.29
617.70	542.52
618.04	537.57
618.39	532.43
618.74	528.24
619.08	524.57
619.43	520.19
619.78	517.19
620.12	514.10
620.47	511.29
620.82	507.95
621.16	505.57
621.51	504.95
621.85	502.48
622.20	500.86
622.55	497.52
622.89	495.00
623.24	493.52
623.59	492.52
623.93	490.24
624.28	488.62
624.62	489.29
624.97	488.90
625.32	486.38
625.66	483.81
626.01	481.14
626.35	479.10
626.70	477.24
627.04	476.19
627.39	474.38
627.73	473.33
628.08	471.67
628.43	469.57
628.77	465.86
629.12	463.81
629.46	461.71
629.81	460.19
630.15	458.29
630.50	455.10
630.84	452.62
631.19	450.14
631.53	447.52
631.88	442.19
632.22	438.52
632.57	436.81
632.91	434.24
633.26	432.57
633.60	429.86
633.95	427.57
634.29	424.29
634.64	421.90
634.98	418.90
635.32	417.05
635.67	415.10
636.01	413.24
636.36	411.38
636.70	409.76
637.05	407.71
637.39	405.67
637.73	404.48
638.08	403.90
638.42	402.14
638.77	401.81
639.11	400.76
639.45	398.95
639.80	397.29
640.14	396.29
640.49	393.86
640.83	392.62
641.17	391.29
641.52	390.00
641.86	389.10
642.20	388.48
642.55	386.33
642.89	385.62
643.23	384.43
643.58	384.10
643.92	382.29
644.26	381.86
644.61	381.38
644.95	380.67
645.29	378.52
645.64	378.43
645.98	376.95
646.32	376.81
646.66	376.38
647.01	375.10
647.35	374.67
647.69	374.76
648.04	374.67
648.38	374.24
648.72	373.33
649.06	371.95
649.41	370.38
649.75	370.05
650.09	369.14
650.43	367.95
650.78	366.19
651.12	365.29
651.46	364.10
651.80	362.38
652.14	360.95
652.49	360.05
652.83	358.19
653.17	356.81
653.51	354.86
653.85	353.29
654.20	352.05
654.54	350.43
654.88	348.52
655.22	346.62
655.56	345.24
655.90	344.19
656.25	343.14
656.59	342.00
656.93	341.10
657.27	340.57
657.61	339.67
657.95	339.48
658.29	338.52
658.64	337.95
658.98	337.33
659.32	336.00
659.66	335.00
660.00	334.52
660.34	333.48
660.68	332.48
661.02	332.05
661.36	331.24
661.70	330.05
662.05	329.81
662.39	329.95
662.73	330.00
663.07	331.00
663.41	330.62
663.75	330.05
664.09	329.33
664.43	327.76
664.77	327.52
665.11	326.43
665.45	326.05
665.79	325.81
666.13	324.86
666.47	324.67
666.81	324.10
667.15	323.05
667.49	322.95
667.83	323.24
668.17	322.33
668.51	321.86
668.85	322.14
669.19	322.00
669.53	320.71
669.87	319.33
670.21	317.00
670.55	316.29
670.89	316.95
671.23	316.48
671.57	315.95
671.91	315.33
672.25	314.71
672.58	315.00
672.92	313.48
673.26	313.10
673.60	312.86
673.94	312.43
674.28	312.57
674.62	311.90
674.96	311.24
675.30	311.00
675.64	310.29
675.97	309.52
676.31	308.81
676.65	308.43
676.99	308.38
677.33	308.05
677.67	307.71
678.01	305.67
678.34	305.14
678.68	305.19
679.02	304.38
679.36	303.81
679.70	302.43
680.04	301.95
680.37	301.57
680.71	300.62
681.05	300.19
681.39	299.29
681.73	298.90
682.06	298.14
682.40	297.62
682.74	297.67
683.08	298.33
683.42	297.52
683.75	297.86
684.09	297.38
684.43	297.00
684.77	296.19
685.10	296.10
685.44	295.67
685.78	294.81
686.12	294.43
686.45	294.10
686.79	293.52
687.13	293.57
687.46	293.19
687.80	293.86
688.14	293.48
688.48	293.19
688.81	293.19
689.15	293.00
689.49	292.52
689.82	292.19
690.16	290.52
690.50	290.00
690.83	289.19
691.17	288.24
691.51	288.05
691.84	287.90
692.18	287.67
692.52	286.90
692.85	286.67
693.19	286.81
693.52	286.62
693.86	286.05
694.20	285.62
694.53	285.52
694.87	284.52
695.21	283.52
695.54	283.14
695.88	282.00
696.21	280.86
696.55	280.76
696.88	279.95
697.22	279.52
697.56	279.52
697.89	278.86
698.23	278.76
698.56	278.29
698.90	278.52
699.23	278.00
699.57	277.62
699.90	276.95
700.24	276.48
700.58	276.14
700.91	276.48
701.25	277.90
701.58	277.95
701.92	278.81
702.25	279.67
702.59	279.67
702.92	280.29
703.26	281.24
703.59	281.52
703.93	284.43
704.26	285.24
704.60	286.05
704.93	286.19
705.26	286.24
705.60	287.14
705.93	286.67
706.27	287.76
706.60	289.05
706.94	290.62
707.27	290.76
707.61	291.14
707.94	291.57
708.27	289.95
708.61	289.38
708.94	288.57
709.28	288.10
709.61	287.52
709.94	287.05
710.28	286.62
710.61	285.71
710.95	282.24
711.28	283.05
711.61	281.71
711.95	281.76
712.28	280.90
712.61	279.57
712.95	280.00
713.28	279.90
713.61	278.52
713.95	276.71
714.28	275.81
714.61	274.57
714.95	273.38
715.28	272.33
715.61	271.52
715.95	271.00
716.28	270.33
716.61	270.33
716.95	269.57
717.28	268.90
717.61	268.57
717.94	268.33
718.28	266.10
718.61	265.62
718.94	264.71
719.27	264.67
719.61	264.38
719.94	263.29
720.27	261.52
720.60	261.10
720.94	260.62
721.27	260.38
721.60	260.81
721.93	260.33
722.27	261.24
722.60	261.62
722.93	261.24
723.26	261.05
723.59	260.48
723.93	260.71
724.26	260.62
724.59	260.43
724.92	260.33
725.25	261.10
725.59	261.05
725.92	261.43
726.25	260.90
726.58	261.05
726.91	261.10
727.24	261.29
727.57	261.05
727.91	260.86
728.24	260.81
728.57	259.76
728.90	259.86
729.23	258.71
729.56	259.76
729.89	259.38
730.22	259.05
730.55	259.14
730.89	258.57
731.22	258.14
731.55	257.76
731.88	258.00
732.21	257.00
732.54	256.67
732.87	256.00
733.20	256.19
733.53	255.76
733.86	255.90
734.19	255.71
734.52	256.14
734.85	257.76
735.18	257.67
735.51	258.57
735.84	258.62
736.17	259.43
736.50	257.76
736.83	260.81
737.16	260.95
737.49	260.86
737.82	261.05
738.15	261.19
738.48	261.29
738.81	260.62
739.14	260.48
739.47	260.43
739.80	260.43
740.13	260.81
740.46	260.52
740.79	260.00
741.12	259.81
741.45	259.29
741.78	258.00
742.11	258.52
742.44	258.10
742.77	258.29
743.10	257.43
743.43	256.86
743.75	254.14
744.08	257.19
744.41	256.67
744.74	256.43
745.07	256.29
745.40	256.76
745.73	258.05
746.06	257.76
746.39	258.14
746.71	257.67
747.04	257.05
747.37	256.86
747.70	256.95
748.03	256.90
748.36	257.10
748.68	257.10
749.01	256.24
749.34	256.10
749.67	256.10
750.00	256.86
750.33	259.05
750.65	258.95
750.98	255.95
751.31	256.00
751.64	255.81
751.97	257.19
752.29	256.48
752.62	255.24
752.95	255.48
753.28	254.48
753.60	254.86
753.93	255.67
754.26	255.81
754.59	255.38
754.91	255.48
755.24	255.33
755.57	255.10
755.90	255.00
756.22	255.00
756.55	254.71
756.88	253.90
757.20	252.29
757.53	251.67
757.86	251.33
758.19	251.76
758.51	251.81
758.84	250.33
759.17	250.24
759.49	250.14
759.82	251.10
760.15	251.90
760.47	251.62
760.80	250.48
761.13	251.05
761.45	250.71
761.78	250.24
762.11	250.00
762.43	249.81
762.76	249.76
763.08	249.95
763.41	249.90
763.74	249.86
764.06	249.81
764.39	249.62
764.71	249.81
765.04	249.24
765.37	248.90
765.69	248.90
766.02	249.10
766.34	249.10
766.67	247.90
767.00	248.10
767.32	249.14
767.65	250.81
767.97	250.29
768.30	250.43
768.62	250.62
768.95	250.38
769.27	250.29
769.60	251.00
769.92	250.19
770.25	249.86
770.57	249.62
770.90	249.57
771.22	249.52
771.55	249.38
771.87	249.38
772.20	249.29
772.52	250.95
772.85	253.86
773.17	253.86
773.50	253.86
773.82	253.52
774.15	252.43
774.47	250.90
774.80	250.57
775.12	250.57
775.45	250.38
775.77	250.52
776.09	250.38
776.42	249.67
776.74	250.33
777.07	249.62
777.39	249.48
777.72	249.19
778.04	249.48
778.36	249.14
778.69	249.10
779.01	249.33
779.33	247.57
779.66	244.57
779.98	244.29
780.31	244.10
780.63	244.67
780.95	245.24
781.28	245.00
781.60	244.81
781.92	244.57
782.25	244.38
782.57	244.19
782.89	244.00
783.22	243.95
783.54	243.57
783.86	244.52
784.19	244.43
784.51	245.10
784.83	244.67
785.16	244.62
785.48	244.86
785.80	244.71
786.12	244.57
786.45	244.10
786.77	244.29
787.09	244.43
787.42	243.71
787.74	243.76
788.06	243.81
788.38	243.90
788.71	243.86
789.03	244.48
789.35	244.81
789.67	244.95
789.99	244.71
790.32	244.33
790.64	244.24
790.96	246.29
791.28	245.38
791.61	245.24
791.93	245.24
792.25	244.86
792.57	246.33
792.89	245.67
793.21	246.00
793.54	245.62
793.86	245.29
