SpectraSuite Data File
++++++++++++++++++++++++++++++++++++
Date: Wed Nov 07 18:31:14 EST 2012
User: group
Dark Spectrum Present: No
Reference Spectrum Present: No
Number of Sampled Component Spectra: 1
Spectrometers: USB2E7196
Integration Time (usec): 1000000 (USB2E7196)
Spectra Averaged: 1 (USB2E7196)
Boxcar Smoothing: 10 (USB2E7196)
Correct for Electrical Dark: No (USB2E7196)
Strobe/Lamp Enabled: No (USB2E7196)
Correct for Detector Non-linearity: No (USB2E7196)
Correct for Stray Light: No (USB2E7196)
Number of Pixels in Processed Spectrum: 2048
>>>>>Begin Processed Spectral Data<<<<<
339.09	0.00
339.48	222.00
339.86	218.00
340.24	218.00
340.63	221.00
341.01	261.00
341.39	222.00
341.78	227.00
342.16	235.00
342.54	235.00
342.93	220.90
343.31	231.95
343.69	232.48
344.07	232.86
344.46	234.00
344.84	234.90
345.22	233.81
345.60	234.52
345.99	235.19
346.37	234.86
346.75	234.57
347.13	234.71
347.52	235.43
347.90	236.00
348.28	235.90
348.66	236.48
349.05	235.67
349.43	236.10
349.81	236.67
350.19	237.14
350.57	237.38
350.96	237.19
351.34	237.57
351.72	237.81
352.10	238.19
352.48	238.00
352.87	237.71
353.25	237.62
353.63	237.57
354.01	237.10
354.39	237.67
354.77	238.10
355.15	238.81
355.54	238.33
355.92	238.19
356.30	238.14
356.68	239.52
357.06	239.71
357.44	239.52
357.82	239.38
358.20	239.71
358.58	240.24
358.97	240.67
359.35	241.14
359.73	241.38
360.11	241.33
360.49	241.38
360.87	241.48
361.25	241.86
361.63	242.81
362.01	243.14
362.39	243.29
362.77	243.52
363.15	243.38
363.53	243.67
363.91	243.57
364.29	243.43
364.67	241.24
365.05	241.24
365.43	241.57
365.81	241.81
366.19	242.90
366.57	243.43
366.95	243.29
367.33	242.90
367.71	243.38
368.09	244.24
368.47	244.33
368.85	244.33
369.23	244.76
369.61	243.57
369.99	244.81
370.37	245.05
370.75	245.95
371.13	245.67
371.51	245.76
371.89	246.19
372.27	246.48
372.65	246.67
373.03	246.95
373.41	246.43
373.78	246.24
374.16	245.05
374.54	244.38
374.92	244.10
375.30	243.81
375.68	243.24
376.06	242.86
376.44	242.57
376.82	242.86
377.19	242.38
377.57	242.57
377.95	241.48
378.33	241.19
378.71	239.76
379.09	240.29
379.47	240.19
379.84	240.00
380.22	239.62
380.60	239.14
380.98	239.00
381.36	239.43
381.73	239.19
382.11	239.62
382.49	239.62
382.87	239.71
383.25	239.86
383.62	242.19
384.00	241.81
384.38	242.00
384.76	242.48
385.13	243.57
385.51	243.48
385.89	243.10
386.27	243.10
386.64	243.57
387.02	243.05
387.40	242.76
387.78	242.33
388.15	242.86
388.53	242.81
388.91	242.76
389.29	242.62
389.66	243.24
390.04	242.67
390.42	243.33
390.79	243.29
391.17	243.43
391.55	241.19
391.92	241.48
392.30	241.67
392.68	241.05
393.05	240.95
393.43	241.33
393.81	241.90
394.18	241.57
394.56	241.48
394.94	242.14
395.31	242.14
395.69	243.48
396.06	243.52
396.44	243.90
396.82	243.67
397.19	244.76
397.57	244.48
397.95	244.90
398.32	243.76
398.70	243.90
399.07	244.29
399.45	244.19
399.82	244.19
400.20	244.05
400.58	244.29
400.95	243.57
401.33	244.10
401.70	245.62
402.08	245.62
402.45	245.81
402.83	246.43
403.20	246.76
403.58	246.48
403.95	247.14
404.33	247.52
404.71	247.90
405.08	249.29
405.46	249.38
405.83	249.81
406.21	250.52
406.58	251.14
406.96	251.29
407.33	251.90
407.70	252.52
408.08	255.00
408.45	255.71
408.83	256.57
409.20	256.76
409.58	256.14
409.95	257.29
410.33	258.24
410.70	258.19
411.08	259.62
411.45	260.62
411.82	261.29
412.20	263.29
412.57	265.90
412.95	265.33
413.32	267.33
413.69	268.81
414.07	270.29
414.44	272.24
414.82	274.05
415.19	276.33
415.56	278.86
415.94	279.71
416.31	282.90
416.68	285.81
417.06	288.71
417.43	292.52
417.81	296.38
418.18	300.38
418.55	304.48
418.93	308.33
419.30	312.43
419.67	317.05
420.04	321.05
420.42	325.14
420.79	332.81
421.16	338.57
421.54	345.57
421.91	352.33
422.28	358.57
422.66	365.76
423.03	374.10
423.40	380.76
423.77	387.95
424.15	394.67
424.52	402.05
424.89	411.48
425.26	419.14
425.64	426.62
426.01	434.33
426.38	442.48
426.75	451.90
427.13	460.71
427.50	470.57
427.87	480.62
428.24	490.48
428.61	498.43
428.99	510.43
429.36	521.05
429.73	532.05
430.10	543.33
430.47	555.62
430.85	566.43
431.22	579.43
431.59	596.24
431.96	609.81
432.33	624.76
432.70	639.33
433.08	655.52
433.45	670.57
433.82	686.48
434.19	703.95
434.56	719.67
434.93	734.95
435.30	749.90
435.68	767.48
436.05	783.62
436.42	799.67
436.79	814.81
437.16	830.95
437.53	848.14
437.90	864.81
438.27	881.38
438.64	897.48
439.01	913.14
439.38	924.33
439.75	936.95
440.13	951.19
440.50	963.48
440.87	974.43
441.24	985.95
441.61	998.10
441.98	1006.67
442.35	1018.19
442.72	1029.33
443.09	1040.95
443.46	1046.38
443.83	1051.33
444.20	1054.86
444.57	1058.19
444.94	1059.19
445.31	1060.67
445.68	1065.19
446.05	1064.86
446.42	1062.00
446.79	1059.43
447.16	1055.24
447.53	1053.14
447.90	1046.33
448.27	1038.76
448.64	1029.14
449.01	1022.67
449.37	1010.67
449.74	999.62
450.11	987.90
450.48	973.10
450.85	957.19
451.22	943.62
451.59	930.67
451.96	918.52
452.33	903.48
452.70	889.81
453.07	872.76
453.43	853.24
453.80	836.29
454.17	820.81
454.54	804.76
454.91	789.24
455.28	773.48
455.65	758.19
456.02	748.14
456.38	734.90
456.75	719.81
457.12	707.29
457.49	694.71
457.86	679.48
458.23	670.48
458.59	659.33
458.96	648.43
459.33	638.14
459.70	628.19
460.07	619.62
460.43	610.33
460.80	602.76
461.17	595.29
461.54	587.76
461.91	580.38
462.27	573.43
462.64	566.95
463.01	560.24
463.38	555.33
463.74	544.43
464.11	539.00
464.48	533.76
464.85	528.10
465.21	524.19
465.58	520.52
465.95	513.67
466.32	508.86
466.68	503.81
467.05	499.67
467.42	495.14
467.78	490.52
468.15	486.90
468.52	483.81
468.88	479.10
469.25	474.76
469.62	472.05
469.98	468.38
470.35	465.43
470.72	462.05
471.08	456.95
471.45	454.52
471.82	452.57
472.18	449.14
472.55	447.19
472.92	443.90
473.28	441.29
473.65	439.48
474.02	437.19
474.38	435.67
474.75	433.71
475.11	431.48
475.48	430.57
475.85	428.29
476.21	426.00
476.58	424.81
476.94	424.43
477.31	423.05
477.67	422.67
478.04	421.43
478.41	420.71
478.77	422.90
479.14	422.76
479.50	422.05
479.87	422.71
480.23	422.76
480.60	423.29
480.96	423.81
481.33	425.33
481.69	426.52
482.06	427.76
482.42	429.14
482.79	430.76
483.15	431.76
483.52	434.24
483.88	436.19
484.25	438.24
484.61	439.62
484.98	441.71
485.34	443.90
485.71	446.86
486.07	449.38
486.44	449.71
486.80	451.24
487.17	453.81
487.53	456.33
487.90	458.67
488.26	461.67
488.62	464.52
488.99	465.71
489.35	467.43
489.72	469.38
490.08	470.81
490.44	472.71
490.81	474.57
491.17	475.90
491.54	478.05
491.90	480.05
492.26	482.19
492.63	484.05
492.99	485.62
493.36	486.90
493.72	489.38
494.08	491.52
494.45	495.43
494.81	498.24
495.17	500.00
495.54	502.62
495.90	504.48
496.26	507.29
496.63	510.57
496.99	513.62
497.35	516.67
497.72	520.48
498.08	524.05
498.44	527.38
498.80	531.19
499.17	534.76
499.53	538.38
499.89	543.05
500.26	547.10
500.62	551.67
500.98	557.33
501.34	561.43
501.71	566.14
502.07	569.81
502.43	573.57
502.79	577.67
503.16	582.33
503.52	587.33
503.88	591.10
504.24	596.24
504.60	601.71
504.97	607.00
505.33	611.24
505.69	616.81
506.05	622.81
506.41	627.95
506.78	633.05
507.14	637.76
507.50	641.90
507.86	646.90
508.22	651.52
508.59	654.86
508.95	659.86
509.31	664.76
509.67	669.90
510.03	675.00
510.39	680.86
510.75	686.14
511.12	690.76
511.48	696.10
511.84	700.29
512.20	704.71
512.56	709.86
512.92	715.05
513.28	719.81
513.64	723.24
514.00	727.29
514.37	731.19
514.73	736.00
515.09	740.86
515.45	745.00
515.81	749.00
516.17	753.10
516.53	757.90
516.89	761.24
517.25	764.71
517.61	769.19
517.97	772.24
518.33	775.57
518.69	779.38
519.05	783.10
519.41	786.95
519.77	791.71
520.13	794.67
520.49	797.62
520.85	799.90
521.21	804.33
521.57	807.71
521.93	810.19
522.29	813.67
522.65	815.57
523.01	818.52
523.37	821.10
523.73	824.29
524.09	825.62
524.45	828.14
524.81	830.90
525.17	832.38
525.53	834.81
525.89	837.19
526.25	839.14
526.61	840.14
526.97	841.81
527.33	842.48
527.68	846.29
528.04	849.10
528.40	850.05
528.76	851.10
529.12	852.67
529.48	854.71
529.84	855.05
530.20	857.52
530.56	858.95
530.91	860.62
531.27	861.48
531.63	862.62
531.99	863.62
532.35	864.57
532.71	865.71
533.07	867.14
533.42	871.24
533.78	871.76
534.14	874.00
534.50	875.05
534.86	877.19
535.21	877.00
535.57	878.29
535.93	881.52
536.29	885.95
536.65	889.33
537.00	892.52
537.36	897.43
537.72	902.43
538.08	909.95
538.44	916.62
538.79	925.71
539.15	934.14
539.51	942.52
539.87	950.19
540.22	958.57
540.58	967.14
540.94	973.52
541.29	983.00
541.65	990.38
542.01	998.95
542.37	1005.57
542.72	1010.86
543.08	1014.71
543.44	1017.86
543.79	1017.71
544.15	1018.76
544.51	1020.05
544.87	1018.95
545.22	1015.95
545.58	1011.76
545.94	1006.52
546.29	999.24
546.65	992.33
547.01	984.76
547.36	977.81
547.72	970.24
548.07	961.67
548.43	951.76
548.79	942.14
549.14	933.14
549.50	924.57
549.86	915.43
550.21	907.57
550.57	901.24
550.92	895.43
551.28	890.14
551.64	885.57
551.99	879.52
552.35	874.52
552.70	869.05
553.06	864.19
553.41	861.10
553.77	858.81
554.13	855.10
554.48	853.52
554.84	850.86
555.19	846.67
555.55	845.67
555.90	843.29
556.26	839.81
556.61	837.19
556.97	832.57
557.32	830.14
557.68	827.62
558.03	825.52
558.39	822.52
558.74	819.57
559.10	816.90
559.45	815.86
559.81	813.86
560.16	812.48
560.52	810.48
560.87	808.14
561.23	804.76
561.58	804.52
561.94	801.76
562.29	798.67
562.64	797.48
563.00	793.86
563.35	791.67
563.71	791.24
564.06	789.52
564.42	788.52
564.77	787.14
565.12	785.57
565.48	786.05
565.83	784.52
566.19	783.52
566.54	780.95
566.89	779.19
567.25	779.24
567.60	779.95
567.96	780.62
568.31	780.90
568.66	780.43
569.02	777.29
569.37	775.43
569.72	775.24
570.08	773.76
570.43	772.52
570.78	771.43
571.14	769.86
571.49	768.95
571.84	768.48
572.20	767.05
572.55	765.86
572.90	761.90
573.26	760.90
573.61	759.57
573.96	759.10
574.31	757.52
574.67	754.67
575.02	752.33
575.37	748.95
575.72	746.71
576.08	746.19
576.43	746.00
576.78	745.29
577.13	744.19
577.49	744.05
577.84	743.10
578.19	741.90
578.54	740.95
578.90	739.76
579.25	739.10
579.60	738.33
579.95	737.19
580.30	736.62
580.66	735.86
581.01	734.57
581.36	732.86
581.71	732.14
582.06	732.43
582.42	731.86
582.77	730.57
583.12	729.05
583.47	727.29
583.82	725.38
584.17	724.43
584.53	723.48
584.88	720.90
585.23	719.52
585.58	718.00
585.93	715.86
586.28	714.33
586.63	711.57
586.98	709.24
587.34	708.19
587.69	704.90
588.04	702.48
588.39	700.29
588.74	697.10
589.09	694.29
589.44	689.86
589.79	686.52
590.14	683.62
590.49	680.24
590.84	675.86
591.19	672.62
591.54	668.10
591.89	662.90
592.25	662.29
592.60	657.71
592.95	654.38
593.30	651.48
593.65	648.48
594.00	645.00
594.35	648.19
594.70	644.14
595.05	642.43
595.40	639.29
595.75	636.00
596.10	633.90
596.45	630.95
596.80	628.33
597.15	624.90
597.50	621.48
597.85	619.43
598.19	616.90
598.54	614.71
598.89	612.57
599.24	610.62
599.59	605.81
599.94	603.81
600.29	601.24
600.64	598.24
600.99	595.57
601.34	593.90
601.69	584.95
602.04	582.52
602.39	579.57
602.74	577.48
603.08	575.57
603.43	574.52
603.78	572.71
604.13	571.57
604.48	570.33
604.83	570.38
605.18	569.52
605.53	570.14
605.87	571.67
606.22	575.14
606.57	580.67
606.92	586.48
607.27	592.67
607.62	598.43
607.96	604.38
608.31	608.81
608.66	612.71
609.01	616.29
609.36	619.67
609.70	624.00
610.05	626.57
610.40	629.48
610.75	631.43
611.10	633.52
611.44	634.24
611.79	634.67
612.14	634.57
612.49	632.81
612.83	631.00
613.18	627.24
613.53	621.52
613.88	613.48
614.22	604.86
614.57	596.10
614.92	587.33
615.27	579.48
615.61	571.67
615.96	564.71
616.31	558.24
616.65	552.43
617.00	545.10
617.35	538.95
617.70	532.48
618.04	526.19
618.39	520.29
618.74	516.05
619.08	512.38
619.43	508.10
619.78	504.71
620.12	501.24
620.47	498.14
620.82	494.86
621.16	492.24
621.51	491.38
621.85	489.38
622.20	488.05
622.55	485.29
622.89	483.19
623.24	481.24
623.59	479.00
623.93	476.86
624.28	474.71
624.62	475.52
624.97	475.24
625.32	473.29
625.66	471.24
626.01	468.86
626.35	466.86
626.70	465.29
627.04	464.57
627.39	462.81
627.73	461.86
628.08	460.76
628.43	459.05
628.77	455.52
629.12	453.10
629.46	450.67
629.81	448.81
630.15	446.71
630.50	443.86
630.84	442.10
631.19	439.90
631.53	438.33
631.88	433.86
632.22	430.24
632.57	429.19
632.91	427.19
633.26	425.38
633.60	422.86
633.95	420.29
634.29	416.67
634.64	414.38
634.98	411.33
635.32	409.57
635.67	407.95
636.01	406.05
636.36	404.10
636.70	402.62
637.05	400.67
637.39	398.90
637.73	398.00
638.08	397.05
638.42	395.10
638.77	393.76
639.11	392.14
639.45	390.33
639.80	387.95
640.14	387.05
640.49	385.29
640.83	383.71
641.17	382.90
641.52	382.10
641.86	381.05
642.20	380.90
642.55	378.62
642.89	377.19
643.23	376.38
643.58	376.19
643.92	374.81
644.26	373.76
644.61	373.24
644.95	372.24
645.29	370.57
645.64	370.67
645.98	369.10
646.32	368.67
646.66	367.71
647.01	366.86
647.35	366.14
647.69	366.24
648.04	366.10
648.38	364.76
648.72	363.90
649.06	362.71
649.41	360.67
649.75	360.05
650.09	359.57
650.43	358.48
650.78	356.62
651.12	355.33
651.46	354.29
651.80	353.19
652.14	351.57
652.49	351.00
652.83	349.00
653.17	348.24
653.51	346.48
653.85	345.81
654.20	344.86
654.54	343.67
654.88	342.00
655.22	339.95
655.56	338.90
655.90	338.19
656.25	337.38
656.59	336.67
656.93	336.29
657.27	335.81
657.61	334.71
657.95	334.38
658.29	333.38
658.64	333.52
658.98	332.57
659.32	331.71
659.66	330.76
660.00	330.57
660.34	329.90
660.68	329.76
661.02	329.71
661.36	329.00
661.70	328.00
662.05	327.14
662.39	327.76
662.73	328.00
663.07	328.52
663.41	328.24
663.75	327.05
664.09	326.33
664.43	324.71
664.77	324.48
665.11	323.62
665.45	323.00
665.79	322.38
666.13	321.57
666.47	321.33
666.81	321.00
667.15	319.86
667.49	319.19
667.83	318.86
668.17	317.67
668.51	317.24
668.85	317.00
669.19	317.62
669.53	316.19
669.87	315.05
670.21	313.57
670.55	312.76
670.89	313.71
671.23	312.95
671.57	312.81
671.91	312.24
672.25	311.52
672.58	312.05
672.92	310.62
673.26	310.33
673.60	309.90
673.94	308.86
674.28	308.86
674.62	308.57
674.96	307.29
675.30	307.24
675.64	306.52
675.97	305.62
676.31	304.57
676.65	303.67
676.99	303.62
677.33	302.81
677.67	302.62
678.01	300.76
678.34	300.43
678.68	300.05
679.02	299.43
679.36	299.38
679.70	298.43
680.04	298.43
680.37	298.29
680.71	297.43
681.05	297.71
681.39	297.14
681.73	296.19
682.06	295.90
682.40	295.19
682.74	295.10
683.08	296.10
683.42	295.38
683.75	295.67
684.09	294.67
684.43	293.86
684.77	292.95
685.10	292.90
685.44	292.76
685.78	292.38
686.12	291.67
686.45	291.05
686.79	290.29
687.13	290.05
687.46	289.00
687.80	289.62
688.14	288.76
688.48	288.48
688.81	288.48
689.15	289.00
689.49	288.52
689.82	288.33
690.16	286.81
690.50	286.29
690.83	285.67
691.17	285.00
691.51	285.00
691.84	285.29
692.18	284.76
692.52	284.29
692.85	283.90
693.19	285.00
693.52	284.48
693.86	284.05
694.20	283.29
694.53	283.38
694.87	282.19
695.21	281.71
695.54	281.71
695.88	280.90
696.21	279.57
696.55	279.43
696.88	278.86
697.22	278.19
697.56	278.38
697.89	277.81
698.23	278.38
698.56	277.95
698.90	277.48
699.23	277.19
699.57	276.90
699.90	276.48
700.24	275.57
700.58	275.81
700.91	276.43
701.25	278.62
701.58	279.62
701.92	280.52
702.25	280.95
702.59	280.48
702.92	281.33
703.26	282.05
703.59	282.19
703.93	284.62
704.26	285.14
704.60	285.48
704.93	286.05
705.26	285.57
705.60	286.24
705.93	286.19
706.27	287.48
706.60	288.43
706.94	289.67
707.27	289.52
707.61	289.71
707.94	289.24
708.27	287.48
708.61	286.24
708.94	285.81
709.28	285.67
709.61	285.19
709.94	284.57
710.28	283.90
710.61	283.52
710.95	280.43
711.28	281.29
711.61	280.48
711.95	280.19
712.28	279.43
712.61	278.86
712.95	279.43
713.28	279.38
713.61	278.05
713.95	276.67
714.28	276.29
714.61	275.52
714.95	274.86
715.28	273.67
715.61	273.00
715.95	272.52
716.28	271.29
716.61	271.48
716.95	270.71
717.28	269.95
717.61	269.19
717.94	268.90
718.28	266.90
718.61	266.24
718.94	265.67
719.27	265.38
719.61	264.90
719.94	263.86
720.27	262.24
720.60	261.95
720.94	261.71
721.27	261.33
721.60	261.33
721.93	260.81
722.27	261.57
722.60	261.43
722.93	261.05
723.26	261.19
723.59	260.24
723.93	260.38
724.26	260.81
724.59	260.62
724.92	260.62
725.25	261.14
725.59	261.43
725.92	261.48
726.25	261.48
726.58	261.67
726.91	261.29
727.24	261.57
727.57	261.33
727.91	260.86
728.24	260.86
728.57	260.38
728.90	260.90
729.23	259.90
729.56	261.05
729.89	260.62
730.22	260.38
730.55	260.43
730.89	260.14
731.22	259.43
731.55	259.48
731.88	259.24
732.21	258.76
732.54	258.10
732.87	257.95
733.20	257.71
733.53	257.38
733.86	257.62
734.19	257.00
734.52	257.10
734.85	258.33
735.18	257.67
735.51	258.48
735.84	258.38
736.17	259.38
736.50	258.00
736.83	260.67
737.16	260.67
737.49	260.67
737.82	260.67
738.15	261.19
738.48	261.19
738.81	261.14
739.14	261.00
739.47	261.05
739.80	260.90
740.13	261.29
740.46	260.71
740.79	260.43
741.12	260.43
741.45	260.14
741.78	259.00
742.11	260.10
742.44	259.19
742.77	259.33
743.10	258.43
743.43	258.29
743.75	256.10
744.08	259.19
744.41	258.86
744.74	258.57
745.07	258.24
745.40	258.14
745.73	259.24
746.06	259.00
746.39	259.05
746.71	258.38
747.04	258.10
747.37	258.24
747.70	258.43
748.03	258.33
748.36	259.00
748.68	258.71
749.01	257.57
749.34	257.33
749.67	257.29
750.00	257.48
750.33	259.62
750.65	259.38
750.98	256.10
751.31	256.19
751.64	256.57
751.97	257.90
752.29	257.90
752.62	256.71
752.95	256.67
753.28	256.67
753.60	256.86
753.93	257.24
754.26	257.00
754.59	256.14
754.91	255.90
755.24	254.90
755.57	254.90
755.90	254.76
756.22	254.71
756.55	254.19
756.88	253.67
757.20	251.38
757.53	250.76
757.86	250.62
758.19	250.76
758.51	250.33
758.84	248.62
759.17	248.14
759.49	248.05
759.82	249.24
760.15	248.86
760.47	248.67
760.80	247.86
761.13	248.29
761.45	247.81
761.78	247.67
762.11	247.76
762.43	247.48
762.76	247.43
763.08	247.48
763.41	247.62
763.74	247.48
764.06	247.67
764.39	247.90
764.71	247.76
765.04	247.24
765.37	247.10
765.69	247.10
766.02	247.19
766.34	247.14
766.67	246.05
767.00	246.52
767.32	247.81
767.65	249.24
767.97	249.05
768.30	249.67
768.62	249.76
768.95	249.52
769.27	249.38
769.60	249.67
769.92	249.48
770.25	248.95
770.57	248.62
770.90	248.71
771.22	248.10
771.55	248.33
771.87	248.38
772.20	248.29
772.52	250.14
772.85	253.33
773.17	253.43
773.50	253.38
773.82	252.95
774.15	251.76
774.47	250.19
774.80	249.86
775.12	249.67
775.45	249.81
775.77	249.62
776.09	249.95
776.42	250.14
776.74	250.71
777.07	250.57
777.39	250.86
777.72	250.38
778.04	250.86
778.36	250.67
778.69	250.90
779.01	250.95
779.33	248.90
779.66	245.95
779.98	245.76
780.31	245.62
780.63	246.52
780.95	246.90
781.28	246.90
781.60	246.62
781.92	246.76
782.25	246.57
782.57	247.14
782.89	246.81
783.22	246.38
783.54	246.19
783.86	246.29
784.19	246.19
784.51	247.10
784.83	246.86
785.16	246.57
785.48	246.71
785.80	246.43
786.12	246.95
786.45	246.71
786.77	246.76
787.09	246.71
787.42	246.05
787.74	245.95
788.06	246.29
788.38	246.57
788.71	246.05
789.03	245.67
789.35	245.57
789.67	245.33
789.99	245.86
790.32	245.38
790.64	245.52
790.96	247.48
791.28	246.67
791.61	246.48
791.93	246.81
792.25	246.86
792.57	248.81
792.89	248.14
793.21	248.24
793.54	248.19
