SpectraSuite Data File
++++++++++++++++++++++++++++++++++++
Date: Wed Nov 07 18:31:42 EST 2012
User: group
Dark Spectrum Present: No
Reference Spectrum Present: No
Number of Sampled Component Spectra: 1
Spectrometers: USB2E7196
Integration Time (usec): 1000000 (USB2E7196)
Spectra Averaged: 1 (USB2E7196)
Boxcar Smoothing: 10 (USB2E7196)
Correct for Electrical Dark: No (USB2E7196)
Strobe/Lamp Enabled: No (USB2E7196)
Correct for Detector Non-linearity: No (USB2E7196)
Correct for Stray Light: No (USB2E7196)
Number of Pixels in Processed Spectrum: 2048
>>>>>Begin Processed Spectral Data<<<<<
339.09	0.00
339.48	219.00
339.86	213.00
340.24	222.00
340.63	223.00
341.01	266.00
341.39	230.00
341.78	231.00
342.16	237.00
342.54	235.00
342.93	223.86
343.31	235.05
343.69	235.57
344.07	236.38
344.46	237.33
344.84	237.86
345.22	236.19
345.60	236.48
345.99	236.52
346.37	236.43
346.75	236.24
347.13	236.24
347.52	236.10
347.90	237.05
348.28	236.67
348.66	237.19
349.05	236.48
349.43	236.57
349.81	236.43
350.19	236.19
350.57	236.33
350.96	236.43
351.34	236.57
351.72	236.76
352.10	236.90
352.48	236.48
352.87	236.62
353.25	236.76
353.63	236.52
354.01	236.33
354.39	236.29
354.77	236.29
355.15	236.81
355.54	236.57
355.92	235.76
356.30	235.71
356.68	237.00
357.06	237.24
357.44	236.52
357.82	236.57
358.20	237.10
358.58	237.14
358.97	237.10
359.35	237.62
359.73	238.05
360.11	237.95
360.49	238.19
360.87	238.19
361.25	238.62
361.63	239.43
362.01	239.71
362.39	239.90
362.77	240.57
363.15	240.52
363.53	241.00
363.91	241.33
364.29	241.57
364.67	239.19
365.05	239.14
365.43	240.00
365.81	240.52
366.19	241.67
366.57	242.48
366.95	242.67
367.33	242.19
367.71	242.43
368.09	243.14
368.47	243.29
368.85	243.24
369.23	243.76
369.61	243.29
369.99	244.38
370.37	244.76
370.75	245.95
371.13	245.52
371.51	245.67
371.89	245.76
372.27	245.95
372.65	246.48
373.03	246.90
373.41	246.52
373.78	246.43
374.16	244.90
374.54	244.19
374.92	243.81
375.30	243.71
375.68	243.43
376.06	243.71
376.44	243.19
376.82	243.38
377.19	243.38
377.57	243.24
377.95	242.43
378.33	242.29
378.71	240.62
379.09	241.38
379.47	241.29
379.84	241.10
380.22	240.86
380.60	240.57
380.98	240.33
381.36	240.52
381.73	239.90
382.11	240.52
382.49	240.76
382.87	240.67
383.25	240.81
383.62	243.29
384.00	242.52
384.38	243.05
384.76	243.29
385.13	244.33
385.51	244.10
385.89	244.00
386.27	243.95
386.64	244.43
387.02	243.95
387.40	243.48
387.78	244.00
388.15	244.05
388.53	243.86
388.91	244.05
389.29	243.76
389.66	244.52
390.04	244.00
390.42	244.29
390.79	244.48
391.17	244.43
391.55	241.86
391.92	241.62
392.30	241.76
392.68	241.67
393.05	241.00
393.43	241.29
393.81	241.43
394.18	241.10
394.56	240.76
394.94	241.10
395.31	241.19
395.69	241.71
396.06	242.52
396.44	242.67
396.82	242.29
397.19	243.29
397.57	242.62
397.95	242.95
398.32	242.19
398.70	242.38
399.07	242.90
399.45	242.90
399.82	243.05
400.20	242.57
400.58	242.10
400.95	241.19
401.33	241.90
401.70	243.29
402.08	243.24
402.45	243.57
402.83	244.29
403.20	244.19
403.58	243.67
403.95	244.00
404.33	244.57
404.71	244.81
405.08	246.48
405.46	246.95
405.83	247.57
406.21	248.19
406.58	248.52
406.96	248.76
407.33	249.48
407.70	250.24
408.08	252.76
408.45	254.14
408.83	255.00
409.20	255.38
409.58	254.81
409.95	256.24
410.33	257.10
410.70	257.14
411.08	258.86
411.45	259.71
411.82	260.24
412.20	261.71
412.57	264.43
412.95	263.81
413.32	265.62
413.69	267.19
414.07	268.90
414.44	270.76
414.82	272.71
415.19	275.05
415.56	277.48
415.94	278.71
416.31	281.52
416.68	284.57
417.06	288.10
417.43	292.05
417.81	295.76
418.18	299.81
418.55	303.43
418.93	307.29
419.30	311.52
419.67	316.33
420.04	320.90
420.42	325.38
420.79	332.95
421.16	338.43
421.54	345.48
421.91	351.52
422.28	357.90
422.66	364.38
423.03	372.81
423.40	379.90
423.77	387.76
424.15	394.90
424.52	403.05
424.89	411.48
425.26	418.62
425.64	426.00
426.01	433.33
426.38	442.71
426.75	452.71
427.13	462.62
427.50	471.81
427.87	481.52
428.24	491.19
428.61	498.57
428.99	510.62
429.36	520.81
429.73	532.00
430.10	543.29
430.47	556.05
430.85	566.43
431.22	579.19
431.59	594.38
431.96	607.14
432.33	621.05
432.70	634.33
433.08	651.24
433.45	666.86
433.82	682.71
434.19	699.62
434.56	714.95
434.93	730.00
435.30	745.95
435.68	763.19
436.05	780.48
436.42	798.48
436.79	813.86
437.16	830.48
437.53	848.38
437.90	865.43
438.27	882.29
438.64	898.76
439.01	915.19
439.38	926.71
439.75	940.81
440.13	956.24
440.50	970.76
440.87	981.48
441.24	993.24
441.61	1006.24
441.98	1014.57
442.35	1026.19
442.72	1037.86
443.09	1049.43
443.46	1055.05
443.83	1057.81
444.20	1060.10
444.57	1063.24
444.94	1064.14
445.31	1065.76
445.68	1070.76
446.05	1069.71
446.42	1067.00
446.79	1062.67
447.16	1058.38
447.53	1054.71
447.90	1046.76
448.27	1038.81
448.64	1029.95
449.01	1022.14
449.37	1010.24
449.74	999.19
450.11	986.90
450.48	971.14
450.85	954.14
451.22	941.00
451.59	929.76
451.96	917.57
452.33	902.90
452.70	888.71
453.07	870.90
453.43	850.33
453.80	834.00
454.17	818.71
454.54	804.00
454.91	789.05
455.28	773.90
455.65	759.33
456.02	749.14
456.38	736.29
456.75	721.24
457.12	707.76
457.49	695.14
457.86	681.14
458.23	671.62
458.59	660.57
458.96	649.62
459.33	638.19
459.70	627.90
460.07	620.14
460.43	611.05
460.80	602.67
461.17	594.90
461.54	587.33
461.91	579.62
462.27	572.05
462.64	565.24
463.01	558.10
463.38	552.48
463.74	541.38
464.11	535.14
464.48	529.90
464.85	524.76
465.21	520.86
465.58	516.33
465.95	510.19
466.32	505.62
466.68	500.43
467.05	496.67
467.42	492.76
467.78	486.90
468.15	482.71
468.52	480.19
468.88	476.24
469.25	471.81
469.62	469.29
469.98	465.52
470.35	462.33
470.72	459.29
471.08	454.81
471.45	453.00
471.82	450.43
472.18	447.33
472.55	445.05
472.92	441.86
473.28	438.90
473.65	436.29
474.02	434.19
474.38	433.10
474.75	431.00
475.11	428.57
475.48	427.43
475.85	426.14
476.21	423.86
476.58	423.10
476.94	421.71
477.31	420.10
477.67	419.48
478.04	418.95
478.41	418.52
478.77	420.14
479.14	418.90
479.50	418.24
479.87	418.29
480.23	417.62
480.60	417.67
480.96	417.90
481.33	419.19
481.69	420.14
482.06	420.57
482.42	421.33
482.79	422.24
483.15	422.67
483.52	423.76
483.88	424.86
484.25	425.14
484.61	426.48
484.98	427.10
485.34	429.10
485.71	430.43
486.07	431.43
486.44	430.57
486.80	431.62
487.17	432.95
487.53	435.14
487.90	437.33
488.26	439.81
488.62	442.00
488.99	442.81
489.35	444.00
489.72	445.33
490.08	446.95
490.44	448.57
490.81	451.33
491.17	453.14
491.54	455.52
491.90	458.76
492.26	460.86
492.63	463.81
492.99	465.62
493.36	468.43
493.72	471.29
494.08	474.29
494.45	478.38
494.81	481.95
495.17	484.76
495.54	488.38
495.90	490.86
496.26	494.24
496.63	498.57
496.99	502.52
497.35	506.33
497.72	510.76
498.08	514.95
498.44	518.95
498.80	523.43
499.17	527.81
499.53	531.52
499.89	536.38
500.26	540.95
500.62	546.14
500.98	551.10
501.34	556.48
501.71	562.00
502.07	565.95
502.43	570.86
502.79	575.62
503.16	580.00
503.52	584.86
503.88	589.29
504.24	594.33
504.60	599.52
504.97	604.90
505.33	609.14
505.69	615.10
506.05	619.81
506.41	624.95
506.78	630.14
507.14	635.43
507.50	640.62
507.86	646.00
508.22	651.48
508.59	656.19
508.95	661.81
509.31	667.95
509.67	673.86
510.03	678.48
510.39	683.10
510.75	688.76
511.12	694.24
511.48	699.81
511.84	704.33
512.20	708.90
512.56	713.10
512.92	718.10
513.28	722.48
513.64	726.57
514.00	731.10
514.37	735.43
514.73	740.29
515.09	744.81
515.45	748.71
515.81	752.00
516.17	756.81
516.53	759.86
516.89	762.62
517.25	765.86
517.61	771.10
517.97	775.05
518.33	778.90
518.69	783.33
519.05	787.86
519.41	791.71
519.77	797.14
520.13	800.76
520.49	805.00
520.85	808.33
521.21	812.71
521.57	816.19
521.93	818.90
522.29	820.90
522.65	823.19
523.01	825.81
523.37	828.57
523.73	830.10
524.09	832.38
524.45	833.90
524.81	836.14
525.17	837.81
525.53	839.67
525.89	841.05
526.25	842.33
526.61	843.52
526.97	844.62
527.33	845.24
527.68	849.38
528.04	850.19
528.40	851.62
528.76	852.86
529.12	853.76
529.48	855.81
529.84	856.76
530.20	858.67
530.56	859.76
530.91	861.05
531.27	862.67
531.63	864.19
531.99	865.38
532.35	866.52
532.71	867.05
533.07	868.33
533.42	872.24
533.78	872.24
534.14	872.62
534.50	873.71
534.86	875.62
535.21	874.57
535.57	876.33
535.93	876.33
536.29	878.33
536.65	879.76
537.00	880.14
537.36	882.33
537.72	883.24
538.08	886.05
538.44	888.19
538.79	890.33
539.15	891.48
539.51	894.19
539.87	895.62
540.22	897.38
540.58	899.57
540.94	898.52
541.29	901.10
541.65	902.14
542.01	905.14
542.37	905.33
542.72	906.76
543.08	906.52
543.44	907.48
543.79	905.57
544.15	905.86
544.51	906.43
544.87	905.38
545.22	904.33
545.58	901.90
545.94	899.19
546.29	897.19
546.65	894.71
547.01	891.95
547.36	889.95
547.72	887.57
548.07	884.52
548.43	881.95
548.79	878.38
549.14	875.90
549.50	871.95
549.86	868.71
550.21	865.95
550.57	863.67
550.92	861.05
551.28	860.38
551.64	857.67
551.99	855.62
552.35	852.86
552.70	851.38
553.06	850.24
553.41	848.33
553.77	847.00
554.13	846.29
554.48	845.14
554.84	844.48
555.19	842.81
555.55	843.52
555.90	842.67
556.26	841.67
556.61	839.33
556.97	836.95
557.32	834.62
557.68	832.76
558.03	831.29
558.39	829.38
558.74	826.43
559.10	824.14
559.45	822.14
559.81	820.86
560.16	818.95
560.52	816.95
560.87	815.81
561.23	813.48
561.58	813.19
561.94	810.33
562.29	807.33
562.64	804.90
563.00	800.86
563.35	797.95
563.71	795.19
564.06	794.00
564.42	792.86
564.77	791.67
565.12	790.00
565.48	790.48
565.83	789.29
566.19	788.10
566.54	786.81
566.89	784.86
567.25	783.48
567.60	783.33
567.96	784.10
568.31	784.00
568.66	783.71
569.02	780.67
569.37	779.38
569.72	778.43
570.08	778.14
570.43	776.95
570.78	775.24
571.14	774.86
571.49	774.19
571.84	772.62
572.20	771.05
572.55	769.86
572.90	765.52
573.26	764.33
573.61	762.33
573.96	761.33
574.31	760.14
574.67	759.33
575.02	757.00
575.37	752.81
575.72	749.62
576.08	746.52
576.43	745.14
576.78	743.05
577.13	740.95
577.49	738.57
577.84	737.38
578.19	736.05
578.54	734.38
578.90	731.71
579.25	730.43
579.60	729.76
579.95	727.38
580.30	726.90
580.66	725.29
581.01	724.14
581.36	722.00
581.71	719.52
582.06	718.14
582.42	715.95
582.77	714.14
583.12	713.19
583.47	711.57
583.82	708.86
584.17	707.71
584.53	707.14
584.88	705.33
585.23	703.81
585.58	702.24
585.93	699.43
586.28	697.71
586.63	695.67
586.98	693.10
587.34	691.86
587.69	689.00
588.04	686.86
588.39	684.38
588.74	681.62
589.09	680.14
589.44	676.19
589.79	673.86
590.14	671.48
590.49	668.00
590.84	664.76
591.19	662.48
591.54	660.24
591.89	655.90
592.25	655.29
592.60	651.62
592.95	648.86
593.30	647.00
593.65	644.57
594.00	640.24
594.35	644.52
594.70	640.57
595.05	637.95
595.40	633.90
595.75	630.48
596.10	628.33
596.45	625.33
596.80	623.48
597.15	620.48
597.50	617.48
597.85	616.05
598.19	613.90
598.54	611.43
598.89	608.52
599.24	606.67
599.59	602.48
599.94	599.57
600.29	597.48
600.64	595.29
600.99	593.81
601.34	593.10
601.69	583.48
602.04	581.43
602.39	578.86
602.74	577.86
603.08	576.76
603.43	575.62
603.78	573.62
604.13	570.95
604.48	569.05
604.83	568.57
605.18	567.05
605.53	566.95
605.87	568.43
606.22	570.05
606.57	573.10
606.92	575.33
607.27	579.19
607.62	582.29
607.96	585.10
608.31	586.67
608.66	588.57
609.01	590.52
609.36	592.10
609.70	594.00
610.05	595.19
610.40	596.48
610.75	596.19
611.10	597.00
611.44	598.48
611.79	598.62
612.14	597.38
612.49	594.90
612.83	593.00
613.18	589.52
613.53	585.38
613.88	579.19
614.22	573.76
614.57	567.76
614.92	560.90
615.27	554.95
615.61	549.52
615.96	543.86
616.31	538.62
616.65	534.57
617.00	529.62
617.35	524.95
617.70	520.62
618.04	516.81
618.39	512.38
618.74	508.62
619.08	505.10
619.43	501.95
619.78	500.00
620.12	497.10
620.47	494.14
620.82	491.10
621.16	488.67
621.51	487.29
621.85	484.29
622.20	483.05
622.55	480.33
622.89	478.14
623.24	476.71
623.59	475.19
623.93	472.81
624.28	471.00
624.62	471.67
624.97	470.62
625.32	468.52
625.66	467.48
626.01	465.24
626.35	463.90
626.70	461.86
627.04	461.29
627.39	459.48
627.73	458.71
628.08	457.52
628.43	455.71
628.77	453.24
629.12	451.48
629.46	449.67
629.81	448.52
630.15	446.62
630.50	443.86
630.84	441.48
631.19	439.90
631.53	437.76
631.88	432.76
632.22	429.71
632.57	428.48
632.91	425.71
633.26	423.95
633.60	421.57
633.95	419.29
634.29	415.33
634.64	413.67
634.98	411.05
635.32	409.05
635.67	407.48
636.01	405.48
636.36	403.71
636.70	402.10
637.05	399.71
637.39	397.81
637.73	397.19
638.08	396.14
638.42	394.05
638.77	393.29
639.11	392.19
639.45	390.48
639.80	388.48
640.14	387.33
640.49	385.86
640.83	384.43
641.17	383.95
641.52	383.00
641.86	381.81
642.20	381.29
642.55	379.81
642.89	378.57
643.23	377.52
643.58	377.57
643.92	375.57
644.26	374.81
644.61	374.33
644.95	373.19
645.29	372.19
645.64	372.19
645.98	370.76
646.32	370.33
646.66	369.29
647.01	368.52
647.35	367.95
647.69	367.43
648.04	366.95
648.38	365.95
648.72	365.33
649.06	363.81
649.41	362.00
649.75	361.38
650.09	361.43
650.43	360.57
650.78	358.95
651.12	358.29
651.46	357.19
651.80	355.71
652.14	354.29
652.49	353.52
652.83	351.86
653.17	350.95
653.51	349.67
653.85	348.90
654.20	347.48
654.54	345.67
654.88	344.10
655.22	342.52
655.56	341.24
655.90	340.19
656.25	339.33
656.59	338.62
656.93	337.62
657.27	336.81
657.61	335.57
657.95	334.95
658.29	334.14
658.64	333.86
658.98	333.29
659.32	332.43
659.66	331.62
660.00	331.62
660.34	330.76
660.68	329.95
661.02	329.19
661.36	328.43
661.70	328.10
662.05	327.29
662.39	327.33
662.73	327.48
663.07	328.19
663.41	327.76
663.75	326.57
664.09	326.33
664.43	325.05
664.77	324.33
665.11	323.14
665.45	322.33
665.79	321.81
666.13	320.86
666.47	319.86
666.81	318.86
667.15	317.38
667.49	316.95
667.83	317.19
668.17	316.29
668.51	315.67
668.85	315.14
669.19	315.95
669.53	314.90
669.87	313.95
670.21	312.48
670.55	312.00
670.89	312.90
671.23	311.95
671.57	311.19
671.91	310.76
672.25	310.81
672.58	311.24
672.92	310.05
673.26	310.14
673.60	310.24
673.94	309.81
674.28	309.62
674.62	309.33
674.96	307.76
675.30	307.81
675.64	307.52
675.97	306.62
676.31	305.14
676.65	304.38
676.99	304.38
677.33	303.19
677.67	302.57
678.01	301.00
678.34	300.62
678.68	301.05
679.02	300.57
679.36	299.57
679.70	298.29
680.04	297.95
680.37	297.10
680.71	296.33
681.05	295.95
681.39	295.38
681.73	295.00
682.06	294.86
682.40	294.33
682.74	294.19
683.08	295.38
683.42	294.76
683.75	295.10
684.09	294.29
684.43	294.29
684.77	293.90
685.10	293.62
685.44	293.33
685.78	292.62
686.12	292.00
686.45	291.52
686.79	290.90
687.13	291.14
687.46	290.62
687.80	290.67
688.14	290.10
688.48	290.10
688.81	289.71
689.15	290.14
689.49	289.43
689.82	289.57
690.16	288.24
690.50	287.57
690.83	286.76
691.17	285.81
691.51	285.90
691.84	285.33
692.18	284.24
692.52	283.48
692.85	283.19
693.19	284.38
693.52	283.71
693.86	283.76
694.20	282.95
694.53	282.76
694.87	282.19
695.21	281.81
695.54	281.00
695.88	280.48
696.21	279.33
696.55	279.14
696.88	277.86
697.22	277.05
697.56	277.52
697.89	276.90
698.23	277.29
698.56	276.33
698.90	276.24
699.23	276.29
699.57	276.43
699.90	275.81
700.24	274.52
700.58	275.19
700.91	275.00
701.25	277.05
701.58	277.57
701.92	278.57
702.25	278.86
702.59	278.86
702.92	278.95
703.26	279.33
703.59	279.81
703.93	282.33
704.26	283.14
704.60	283.38
704.93	283.76
705.26	283.71
705.60	284.57
705.93	284.43
706.27	285.62
706.60	286.24
706.94	287.48
707.27	287.33
707.61	287.29
707.94	287.52
708.27	285.52
708.61	284.95
708.94	284.38
709.28	284.24
709.61	284.05
709.94	283.67
710.28	283.10
710.61	282.71
710.95	280.10
711.28	280.71
711.61	279.86
711.95	279.86
712.28	279.10
712.61	278.38
712.95	279.24
713.28	279.10
713.61	277.86
713.95	276.19
714.28	275.86
714.61	274.76
714.95	274.14
715.28	272.90
715.61	272.24
715.95	271.71
716.28	270.71
716.61	270.57
716.95	269.90
717.28	269.52
717.61	268.76
717.94	268.19
718.28	266.14
718.61	265.57
718.94	264.81
719.27	264.38
719.61	264.29
719.94	263.48
720.27	262.05
720.60	261.48
720.94	261.57
721.27	261.19
721.60	261.90
721.93	261.14
722.27	261.95
722.60	262.14
722.93	261.57
723.26	261.57
723.59	261.00
723.93	261.10
724.26	261.19
724.59	260.86
724.92	261.10
725.25	261.67
725.59	261.48
725.92	261.29
726.25	261.19
726.58	261.10
726.91	260.81
727.24	260.90
727.57	261.24
727.91	260.38
728.24	260.57
728.57	259.52
728.90	259.67
729.23	259.05
729.56	259.81
729.89	259.95
730.22	259.71
730.55	259.67
730.89	259.62
731.22	259.10
731.55	258.81
731.88	258.57
732.21	258.19
732.54	257.76
732.87	257.90
733.20	257.71
733.53	257.43
733.86	257.24
734.19	256.52
734.52	256.38
734.85	257.95
735.18	257.05
735.51	258.05
735.84	258.52
736.17	258.95
736.50	257.14
736.83	259.76
737.16	259.62
737.49	259.81
737.82	259.48
738.15	260.05
738.48	260.00
738.81	260.00
739.14	259.52
739.47	259.52
739.80	259.05
740.13	259.33
740.46	258.52
740.79	258.14
741.12	258.38
741.45	257.90
741.78	256.67
742.11	257.81
742.44	256.90
742.77	256.95
743.10	256.33
743.43	256.57
743.75	253.43
744.08	256.57
744.41	255.95
744.74	255.67
745.07	254.71
745.40	255.10
745.73	255.62
746.06	256.00
746.39	256.71
746.71	256.48
747.04	256.00
747.37	256.19
747.70	256.86
748.03	257.29
748.36	257.81
748.68	257.43
749.01	256.52
749.34	256.48
749.67	256.05
750.00	256.33
750.33	258.00
750.65	258.43
750.98	255.19
751.31	255.33
751.64	255.62
751.97	257.24
752.29	256.81
752.62	255.95
752.95	255.52
753.28	254.86
753.60	254.90
753.93	255.29
754.26	255.14
754.59	253.86
754.91	253.10
755.24	252.86
755.57	252.90
755.90	253.19
756.22	252.86
756.55	252.71
756.88	252.24
757.20	250.76
757.53	250.00
757.86	249.90
758.19	249.90
758.51	249.86
758.84	248.14
759.17	248.14
759.49	247.95
759.82	248.86
760.15	249.00
760.47	249.10
760.80	248.57
761.13	248.81
761.45	249.10
761.78	249.38
762.11	249.05
762.43	248.95
762.76	248.57
763.08	249.05
763.41	249.19
763.74	249.14
764.06	249.05
764.39	248.95
764.71	249.05
765.04	248.71
765.37	248.19
765.69	248.38
766.02	248.29
766.34	248.24
766.67	247.24
767.00	247.43
767.32	248.67
767.65	250.14
767.97	250.10
768.30	250.00
768.62	249.67
768.95	249.48
769.27	249.19
769.60	249.24
769.92	248.81
770.25	248.24
770.57	247.95
770.90	247.76
771.22	247.43
771.55	247.57
771.87	247.57
772.20	247.38
772.52	249.33
772.85	252.10
773.17	252.29
773.50	252.00
773.82	251.81
774.15	250.19
774.47	248.29
774.80	248.29
775.12	248.10
775.45	248.14
775.77	248.33
776.09	248.67
776.42	248.52
776.74	249.24
777.07	248.81
777.39	248.71
777.72	248.62
778.04	249.19
778.36	248.86
778.69	249.00
779.01	249.29
779.33	247.29
779.66	244.71
779.98	244.43
780.31	245.10
780.63	245.95
780.95	246.71
781.28	247.00
781.60	246.52
781.92	246.81
782.25	246.67
782.57	246.24
782.89	245.95
783.22	245.90
783.54	245.29
783.86	245.86
784.19	245.76
784.51	246.43
784.83	246.14
785.16	246.05
785.48	246.00
785.80	246.10
786.12	246.38
786.45	246.19
786.77	246.33
787.09	245.86
787.42	245.10
787.74	245.00
788.06	245.00
788.38	245.19
788.71	244.71
789.03	245.00
789.35	245.62
789.67	245.29
789.99	245.57
790.32	245.10
790.64	245.14
790.96	247.05
791.28	246.33
791.61	246.14
791.93	246.48
792.25	246.38
792.57	247.81
792.89	246.95
793.21	247.48
793.54	247.33
793.86	247.43
