SpectraSuite Data File
++++++++++++++++++++++++++++++++++++
Date: Wed Nov 07 18:33:39 EST 2012
User: group
Dark Spectrum Present: No
Reference Spectrum Present: No
Number of Sampled Component Spectra: 1
Spectrometers: USB2E7196
Integration Time (usec): 1000000 (USB2E7196)
Spectra Averaged: 1 (USB2E7196)
Boxcar Smoothing: 10 (USB2E7196)
Correct for Electrical Dark: No (USB2E7196)
Strobe/Lamp Enabled: No (USB2E7196)
Correct for Detector Non-linearity: No (USB2E7196)
Correct for Stray Light: No (USB2E7196)
Number of Pixels in Processed Spectrum: 2048
>>>>>Begin Processed Spectral Data<<<<<
339.09	0.00
339.48	221.00
339.86	225.00
340.24	222.00
340.63	225.00
341.01	266.00
341.39	233.00
341.78	238.00
342.16	237.00
342.54	233.00
342.93	224.19
343.31	235.38
343.69	236.05
344.07	236.38
344.46	237.19
344.84	237.86
345.22	236.33
345.60	236.38
345.99	236.52
346.37	236.43
346.75	236.52
347.13	236.86
347.52	237.10
347.90	237.62
348.28	238.00
348.66	238.48
349.05	237.24
349.43	237.76
349.81	238.24
350.19	238.10
350.57	237.86
350.96	237.95
351.34	238.10
351.72	238.00
352.10	238.10
352.48	237.57
352.87	237.24
353.25	236.95
353.63	236.86
354.01	236.48
354.39	236.48
354.77	236.29
355.15	236.62
355.54	236.10
355.92	235.29
356.30	235.14
356.68	236.67
357.06	237.14
357.44	236.76
357.82	236.43
358.20	236.52
358.58	236.57
358.97	236.52
359.35	236.81
359.73	237.43
360.11	237.24
360.49	237.62
360.87	237.71
361.25	238.48
361.63	239.52
362.01	239.95
362.39	240.10
362.77	240.48
363.15	240.48
363.53	240.90
363.91	241.29
364.29	241.19
364.67	238.71
365.05	238.76
365.43	239.24
365.81	239.52
366.19	240.38
366.57	241.57
366.95	241.76
367.33	241.19
367.71	241.19
368.09	241.90
368.47	242.00
368.85	242.10
369.23	242.29
369.61	241.24
369.99	241.71
370.37	242.10
370.75	243.43
371.13	242.76
371.51	242.33
371.89	242.52
372.27	242.86
372.65	243.33
373.03	243.43
373.41	243.14
373.78	243.05
374.16	242.10
374.54	241.29
374.92	240.81
375.30	241.19
375.68	240.57
376.06	240.67
376.44	240.38
376.82	240.33
377.19	240.43
377.57	240.43
377.95	239.67
378.33	239.05
378.71	237.38
379.09	238.05
379.47	238.62
379.84	238.24
380.22	237.90
380.60	237.62
380.98	237.52
381.36	237.52
381.73	237.24
382.11	237.52
382.49	237.86
382.87	237.76
383.25	237.52
383.62	240.33
384.00	239.95
384.38	240.19
384.76	240.95
385.13	241.48
385.51	241.48
385.89	241.33
386.27	241.76
386.64	242.33
387.02	242.05
387.40	241.76
387.78	242.10
388.15	242.24
388.53	242.10
388.91	241.95
389.29	241.81
389.66	242.19
390.04	242.19
390.42	242.24
390.79	242.57
391.17	242.48
391.55	239.90
391.92	240.10
392.30	240.14
392.68	239.52
393.05	239.52
393.43	240.00
393.81	240.38
394.18	239.95
394.56	240.14
394.94	240.48
395.31	240.29
395.69	241.10
396.06	241.76
396.44	241.81
396.82	241.67
397.19	243.10
397.57	242.67
397.95	243.14
398.32	242.29
398.70	242.38
399.07	242.71
399.45	242.48
399.82	242.33
400.20	242.00
400.58	242.24
400.95	241.57
401.33	241.90
401.70	243.38
402.08	243.86
402.45	243.86
402.83	244.62
403.20	245.14
403.58	244.62
403.95	244.67
404.33	244.90
404.71	245.43
405.08	246.48
405.46	247.14
405.83	247.29
406.21	247.81
406.58	248.05
406.96	248.57
407.33	249.71
407.70	250.38
408.08	253.43
408.45	254.05
408.83	255.24
409.20	255.48
409.58	255.14
409.95	256.00
410.33	256.95
410.70	256.90
411.08	257.81
411.45	259.19
411.82	260.24
412.20	262.10
412.57	264.62
412.95	264.05
413.32	265.86
413.69	267.38
414.07	269.71
414.44	271.90
414.82	274.19
415.19	276.43
415.56	279.19
415.94	280.24
416.31	283.43
416.68	285.81
417.06	289.81
417.43	293.38
417.81	297.19
418.18	300.62
418.55	304.48
418.93	308.95
419.30	312.90
419.67	317.76
420.04	322.10
420.42	326.52
420.79	334.71
421.16	340.62
421.54	347.86
421.91	353.76
422.28	360.10
422.66	367.00
423.03	375.33
423.40	381.24
423.77	388.57
424.15	396.05
424.52	403.81
424.89	412.24
425.26	419.86
425.64	427.19
426.01	435.57
426.38	444.81
426.75	454.38
427.13	464.24
427.50	473.81
427.87	483.90
428.24	494.14
428.61	502.14
428.99	513.90
429.36	524.48
429.73	535.86
430.10	547.76
430.47	558.81
430.85	569.10
431.22	583.14
431.59	599.29
431.96	612.76
432.33	627.57
432.70	641.19
433.08	657.14
433.45	673.00
433.82	688.86
434.19	705.95
434.56	722.38
434.93	737.57
435.30	752.71
435.68	769.95
436.05	786.38
436.42	802.33
436.79	817.52
437.16	833.71
437.53	851.24
437.90	867.52
438.27	885.43
438.64	901.95
439.01	918.24
439.38	929.67
439.75	940.86
440.13	956.86
440.50	971.90
440.87	984.43
441.24	995.38
441.61	1007.95
441.98	1016.76
442.35	1026.00
442.72	1037.90
443.09	1049.76
443.46	1055.71
443.83	1059.24
444.20	1063.19
444.57	1067.52
444.94	1069.14
445.31	1069.71
445.68	1074.38
446.05	1073.10
446.42	1070.95
446.79	1067.62
447.16	1063.52
447.53	1062.48
447.90	1053.57
448.27	1044.90
448.64	1034.14
449.01	1027.24
449.37	1014.57
449.74	1003.19
450.11	993.10
450.48	976.71
450.85	960.52
451.22	947.52
451.59	935.76
451.96	922.90
452.33	906.95
452.70	892.76
453.07	876.67
453.43	857.14
453.80	841.29
454.17	825.29
454.54	808.81
454.91	793.05
455.28	776.90
455.65	762.14
456.02	752.24
456.38	739.29
456.75	724.33
457.12	712.29
457.49	699.48
457.86	684.81
458.23	675.76
458.59	664.33
458.96	652.71
459.33	642.43
459.70	632.71
460.07	624.14
460.43	614.62
460.80	606.62
461.17	598.71
461.54	590.81
461.91	583.71
462.27	576.71
462.64	569.95
463.01	563.19
463.38	558.14
463.74	546.48
464.11	540.86
464.48	535.52
464.85	529.81
465.21	526.14
465.58	521.81
465.95	515.33
466.32	511.38
466.68	506.24
467.05	501.10
467.42	496.48
467.78	491.71
468.15	487.33
468.52	483.57
468.88	478.71
469.25	474.38
469.62	471.24
469.98	467.52
470.35	465.10
470.72	461.76
471.08	456.67
471.45	454.81
471.82	452.76
472.18	449.86
472.55	447.19
472.92	443.14
473.28	440.24
473.65	437.81
474.02	435.10
474.38	433.52
474.75	431.86
475.11	429.48
475.48	428.38
475.85	426.76
476.21	425.24
476.58	424.19
476.94	423.52
477.31	422.57
477.67	421.48
478.04	419.95
478.41	419.48
478.77	421.43
479.14	419.81
479.50	419.38
479.87	419.38
480.23	419.52
480.60	419.76
480.96	419.81
481.33	421.19
481.69	421.33
482.06	422.19
482.42	423.19
482.79	424.62
483.15	424.95
483.52	426.57
483.88	427.33
484.25	428.24
484.61	428.95
484.98	429.24
485.34	431.38
485.71	433.33
486.07	434.14
486.44	433.62
486.80	435.29
487.17	436.24
487.53	438.29
487.90	439.81
488.26	442.57
488.62	445.00
488.99	445.71
489.35	447.33
489.72	448.71
490.08	450.19
490.44	451.62
490.81	453.81
491.17	455.33
491.54	457.57
491.90	460.57
492.26	463.48
492.63	466.38
492.99	468.24
493.36	470.86
493.72	474.33
494.08	476.81
494.45	480.24
494.81	483.71
495.17	486.24
495.54	490.29
495.90	493.19
496.26	496.57
496.63	500.67
496.99	504.38
497.35	508.90
497.72	512.62
498.08	516.76
498.44	520.76
498.80	525.62
499.17	530.14
499.53	534.10
499.89	538.38
500.26	543.48
500.62	547.86
500.98	553.24
501.34	557.86
501.71	563.38
502.07	567.95
502.43	572.10
502.79	576.48
503.16	580.81
503.52	585.62
503.88	590.43
504.24	595.48
504.60	600.90
504.97	606.29
505.33	611.52
505.69	617.71
506.05	622.62
506.41	627.62
506.78	633.05
507.14	637.81
507.50	643.52
507.86	649.29
508.22	655.33
508.59	659.86
508.95	665.43
509.31	672.00
509.67	678.05
510.03	683.43
510.39	689.29
510.75	694.76
511.12	700.19
511.48	705.38
511.84	710.81
512.20	715.33
512.56	720.48
512.92	726.00
513.28	730.76
513.64	736.14
514.00	741.67
514.37	746.33
514.73	751.05
515.09	755.19
515.45	758.67
515.81	763.14
516.17	767.19
516.53	770.52
516.89	773.38
517.25	777.19
517.61	782.43
517.97	786.24
518.33	790.10
518.69	793.90
519.05	798.24
519.41	801.57
519.77	807.67
520.13	811.10
520.49	814.43
520.85	817.14
521.21	821.67
521.57	824.90
521.93	827.86
522.29	831.52
522.65	833.24
523.01	835.57
523.37	837.48
523.73	840.24
524.09	843.95
524.45	846.38
524.81	849.19
525.17	851.48
525.53	853.48
525.89	855.86
526.25	857.57
526.61	857.81
526.97	859.19
527.33	859.24
527.68	862.38
528.04	864.24
528.40	865.57
528.76	866.67
529.12	867.43
529.48	868.71
529.84	869.24
530.20	872.05
530.56	873.81
530.91	875.38
531.27	876.62
531.63	877.19
531.99	877.90
532.35	877.86
532.71	877.48
533.07	878.86
533.42	882.81
533.78	884.48
534.14	886.67
534.50	887.76
534.86	890.29
535.21	890.05
535.57	891.33
535.93	892.62
536.29	894.76
536.65	896.38
537.00	898.19
537.36	900.48
537.72	901.38
538.08	903.90
538.44	906.62
538.79	909.38
539.15	910.95
539.51	913.29
539.87	916.71
540.22	920.05
540.58	921.57
540.94	921.24
541.29	923.62
541.65	925.67
542.01	928.05
542.37	929.52
542.72	930.52
543.08	931.00
543.44	931.67
543.79	929.67
544.15	929.57
544.51	929.38
544.87	929.38
545.22	929.43
545.58	928.29
545.94	925.90
546.29	923.19
546.65	922.29
547.01	919.52
547.36	916.43
547.72	913.90
548.07	911.86
548.43	908.14
548.79	904.38
549.14	899.95
549.50	897.29
549.86	892.38
550.21	889.57
550.57	887.24
550.92	884.00
551.28	882.90
551.64	880.57
551.99	878.19
552.35	875.05
552.70	872.19
553.06	869.24
553.41	867.00
553.77	867.05
554.13	865.05
554.48	863.43
554.84	862.10
555.19	860.24
555.55	860.10
555.90	858.48
556.26	857.10
556.61	855.81
556.97	853.00
557.32	852.00
557.68	849.57
558.03	846.86
558.39	845.62
558.74	843.10
559.10	840.86
559.45	839.57
559.81	837.76
560.16	836.24
560.52	834.81
560.87	832.95
561.23	830.19
561.58	829.71
561.94	827.86
562.29	825.90
562.64	824.29
563.00	820.52
563.35	818.38
563.71	816.43
564.06	815.00
564.42	813.19
564.77	812.00
565.12	811.48
565.48	812.43
565.83	811.71
566.19	810.33
566.54	808.43
566.89	806.38
567.25	806.19
567.60	805.67
567.96	806.38
568.31	806.86
568.66	806.00
569.02	803.14
569.37	802.52
569.72	801.00
570.08	799.67
570.43	798.86
570.78	797.52
571.14	796.33
571.49	794.71
571.84	794.05
572.20	792.67
572.55	790.81
572.90	787.81
573.26	786.05
573.61	784.67
573.96	784.24
574.31	783.48
574.67	781.33
575.02	779.24
575.37	776.00
575.72	773.95
576.08	771.67
576.43	770.38
576.78	768.71
577.13	767.57
577.49	765.71
577.84	764.33
578.19	763.24
578.54	761.86
578.90	760.81
579.25	759.57
579.60	757.95
579.95	756.67
580.30	756.00
580.66	754.71
581.01	753.14
581.36	751.00
581.71	748.81
582.06	748.57
582.42	747.38
582.77	745.29
583.12	744.00
583.47	742.67
583.82	741.24
584.17	739.90
584.53	739.00
584.88	737.10
585.23	736.38
585.58	734.71
585.93	732.43
586.28	731.10
586.63	729.10
586.98	726.38
587.34	724.38
587.69	721.05
588.04	718.76
588.39	716.48
588.74	714.19
589.09	712.76
589.44	709.14
589.79	706.10
590.14	703.00
590.49	698.95
590.84	695.33
591.19	692.19
591.54	688.67
591.89	684.38
592.25	683.67
592.60	679.24
592.95	676.24
593.30	673.62
593.65	670.05
594.00	666.81
594.35	670.05
594.70	666.90
595.05	664.14
595.40	660.00
595.75	656.86
596.10	654.14
596.45	650.29
596.80	647.33
597.15	644.00
597.50	641.62
597.85	640.43
598.19	638.33
598.54	635.24
598.89	632.33
599.24	629.67
599.59	625.38
599.94	622.43
600.29	619.38
600.64	616.67
600.99	614.86
601.34	612.57
601.69	604.00
602.04	600.62
602.39	597.90
602.74	597.71
603.08	596.00
603.43	594.90
603.78	592.76
604.13	590.48
604.48	588.95
604.83	588.05
605.18	586.48
605.53	586.43
605.87	589.05
606.22	592.00
606.57	596.57
606.92	601.14
607.27	607.14
607.62	612.81
607.96	618.24
608.31	622.10
608.66	625.90
609.01	629.67
609.36	634.43
609.70	637.76
610.05	639.29
610.40	642.00
610.75	643.05
611.10	645.14
611.44	647.24
611.79	647.90
612.14	647.76
612.49	646.33
612.83	643.90
613.18	639.10
613.53	634.14
613.88	627.38
614.22	619.38
614.57	611.29
614.92	602.81
615.27	594.81
615.61	587.29
615.96	580.24
616.31	573.38
616.65	566.76
617.00	560.57
617.35	554.29
617.70	547.86
618.04	542.29
618.39	536.71
618.74	531.86
619.08	527.81
619.43	523.71
619.78	519.90
620.12	516.62
620.47	513.90
620.82	510.95
621.16	507.62
621.51	506.29
621.85	503.33
622.20	501.33
622.55	498.14
622.89	495.95
623.24	494.10
623.59	491.67
623.93	489.67
624.28	487.90
624.62	488.90
624.97	487.86
625.32	486.33
625.66	484.52
626.01	481.90
626.35	480.19
626.70	479.05
627.04	478.33
627.39	476.14
627.73	475.43
628.08	474.14
628.43	472.43
628.77	469.10
629.12	467.24
629.46	465.24
629.81	463.86
630.15	461.57
630.50	459.14
630.84	457.38
631.19	454.76
631.53	452.10
631.88	447.00
632.22	443.86
632.57	441.67
632.91	439.57
633.26	437.57
633.60	435.38
633.95	432.48
634.29	429.14
634.64	427.24
634.98	424.24
635.32	422.05
635.67	419.81
636.01	418.52
636.36	416.48
636.70	415.05
637.05	412.67
637.39	410.90
637.73	409.33
638.08	408.05
638.42	406.05
638.77	404.71
639.11	403.10
639.45	401.48
639.80	399.38
640.14	398.14
640.49	396.38
640.83	394.71
641.17	393.43
641.52	391.86
641.86	390.48
642.20	389.90
642.55	388.14
642.89	386.95
643.23	385.19
643.58	384.76
643.92	383.00
644.26	382.52
644.61	381.90
644.95	380.86
645.29	379.29
645.64	379.19
645.98	378.14
646.32	378.14
646.66	377.14
647.01	376.81
647.35	375.57
647.69	375.24
648.04	374.57
648.38	373.90
648.72	373.57
649.06	372.81
649.41	370.95
649.75	369.76
650.09	369.24
650.43	368.14
650.78	366.38
651.12	365.10
651.46	363.48
651.80	361.95
652.14	360.67
652.49	360.29
652.83	358.43
653.17	357.14
653.51	354.86
653.85	354.24
654.20	352.67
654.54	351.29
654.88	349.19
655.22	347.19
655.56	345.67
655.90	344.48
656.25	343.43
656.59	342.14
656.93	341.38
657.27	341.05
657.61	340.19
657.95	340.00
658.29	339.19
658.64	339.67
658.98	339.05
659.32	337.81
659.66	336.71
660.00	336.43
660.34	336.14
660.68	335.90
661.02	335.10
661.36	334.33
661.70	333.71
662.05	333.19
662.39	333.67
662.73	333.76
663.07	334.38
663.41	333.43
663.75	332.52
664.09	332.14
664.43	330.57
664.77	330.00
665.11	328.81
665.45	328.29
665.79	327.38
666.13	326.38
666.47	326.38
666.81	325.95
667.15	324.76
667.49	324.00
667.83	324.24
668.17	323.19
668.51	322.52
668.85	322.29
669.19	323.48
669.53	322.05
669.87	320.71
670.21	318.81
670.55	318.38
670.89	318.90
671.23	318.24
671.57	317.76
671.91	317.10
672.25	316.43
672.58	316.57
672.92	315.10
673.26	314.67
673.60	313.81
673.94	313.00
674.28	312.76
674.62	312.48
674.96	311.14
675.30	310.95
675.64	310.48
675.97	309.52
676.31	308.00
676.65	307.67
676.99	307.81
677.33	307.10
677.67	306.48
678.01	304.76
678.34	304.00
678.68	303.90
679.02	303.19
679.36	302.43
679.70	301.24
680.04	300.90
680.37	300.48
680.71	299.90
681.05	299.38
681.39	298.57
681.73	297.67
682.06	296.95
682.40	296.43
682.74	296.33
683.08	297.00
683.42	296.05
683.75	296.05
684.09	295.05
684.43	295.14
684.77	294.67
685.10	294.62
685.44	294.24
685.78	293.67
686.12	293.00
686.45	292.52
686.79	292.10
687.13	291.90
687.46	291.62
687.80	291.81
688.14	291.43
688.48	291.29
688.81	291.19
689.15	291.95
689.49	291.43
689.82	290.81
690.16	289.48
690.50	289.00
690.83	288.10
691.17	287.10
691.51	286.52
691.84	286.57
692.18	285.95
692.52	285.33
692.85	285.19
693.19	286.24
693.52	286.05
693.86	285.71
694.20	284.90
694.53	284.57
694.87	284.05
695.21	283.00
695.54	282.43
695.88	281.43
696.21	279.76
696.55	279.19
696.88	278.81
697.22	277.86
697.56	278.24
697.89	277.62
698.23	277.90
698.56	277.05
698.90	276.86
699.23	276.95
699.57	276.95
699.90	276.05
700.24	275.24
700.58	275.33
700.91	275.29
701.25	277.33
701.58	278.10
701.92	278.57
702.25	279.33
702.59	279.57
702.92	280.29
703.26	281.19
703.59	281.90
703.93	284.67
704.26	285.76
704.60	286.14
704.93	286.86
705.26	286.90
705.60	287.90
705.93	287.62
706.27	288.29
706.60	288.90
706.94	290.14
707.27	290.05
707.61	290.14
707.94	290.62
708.27	289.14
708.61	288.05
708.94	287.76
709.28	287.62
709.61	287.14
709.94	286.52
710.28	285.86
710.61	285.05
710.95	282.05
711.28	282.86
711.61	281.90
711.95	281.67
712.28	280.86
712.61	279.90
712.95	280.48
713.28	280.48
713.61	278.95
713.95	277.33
714.28	276.52
714.61	275.76
714.95	274.38
715.28	273.14
715.61	272.67
715.95	272.14
716.28	271.19
716.61	270.95
716.95	270.29
717.28	269.33
717.61	269.00
717.94	268.10
718.28	265.86
718.61	265.00
718.94	264.05
719.27	263.81
719.61	263.95
719.94	262.95
720.27	261.52
720.60	261.29
720.94	261.10
721.27	261.00
721.60	261.19
721.93	261.00
722.27	261.43
722.60	261.62
722.93	260.81
723.26	260.86
723.59	260.19
723.93	260.24
724.26	260.48
724.59	259.81
724.92	260.19
725.25	261.00
725.59	260.90
725.92	261.19
726.25	260.95
726.58	260.57
726.91	260.33
727.24	260.48
727.57	260.81
727.91	260.48
728.24	260.57
728.57	260.19
728.90	259.90
729.23	259.00
729.56	259.71
729.89	259.76
730.22	259.24
730.55	259.00
730.89	258.76
731.22	258.71
731.55	258.90
731.88	258.67
732.21	257.62
732.54	257.33
732.87	257.05
733.20	257.10
733.53	256.86
733.86	257.14
734.19	256.57
734.52	256.52
734.85	258.24
735.18	257.76
735.51	258.38
735.84	259.10
736.17	259.67
736.50	258.19
736.83	260.52
737.16	260.67
737.49	261.29
737.82	261.33
738.15	261.38
738.48	261.10
738.81	261.10
739.14	260.67
739.47	260.71
739.80	260.24
740.13	260.19
740.46	259.48
740.79	258.95
741.12	259.05
741.45	258.52
741.78	257.00
742.11	257.81
742.44	257.05
742.77	256.95
743.10	256.62
743.43	256.67
743.75	254.29
744.08	257.38
744.41	256.67
744.74	256.43
745.07	256.00
745.40	256.33
745.73	257.19
746.06	257.19
746.39	257.52
746.71	257.48
747.04	257.14
747.37	257.33
747.70	257.48
748.03	257.57
748.36	257.86
748.68	257.76
749.01	256.81
749.34	256.76
749.67	256.76
750.00	257.10
750.33	258.43
750.65	258.38
750.98	255.10
751.31	255.43
751.64	255.43
751.97	256.81
752.29	256.67
752.62	255.76
752.95	255.67
753.28	255.00
753.60	254.76
753.93	255.62
754.26	255.71
754.59	254.86
754.91	254.48
755.24	254.00
755.57	253.76
755.90	253.81
756.22	253.38
756.55	252.76
756.88	251.95
757.20	250.19
757.53	249.62
757.86	249.90
758.19	250.00
758.51	249.90
758.84	248.43
759.17	247.57
759.49	247.38
759.82	248.76
760.15	249.05
760.47	249.14
760.80	247.86
761.13	248.24
761.45	248.38
761.78	248.33
762.11	248.67
762.43	248.38
762.76	248.10
763.08	248.48
763.41	248.67
763.74	249.00
764.06	249.43
764.39	249.33
764.71	248.71
765.04	248.00
765.37	247.62
765.69	247.48
766.02	247.86
766.34	247.86
766.67	246.62
767.00	247.00
767.32	248.33
767.65	250.14
767.97	249.86
768.30	249.86
768.62	250.00
768.95	249.52
769.27	249.81
769.60	250.10
769.92	249.81
770.25	249.43
770.57	249.10
770.90	248.67
771.22	248.48
771.55	248.67
771.87	248.90
772.20	249.05
772.52	250.90
772.85	253.71
773.17	253.71
773.50	253.67
773.82	253.05
774.15	251.57
774.47	249.90
774.80	249.81
775.12	249.67
775.45	249.67
775.77	250.00
776.09	250.14
776.42	250.00
776.74	250.52
777.07	250.24
777.39	250.38
777.72	250.38
778.04	250.57
778.36	250.43
778.69	250.29
779.01	250.43
779.33	248.43
779.66	245.76
779.98	245.19
780.31	245.38
780.63	246.62
780.95	247.10
781.28	246.90
781.60	246.52
781.92	246.71
782.25	246.33
782.57	246.52
782.89	245.86
783.22	245.95
783.54	245.14
783.86	245.38
784.19	244.81
784.51	245.67
784.83	245.38
785.16	245.19
785.48	245.19
785.80	244.95
786.12	245.24
786.45	245.33
786.77	245.71
787.09	245.71
787.42	244.48
787.74	244.71
788.06	244.81
788.38	244.38
788.71	243.95
789.03	244.00
789.35	243.67
789.67	243.67
789.99	243.67
790.32	243.52
790.64	243.57
790.96	245.90
791.28	244.90
791.61	244.86
791.93	245.00
792.25	245.00
792.57	246.71
792.89	246.05
793.21	246.00
793.54	245.67
793.86	245.19
