SpectraSuite Data File
++++++++++++++++++++++++++++++++++++
Date: Wed Nov 07 18:31:59 EST 2012
User: group
Dark Spectrum Present: No
Reference Spectrum Present: No
Number of Sampled Component Spectra: 1
Spectrometers: USB2E7196
Integration Time (usec): 1000000 (USB2E7196)
Spectra Averaged: 1 (USB2E7196)
Boxcar Smoothing: 10 (USB2E7196)
Correct for Electrical Dark: No (USB2E7196)
Strobe/Lamp Enabled: No (USB2E7196)
Correct for Detector Non-linearity: No (USB2E7196)
Correct for Stray Light: No (USB2E7196)
Number of Pixels in Processed Spectrum: 2048
>>>>>Begin Processed Spectral Data<<<<<
339.09	0.00
339.48	218.00
339.86	227.00
340.24	221.00
340.63	221.00
341.01	266.00
341.39	230.00
341.78	236.00
342.16	240.00
342.54	237.00
342.93	224.86
343.31	236.29
343.69	237.19
344.07	237.48
344.46	238.38
344.84	239.29
345.22	237.86
345.60	238.19
345.99	238.14
346.37	238.05
346.75	237.81
347.13	237.76
347.52	237.67
347.90	238.43
348.28	238.48
348.66	238.62
349.05	237.67
349.43	238.00
349.81	238.14
350.19	238.19
350.57	238.00
350.96	237.95
351.34	237.76
351.72	237.48
352.10	237.48
352.48	237.24
352.87	236.95
353.25	236.86
353.63	236.38
354.01	236.05
354.39	236.24
354.77	236.38
355.15	237.33
355.54	237.10
355.92	236.33
356.30	236.24
356.68	238.33
357.06	238.38
357.44	238.29
357.82	237.95
358.20	238.10
358.58	238.10
358.97	238.43
359.35	239.00
359.73	239.81
360.11	239.57
360.49	239.57
360.87	239.57
361.25	240.00
361.63	241.43
362.01	242.29
362.39	241.95
362.77	242.05
363.15	241.81
363.53	242.14
363.91	242.29
364.29	242.57
364.67	240.19
365.05	240.14
365.43	240.43
365.81	241.24
366.19	242.52
366.57	243.67
366.95	243.33
367.33	242.81
367.71	242.86
368.09	243.81
368.47	244.05
368.85	244.05
369.23	244.62
369.61	243.52
369.99	244.00
370.37	244.43
370.75	245.81
371.13	245.19
371.51	244.95
371.89	245.43
372.27	245.81
372.65	245.86
373.03	246.19
373.41	245.86
373.78	245.71
374.16	244.10
374.54	243.29
374.92	243.24
375.30	243.29
375.68	242.90
376.06	242.71
376.44	242.33
376.82	242.52
377.19	242.48
377.57	242.67
377.95	241.81
378.33	241.62
378.71	240.19
379.09	241.00
379.47	241.62
379.84	241.19
380.22	240.71
380.60	240.57
380.98	240.48
381.36	240.33
381.73	239.90
382.11	240.67
382.49	240.76
382.87	240.48
383.25	240.48
383.62	243.19
384.00	242.95
384.38	243.05
384.76	243.62
385.13	244.29
385.51	244.14
385.89	243.95
386.27	244.05
386.64	244.24
387.02	243.76
387.40	243.38
387.78	243.33
388.15	243.57
388.53	243.10
388.91	243.00
389.29	243.00
389.66	243.19
390.04	242.52
390.42	242.86
390.79	243.14
391.17	243.48
391.55	240.38
391.92	240.33
392.30	240.57
392.68	240.05
393.05	239.62
393.43	239.81
393.81	240.05
394.18	239.57
394.56	239.67
394.94	240.19
395.31	239.67
395.69	240.43
396.06	240.29
396.44	240.62
396.82	240.29
397.19	241.71
397.57	241.76
397.95	242.14
398.32	241.48
398.70	241.43
399.07	241.48
399.45	241.71
399.82	241.90
400.20	242.00
400.58	241.86
400.95	241.14
401.33	241.62
401.70	243.33
402.08	243.52
402.45	243.81
402.83	244.38
403.20	244.86
403.58	244.81
403.95	245.57
404.33	246.00
404.71	246.48
405.08	247.81
405.46	248.00
405.83	248.14
406.21	248.29
406.58	249.14
406.96	249.52
407.33	250.10
407.70	250.90
408.08	253.38
408.45	254.48
408.83	255.48
409.20	255.86
409.58	254.95
409.95	256.14
410.33	257.00
410.70	257.29
411.08	258.71
411.45	259.62
411.82	260.48
412.20	262.10
412.57	264.90
412.95	264.05
413.32	265.86
413.69	267.81
414.07	270.10
414.44	271.86
414.82	273.95
415.19	276.52
415.56	278.67
415.94	279.48
416.31	282.62
416.68	285.71
417.06	289.00
417.43	292.90
417.81	296.76
418.18	300.52
418.55	304.33
418.93	308.38
419.30	312.76
419.67	317.48
420.04	322.00
420.42	326.33
420.79	334.00
421.16	339.67
421.54	346.81
421.91	352.81
422.28	358.95
422.66	365.81
423.03	374.48
423.40	381.24
423.77	388.48
424.15	395.29
424.52	403.00
424.89	411.48
425.26	418.95
425.64	426.62
426.01	434.95
426.38	443.90
426.75	453.67
427.13	462.76
427.50	472.38
427.87	481.71
428.24	491.00
428.61	498.90
428.99	510.52
429.36	520.95
429.73	532.10
430.10	543.62
430.47	555.33
430.85	565.52
431.22	578.29
431.59	594.43
431.96	607.52
432.33	621.57
432.70	636.00
433.08	651.90
433.45	667.52
433.82	682.48
434.19	698.90
434.56	713.86
434.93	728.86
435.30	744.71
435.68	763.10
436.05	779.71
436.42	796.38
436.79	811.19
437.16	827.19
437.53	844.86
437.90	861.76
438.27	878.81
438.64	896.24
439.01	912.43
439.38	923.57
439.75	937.48
440.13	953.10
440.50	967.10
440.87	978.43
441.24	989.10
441.61	1003.19
441.98	1012.81
442.35	1024.10
442.72	1035.62
443.09	1047.52
443.46	1052.38
443.83	1056.62
444.20	1060.52
444.57	1065.00
444.94	1066.33
445.31	1068.24
445.68	1073.38
446.05	1072.10
446.42	1068.52
446.79	1065.43
447.16	1062.29
447.53	1059.00
447.90	1050.48
448.27	1042.71
448.64	1033.71
449.01	1026.57
449.37	1013.24
449.74	1001.29
450.11	990.00
450.48	974.71
450.85	957.62
451.22	944.14
451.59	931.67
451.96	918.81
452.33	903.24
452.70	888.95
453.07	871.43
453.43	850.43
453.80	834.14
454.17	817.76
454.54	802.62
454.91	787.29
455.28	771.71
455.65	757.48
456.02	747.10
456.38	734.19
456.75	719.67
457.12	707.43
457.49	695.24
457.86	681.10
458.23	671.90
458.59	660.52
458.96	649.86
459.33	639.86
459.70	629.67
460.07	621.95
460.43	613.48
460.80	605.33
461.17	597.48
461.54	590.71
461.91	583.81
462.27	575.71
462.64	568.33
463.01	561.67
463.38	555.81
463.74	544.81
464.11	538.90
464.48	533.86
464.85	527.76
465.21	523.90
465.58	519.52
465.95	513.52
466.32	509.76
466.68	505.33
467.05	500.48
467.42	496.38
467.78	490.71
468.15	486.33
468.52	483.14
468.88	479.14
469.25	473.71
469.62	471.00
469.98	468.24
470.35	465.52
470.72	461.95
471.08	457.62
471.45	455.00
471.82	453.00
472.18	449.29
472.55	447.62
472.92	444.00
473.28	441.29
473.65	438.90
474.02	435.71
474.38	433.90
474.75	432.24
475.11	430.05
475.48	428.67
475.85	426.76
476.21	425.00
476.58	424.38
476.94	424.14
477.31	423.10
477.67	421.90
478.04	420.76
478.41	420.43
478.77	422.71
479.14	421.95
479.50	420.86
479.87	420.86
480.23	420.00
480.60	420.29
480.96	420.00
481.33	420.95
481.69	421.29
482.06	422.05
482.42	422.71
482.79	423.43
483.15	424.14
483.52	425.71
483.88	426.43
484.25	427.19
484.61	428.52
484.98	428.81
485.34	431.24
485.71	433.00
486.07	434.48
486.44	433.33
486.80	434.48
487.17	435.67
487.53	437.95
487.90	439.76
488.26	442.00
488.62	444.10
488.99	445.76
489.35	447.90
489.72	448.95
490.08	451.14
490.44	453.00
490.81	455.62
491.17	457.24
491.54	460.38
491.90	462.95
492.26	464.90
492.63	467.67
492.99	468.71
493.36	471.24
493.72	474.05
494.08	477.19
494.45	480.48
494.81	484.19
495.17	487.14
495.54	491.10
495.90	493.71
496.26	497.57
496.63	500.57
496.99	503.90
497.35	507.57
497.72	511.10
498.08	514.43
498.44	518.05
498.80	523.00
499.17	526.14
499.53	530.05
499.89	535.29
500.26	540.14
500.62	545.52
500.98	550.48
501.34	554.67
501.71	559.71
502.07	565.05
502.43	569.52
502.79	573.38
503.16	577.48
503.52	582.48
503.88	586.81
504.24	592.29
504.60	597.81
504.97	604.05
505.33	609.05
505.69	616.05
506.05	622.24
506.41	626.62
506.78	632.00
507.14	637.19
507.50	641.67
507.86	647.24
508.22	652.33
508.59	656.90
508.95	663.14
509.31	669.57
509.67	674.33
510.03	680.05
510.39	686.19
510.75	691.81
511.12	697.14
511.48	702.38
511.84	706.71
512.20	711.48
512.56	715.57
512.92	721.05
513.28	724.90
513.64	729.10
514.00	733.57
514.37	738.19
514.73	743.14
515.09	748.62
515.45	753.05
515.81	756.76
516.17	761.33
516.53	764.19
516.89	765.95
517.25	770.43
517.61	774.52
517.97	778.19
518.33	782.38
518.69	786.38
519.05	791.05
519.41	795.38
519.77	800.62
520.13	803.71
520.49	806.67
520.85	809.86
521.21	813.67
521.57	817.14
521.93	819.71
522.29	822.81
522.65	823.81
523.01	825.43
523.37	827.57
523.73	830.52
524.09	833.14
524.45	835.67
524.81	837.19
525.17	839.24
525.53	841.05
525.89	842.14
526.25	844.10
526.61	844.71
526.97	846.38
527.33	847.00
527.68	851.24
528.04	853.52
528.40	854.90
528.76	856.19
529.12	857.38
529.48	860.05
529.84	860.38
530.20	863.29
530.56	866.05
530.91	868.33
531.27	868.71
531.63	870.62
531.99	872.67
532.35	874.14
532.71	874.95
533.07	876.43
533.42	880.62
533.78	881.00
534.14	882.48
534.50	883.05
534.86	884.24
535.21	882.95
535.57	883.43
535.93	884.00
536.29	886.19
536.65	889.19
537.00	889.76
537.36	892.57
537.72	894.24
538.08	896.43
538.44	898.38
538.79	901.95
539.15	903.67
539.51	905.62
539.87	907.95
540.22	909.95
540.58	912.10
540.94	911.67
541.29	914.95
541.65	915.90
542.01	918.86
542.37	919.90
542.72	921.76
543.08	921.48
543.44	922.86
543.79	921.14
544.15	919.57
544.51	919.52
544.87	918.00
545.22	916.71
545.58	914.48
545.94	912.10
546.29	909.14
546.65	906.86
547.01	903.62
547.36	900.43
547.72	897.33
548.07	895.10
548.43	891.95
548.79	887.57
549.14	884.62
549.50	881.76
549.86	877.86
550.21	875.52
550.57	874.10
550.92	870.48
551.28	869.86
551.64	867.95
551.99	865.76
552.35	863.19
552.70	860.67
553.06	857.57
553.41	855.76
553.77	854.76
554.13	853.33
554.48	851.90
554.84	850.71
555.19	849.90
555.55	849.67
555.90	848.00
556.26	846.76
556.61	844.43
556.97	840.86
557.32	839.90
557.68	837.71
558.03	835.57
558.39	833.95
558.74	831.10
559.10	828.86
559.45	827.38
559.81	826.14
560.16	823.95
560.52	823.38
560.87	821.81
561.23	819.05
561.58	818.52
561.94	817.14
562.29	815.48
562.64	813.29
563.00	808.90
563.35	807.48
563.71	805.29
564.06	804.71
564.42	802.95
564.77	801.67
565.12	799.90
565.48	801.19
565.83	800.38
566.19	798.10
566.54	796.71
566.89	794.86
567.25	794.33
567.60	795.14
567.96	796.14
568.31	796.05
568.66	796.29
569.02	793.24
569.37	791.43
569.72	790.48
570.08	789.00
570.43	788.48
570.78	786.52
571.14	785.43
571.49	784.62
571.84	783.33
572.20	781.86
572.55	780.33
572.90	776.00
573.26	774.81
573.61	774.05
573.96	773.14
574.31	771.43
574.67	769.10
575.02	766.67
575.37	763.00
575.72	760.52
576.08	757.76
576.43	756.86
576.78	755.95
577.13	753.95
577.49	752.95
577.84	750.86
578.19	749.95
578.54	748.95
578.90	746.52
579.25	745.29
579.60	744.10
579.95	742.71
580.30	741.71
580.66	740.10
581.01	738.62
581.36	736.14
581.71	735.29
582.06	734.81
582.42	733.00
582.77	731.81
583.12	730.38
583.47	728.81
583.82	727.43
584.17	725.95
584.53	725.52
584.88	723.95
585.23	723.62
585.58	721.81
585.93	718.71
586.28	718.29
586.63	716.95
586.98	714.86
587.34	713.38
587.69	711.00
588.04	708.81
588.39	706.29
588.74	704.00
589.09	701.43
589.44	697.95
589.79	695.33
590.14	691.52
590.49	688.81
590.84	685.19
591.19	682.52
591.54	679.81
591.89	675.24
592.25	673.57
592.60	669.67
592.95	666.38
593.30	664.52
593.65	660.76
594.00	657.57
594.35	661.10
594.70	657.38
595.05	654.95
595.40	651.48
595.75	648.33
596.10	645.86
596.45	642.81
596.80	639.62
597.15	636.62
597.50	633.52
597.85	630.95
598.19	628.90
598.54	625.86
598.89	622.29
599.24	620.00
599.59	616.19
599.94	613.57
600.29	611.33
600.64	608.43
600.99	606.43
601.34	604.57
601.69	595.62
602.04	593.57
602.39	590.86
602.74	589.81
603.08	587.48
603.43	586.67
603.78	585.10
604.13	583.10
604.48	581.14
604.83	580.90
605.18	580.10
605.53	580.00
605.87	581.43
606.22	584.67
606.57	589.38
606.92	594.24
607.27	599.38
607.62	604.76
607.96	611.19
608.31	615.24
608.66	619.14
609.01	622.48
609.36	625.81
609.70	629.00
610.05	631.57
610.40	635.33
610.75	636.62
611.10	638.00
611.44	639.52
611.79	640.71
612.14	641.29
612.49	639.33
612.83	637.86
613.18	634.19
613.53	628.67
613.88	621.71
614.22	613.71
614.57	605.95
614.92	597.95
615.27	589.62
615.61	582.33
615.96	574.67
616.31	568.29
616.65	562.24
617.00	556.24
617.35	550.19
617.70	543.57
618.04	538.14
618.39	533.00
618.74	529.38
619.08	525.19
619.43	520.24
619.78	517.29
620.12	513.76
620.47	510.90
620.82	508.29
621.16	505.14
621.51	504.00
621.85	501.05
622.20	499.05
622.55	495.43
622.89	492.71
623.24	491.33
623.59	488.67
623.93	486.52
624.28	484.14
624.62	484.19
624.97	483.81
625.32	481.38
625.66	480.19
626.01	477.67
626.35	475.76
626.70	474.38
627.04	473.52
627.39	472.48
627.73	471.43
628.08	469.95
628.43	468.10
628.77	464.43
629.12	462.62
629.46	460.24
629.81	459.00
630.15	457.14
630.50	453.90
630.84	452.38
631.19	450.19
631.53	448.14
631.88	443.52
632.22	439.52
632.57	437.76
632.91	434.86
633.26	433.00
633.60	430.62
633.95	428.10
634.29	424.67
634.64	421.67
634.98	418.29
635.32	416.57
635.67	415.14
636.01	413.57
636.36	411.33
636.70	409.76
637.05	407.76
637.39	405.86
637.73	405.14
638.08	403.90
638.42	401.86
638.77	400.81
639.11	399.33
639.45	397.90
639.80	396.33
640.14	395.00
640.49	392.67
640.83	390.86
641.17	389.95
641.52	388.95
641.86	387.48
642.20	387.19
642.55	385.00
642.89	383.62
643.23	382.33
643.58	382.10
643.92	380.05
644.26	379.33
644.61	378.62
644.95	377.48
645.29	375.95
645.64	375.90
645.98	374.67
646.32	374.29
646.66	373.10
647.01	372.00
647.35	371.62
647.69	371.67
648.04	371.38
648.38	369.67
648.72	368.86
649.06	367.86
649.41	365.76
649.75	364.71
650.09	364.05
650.43	363.43
650.78	362.05
651.12	361.29
651.46	359.86
651.80	358.48
652.14	357.14
652.49	356.38
652.83	354.43
653.17	353.05
653.51	351.05
653.85	350.71
654.20	349.90
654.54	347.81
654.88	345.81
655.22	344.05
655.56	343.10
655.90	341.76
656.25	340.71
656.59	340.48
656.93	339.86
657.27	339.43
657.61	338.33
657.95	337.81
658.29	336.90
658.64	336.57
658.98	336.00
659.32	335.48
659.66	334.29
660.00	333.90
660.34	333.38
660.68	333.19
661.02	332.24
661.36	331.14
661.70	330.76
662.05	330.43
662.39	331.19
662.73	331.71
663.07	332.90
663.41	332.76
663.75	331.43
664.09	331.10
664.43	329.29
664.77	328.95
665.11	328.00
665.45	327.29
665.79	327.10
666.13	326.33
666.47	325.10
666.81	324.57
667.15	323.10
667.49	322.76
667.83	322.62
668.17	321.81
668.51	321.33
668.85	320.95
669.19	321.48
669.53	319.57
669.87	318.14
670.21	316.00
670.55	315.24
670.89	316.14
671.23	315.48
671.57	315.38
671.91	314.57
672.25	313.95
672.58	314.62
672.92	312.81
673.26	312.10
673.60	311.81
673.94	311.57
674.28	311.52
674.62	310.81
674.96	309.95
675.30	310.05
675.64	309.71
675.97	309.19
676.31	307.86
676.65	307.43
676.99	307.57
677.33	306.52
677.67	305.71
678.01	303.62
678.34	302.76
678.68	302.43
679.02	301.43
679.36	300.90
679.70	299.90
680.04	299.71
680.37	299.57
680.71	298.95
681.05	298.67
681.39	297.95
681.73	297.24
682.06	296.71
682.40	295.71
682.74	295.57
683.08	295.86
683.42	295.05
683.75	294.86
684.09	293.57
684.43	293.57
684.77	293.62
685.10	293.71
685.44	293.38
685.78	292.71
686.12	292.81
686.45	292.43
686.79	291.38
687.13	291.67
687.46	290.90
687.80	290.95
688.14	289.67
688.48	289.90
688.81	290.05
689.15	290.29
689.49	290.10
689.82	289.81
690.16	288.33
690.50	288.10
690.83	287.81
691.17	287.29
691.51	286.95
691.84	286.38
692.18	286.05
692.52	285.86
692.85	285.71
693.19	286.00
693.52	285.19
693.86	284.86
694.20	284.52
694.53	284.38
694.87	284.05
695.21	284.00
695.54	283.24
695.88	282.33
696.21	281.67
696.55	281.38
696.88	280.52
697.22	280.43
697.56	280.33
697.89	279.52
698.23	279.86
698.56	279.38
698.90	279.62
699.23	279.19
699.57	279.19
699.90	278.52
700.24	277.52
700.58	278.19
700.91	278.81
701.25	280.19
701.58	281.10
701.92	281.81
702.25	282.33
702.59	282.62
702.92	283.19
703.26	283.57
703.59	283.95
703.93	286.38
704.26	287.10
704.60	287.76
704.93	288.43
705.26	288.52
705.60	289.38
705.93	289.19
706.27	289.95
706.60	290.71
706.94	292.10
707.27	292.43
707.61	292.48
707.94	292.14
708.27	290.57
708.61	289.33
708.94	288.71
709.28	288.24
709.61	287.48
709.94	287.19
710.28	286.33
710.61	285.76
710.95	283.05
711.28	283.67
711.61	282.52
711.95	282.05
712.28	280.90
712.61	279.81
712.95	280.05
713.28	280.24
713.61	278.76
713.95	277.10
714.28	275.95
714.61	274.67
714.95	273.81
715.28	272.33
715.61	271.76
715.95	270.95
716.28	270.19
716.61	270.24
716.95	269.24
717.28	268.52
717.61	267.71
717.94	267.33
718.28	264.95
718.61	264.10
718.94	263.05
719.27	262.43
719.61	262.19
719.94	261.05
720.27	259.62
720.60	259.43
720.94	258.95
721.27	259.00
721.60	259.48
721.93	259.14
722.27	260.00
722.60	260.24
722.93	259.90
723.26	259.62
723.59	259.10
723.93	259.48
724.26	259.57
724.59	259.52
724.92	259.29
725.25	259.90
725.59	260.10
725.92	260.67
726.25	261.19
726.58	260.90
726.91	260.67
727.24	260.71
727.57	260.05
727.91	259.67
728.24	259.67
728.57	259.19
728.90	259.57
729.23	258.76
729.56	259.62
729.89	259.76
730.22	259.76
730.55	259.52
730.89	259.33
731.22	259.00
731.55	258.86
731.88	259.10
732.21	258.57
732.54	258.52
732.87	258.71
733.20	258.62
733.53	258.90
733.86	259.29
734.19	259.10
734.52	259.86
734.85	261.71
735.18	261.48
735.51	261.95
735.84	262.05
736.17	262.62
736.50	261.19
736.83	263.62
737.16	263.52
737.49	263.52
737.82	263.29
738.15	263.95
738.48	263.86
738.81	263.48
739.14	263.19
739.47	262.81
739.80	262.14
740.13	261.86
740.46	261.24
740.79	260.81
741.12	260.67
741.45	260.33
741.78	258.81
742.11	259.43
742.44	258.90
742.77	259.14
743.10	258.95
743.43	258.81
743.75	256.33
744.08	259.52
744.41	259.52
744.74	259.00
745.07	258.19
745.40	258.43
745.73	259.52
746.06	259.62
746.39	259.86
746.71	259.76
747.04	259.38
747.37	259.24
747.70	259.48
748.03	259.24
748.36	259.24
748.68	259.24
749.01	258.33
749.34	258.14
749.67	258.05
750.00	258.24
750.33	260.14
750.65	260.10
750.98	256.62
751.31	256.52
751.64	256.81
751.97	257.95
752.29	257.81
752.62	256.52
752.95	256.48
753.28	255.81
753.60	255.38
753.93	256.10
754.26	256.19
754.59	255.19
754.91	254.67
755.24	254.38
755.57	254.38
755.90	254.48
756.22	254.24
756.55	253.48
756.88	252.52
757.20	250.48
757.53	249.62
757.86	249.57
758.19	249.43
758.51	249.19
758.84	247.71
759.17	247.52
759.49	247.48
759.82	248.48
760.15	249.00
760.47	249.19
760.80	248.33
761.13	248.38
761.45	248.29
761.78	248.67
762.11	248.57
762.43	248.14
762.76	247.95
763.08	248.05
763.41	248.05
763.74	248.33
764.06	248.29
764.39	248.67
764.71	248.81
765.04	248.86
765.37	248.52
765.69	248.62
766.02	248.19
766.34	248.05
766.67	246.90
767.00	246.95
767.32	248.00
767.65	249.57
767.97	249.67
768.30	250.14
768.62	249.86
768.95	249.62
769.27	249.10
769.60	249.29
769.92	248.71
770.25	248.05
770.57	247.48
770.90	247.67
771.22	247.38
771.55	247.48
771.87	247.38
772.20	247.38
772.52	249.38
772.85	252.57
773.17	252.52
773.50	252.33
773.82	252.05
774.15	250.95
774.47	249.14
774.80	248.86
775.12	248.33
775.45	248.62
775.77	248.67
776.09	249.10
776.42	249.19
776.74	250.43
777.07	250.48
777.39	250.57
777.72	250.10
778.04	250.43
778.36	250.19
778.69	250.52
779.01	250.76
779.33	248.62
779.66	245.71
779.98	245.52
780.31	245.81
780.63	247.05
780.95	247.48
781.28	247.48
781.60	247.10
781.92	247.67
782.25	247.33
782.57	247.43
782.89	247.57
783.22	247.29
783.54	246.48
783.86	247.00
784.19	246.86
784.51	247.76
784.83	247.05
785.16	246.76
785.48	246.48
785.80	246.48
786.12	246.43
786.45	246.14
786.77	246.14
787.09	245.76
787.42	244.52
787.74	244.38
788.06	244.48
788.38	244.48
788.71	243.76
789.03	243.81
789.35	243.62
789.67	243.24
789.99	243.10
790.32	242.57
790.64	242.81
790.96	244.67
791.28	243.71
791.61	243.81
791.93	243.81
792.25	243.81
792.57	245.29
792.89	245.19
793.21	245.43
793.54	245.24
793.86	245.05
