SpectraSuite Data File
++++++++++++++++++++++++++++++++++++
Date: Wed Nov 07 18:32:16 EST 2012
User: group
Dark Spectrum Present: No
Reference Spectrum Present: No
Number of Sampled Component Spectra: 1
Spectrometers: USB2E7196
Integration Time (usec): 1000000 (USB2E7196)
Spectra Averaged: 1 (USB2E7196)
Boxcar Smoothing: 10 (USB2E7196)
Correct for Electrical Dark: No (USB2E7196)
Strobe/Lamp Enabled: No (USB2E7196)
Correct for Detector Non-linearity: No (USB2E7196)
Correct for Stray Light: No (USB2E7196)
Number of Pixels in Processed Spectrum: 2048
>>>>>Begin Processed Spectral Data<<<<<
339.09	0.00
339.48	219.00
339.86	214.00
340.24	225.00
340.63	221.00
341.01	262.00
341.39	223.00
341.78	231.00
342.16	243.00
342.54	226.00
342.93	223.38
343.31	234.71
343.69	235.57
344.07	236.52
344.46	237.14
344.84	238.14
345.22	236.71
345.60	237.52
345.99	238.00
346.37	237.81
346.75	238.14
347.13	238.19
347.52	238.43
347.90	239.14
348.28	239.29
348.66	240.05
349.05	239.19
349.43	239.48
349.81	239.43
350.19	239.38
350.57	239.76
350.96	239.90
351.34	239.90
351.72	239.86
352.10	240.00
352.48	240.10
352.87	240.05
353.25	240.33
353.63	240.05
354.01	239.95
354.39	239.90
354.77	240.00
355.15	240.52
355.54	240.10
355.92	239.57
356.30	239.43
356.68	240.62
357.06	240.67
357.44	240.48
357.82	240.48
358.20	240.52
358.58	240.57
358.97	240.43
359.35	240.95
359.73	241.62
360.11	241.38
360.49	241.48
360.87	241.14
361.25	241.33
361.63	242.10
362.01	242.05
362.39	242.05
362.77	242.14
363.15	242.19
363.53	242.19
363.91	242.48
364.29	242.57
364.67	240.43
365.05	240.57
365.43	240.62
365.81	241.00
366.19	242.14
366.57	242.95
366.95	242.76
367.33	242.05
367.71	241.57
368.09	242.10
368.47	241.86
368.85	241.76
369.23	242.19
369.61	241.48
369.99	242.33
370.37	242.52
370.75	243.67
371.13	243.29
371.51	242.95
371.89	242.90
372.27	242.95
372.65	243.29
373.03	243.24
373.41	243.14
373.78	243.00
374.16	241.62
374.54	240.81
374.92	240.19
375.30	240.38
375.68	240.05
376.06	240.10
376.44	239.86
376.82	239.95
377.19	239.48
377.57	239.19
377.95	238.43
378.33	238.19
378.71	236.90
379.09	236.71
379.47	237.24
379.84	236.95
380.22	236.90
380.60	236.33
380.98	236.05
381.36	236.19
381.73	235.90
382.11	236.43
382.49	236.52
382.87	236.62
383.25	236.48
383.62	239.43
384.00	238.62
384.38	238.86
384.76	239.67
385.13	240.52
385.51	240.76
385.89	240.43
386.27	240.76
386.64	241.14
387.02	241.24
387.40	241.05
387.78	241.38
388.15	241.62
388.53	241.52
388.91	241.67
389.29	241.29
389.66	241.52
390.04	241.29
390.42	241.81
390.79	242.48
391.17	242.62
391.55	239.67
391.92	239.95
392.30	240.33
392.68	239.76
393.05	239.86
393.43	239.90
393.81	240.43
394.18	239.95
394.56	239.90
394.94	240.38
395.31	240.38
395.69	241.10
396.06	241.24
396.44	241.76
396.82	241.67
397.19	243.05
397.57	243.19
397.95	243.52
398.32	242.38
398.70	242.43
399.07	243.05
399.45	243.48
399.82	243.57
400.20	243.38
400.58	243.43
400.95	242.52
401.33	243.10
401.70	244.90
402.08	245.29
402.45	245.52
402.83	246.10
403.20	246.19
403.58	245.86
403.95	246.48
404.33	246.48
404.71	246.90
405.08	248.29
405.46	248.24
405.83	248.52
406.21	249.14
406.58	249.00
406.96	248.86
407.33	249.52
407.70	250.67
408.08	253.10
408.45	253.90
408.83	254.95
409.20	255.38
409.58	254.05
409.95	255.67
410.33	256.71
410.70	257.24
411.08	258.81
411.45	259.71
411.82	260.57
412.20	262.67
412.57	265.14
412.95	264.52
413.32	266.52
413.69	268.05
414.07	270.19
414.44	272.48
414.82	274.71
415.19	276.76
415.56	279.05
415.94	279.71
416.31	282.48
416.68	285.71
417.06	289.43
417.43	293.19
417.81	296.19
418.18	299.86
418.55	303.29
418.93	307.29
419.30	311.67
419.67	316.14
420.04	320.48
420.42	325.38
420.79	333.33
421.16	338.81
421.54	346.57
421.91	352.71
422.28	358.86
422.66	365.95
423.03	374.10
423.40	381.52
423.77	389.24
424.15	396.62
424.52	404.10
424.89	412.81
425.26	420.71
425.64	428.57
426.01	436.67
426.38	445.48
426.75	454.81
427.13	463.67
427.50	473.38
427.87	483.14
428.24	492.90
428.61	500.43
428.99	512.14
429.36	521.71
429.73	533.05
430.10	545.14
430.47	557.05
430.85	568.52
431.22	581.33
431.59	597.14
431.96	611.00
432.33	625.57
432.70	638.57
433.08	654.67
433.45	669.86
433.82	685.76
434.19	703.19
434.56	719.43
434.93	734.95
435.30	750.29
435.68	767.62
436.05	784.10
436.42	801.10
436.79	816.33
437.16	832.48
437.53	849.33
437.90	865.48
438.27	882.62
438.64	899.05
439.01	913.90
439.38	926.05
439.75	938.62
440.13	953.24
440.50	967.81
440.87	979.05
441.24	990.57
441.61	1003.14
441.98	1012.38
442.35	1023.57
442.72	1034.81
443.09	1046.43
443.46	1052.95
443.83	1055.81
444.20	1058.24
444.57	1062.90
444.94	1064.14
445.31	1065.95
445.68	1071.29
446.05	1069.90
446.42	1066.67
446.79	1064.81
447.16	1060.62
447.53	1057.95
447.90	1050.24
448.27	1042.29
448.64	1032.67
449.01	1025.86
449.37	1013.67
449.74	1001.24
450.11	989.48
450.48	975.05
450.85	958.57
451.22	944.52
451.59	933.71
451.96	922.48
452.33	906.10
452.70	892.33
453.07	875.52
453.43	854.95
453.80	839.10
454.17	823.48
454.54	807.19
454.91	791.24
455.28	775.29
455.65	760.29
456.02	750.43
456.38	738.19
456.75	723.43
457.12	710.67
457.49	698.81
457.86	684.19
458.23	674.24
458.59	663.19
458.96	652.05
459.33	640.90
459.70	630.71
460.07	622.95
460.43	614.10
460.80	606.81
461.17	598.52
461.54	590.43
461.91	583.43
462.27	576.05
462.64	569.52
463.01	563.00
463.38	558.10
463.74	547.10
464.11	540.52
464.48	535.00
464.85	529.24
465.21	525.38
465.58	521.43
465.95	515.24
466.32	510.90
466.68	505.95
467.05	501.57
467.42	497.48
467.78	492.57
468.15	488.00
468.52	483.95
468.88	480.62
469.25	476.95
469.62	473.62
469.98	470.62
470.35	468.10
470.72	464.67
471.08	459.76
471.45	456.95
471.82	455.00
472.18	451.24
472.55	449.24
472.92	445.33
473.28	442.19
473.65	439.62
474.02	437.24
474.38	435.52
474.75	433.95
475.11	431.52
475.48	430.00
475.85	428.67
476.21	426.76
476.58	425.33
476.94	424.05
477.31	422.86
477.67	421.29
478.04	419.90
478.41	419.43
478.77	421.43
479.14	420.19
479.50	419.71
479.87	420.29
480.23	419.76
480.60	419.67
480.96	419.86
481.33	421.10
481.69	421.57
482.06	422.29
482.42	422.95
482.79	423.57
483.15	424.48
483.52	425.57
483.88	426.14
484.25	427.57
484.61	428.38
484.98	429.71
485.34	432.00
485.71	433.81
486.07	435.52
486.44	434.76
486.80	436.43
487.17	437.52
487.53	439.86
487.90	442.19
488.26	444.62
488.62	446.62
488.99	447.86
489.35	449.48
489.72	451.00
490.08	452.81
490.44	454.62
490.81	456.67
491.17	458.67
491.54	461.38
491.90	463.57
492.26	466.38
492.63	468.52
492.99	470.19
493.36	472.71
493.72	475.38
494.08	478.62
494.45	482.33
494.81	486.19
495.17	488.00
495.54	491.38
495.90	494.43
496.26	498.29
496.63	501.62
496.99	505.57
497.35	509.52
497.72	513.38
498.08	517.24
498.44	520.81
498.80	525.29
499.17	529.10
499.53	533.00
499.89	537.19
500.26	542.33
500.62	546.67
500.98	550.67
501.34	555.33
501.71	560.62
502.07	564.76
502.43	569.24
502.79	574.43
503.16	578.57
503.52	583.81
503.88	587.86
504.24	593.57
504.60	598.81
504.97	604.81
505.33	609.90
505.69	615.71
506.05	621.48
506.41	627.24
506.78	632.62
507.14	637.48
507.50	642.95
507.86	647.62
508.22	653.29
508.59	658.81
508.95	664.52
509.31	670.24
509.67	675.76
510.03	681.24
510.39	686.14
510.75	691.86
511.12	697.33
511.48	702.52
511.84	707.00
512.20	712.52
512.56	716.90
512.92	721.29
513.28	726.05
513.64	731.00
514.00	734.76
514.37	740.00
514.73	744.90
515.09	749.90
515.45	754.24
515.81	759.38
516.17	764.38
516.53	768.19
516.89	771.48
517.25	776.29
517.61	780.90
517.97	784.81
518.33	789.14
518.69	792.81
519.05	796.62
519.41	800.86
519.77	805.29
520.13	809.00
520.49	813.00
520.85	816.24
521.21	820.43
521.57	823.81
521.93	826.14
522.29	829.33
522.65	831.10
523.01	834.10
523.37	835.29
523.73	836.90
524.09	839.14
524.45	841.19
524.81	841.95
525.17	843.00
525.53	845.62
525.89	847.14
526.25	848.33
526.61	849.86
526.97	851.10
527.33	851.95
527.68	855.24
528.04	856.71
528.40	857.19
528.76	857.19
529.12	858.38
529.48	860.05
529.84	860.95
530.20	863.10
530.56	864.90
530.91	866.76
531.27	868.14
531.63	869.67
531.99	870.90
532.35	873.29
532.71	874.19
533.07	875.00
533.42	878.43
533.78	879.19
534.14	880.62
534.50	881.67
534.86	883.38
535.21	882.29
535.57	883.38
535.93	885.05
536.29	887.57
536.65	889.00
537.00	890.48
537.36	892.24
537.72	893.76
538.08	896.57
538.44	898.52
538.79	901.52
539.15	902.67
539.51	904.71
539.87	906.43
540.22	908.81
540.58	911.33
540.94	911.43
541.29	914.29
541.65	915.76
542.01	919.00
542.37	919.71
542.72	920.76
543.08	921.71
543.44	922.33
543.79	921.00
544.15	921.43
544.51	921.86
544.87	921.14
545.22	919.90
545.58	917.38
545.94	915.48
546.29	912.67
546.65	910.95
547.01	908.76
547.36	906.19
547.72	903.90
548.07	900.57
548.43	896.86
548.79	894.00
549.14	890.76
549.50	886.71
549.86	882.81
550.21	880.43
550.57	877.05
550.92	873.90
551.28	872.52
551.64	870.19
551.99	866.43
552.35	863.86
552.70	861.57
553.06	859.48
553.41	857.14
553.77	856.14
554.13	854.67
554.48	852.81
554.84	851.05
555.19	849.10
555.55	850.33
555.90	848.10
556.26	845.33
556.61	844.19
556.97	840.95
557.32	839.00
557.68	837.00
558.03	835.71
558.39	834.14
558.74	831.43
559.10	829.00
559.45	827.76
559.81	826.38
560.16	824.14
560.52	821.76
560.87	820.67
561.23	818.62
561.58	819.10
561.94	816.67
562.29	814.76
562.64	813.67
563.00	808.67
563.35	807.62
563.71	806.52
564.06	804.71
564.42	803.76
564.77	802.67
565.12	801.95
565.48	802.76
565.83	801.33
566.19	800.00
566.54	798.62
566.89	797.71
567.25	797.95
567.60	798.57
567.96	799.62
568.31	799.19
568.66	799.24
569.02	796.05
569.37	795.05
569.72	794.29
570.08	791.71
570.43	790.67
570.78	788.67
571.14	787.00
571.49	785.71
571.84	785.00
572.20	784.43
572.55	782.81
572.90	778.76
573.26	778.24
573.61	777.33
573.96	775.90
574.31	774.48
574.67	772.10
575.02	770.38
575.37	767.10
575.72	764.95
576.08	762.81
576.43	761.19
576.78	759.81
577.13	758.57
577.49	757.33
577.84	756.33
578.19	756.05
578.54	755.48
578.90	753.95
579.25	752.67
579.60	751.19
579.95	749.24
580.30	748.71
580.66	746.48
581.01	744.43
581.36	743.29
581.71	741.48
582.06	741.00
582.42	738.38
582.77	736.24
583.12	734.95
583.47	732.43
583.82	731.10
584.17	730.62
584.53	729.38
584.88	727.76
585.23	727.00
585.58	724.19
585.93	722.19
586.28	720.76
586.63	718.33
586.98	716.24
587.34	713.95
587.69	710.90
588.04	708.81
588.39	706.67
588.74	704.19
589.09	702.19
589.44	697.95
589.79	694.95
590.14	692.43
590.49	688.81
590.84	685.95
591.19	682.52
591.54	678.90
591.89	674.86
592.25	674.10
592.60	669.43
592.95	667.71
593.30	664.52
593.65	661.29
594.00	658.29
594.35	661.33
594.70	658.57
595.05	656.57
595.40	653.76
595.75	651.24
596.10	648.14
596.45	645.19
596.80	643.43
597.15	641.14
597.50	638.00
597.85	636.71
598.19	633.95
598.54	631.86
598.89	629.00
599.24	626.67
599.59	622.29
599.94	620.19
600.29	617.24
600.64	614.71
600.99	613.10
601.34	611.52
601.69	602.29
602.04	600.76
602.39	597.71
602.74	595.81
603.08	593.10
603.43	592.38
603.78	590.43
604.13	587.33
604.48	585.76
604.83	585.48
605.18	584.24
605.53	584.90
605.87	586.10
606.22	589.24
606.57	593.90
606.92	598.10
607.27	603.67
607.62	608.38
607.96	614.29
608.31	617.62
608.66	621.29
609.01	625.24
609.36	628.52
609.70	632.14
610.05	635.43
610.40	638.62
610.75	640.10
611.10	641.57
611.44	643.57
611.79	644.19
612.14	643.86
612.49	641.76
612.83	638.81
613.18	634.48
613.53	628.48
613.88	621.24
614.22	613.86
614.57	605.76
614.92	598.43
615.27	589.43
615.61	582.38
615.96	574.90
616.31	567.86
616.65	562.00
617.00	555.57
617.35	549.10
617.70	543.00
618.04	536.76
618.39	531.71
618.74	527.14
619.08	523.00
619.43	519.14
619.78	516.33
620.12	513.52
620.47	511.43
620.82	509.00
621.16	506.29
621.51	505.38
621.85	502.57
622.20	499.86
622.55	496.86
622.89	494.10
623.24	492.33
623.59	490.33
623.93	487.67
624.28	485.81
624.62	486.38
624.97	486.05
625.32	484.43
625.66	482.62
626.01	480.33
626.35	478.62
626.70	476.67
627.04	475.52
627.39	474.00
627.73	473.10
628.08	471.71
628.43	469.43
628.77	466.57
629.12	464.76
629.46	462.81
629.81	461.76
630.15	459.86
630.50	457.52
630.84	455.52
631.19	452.67
631.53	450.10
631.88	444.76
632.22	440.62
632.57	439.00
632.91	436.62
633.26	434.67
633.60	432.10
633.95	429.33
634.29	425.95
634.64	423.48
634.98	419.86
635.32	417.62
635.67	416.14
636.01	414.33
636.36	412.29
636.70	411.14
637.05	408.86
637.39	407.19
637.73	405.38
638.08	404.10
638.42	402.67
638.77	401.43
639.11	400.19
639.45	398.90
639.80	396.90
640.14	395.48
640.49	393.62
640.83	391.86
641.17	391.33
641.52	389.81
641.86	388.62
642.20	388.00
642.55	386.33
642.89	385.00
643.23	383.38
643.58	382.95
643.92	380.76
644.26	379.67
644.61	379.33
644.95	378.62
645.29	377.14
645.64	376.71
645.98	375.76
646.32	375.62
646.66	374.38
647.01	373.14
647.35	371.90
647.69	371.43
648.04	371.19
648.38	369.90
648.72	369.62
649.06	368.24
649.41	366.57
649.75	365.38
650.09	364.62
650.43	363.52
650.78	361.81
651.12	360.38
651.46	359.62
651.80	357.71
652.14	355.90
652.49	355.48
652.83	353.33
653.17	352.00
653.51	349.81
653.85	349.38
654.20	348.48
654.54	347.29
654.88	345.76
655.22	344.19
655.56	342.95
655.90	341.67
656.25	340.90
656.59	340.05
656.93	339.24
657.27	339.14
657.61	338.00
657.95	337.67
658.29	337.29
658.64	336.76
658.98	336.14
659.32	335.48
659.66	334.48
660.00	334.24
660.34	333.67
660.68	333.57
661.02	332.86
661.36	331.81
661.70	331.10
662.05	330.86
662.39	330.86
662.73	331.29
663.07	332.10
663.41	331.43
663.75	330.43
664.09	329.90
664.43	328.38
664.77	327.81
665.11	326.48
665.45	325.90
665.79	325.19
666.13	324.29
666.47	323.29
666.81	322.19
667.15	320.90
667.49	320.19
667.83	320.19
668.17	318.90
668.51	318.71
668.85	318.48
669.19	318.38
669.53	317.14
669.87	315.48
670.21	314.00
670.55	313.29
670.89	313.71
671.23	313.05
671.57	312.19
671.91	311.67
672.25	311.05
672.58	311.81
672.92	310.81
673.26	310.43
673.60	310.48
673.94	310.38
674.28	310.29
674.62	310.33
674.96	309.14
675.30	309.00
675.64	308.38
675.97	307.71
676.31	306.43
676.65	305.71
676.99	306.33
677.33	304.95
677.67	304.67
678.01	303.29
678.34	303.05
678.68	303.10
679.02	302.71
679.36	302.67
679.70	301.19
680.04	300.90
680.37	300.67
680.71	300.00
681.05	299.38
681.39	299.33
681.73	298.19
682.06	297.62
682.40	297.33
682.74	297.00
683.08	297.90
683.42	297.52
683.75	297.71
684.09	296.29
684.43	296.29
684.77	295.71
685.10	295.95
685.44	295.57
685.78	294.86
686.12	293.95
686.45	293.33
686.79	292.57
687.13	292.86
687.46	292.19
687.80	292.33
688.14	292.00
688.48	291.48
688.81	291.62
689.15	291.86
689.49	291.29
689.82	291.24
690.16	289.48
690.50	288.90
690.83	288.33
691.17	287.67
691.51	287.38
691.84	287.33
692.18	286.38
692.52	285.57
692.85	285.38
693.19	286.52
693.52	285.52
693.86	285.14
694.20	284.48
694.53	284.62
694.87	283.62
695.21	283.00
695.54	282.62
695.88	281.86
696.21	280.48
696.55	280.10
696.88	279.67
697.22	278.86
697.56	279.00
697.89	278.48
698.23	278.86
698.56	278.52
698.90	278.33
699.23	277.67
699.57	278.05
699.90	277.67
700.24	276.67
700.58	277.33
700.91	277.52
701.25	279.57
701.58	279.76
701.92	280.76
702.25	281.10
702.59	281.38
702.92	281.43
703.26	282.14
703.59	282.67
703.93	285.10
704.26	286.29
704.60	286.71
704.93	287.00
705.26	286.81
705.60	287.57
705.93	287.62
706.27	288.76
706.60	289.43
706.94	290.90
707.27	290.62
707.61	291.00
707.94	291.19
708.27	289.29
708.61	288.86
708.94	288.48
709.28	288.14
709.61	287.52
709.94	287.67
710.28	287.43
710.61	286.48
710.95	283.43
711.28	284.10
711.61	282.67
711.95	282.29
712.28	281.57
712.61	280.43
712.95	280.71
713.28	281.14
713.61	279.67
713.95	277.81
714.28	277.33
714.61	276.19
714.95	275.19
715.28	274.05
715.61	273.29
715.95	272.52
716.28	271.86
716.61	272.00
716.95	271.10
717.28	270.48
717.61	270.19
717.94	269.86
718.28	267.67
718.61	267.62
718.94	266.76
719.27	266.48
719.61	266.33
719.94	265.00
720.27	263.24
720.60	262.71
720.94	262.43
721.27	262.24
721.60	262.38
721.93	262.29
722.27	262.67
722.60	262.62
722.93	262.24
723.26	262.29
723.59	261.57
723.93	261.57
724.26	261.38
724.59	261.24
724.92	261.19
725.25	261.71
725.59	261.57
725.92	262.05
726.25	261.76
726.58	261.43
726.91	261.38
727.24	261.52
727.57	261.43
727.91	260.90
728.24	260.76
728.57	260.05
728.90	260.05
729.23	259.24
729.56	260.10
729.89	259.76
730.22	259.29
730.55	258.86
730.89	258.71
731.22	258.29
731.55	257.90
731.88	257.81
732.21	257.14
732.54	256.76
732.87	256.33
733.20	256.38
733.53	256.43
733.86	256.71
734.19	256.10
734.52	256.43
734.85	257.67
735.18	257.43
735.51	258.10
735.84	257.71
736.17	258.67
736.50	257.10
736.83	260.24
737.16	260.38
737.49	260.48
737.82	260.05
738.15	260.43
738.48	260.43
738.81	259.90
739.14	259.71
739.47	259.62
739.80	259.33
740.13	259.48
740.46	258.81
740.79	258.48
741.12	258.38
741.45	257.71
741.78	256.48
742.11	257.24
742.44	256.76
742.77	257.24
743.10	256.33
743.43	256.24
743.75	253.38
744.08	256.14
744.41	256.05
744.74	255.86
745.07	255.24
745.40	255.62
745.73	256.71
746.06	256.67
746.39	256.81
746.71	256.71
747.04	256.29
747.37	256.29
747.70	256.43
748.03	256.67
748.36	257.43
748.68	257.52
749.01	256.86
749.34	256.57
749.67	256.71
750.00	257.00
750.33	258.76
750.65	258.81
750.98	255.67
751.31	255.71
751.64	255.62
751.97	257.14
752.29	256.67
752.62	255.52
752.95	255.14
753.28	254.71
753.60	254.52
753.93	255.29
754.26	255.33
754.59	254.48
754.91	253.90
755.24	253.43
755.57	253.33
755.90	252.62
756.22	252.48
756.55	251.62
756.88	251.05
757.20	249.38
757.53	248.67
757.86	249.00
758.19	248.90
758.51	248.95
758.84	247.57
759.17	247.29
759.49	247.57
759.82	248.81
760.15	249.29
760.47	249.24
760.80	248.38
761.13	249.00
761.45	248.90
761.78	249.43
762.11	249.29
762.43	248.81
762.76	248.95
763.08	249.29
763.41	249.48
763.74	249.57
764.06	249.38
764.39	249.71
764.71	249.24
765.04	249.00
765.37	248.90
765.69	248.62
766.02	248.76
766.34	248.57
766.67	247.76
767.00	248.05
767.32	249.43
767.65	250.57
767.97	250.10
768.30	250.67
768.62	250.24
768.95	249.76
769.27	249.81
769.60	250.00
769.92	249.33
770.25	248.90
770.57	248.48
770.90	248.43
771.22	247.95
771.55	247.86
771.87	248.14
772.20	248.24
772.52	250.48
772.85	253.19
773.17	253.00
773.50	252.67
773.82	251.81
774.15	250.71
774.47	249.52
774.80	249.38
775.12	248.81
775.45	248.57
775.77	248.57
776.09	248.86
776.42	249.05
776.74	249.90
777.07	249.52
777.39	249.57
777.72	249.48
778.04	249.71
778.36	249.48
778.69	249.38
779.01	249.57
779.33	247.62
779.66	245.00
779.98	244.71
780.31	244.86
780.63	246.29
780.95	246.52
781.28	246.52
781.60	246.14
781.92	245.81
782.25	246.19
782.57	246.33
782.89	246.05
783.22	245.71
783.54	245.10
783.86	245.33
784.19	245.05
784.51	245.76
784.83	245.38
785.16	245.76
785.48	245.67
785.80	245.24
786.12	245.00
786.45	244.48
786.77	244.76
787.09	244.57
787.42	243.52
787.74	243.57
788.06	243.24
788.38	243.19
788.71	243.52
789.03	243.43
789.35	243.86
789.67	243.33
789.99	243.57
790.32	243.33
790.64	244.00
790.96	246.29
791.28	245.57
791.61	245.81
791.93	245.71
792.25	245.33
792.57	246.90
792.89	246.81
793.21	247.29
793.54	246.90
793.86	246.38
