SpectraSuite Data File
++++++++++++++++++++++++++++++++++++
Date: Wed Nov 07 18:31:55 EST 2012
User: group
Dark Spectrum Present: No
Reference Spectrum Present: No
Number of Sampled Component Spectra: 1
Spectrometers: USB2E7196
Integration Time (usec): 1000000 (USB2E7196)
Spectra Averaged: 1 (USB2E7196)
Boxcar Smoothing: 10 (USB2E7196)
Correct for Electrical Dark: No (USB2E7196)
Strobe/Lamp Enabled: No (USB2E7196)
Correct for Detector Non-linearity: No (USB2E7196)
Correct for Stray Light: No (USB2E7196)
Number of Pixels in Processed Spectrum: 2048
>>>>>Begin Processed Spectral Data<<<<<
339.09	0.00
339.48	220.00
339.86	220.00
340.24	224.00
340.63	225.00
341.01	263.00
341.39	222.00
341.78	234.00
342.16	239.00
342.54	224.00
342.93	222.90
343.31	233.95
343.69	234.57
344.07	235.05
344.46	235.86
344.84	236.76
345.22	235.24
345.60	236.00
345.99	236.29
346.37	236.52
346.75	237.19
347.13	237.10
347.52	237.05
347.90	237.76
348.28	238.10
348.66	238.90
349.05	238.52
349.43	238.62
349.81	238.57
350.19	238.57
350.57	238.90
350.96	239.71
351.34	240.33
351.72	240.38
352.10	240.76
352.48	240.52
352.87	240.19
353.25	240.62
353.63	240.48
354.01	240.52
354.39	240.52
354.77	240.95
355.15	241.52
355.54	241.29
355.92	240.90
356.30	241.00
356.68	242.33
357.06	242.57
357.44	242.52
357.82	242.67
358.20	243.10
358.58	242.86
358.97	242.62
359.35	243.10
359.73	243.86
360.11	244.33
360.49	244.86
360.87	244.86
361.25	245.24
361.63	246.71
362.01	246.86
362.39	246.76
362.77	246.38
363.15	246.48
363.53	246.62
363.91	246.95
364.29	247.10
364.67	244.86
365.05	244.71
365.43	244.86
365.81	245.00
366.19	246.10
366.57	247.62
366.95	247.57
367.33	246.67
367.71	246.33
368.09	246.43
368.47	246.00
368.85	246.24
369.23	246.38
369.61	245.14
369.99	245.76
370.37	246.00
370.75	247.33
371.13	246.76
371.51	246.38
371.89	246.10
372.27	246.05
372.65	246.43
373.03	246.48
373.41	246.57
373.78	246.57
374.16	244.90
374.54	244.05
374.92	243.95
375.30	244.14
375.68	243.90
376.06	243.52
376.44	243.38
376.82	243.33
377.19	243.52
377.57	243.19
377.95	242.14
378.33	242.00
378.71	240.24
379.09	240.76
379.47	241.05
379.84	240.86
380.22	240.29
380.60	239.67
380.98	239.52
381.36	239.19
381.73	238.81
382.11	239.86
382.49	239.76
382.87	239.24
383.25	239.29
383.62	242.19
384.00	242.00
384.38	242.05
384.76	242.43
385.13	242.67
385.51	242.57
385.89	242.38
386.27	242.29
386.64	242.90
387.02	242.48
387.40	242.43
387.78	242.62
388.15	242.95
388.53	242.76
388.91	242.81
389.29	242.62
389.66	243.14
390.04	242.43
390.42	242.38
390.79	242.90
391.17	242.62
391.55	239.71
391.92	239.48
392.30	239.81
392.68	239.19
393.05	239.05
393.43	239.38
393.81	239.67
394.18	239.10
394.56	239.00
394.94	239.48
395.31	239.48
395.69	240.43
396.06	240.57
396.44	240.86
396.82	240.76
397.19	242.14
397.57	241.81
397.95	242.14
398.32	241.76
398.70	241.86
399.07	242.48
399.45	242.48
399.82	242.57
400.20	242.10
400.58	242.00
400.95	241.24
401.33	241.86
401.70	243.71
402.08	244.29
402.45	244.10
402.83	244.29
403.20	244.33
403.58	243.86
403.95	244.48
404.33	245.10
404.71	245.10
405.08	246.38
405.46	246.57
405.83	247.19
406.21	247.67
406.58	247.76
406.96	248.10
407.33	248.52
407.70	249.24
408.08	252.10
408.45	253.48
408.83	254.57
409.20	254.62
409.58	253.86
409.95	254.86
410.33	256.43
410.70	257.05
411.08	258.67
411.45	259.71
411.82	260.48
412.20	261.90
412.57	264.86
412.95	264.05
413.32	265.95
413.69	267.14
414.07	268.90
414.44	270.86
414.82	272.90
415.19	275.48
415.56	277.86
415.94	278.95
416.31	281.29
416.68	284.33
417.06	287.90
417.43	291.86
417.81	295.38
418.18	298.90
418.55	302.52
418.93	306.33
419.30	310.71
419.67	315.71
420.04	320.48
420.42	324.38
420.79	332.29
421.16	337.86
421.54	345.10
421.91	351.67
422.28	357.76
422.66	363.90
423.03	372.05
423.40	379.05
423.77	386.19
424.15	393.90
424.52	401.71
424.89	410.48
425.26	417.81
425.64	425.76
426.01	434.24
426.38	442.48
426.75	451.86
427.13	461.48
427.50	470.62
427.87	480.81
428.24	490.48
428.61	498.43
428.99	509.76
429.36	520.14
429.73	530.90
430.10	542.90
430.47	555.71
430.85	566.43
431.22	579.67
431.59	594.86
431.96	607.62
432.33	622.19
432.70	635.48
433.08	651.86
433.45	667.24
433.82	682.81
434.19	700.52
434.56	717.14
434.93	732.33
435.30	748.52
435.68	765.29
436.05	782.52
436.42	798.71
436.79	813.57
437.16	829.86
437.53	847.24
437.90	863.57
438.27	879.43
438.64	896.81
439.01	912.33
439.38	924.95
439.75	937.71
440.13	952.67
440.50	967.19
440.87	979.10
441.24	990.24
441.61	1002.86
441.98	1011.52
442.35	1021.95
442.72	1033.24
443.09	1044.62
443.46	1050.62
443.83	1054.14
444.20	1057.71
444.57	1062.57
444.94	1063.62
445.31	1065.43
445.68	1070.81
446.05	1070.81
446.42	1067.14
446.79	1064.57
447.16	1060.62
447.53	1057.90
447.90	1049.62
448.27	1041.29
448.64	1030.90
449.01	1023.19
449.37	1010.14
449.74	998.81
450.11	987.29
450.48	972.19
450.85	955.48
451.22	942.24
451.59	929.95
451.96	917.67
452.33	902.10
452.70	888.52
453.07	871.29
453.43	850.05
453.80	833.24
454.17	817.67
454.54	801.81
454.91	785.48
455.28	770.57
455.65	756.00
456.02	746.43
456.38	733.71
456.75	719.33
457.12	707.14
457.49	695.05
457.86	680.48
458.23	670.14
458.59	659.43
458.96	647.90
459.33	637.29
459.70	627.52
460.07	619.24
460.43	610.29
460.80	602.90
461.17	595.90
461.54	588.76
461.91	581.52
462.27	574.05
462.64	568.14
463.01	561.67
463.38	556.76
463.74	545.76
464.11	539.95
464.48	534.57
464.85	529.33
465.21	524.95
465.58	520.81
465.95	515.00
466.32	510.62
466.68	506.57
467.05	502.48
467.42	498.00
467.78	492.90
468.15	488.43
468.52	484.52
468.88	479.86
469.25	475.71
469.62	472.81
469.98	469.29
470.35	465.90
470.72	462.05
471.08	456.81
471.45	454.29
471.82	452.00
472.18	448.95
472.55	446.29
472.92	442.71
473.28	440.10
473.65	437.67
474.02	434.76
474.38	432.33
474.75	430.52
475.11	428.33
475.48	427.05
475.85	424.52
476.21	422.62
476.58	422.10
476.94	420.81
477.31	419.38
477.67	418.43
478.04	417.86
478.41	417.52
478.77	419.62
479.14	418.95
479.50	418.52
479.87	418.62
480.23	418.71
480.60	419.05
480.96	419.14
481.33	420.48
481.69	421.00
482.06	421.52
482.42	422.38
482.79	423.24
483.15	423.67
483.52	425.71
483.88	427.05
484.25	428.14
484.61	429.43
484.98	430.67
485.34	432.33
485.71	434.24
486.07	435.52
486.44	434.62
486.80	435.67
487.17	436.33
487.53	438.29
487.90	440.24
488.26	443.57
488.62	445.14
488.99	445.86
489.35	447.71
489.72	449.67
490.08	451.67
490.44	453.62
490.81	455.90
491.17	457.62
491.54	459.52
491.90	461.62
492.26	463.57
492.63	466.00
492.99	468.24
493.36	470.24
493.72	473.14
494.08	476.14
494.45	479.76
494.81	483.90
495.17	486.38
495.54	489.48
495.90	491.24
496.26	494.81
496.63	498.81
496.99	502.24
497.35	506.10
497.72	509.95
498.08	513.48
498.44	517.95
498.80	522.33
499.17	526.48
499.53	530.14
499.89	535.10
500.26	539.71
500.62	544.86
500.98	550.05
501.34	554.10
501.71	560.14
502.07	564.38
502.43	568.67
502.79	573.76
503.16	579.19
503.52	584.00
503.88	588.76
504.24	593.76
504.60	598.67
504.97	604.05
505.33	608.38
505.69	614.90
506.05	620.05
506.41	625.52
506.78	630.24
507.14	636.48
507.50	642.24
507.86	647.62
508.22	652.62
508.59	657.29
508.95	663.19
509.31	668.95
509.67	675.00
510.03	680.10
510.39	685.71
510.75	690.62
511.12	695.38
511.48	700.33
511.84	704.90
512.20	710.52
512.56	715.33
512.92	720.86
513.28	725.48
513.64	729.76
514.00	733.86
514.37	739.00
514.73	742.29
515.09	746.71
515.45	751.29
515.81	755.38
516.17	759.71
516.53	763.81
516.89	766.29
517.25	769.43
517.61	774.05
517.97	777.14
518.33	781.33
518.69	786.57
519.05	790.86
519.41	795.10
519.77	800.14
520.13	803.14
520.49	806.38
520.85	809.00
521.21	813.67
521.57	817.52
521.93	820.33
522.29	824.48
522.65	826.05
523.01	828.43
523.37	831.10
523.73	834.24
524.09	836.52
524.45	838.33
524.81	840.43
525.17	841.71
525.53	843.62
525.89	844.95
526.25	846.19
526.61	847.05
526.97	848.33
527.33	849.38
527.68	853.57
528.04	854.86
528.40	856.19
528.76	856.95
529.12	858.33
529.48	860.00
529.84	860.67
530.20	862.76
530.56	864.19
530.91	865.52
531.27	866.43
531.63	867.67
531.99	869.14
532.35	870.10
532.71	871.95
533.07	874.05
533.42	877.19
533.78	877.86
534.14	879.76
534.50	880.76
534.86	881.19
535.21	880.14
535.57	881.57
535.93	882.10
536.29	884.24
536.65	885.14
537.00	886.19
537.36	888.86
537.72	890.10
538.08	892.81
538.44	894.71
538.79	896.95
539.15	898.81
539.51	901.81
539.87	904.86
540.22	906.48
540.58	908.48
540.94	909.00
541.29	912.29
541.65	913.95
542.01	917.05
542.37	918.62
542.72	919.71
543.08	920.86
543.44	922.57
543.79	920.86
544.15	921.71
544.51	922.67
544.87	920.81
545.22	920.14
545.58	917.62
545.94	915.76
546.29	913.19
546.65	910.90
547.01	908.19
547.36	905.81
547.72	903.38
548.07	899.86
548.43	895.81
548.79	891.86
549.14	887.81
549.50	883.48
549.86	879.52
550.21	876.33
550.57	873.52
550.92	870.10
551.28	868.81
551.64	866.52
551.99	863.14
552.35	860.24
552.70	857.29
553.06	855.48
553.41	852.90
553.77	851.81
554.13	849.67
554.48	847.24
554.84	845.95
555.19	843.81
555.55	845.14
555.90	843.86
556.26	841.62
556.61	840.57
556.97	838.05
557.32	836.14
557.68	834.86
558.03	832.29
558.39	830.86
558.74	828.24
559.10	824.90
559.45	823.05
559.81	822.57
560.16	820.57
560.52	818.43
560.87	817.52
561.23	815.33
561.58	816.38
561.94	814.38
562.29	810.95
562.64	809.67
563.00	805.24
563.35	804.33
563.71	803.10
564.06	800.81
564.42	799.62
564.77	798.33
565.12	796.48
565.48	797.67
565.83	796.71
566.19	795.10
566.54	794.24
566.89	793.67
567.25	792.76
567.60	793.52
567.96	794.76
568.31	794.33
568.66	793.90
569.02	790.19
569.37	789.29
569.72	788.95
570.08	787.00
570.43	785.71
570.78	783.29
571.14	781.62
571.49	780.38
571.84	779.38
572.20	778.52
572.55	777.48
572.90	774.00
573.26	772.33
573.61	772.14
573.96	770.71
574.31	768.48
574.67	766.86
575.02	764.33
575.37	760.52
575.72	758.48
576.08	756.48
576.43	755.00
576.78	753.71
577.13	751.24
577.49	750.29
577.84	749.52
578.19	748.29
578.54	747.67
578.90	747.00
579.25	746.05
579.60	745.33
579.95	743.90
580.30	743.14
580.66	742.33
581.01	740.52
581.36	739.10
581.71	737.52
582.06	736.76
582.42	735.10
582.77	733.48
583.12	732.29
583.47	730.52
583.82	729.38
584.17	727.90
584.53	728.67
584.88	726.43
585.23	725.14
585.58	723.14
585.93	720.76
586.28	718.52
586.63	716.33
586.98	713.29
587.34	711.57
587.69	708.62
588.04	705.62
588.39	702.29
588.74	699.43
589.09	697.95
589.44	693.71
589.79	691.76
590.14	689.05
590.49	684.86
590.84	681.38
591.19	678.52
591.54	675.48
591.89	670.57
592.25	669.76
592.60	665.10
592.95	662.76
593.30	660.48
593.65	657.48
594.00	653.76
594.35	657.38
594.70	654.14
595.05	650.95
595.40	647.95
595.75	645.71
596.10	643.48
596.45	640.52
596.80	638.38
597.15	635.57
597.50	632.81
597.85	631.76
598.19	629.52
598.54	626.62
598.89	623.24
599.24	621.19
599.59	616.67
599.94	614.24
600.29	611.76
600.64	608.38
600.99	607.05
601.34	605.52
601.69	596.81
602.04	593.86
602.39	592.05
602.74	590.14
603.08	588.00
603.43	586.43
603.78	584.05
604.13	581.62
604.48	579.29
604.83	578.38
605.18	577.00
605.53	577.10
605.87	579.24
606.22	583.14
606.57	587.90
606.92	593.62
607.27	599.48
607.62	605.43
607.96	611.67
608.31	615.95
608.66	619.24
609.01	623.67
609.36	627.95
609.70	631.05
610.05	633.95
610.40	636.86
610.75	638.86
611.10	640.95
611.44	642.90
611.79	643.71
612.14	643.86
612.49	642.33
612.83	640.24
613.18	635.90
613.53	630.00
613.88	622.76
614.22	614.90
614.57	606.81
614.92	598.10
615.27	589.71
615.61	581.57
615.96	575.29
616.31	567.48
616.65	560.86
617.00	554.76
617.35	548.86
617.70	542.76
618.04	537.10
618.39	531.48
618.74	526.71
619.08	522.57
619.43	518.19
619.78	514.38
620.12	511.00
620.47	508.52
620.82	505.81
621.16	503.14
621.51	501.81
621.85	499.29
622.20	496.76
622.55	493.14
622.89	491.14
623.24	489.00
623.59	486.90
623.93	484.62
624.28	482.33
624.62	482.71
624.97	482.29
625.32	479.71
625.66	477.71
626.01	476.29
626.35	474.95
626.70	473.67
627.04	473.00
627.39	471.43
627.73	470.05
628.08	468.52
628.43	466.43
628.77	462.86
629.12	460.81
629.46	458.81
629.81	458.05
630.15	455.90
630.50	453.71
630.84	451.76
631.19	449.76
631.53	447.86
631.88	442.43
632.22	438.33
632.57	437.19
632.91	434.71
633.26	432.14
633.60	429.38
633.95	426.95
634.29	423.81
634.64	421.14
634.98	417.81
635.32	415.90
635.67	413.76
636.01	412.43
636.36	410.29
636.70	409.00
637.05	406.81
637.39	405.29
637.73	403.95
638.08	402.90
638.42	400.43
638.77	399.05
639.11	398.19
639.45	396.48
639.80	394.24
640.14	393.24
640.49	391.29
640.83	389.43
641.17	388.00
641.52	386.86
641.86	386.19
642.20	386.38
642.55	384.57
642.89	383.57
643.23	382.71
643.58	382.38
643.92	380.05
644.26	379.10
644.61	378.10
644.95	376.76
645.29	375.52
645.64	375.67
645.98	374.52
646.32	373.95
646.66	373.67
647.01	372.86
647.35	372.14
647.69	371.67
648.04	371.52
648.38	370.52
648.72	370.00
649.06	368.57
649.41	366.76
649.75	365.57
650.09	364.71
650.43	362.76
650.78	361.05
651.12	360.29
651.46	359.19
651.80	357.62
652.14	356.05
652.49	355.05
652.83	353.81
653.17	352.90
653.51	351.05
653.85	349.76
654.20	348.57
654.54	347.48
654.88	345.90
655.22	344.19
655.56	342.90
655.90	341.67
656.25	340.67
656.59	339.38
656.93	338.90
657.27	338.71
657.61	338.00
657.95	337.57
658.29	336.95
658.64	336.62
658.98	336.24
659.32	335.76
659.66	334.62
660.00	334.05
660.34	333.48
660.68	333.05
661.02	332.48
661.36	331.95
661.70	331.24
662.05	330.81
662.39	331.10
662.73	331.38
663.07	332.14
663.41	331.86
663.75	330.86
664.09	330.38
664.43	328.67
664.77	328.19
665.11	327.14
665.45	326.14
665.79	325.24
666.13	324.67
666.47	323.81
666.81	323.19
667.15	321.86
667.49	320.81
667.83	320.57
668.17	319.76
668.51	319.00
668.85	318.76
669.19	319.14
669.53	317.81
669.87	316.29
670.21	314.10
670.55	313.38
670.89	314.71
671.23	313.67
671.57	313.38
671.91	313.00
672.25	312.67
672.58	313.19
672.92	312.24
673.26	311.57
673.60	311.19
673.94	311.00
674.28	310.95
674.62	310.95
674.96	310.33
675.30	310.00
675.64	309.71
675.97	308.90
676.31	307.71
676.65	307.52
676.99	307.90
677.33	307.38
677.67	306.90
678.01	304.71
678.34	304.43
678.68	304.24
679.02	303.10
679.36	302.29
679.70	301.14
680.04	300.71
680.37	300.24
680.71	299.81
681.05	299.33
681.39	298.62
681.73	298.00
682.06	297.43
682.40	296.76
682.74	296.52
683.08	297.00
683.42	296.62
683.75	296.67
684.09	295.76
684.43	295.62
684.77	295.14
685.10	295.29
685.44	295.24
685.78	294.90
686.12	294.43
686.45	294.52
686.79	293.86
687.13	294.14
687.46	293.57
687.80	293.52
688.14	293.00
688.48	292.76
688.81	292.67
689.15	292.67
689.49	292.33
689.82	291.90
690.16	290.24
690.50	289.48
690.83	288.38
691.17	287.76
691.51	287.43
691.84	287.24
692.18	286.05
692.52	285.24
692.85	284.90
693.19	285.67
693.52	285.00
693.86	284.81
694.20	283.90
694.53	283.33
694.87	282.71
695.21	281.95
695.54	281.48
695.88	280.29
696.21	279.19
696.55	278.90
696.88	278.24
697.22	277.90
697.56	278.19
697.89	277.48
698.23	277.10
698.56	276.71
698.90	276.38
699.23	276.52
699.57	276.38
699.90	275.71
700.24	274.62
700.58	274.57
700.91	274.67
701.25	276.57
701.58	277.38
701.92	277.95
702.25	278.76
702.59	278.86
702.92	279.48
703.26	280.33
703.59	280.76
703.93	283.33
704.26	284.24
704.60	284.43
704.93	285.29
705.26	285.90
705.60	286.52
705.93	286.43
706.27	287.48
706.60	288.38
706.94	289.57
707.27	290.14
707.61	290.48
707.94	290.57
708.27	288.81
708.61	288.29
708.94	287.76
709.28	287.10
709.61	286.48
709.94	285.62
710.28	284.52
710.61	283.95
710.95	280.90
711.28	281.52
711.61	280.52
711.95	280.14
712.28	278.95
712.61	277.95
712.95	278.62
713.28	278.57
713.61	276.95
713.95	275.29
714.28	274.19
714.61	273.33
714.95	272.43
715.28	271.19
715.61	270.24
715.95	269.95
716.28	269.29
716.61	269.29
716.95	268.81
717.28	268.33
717.61	267.86
717.94	267.62
718.28	265.48
718.61	265.00
718.94	264.43
719.27	264.19
719.61	264.19
719.94	263.19
720.27	261.48
720.60	261.57
720.94	261.33
721.27	261.57
721.60	261.33
721.93	261.33
722.27	262.52
722.60	262.86
722.93	262.05
723.26	262.14
723.59	261.43
723.93	261.52
724.26	261.62
724.59	261.52
724.92	261.71
725.25	262.19
725.59	261.90
725.92	261.62
726.25	261.33
726.58	261.19
726.91	260.95
727.24	261.52
727.57	261.24
727.91	260.57
728.24	260.57
728.57	260.19
728.90	259.95
729.23	258.57
729.56	259.71
729.89	259.71
730.22	259.19
730.55	259.14
730.89	259.00
731.22	258.95
731.55	258.90
731.88	258.48
732.21	258.14
732.54	257.81
732.87	257.86
733.20	257.90
733.53	257.62
733.86	257.67
734.19	257.14
734.52	257.29
734.85	259.29
735.18	258.67
735.51	259.90
735.84	259.86
736.17	260.29
736.50	258.71
736.83	261.52
737.16	261.71
737.49	261.90
737.82	261.76
738.15	262.14
738.48	262.10
738.81	261.86
739.14	261.19
739.47	261.38
739.80	261.19
740.13	261.52
740.46	261.33
740.79	261.19
741.12	261.10
741.45	260.57
741.78	258.62
742.11	259.38
742.44	258.14
742.77	258.43
743.10	258.43
743.43	258.05
743.75	255.67
744.08	258.52
744.41	258.05
744.74	258.10
745.07	256.95
745.40	256.86
745.73	257.81
746.06	257.95
746.39	258.14
746.71	257.86
747.04	257.43
747.37	256.90
747.70	256.81
748.03	256.67
748.36	257.24
748.68	257.38
749.01	256.67
749.34	256.71
749.67	256.81
750.00	256.76
750.33	258.71
750.65	258.67
750.98	255.38
751.31	255.29
751.64	254.90
751.97	256.29
752.29	256.14
752.62	255.29
752.95	255.05
753.28	254.57
753.60	254.57
753.93	254.76
754.26	254.90
754.59	254.00
754.91	253.76
755.24	253.29
755.57	253.29
755.90	252.95
756.22	252.81
756.55	252.19
756.88	252.10
757.20	250.29
757.53	249.48
757.86	249.62
758.19	249.86
758.51	249.90
758.84	248.67
759.17	248.29
759.49	248.05
759.82	249.14
760.15	249.29
760.47	249.14
760.80	248.52
761.13	248.86
761.45	248.81
761.78	248.90
762.11	248.86
762.43	248.57
762.76	248.29
763.08	248.71
763.41	249.00
763.74	248.57
764.06	248.38
764.39	248.29
764.71	248.14
765.04	247.86
765.37	247.38
765.69	247.14
766.02	247.14
766.34	247.48
766.67	246.76
767.00	247.10
767.32	248.43
767.65	250.38
767.97	250.24
768.30	250.33
768.62	250.29
768.95	250.10
769.27	250.33
769.60	250.86
769.92	249.90
770.25	249.19
770.57	248.95
770.90	249.00
771.22	248.86
771.55	248.86
771.87	249.00
772.20	249.38
772.52	251.86
772.85	254.71
773.17	254.29
773.50	253.81
773.82	253.81
774.15	252.57
774.47	250.67
774.80	250.14
775.12	250.48
775.45	250.33
775.77	250.24
776.09	250.19
776.42	249.95
776.74	250.67
777.07	250.71
777.39	250.57
777.72	250.29
778.04	250.14
778.36	249.90
778.69	250.00
779.01	250.00
779.33	247.67
779.66	244.95
779.98	244.33
780.31	244.71
780.63	245.38
780.95	245.57
781.28	245.57
781.60	245.62
781.92	245.24
782.25	245.10
782.57	245.29
782.89	245.00
783.22	244.76
783.54	244.67
783.86	244.86
784.19	245.00
784.51	245.76
784.83	245.71
785.16	245.43
785.48	245.19
785.80	244.81
786.12	244.86
786.45	244.48
786.77	244.86
787.09	244.00
787.42	242.95
787.74	243.29
788.06	243.57
788.38	243.62
788.71	243.33
789.03	243.52
789.35	243.81
789.67	243.38
789.99	243.76
790.32	243.14
790.64	243.33
790.96	245.05
791.28	244.24
791.61	244.33
791.93	244.67
792.25	244.81
792.57	246.71
792.89	246.19
793.21	246.38
793.54	246.29
793.86	246.67
