SpectraSuite Data File
++++++++++++++++++++++++++++++++++++
Date: Wed Nov 07 18:31:28 EST 2012
User: group
Dark Spectrum Present: No
Reference Spectrum Present: No
Number of Sampled Component Spectra: 1
Spectrometers: USB2E7196
Integration Time (usec): 1000000 (USB2E7196)
Spectra Averaged: 1 (USB2E7196)
Boxcar Smoothing: 10 (USB2E7196)
Correct for Electrical Dark: No (USB2E7196)
Strobe/Lamp Enabled: No (USB2E7196)
Correct for Detector Non-linearity: No (USB2E7196)
Correct for Stray Light: No (USB2E7196)
Number of Pixels in Processed Spectrum: 2048
>>>>>Begin Processed Spectral Data<<<<<
339.09	0.00
339.48	222.00
339.86	222.00
340.24	226.00
340.63	218.00
341.01	262.00
341.39	230.00
341.78	236.00
342.16	238.00
342.54	229.00
342.93	224.10
343.31	235.19
343.69	235.62
344.07	236.00
344.46	236.95
344.84	237.76
345.22	236.48
345.60	236.90
345.99	237.10
346.37	237.24
346.75	237.43
347.13	237.43
347.52	237.43
347.90	238.10
348.28	238.29
348.66	238.90
349.05	238.19
349.43	238.14
349.81	238.05
350.19	237.95
350.57	237.95
350.96	238.52
351.34	238.81
351.72	239.10
352.10	239.29
352.48	238.57
352.87	238.67
353.25	238.71
353.63	238.62
354.01	238.48
354.39	238.29
354.77	238.33
355.15	238.76
355.54	238.19
355.92	237.38
356.30	237.00
356.68	238.38
357.06	238.62
357.44	237.86
357.82	238.14
358.20	238.38
358.58	238.43
358.97	238.52
359.35	238.81
359.73	238.71
360.11	238.62
360.49	238.62
360.87	238.24
361.25	238.62
361.63	239.29
362.01	239.57
362.39	239.57
362.77	239.62
363.15	239.76
363.53	240.10
363.91	240.33
364.29	240.71
364.67	238.52
365.05	238.62
365.43	239.19
365.81	239.57
366.19	240.52
366.57	241.48
366.95	241.00
367.33	240.57
367.71	241.00
368.09	241.76
368.47	241.95
368.85	242.10
369.23	242.52
369.61	241.86
369.99	242.33
370.37	242.52
370.75	244.05
371.13	243.52
371.51	243.38
371.89	243.57
372.27	243.62
372.65	243.71
373.03	243.67
373.41	243.81
373.78	242.95
374.16	242.00
374.54	241.00
374.92	241.24
375.30	241.38
375.68	241.00
376.06	241.05
376.44	240.90
376.82	241.33
377.19	241.00
377.57	240.95
377.95	240.33
378.33	240.33
378.71	238.81
379.09	239.00
379.47	239.29
379.84	239.10
380.22	238.71
380.60	238.29
380.98	238.43
381.36	238.33
381.73	238.81
382.11	239.29
382.49	239.43
382.87	238.81
383.25	238.76
383.62	241.86
384.00	241.33
384.38	241.86
384.76	242.14
385.13	243.24
385.51	243.19
385.89	242.81
386.27	243.00
386.64	243.29
387.02	243.43
387.40	243.29
387.78	243.05
388.15	243.14
388.53	243.19
388.91	243.05
389.29	242.86
389.66	243.19
390.04	242.57
390.42	243.00
390.79	243.33
391.17	243.43
391.55	240.33
391.92	240.19
392.30	240.38
392.68	239.76
393.05	239.33
393.43	239.52
393.81	239.86
394.18	239.38
394.56	239.19
394.94	239.43
395.31	239.05
395.69	240.33
396.06	240.62
396.44	240.81
396.82	241.00
397.19	242.48
397.57	242.05
397.95	242.86
398.32	242.24
398.70	242.43
399.07	242.86
399.45	243.10
399.82	243.14
400.20	242.76
400.58	243.24
400.95	242.76
401.33	243.19
401.70	244.95
402.08	245.05
402.45	245.52
402.83	246.38
403.20	246.81
403.58	246.24
403.95	246.95
404.33	247.67
404.71	247.62
405.08	248.71
405.46	249.00
405.83	249.29
406.21	249.90
406.58	250.57
406.96	250.71
407.33	251.43
407.70	252.19
408.08	254.76
408.45	255.57
408.83	256.81
409.20	257.10
409.58	256.62
409.95	257.90
410.33	258.90
410.70	259.05
411.08	260.38
411.45	261.43
411.82	262.14
412.20	263.62
412.57	266.14
412.95	265.43
413.32	267.43
413.69	268.90
414.07	270.48
414.44	272.14
414.82	274.05
415.19	276.38
415.56	278.86
415.94	279.57
416.31	282.38
416.68	284.86
417.06	288.43
417.43	291.86
417.81	295.14
418.18	298.67
418.55	302.43
418.93	306.48
419.30	311.19
419.67	315.71
420.04	320.19
420.42	324.38
420.79	332.10
421.16	338.00
421.54	345.19
421.91	351.62
422.28	358.19
422.66	365.05
423.03	373.14
423.40	379.95
423.77	387.81
424.15	394.76
424.52	402.14
424.89	410.90
425.26	418.57
425.64	426.67
426.01	434.76
426.38	443.90
426.75	454.05
427.13	462.95
427.50	472.38
427.87	482.10
428.24	492.33
428.61	500.19
428.99	511.33
429.36	521.81
429.73	533.10
430.10	545.00
430.47	557.19
430.85	568.05
431.22	581.52
431.59	596.48
431.96	610.33
432.33	625.43
432.70	639.33
433.08	655.29
433.45	670.57
433.82	686.95
434.19	703.76
434.56	719.29
434.93	735.05
435.30	750.71
435.68	768.52
436.05	784.81
436.42	800.52
436.79	816.10
437.16	832.14
437.53	849.76
437.90	866.10
438.27	882.57
438.64	900.00
439.01	915.48
439.38	927.81
439.75	940.38
440.13	954.76
440.50	968.10
440.87	979.90
441.24	991.62
441.61	1003.33
441.98	1011.05
442.35	1021.33
442.72	1032.71
443.09	1044.62
443.46	1050.67
443.83	1054.90
444.20	1058.71
444.57	1062.10
444.94	1063.81
445.31	1064.33
445.68	1069.19
446.05	1068.95
446.42	1064.76
446.79	1062.19
447.16	1059.00
447.53	1056.86
447.90	1049.67
448.27	1041.81
448.64	1031.33
449.01	1023.71
449.37	1011.43
449.74	1001.19
450.11	989.90
450.48	974.52
450.85	957.76
451.22	944.19
451.59	931.00
451.96	919.19
452.33	904.10
452.70	889.81
453.07	873.33
453.43	852.95
453.80	836.67
454.17	821.90
454.54	805.76
454.91	788.90
455.28	772.90
455.65	758.19
456.02	748.43
456.38	736.38
456.75	721.33
457.12	708.90
457.49	695.81
457.86	681.24
458.23	671.71
458.59	660.86
458.96	649.29
459.33	640.05
459.70	630.29
460.07	621.67
460.43	612.10
460.80	604.19
461.17	595.86
461.54	588.00
461.91	580.43
462.27	572.90
462.64	566.67
463.01	559.76
463.38	553.95
463.74	543.24
464.11	537.19
464.48	532.62
464.85	527.00
465.21	523.52
465.58	519.43
465.95	513.05
466.32	508.71
466.68	503.67
467.05	498.76
467.42	493.86
467.78	489.57
468.15	485.71
468.52	482.52
468.88	478.90
469.25	474.71
469.62	471.62
469.98	468.81
470.35	466.05
470.72	463.29
471.08	458.71
471.45	455.95
471.82	453.52
472.18	449.52
472.55	447.43
472.92	444.29
473.28	441.76
473.65	439.00
474.02	436.81
474.38	435.48
474.75	433.67
475.11	431.67
475.48	430.10
475.85	427.81
476.21	426.10
476.58	425.05
476.94	424.38
477.31	423.43
477.67	421.95
478.04	420.86
478.41	420.14
478.77	422.29
479.14	422.05
479.50	421.76
479.87	422.62
480.23	422.86
480.60	422.90
480.96	423.33
481.33	425.33
481.69	425.86
482.06	426.95
482.42	428.62
482.79	430.10
483.15	430.86
483.52	433.52
483.88	434.29
484.25	435.76
484.61	437.38
484.98	438.57
485.34	441.43
485.71	443.43
486.07	444.86
486.44	444.38
486.80	445.57
487.17	447.29
487.53	449.14
487.90	451.57
488.26	454.19
488.62	456.33
488.99	457.71
489.35	459.52
489.72	460.71
490.08	462.19
490.44	463.38
490.81	466.00
491.17	466.90
491.54	469.29
491.90	471.81
492.26	473.43
492.63	475.81
492.99	476.62
493.36	479.29
493.72	482.29
494.08	484.62
494.45	487.05
494.81	490.57
495.17	493.48
495.54	496.24
495.90	498.67
496.26	502.38
496.63	505.43
496.99	508.81
497.35	512.62
497.72	515.81
498.08	519.71
498.44	523.48
498.80	528.48
499.17	532.76
499.53	536.48
499.89	541.52
500.26	545.00
500.62	550.57
500.98	555.57
501.34	559.67
501.71	564.43
502.07	569.62
502.43	573.71
502.79	578.24
503.16	582.90
503.52	587.62
503.88	591.48
504.24	596.71
504.60	601.90
504.97	607.10
505.33	612.76
505.69	619.29
506.05	624.24
506.41	628.67
506.78	633.52
507.14	638.52
507.50	643.19
507.86	649.43
508.22	654.52
508.59	659.33
508.95	664.52
509.31	671.71
509.67	676.62
510.03	682.00
510.39	686.48
510.75	691.29
511.12	697.05
511.48	702.19
511.84	706.52
512.20	711.14
512.56	716.48
512.92	721.38
513.28	725.38
513.64	729.95
514.00	735.33
514.37	739.95
514.73	744.10
515.09	748.86
515.45	752.10
515.81	756.62
516.17	760.86
516.53	765.00
516.89	766.95
517.25	771.62
517.61	776.29
517.97	780.57
518.33	784.71
518.69	788.48
519.05	792.57
519.41	797.19
519.77	802.76
520.13	806.05
520.49	808.95
520.85	812.05
521.21	816.33
521.57	818.62
521.93	821.71
522.29	825.29
522.65	826.57
523.01	829.71
523.37	830.81
523.73	832.86
524.09	835.19
524.45	837.86
524.81	839.24
525.17	840.81
525.53	842.81
525.89	843.71
526.25	845.29
526.61	846.62
526.97	847.29
527.33	847.00
527.68	849.48
528.04	850.81
528.40	851.90
528.76	852.38
529.12	853.57
529.48	854.05
529.84	854.62
530.20	856.67
530.56	858.43
530.91	860.52
531.27	862.19
531.63	863.90
531.99	864.52
532.35	866.48
532.71	867.76
533.07	869.19
533.42	874.29
533.78	875.52
534.14	877.52
534.50	879.00
534.86	880.29
535.21	880.57
535.57	882.62
535.93	883.71
536.29	886.95
536.65	889.24
537.00	892.57
537.36	895.67
537.72	899.43
538.08	903.71
538.44	907.86
538.79	912.19
539.15	917.19
539.51	922.52
539.87	926.90
540.22	931.33
540.58	936.14
540.94	938.52
541.29	944.43
541.65	947.86
542.01	952.67
542.37	957.48
542.72	959.71
543.08	961.86
543.44	964.29
543.79	964.10
544.15	965.67
544.51	966.57
544.87	966.33
545.22	964.24
545.58	961.43
545.94	958.05
546.29	954.29
546.65	949.14
547.01	944.43
547.36	940.86
547.72	935.71
548.07	930.71
548.43	924.33
548.79	917.19
549.14	911.62
549.50	906.48
549.86	900.38
550.21	896.62
550.57	892.43
550.92	888.52
551.28	885.19
551.64	881.48
551.99	876.90
552.35	873.10
552.70	868.95
553.06	866.05
553.41	862.57
553.77	860.62
554.13	858.43
554.48	856.29
554.84	853.57
555.19	851.00
555.55	850.19
555.90	848.57
556.26	846.38
556.61	844.67
556.97	840.81
557.32	838.29
557.68	835.81
558.03	833.38
558.39	830.86
558.74	828.33
559.10	825.52
559.45	823.19
559.81	821.33
560.16	820.62
560.52	818.38
560.87	817.29
561.23	814.81
561.58	815.62
561.94	813.24
562.29	811.19
562.64	809.81
563.00	806.14
563.35	804.48
563.71	802.43
564.06	800.62
564.42	799.76
564.77	798.29
565.12	796.81
565.48	797.86
565.83	797.24
566.19	795.52
566.54	794.33
566.89	793.57
567.25	792.52
567.60	792.48
567.96	793.71
568.31	793.67
568.66	793.00
569.02	788.29
569.37	787.24
569.72	785.81
570.08	784.43
570.43	783.57
570.78	782.19
571.14	781.57
571.49	780.24
571.84	779.00
572.20	777.62
572.55	776.48
572.90	772.24
573.26	771.00
573.61	770.24
573.96	768.71
574.31	768.00
574.67	767.24
575.02	765.71
575.37	762.19
575.72	759.90
576.08	759.43
576.43	759.52
576.78	759.48
577.13	758.81
577.49	758.24
577.84	757.10
578.19	756.10
578.54	755.05
578.90	753.81
579.25	753.29
579.60	752.90
579.95	752.29
580.30	752.90
580.66	751.67
581.01	750.10
581.36	749.29
581.71	747.14
582.06	746.62
582.42	745.62
582.77	744.38
583.12	744.00
583.47	742.24
583.82	741.19
584.17	739.81
584.53	738.62
584.88	737.29
585.23	736.86
585.58	734.90
585.93	733.00
586.28	731.57
586.63	729.48
586.98	727.57
587.34	725.90
587.69	722.67
588.04	719.95
588.39	718.10
588.74	715.29
589.09	713.62
589.44	709.19
589.79	705.86
590.14	702.67
590.49	698.76
590.84	694.05
591.19	690.00
591.54	686.33
591.89	681.81
592.25	680.38
592.60	675.57
592.95	672.71
593.30	669.81
593.65	666.81
594.00	663.14
594.35	666.29
594.70	661.95
595.05	659.24
595.40	656.76
595.75	653.48
596.10	650.76
596.45	647.57
596.80	645.43
597.15	642.14
597.50	639.43
597.85	637.52
598.19	635.14
598.54	632.76
598.89	629.57
599.24	627.57
599.59	622.33
599.94	619.90
600.29	617.05
600.64	614.33
600.99	612.43
601.34	610.48
601.69	601.76
602.04	599.62
602.39	596.62
602.74	594.14
603.08	591.86
603.43	590.57
603.78	588.33
604.13	585.86
604.48	584.29
604.83	583.62
605.18	582.38
605.53	583.38
605.87	585.86
606.22	590.24
606.57	596.24
606.92	602.62
607.27	610.10
607.62	617.71
607.96	625.38
608.31	630.52
608.66	636.00
609.01	640.52
609.36	644.90
609.70	649.62
610.05	653.86
610.40	658.05
610.75	660.48
611.10	663.10
611.44	665.71
611.79	667.33
612.14	667.19
612.49	665.81
612.83	663.67
613.18	659.10
613.53	652.86
613.88	644.71
614.22	636.19
614.57	626.05
614.92	615.52
615.27	606.19
615.61	597.81
615.96	589.38
616.31	581.67
616.65	575.24
617.00	568.19
617.35	560.86
617.70	554.10
618.04	547.95
618.39	542.43
618.74	537.05
619.08	532.24
619.43	528.14
619.78	524.38
620.12	520.76
620.47	517.67
620.82	513.90
621.16	510.81
621.51	509.29
621.85	506.67
622.20	505.05
622.55	501.48
622.89	498.52
623.24	496.24
623.59	493.76
623.93	491.00
624.28	488.62
624.62	488.95
624.97	488.19
625.32	486.00
625.66	483.86
626.01	481.76
626.35	480.29
626.70	478.62
627.04	478.14
627.39	476.19
627.73	475.19
628.08	474.38
628.43	471.86
628.77	468.62
629.12	466.67
629.46	464.14
629.81	462.10
630.15	460.43
630.50	457.86
630.84	455.71
631.19	453.00
631.53	450.95
631.88	445.67
632.22	441.57
632.57	439.76
632.91	437.19
633.26	435.10
633.60	432.14
633.95	429.52
634.29	426.05
634.64	423.71
634.98	420.43
635.32	418.52
635.67	416.86
636.01	415.05
636.36	412.95
636.70	411.57
637.05	409.76
637.39	407.24
637.73	406.14
638.08	405.05
638.42	403.62
638.77	401.86
639.11	400.48
639.45	398.71
639.80	396.05
640.14	394.48
640.49	392.43
640.83	391.00
641.17	389.71
641.52	388.38
641.86	387.43
642.20	387.05
642.55	384.62
642.89	383.33
643.23	382.05
643.58	381.76
643.92	379.48
644.26	378.62
644.61	378.33
644.95	376.90
645.29	375.57
645.64	374.81
645.98	373.90
646.32	373.76
646.66	372.71
647.01	372.19
647.35	371.81
647.69	371.67
648.04	370.38
648.38	369.62
648.72	368.90
649.06	367.43
649.41	365.90
649.75	365.19
650.09	364.38
650.43	363.24
650.78	361.52
651.12	360.86
651.46	359.52
651.80	357.62
652.14	356.43
652.49	355.48
652.83	354.14
653.17	352.48
653.51	350.57
653.85	349.71
654.20	348.52
654.54	346.52
654.88	344.29
655.22	342.71
655.56	341.29
655.90	339.90
656.25	338.62
656.59	337.62
656.93	336.67
657.27	336.24
657.61	334.95
657.95	334.62
658.29	333.48
658.64	333.62
658.98	332.90
659.32	332.05
659.66	331.19
660.00	330.81
660.34	330.52
660.68	330.10
661.02	329.52
661.36	328.95
661.70	328.33
662.05	328.05
662.39	328.76
662.73	328.76
663.07	329.86
663.41	330.10
663.75	328.95
664.09	328.57
664.43	327.19
664.77	326.62
665.11	325.38
665.45	325.19
665.79	324.43
666.13	324.05
666.47	323.10
666.81	322.62
667.15	321.48
667.49	320.71
667.83	320.57
668.17	320.00
668.51	319.19
668.85	318.95
669.19	319.24
669.53	317.67
669.87	316.14
670.21	314.19
670.55	313.24
670.89	314.14
671.23	313.52
671.57	313.10
671.91	312.81
672.25	312.33
672.58	312.43
672.92	310.86
673.26	310.62
673.60	310.24
673.94	309.29
674.28	309.14
674.62	309.38
674.96	308.86
675.30	308.29
675.64	308.14
675.97	307.43
676.31	306.33
676.65	305.95
676.99	306.52
677.33	305.67
677.67	305.14
678.01	303.52
678.34	303.00
678.68	303.29
679.02	302.76
679.36	302.52
679.70	301.33
680.04	301.19
680.37	300.57
680.71	300.19
681.05	299.95
681.39	299.38
681.73	298.24
682.06	297.38
682.40	296.86
682.74	296.52
683.08	297.38
683.42	297.00
683.75	296.90
684.09	296.00
684.43	295.62
684.77	294.95
685.10	294.48
685.44	293.86
685.78	292.81
686.12	292.52
686.45	292.14
686.79	291.67
687.13	291.52
687.46	291.33
687.80	291.86
688.14	291.48
688.48	291.33
688.81	291.52
689.15	291.86
689.49	291.57
689.82	291.38
690.16	290.00
690.50	289.71
690.83	289.29
691.17	288.24
691.51	287.95
691.84	287.62
692.18	286.90
692.52	286.48
692.85	286.29
693.19	286.52
693.52	286.00
693.86	285.52
694.20	284.95
694.53	284.52
694.87	283.38
695.21	282.90
695.54	282.52
695.88	281.52
696.21	280.29
696.55	279.76
696.88	278.95
697.22	278.38
697.56	278.14
697.89	277.52
698.23	278.05
698.56	277.62
698.90	277.81
699.23	277.67
699.57	277.52
699.90	277.14
700.24	276.10
700.58	276.29
700.91	276.52
701.25	278.81
701.58	279.48
701.92	280.38
702.25	280.62
702.59	280.67
702.92	281.29
703.26	281.95
703.59	282.81
703.93	285.38
704.26	285.76
704.60	286.38
704.93	286.76
705.26	286.76
705.60	287.52
705.93	287.52
706.27	288.62
706.60	289.76
706.94	290.95
707.27	291.48
707.61	291.62
707.94	291.95
708.27	289.81
708.61	288.90
708.94	288.38
709.28	288.29
709.61	287.81
709.94	287.19
710.28	286.48
710.61	285.71
710.95	282.57
711.28	283.76
711.61	282.48
711.95	282.33
712.28	281.29
712.61	280.14
712.95	280.43
713.28	280.62
713.61	279.05
713.95	277.57
714.28	276.48
714.61	275.24
714.95	273.95
715.28	272.71
715.61	271.86
715.95	271.52
716.28	270.48
716.61	270.48
716.95	269.52
717.28	268.95
717.61	268.29
717.94	267.71
718.28	265.33
718.61	265.19
718.94	264.38
719.27	263.95
719.61	263.86
719.94	262.95
720.27	261.29
720.60	260.81
720.94	260.43
721.27	260.38
721.60	260.38
721.93	260.38
722.27	261.38
722.60	261.52
722.93	260.86
723.26	260.90
723.59	260.14
723.93	260.76
724.26	260.86
724.59	260.57
724.92	261.05
725.25	261.67
725.59	261.43
725.92	261.10
726.25	261.19
726.58	260.95
726.91	260.52
727.24	260.52
727.57	260.33
727.91	259.76
728.24	259.76
728.57	259.19
728.90	259.19
729.23	258.05
729.56	258.81
729.89	258.33
730.22	257.81
730.55	257.43
730.89	257.10
731.22	256.57
731.55	256.29
731.88	256.00
732.21	255.48
732.54	254.71
732.87	254.67
733.20	254.71
733.53	254.86
733.86	255.10
734.19	254.86
734.52	255.29
734.85	257.19
735.18	256.90
735.51	257.81
735.84	257.62
736.17	258.33
736.50	257.29
736.83	260.10
737.16	260.24
737.49	260.24
737.82	259.67
738.15	260.33
738.48	260.38
738.81	260.19
739.14	259.62
739.47	259.90
739.80	259.76
740.13	259.67
740.46	259.48
740.79	259.10
741.12	259.05
741.45	258.67
741.78	257.14
742.11	257.67
742.44	257.00
742.77	257.29
743.10	256.71
743.43	256.43
743.75	253.71
744.08	256.43
744.41	256.29
744.74	256.14
745.07	255.24
745.40	255.43
745.73	256.62
746.06	256.90
746.39	257.00
746.71	257.29
747.04	256.86
747.37	256.52
747.70	256.76
748.03	256.81
748.36	256.95
748.68	256.76
749.01	255.95
749.34	256.19
749.67	256.10
750.00	256.57
750.33	258.19
750.65	258.52
750.98	255.52
751.31	255.62
751.64	255.86
751.97	257.24
752.29	257.19
752.62	255.71
752.95	255.57
753.28	255.05
753.60	254.43
753.93	255.24
754.26	255.19
754.59	254.57
754.91	254.00
755.24	253.71
755.57	253.76
755.90	253.48
756.22	253.00
756.55	252.52
756.88	251.95
757.20	250.57
757.53	249.76
757.86	249.86
758.19	249.52
758.51	249.19
758.84	247.76
759.17	246.86
759.49	246.86
759.82	247.95
760.15	248.19
760.47	248.05
760.80	247.00
761.13	247.52
761.45	247.57
761.78	247.43
762.11	247.48
762.43	247.14
762.76	246.90
763.08	246.86
763.41	247.00
763.74	247.05
764.06	246.71
764.39	246.81
764.71	246.76
765.04	246.67
765.37	246.43
765.69	246.52
766.02	246.76
766.34	246.52
766.67	245.67
767.00	246.00
767.32	247.48
767.65	249.05
767.97	248.90
768.30	248.67
768.62	248.76
768.95	248.62
769.27	248.48
769.60	249.24
769.92	249.24
770.25	248.76
770.57	248.14
770.90	248.38
771.22	247.95
771.55	248.19
771.87	248.29
772.20	248.24
772.52	250.33
772.85	253.48
773.17	253.86
773.50	253.76
773.82	253.43
774.15	252.05
774.47	250.62
774.80	250.29
775.12	250.29
775.45	250.29
775.77	250.14
776.09	250.38
776.42	250.14
776.74	250.52
777.07	250.57
777.39	250.90
777.72	250.43
778.04	250.86
778.36	250.24
778.69	250.48
779.01	250.62
779.33	248.19
779.66	245.48
779.98	245.00
780.31	244.81
780.63	245.81
780.95	246.48
781.28	246.33
781.60	245.81
781.92	245.86
782.25	245.95
782.57	246.10
782.89	245.95
783.22	245.48
783.54	244.95
783.86	245.14
784.19	245.00
784.51	245.81
784.83	245.52
785.16	245.67
785.48	245.52
785.80	245.52
786.12	245.67
786.45	245.43
786.77	245.86
787.09	245.67
787.42	244.52
787.74	244.14
788.06	244.33
788.38	244.38
788.71	244.00
789.03	243.86
789.35	244.10
789.67	243.76
789.99	244.14
790.32	243.76
790.64	243.62
790.96	245.62
791.28	244.76
791.61	244.67
791.93	244.95
792.25	244.71
792.57	246.52
792.89	246.19
793.21	246.52
793.54	245.95
793.86	245.76
