SpectraSuite Data File
++++++++++++++++++++++++++++++++++++
Date: Wed Nov 07 18:32:10 EST 2012
User: group
Dark Spectrum Present: No
Reference Spectrum Present: No
Number of Sampled Component Spectra: 1
Spectrometers: USB2E7196
Integration Time (usec): 1000000 (USB2E7196)
Spectra Averaged: 1 (USB2E7196)
Boxcar Smoothing: 10 (USB2E7196)
Correct for Electrical Dark: No (USB2E7196)
Strobe/Lamp Enabled: No (USB2E7196)
Correct for Detector Non-linearity: No (USB2E7196)
Correct for Stray Light: No (USB2E7196)
Number of Pixels in Processed Spectrum: 2048
>>>>>Begin Processed Spectral Data<<<<<
339.09	0.00
339.48	217.00
339.86	220.00
340.24	225.00
340.63	232.00
341.01	261.00
341.39	222.00
341.78	235.00
342.16	237.00
342.54	235.00
342.93	222.48
343.31	233.67
343.69	234.52
344.07	234.90
344.46	235.38
344.84	235.76
345.22	234.43
345.60	235.29
345.99	235.29
346.37	235.57
346.75	235.38
347.13	235.29
347.52	235.52
347.90	236.52
348.28	236.71
348.66	237.24
349.05	236.05
349.43	236.48
349.81	236.48
350.19	236.29
350.57	236.57
350.96	236.67
351.34	236.86
351.72	236.62
352.10	236.86
352.48	236.67
352.87	236.38
353.25	236.33
353.63	236.10
354.01	236.05
354.39	235.81
354.77	235.81
355.15	236.62
355.54	236.38
355.92	235.52
356.30	235.29
356.68	236.86
357.06	236.81
357.44	236.33
357.82	236.29
358.20	236.86
358.58	236.43
358.97	236.67
359.35	236.76
359.73	237.29
360.11	237.38
360.49	237.43
360.87	237.38
361.25	237.57
361.63	238.19
362.01	238.33
362.39	238.00
362.77	238.29
363.15	238.00
363.53	238.24
363.91	238.19
364.29	238.57
364.67	236.62
365.05	236.81
365.43	237.10
365.81	237.62
366.19	238.71
366.57	239.95
366.95	239.90
367.33	239.57
367.71	239.57
368.09	239.81
368.47	240.33
368.85	240.29
369.23	241.00
369.61	240.29
369.99	240.86
370.37	241.81
370.75	242.95
371.13	242.24
371.51	241.81
371.89	242.33
372.27	242.29
372.65	242.19
373.03	242.24
373.41	242.19
373.78	241.38
374.16	240.33
374.54	239.57
374.92	239.57
375.30	239.67
375.68	239.48
376.06	239.67
376.44	239.19
376.82	239.29
377.19	238.76
377.57	238.62
377.95	237.67
378.33	237.14
378.71	235.81
379.09	236.33
379.47	236.81
379.84	236.57
380.22	236.67
380.60	236.52
380.98	236.52
381.36	236.43
381.73	236.43
382.11	236.90
382.49	236.90
382.87	236.33
383.25	236.33
383.62	239.05
384.00	238.81
384.38	238.90
384.76	239.67
385.13	240.90
385.51	241.38
385.89	241.48
386.27	241.52
386.64	242.10
387.02	242.14
387.40	241.52
387.78	241.71
388.15	241.52
388.53	241.57
388.91	241.62
389.29	241.62
389.66	242.05
390.04	241.57
390.42	242.00
390.79	242.62
391.17	242.81
391.55	240.14
391.92	239.90
392.30	240.19
392.68	239.71
393.05	239.29
393.43	239.24
393.81	239.57
394.18	239.48
394.56	239.24
394.94	240.00
395.31	240.43
395.69	240.86
396.06	241.57
396.44	241.62
396.82	241.52
397.19	242.67
397.57	242.57
397.95	243.00
398.32	242.14
398.70	242.00
399.07	242.71
399.45	242.57
399.82	242.95
400.20	242.90
400.58	243.10
400.95	242.48
401.33	243.00
401.70	244.76
402.08	244.86
402.45	245.24
402.83	245.76
403.20	245.86
403.58	245.86
403.95	246.14
404.33	246.57
404.71	246.76
405.08	248.33
405.46	248.29
405.83	248.67
406.21	249.24
406.58	249.90
406.96	249.95
407.33	250.81
407.70	251.57
408.08	254.24
408.45	255.43
408.83	256.57
409.20	256.95
409.58	256.00
409.95	257.19
410.33	258.14
410.70	258.10
411.08	259.67
411.45	261.05
411.82	261.76
412.20	263.48
412.57	266.33
412.95	265.62
413.32	268.24
413.69	269.48
414.07	271.19
414.44	272.81
414.82	274.81
415.19	277.48
415.56	279.52
415.94	279.95
416.31	282.33
416.68	285.38
417.06	288.57
417.43	292.29
417.81	295.67
418.18	299.52
418.55	303.62
418.93	307.33
419.30	311.48
419.67	316.05
420.04	320.71
420.42	324.90
420.79	332.62
421.16	338.00
421.54	345.76
421.91	352.05
422.28	358.90
422.66	365.81
423.03	374.00
423.40	381.05
423.77	388.95
424.15	396.00
424.52	403.71
424.89	412.52
425.26	420.00
425.64	427.57
426.01	435.57
426.38	444.52
426.75	453.90
427.13	463.29
427.50	472.62
427.87	482.24
428.24	492.10
428.61	499.90
428.99	510.90
429.36	520.76
429.73	531.90
430.10	543.76
430.47	555.86
430.85	566.38
431.22	579.81
431.59	595.29
431.96	608.71
432.33	622.90
432.70	637.29
433.08	655.00
433.45	670.71
433.82	686.14
434.19	702.71
434.56	718.81
434.93	733.86
435.30	750.19
435.68	768.14
436.05	785.90
436.42	802.90
436.79	818.14
437.16	835.10
437.53	852.38
437.90	868.33
438.27	884.76
438.64	900.95
439.01	916.29
439.38	927.71
439.75	941.14
440.13	956.24
440.50	969.38
440.87	980.43
441.24	991.57
441.61	1005.24
441.98	1013.57
442.35	1025.19
442.72	1036.57
443.09	1048.52
443.46	1053.67
443.83	1055.90
444.20	1058.76
444.57	1063.52
444.94	1064.57
445.31	1066.33
445.68	1070.76
446.05	1070.33
446.42	1067.62
446.79	1065.24
447.16	1062.43
447.53	1058.29
447.90	1050.67
448.27	1043.00
448.64	1032.48
449.01	1025.29
449.37	1011.90
449.74	1000.52
450.11	988.14
450.48	972.48
450.85	955.62
451.22	942.33
451.59	929.76
451.96	917.62
452.33	901.57
452.70	886.90
453.07	869.57
453.43	850.52
453.80	835.10
454.17	819.90
454.54	804.00
454.91	787.29
455.28	772.14
455.65	757.38
456.02	746.76
456.38	734.10
456.75	719.48
457.12	707.10
457.49	695.19
457.86	680.95
458.23	672.05
458.59	661.19
458.96	650.00
459.33	640.33
459.70	629.43
460.07	621.67
460.43	612.67
460.80	605.00
461.17	596.24
461.54	587.52
461.91	579.95
462.27	572.00
462.64	565.71
463.01	559.57
463.38	553.86
463.74	542.90
464.11	536.81
464.48	531.24
464.85	525.67
465.21	522.05
465.58	517.67
465.95	511.29
466.32	506.24
466.68	501.71
467.05	497.38
467.42	493.52
467.78	488.10
468.15	484.19
468.52	481.38
468.88	477.67
469.25	473.38
469.62	470.62
469.98	467.57
470.35	464.29
470.72	461.19
471.08	456.57
471.45	454.86
471.82	452.71
472.18	450.00
472.55	447.95
472.92	444.05
473.28	441.10
473.65	438.00
474.02	435.48
474.38	433.86
474.75	432.19
475.11	430.29
475.48	429.14
475.85	427.48
476.21	425.05
476.58	423.81
476.94	422.90
477.31	421.19
477.67	419.90
478.04	419.62
478.41	419.00
478.77	421.24
479.14	419.90
479.50	419.10
479.87	418.62
480.23	418.43
480.60	418.38
480.96	419.24
481.33	421.62
481.69	422.10
482.06	422.71
482.42	423.52
482.79	424.81
483.15	425.19
483.52	426.14
483.88	427.33
484.25	428.57
484.61	429.67
484.98	430.38
485.34	432.81
485.71	434.43
486.07	435.05
486.44	434.29
486.80	435.81
487.17	437.10
487.53	439.24
487.90	440.71
488.26	443.48
488.62	445.24
488.99	446.29
489.35	447.76
489.72	449.19
490.08	451.00
490.44	452.10
490.81	454.62
491.17	456.48
491.54	458.33
491.90	460.67
492.26	463.38
492.63	466.57
492.99	468.48
493.36	471.57
493.72	474.95
494.08	477.62
494.45	481.10
494.81	484.38
495.17	486.95
495.54	490.86
495.90	493.57
496.26	497.24
496.63	500.62
496.99	504.38
497.35	507.86
497.72	511.62
498.08	516.00
498.44	519.81
498.80	524.62
499.17	529.00
499.53	532.90
499.89	537.14
500.26	541.81
500.62	545.90
500.98	550.48
501.34	555.24
501.71	560.67
502.07	565.43
502.43	570.43
502.79	575.71
503.16	580.33
503.52	585.38
503.88	589.38
504.24	594.67
504.60	600.24
504.97	606.71
505.33	611.62
505.69	617.86
506.05	623.24
506.41	628.43
506.78	633.48
507.14	638.33
507.50	644.00
507.86	649.43
508.22	655.76
508.59	659.86
508.95	665.38
509.31	671.71
509.67	677.00
510.03	682.33
510.39	688.00
510.75	693.00
511.12	697.81
511.48	703.62
511.84	707.48
512.20	712.71
512.56	716.95
512.92	722.33
513.28	726.24
513.64	730.76
514.00	735.43
514.37	740.43
514.73	745.95
515.09	750.76
515.45	754.29
515.81	758.24
516.17	762.81
516.53	767.05
516.89	769.10
517.25	773.62
517.61	778.24
517.97	780.48
518.33	784.81
518.69	789.14
519.05	792.90
519.41	797.86
519.77	802.52
520.13	805.95
520.49	809.24
520.85	812.33
521.21	816.81
521.57	820.19
521.93	822.48
522.29	824.71
522.65	825.90
523.01	828.81
523.37	830.52
523.73	833.00
524.09	835.19
524.45	837.95
524.81	839.67
525.17	842.71
525.53	845.90
525.89	847.33
526.25	849.24
526.61	850.71
526.97	851.86
527.33	852.67
527.68	855.95
528.04	856.81
528.40	857.62
528.76	858.52
529.12	859.67
529.48	861.62
529.84	862.81
530.20	865.14
530.56	867.10
530.91	868.86
531.27	869.86
531.63	871.57
531.99	873.10
532.35	874.38
532.71	873.81
533.07	875.00
533.42	878.67
533.78	879.76
534.14	880.81
534.50	881.57
534.86	883.10
535.21	882.33
535.57	884.19
535.93	886.00
536.29	888.76
536.65	890.38
537.00	892.24
537.36	894.29
537.72	895.95
538.08	898.24
538.44	900.24
538.79	903.62
539.15	904.67
539.51	906.52
539.87	908.48
540.22	911.00
540.58	912.86
540.94	912.95
541.29	915.29
541.65	917.24
542.01	920.52
542.37	921.90
542.72	923.24
543.08	923.29
543.44	923.38
543.79	921.33
544.15	921.24
544.51	921.19
544.87	919.90
545.22	918.29
545.58	916.10
545.94	913.57
546.29	910.38
546.65	909.24
547.01	905.86
547.36	903.90
547.72	900.90
548.07	898.52
548.43	895.10
548.79	891.81
549.14	887.81
549.50	884.10
549.86	879.81
550.21	876.86
550.57	875.10
550.92	873.38
551.28	871.76
551.64	869.57
551.99	866.95
552.35	864.95
552.70	862.57
553.06	860.95
553.41	859.05
553.77	859.05
554.13	855.90
554.48	855.24
554.84	852.90
555.19	850.71
555.55	850.43
555.90	848.71
556.26	846.43
556.61	844.57
556.97	841.10
557.32	839.62
557.68	837.81
558.03	836.05
558.39	833.43
558.74	831.76
559.10	828.71
559.45	826.81
559.81	825.24
560.16	823.52
560.52	821.62
560.87	821.19
561.23	818.10
561.58	818.90
561.94	815.81
562.29	814.24
562.64	812.05
563.00	808.05
563.35	806.05
563.71	804.62
564.06	803.86
564.42	802.81
564.77	801.29
565.12	799.86
565.48	800.24
565.83	799.57
566.19	797.24
566.54	795.81
566.89	794.48
567.25	794.14
567.60	794.24
567.96	795.38
568.31	794.62
568.66	794.00
569.02	790.57
569.37	790.00
569.72	788.38
570.08	788.38
570.43	787.43
570.78	786.33
571.14	784.90
571.49	783.62
571.84	782.57
572.20	781.24
572.55	779.43
572.90	775.24
573.26	773.57
573.61	772.81
573.96	772.10
574.31	770.52
574.67	768.81
575.02	766.43
575.37	762.14
575.72	759.48
576.08	757.67
576.43	756.33
576.78	755.24
577.13	754.00
577.49	751.90
577.84	750.90
578.19	749.67
578.54	748.95
578.90	747.76
579.25	746.86
579.60	745.57
579.95	744.43
580.30	744.24
580.66	743.38
581.01	741.71
581.36	739.52
581.71	738.48
582.06	737.67
582.42	736.24
582.77	735.33
583.12	734.14
583.47	732.33
583.82	731.38
584.17	730.24
584.53	729.62
584.88	728.71
585.23	727.71
585.58	725.33
585.93	722.81
586.28	720.52
586.63	719.19
586.98	717.62
587.34	716.57
587.69	713.76
588.04	710.76
588.39	708.14
588.74	705.86
589.09	703.62
589.44	699.33
589.79	696.81
590.14	693.29
590.49	689.76
590.84	686.43
591.19	682.81
591.54	679.19
591.89	674.52
592.25	672.95
592.60	668.57
592.95	665.95
593.30	662.76
593.65	660.05
594.00	655.95
594.35	659.14
594.70	655.05
595.05	652.10
595.40	649.52
595.75	646.48
596.10	644.14
596.45	640.29
596.80	637.67
597.15	635.19
597.50	631.95
597.85	630.52
598.19	628.05
598.54	625.24
598.89	622.48
599.24	620.90
599.59	616.86
599.94	614.62
600.29	612.05
600.64	609.76
600.99	608.48
601.34	606.29
601.69	597.00
602.04	594.24
602.39	591.90
602.74	590.24
603.08	588.71
603.43	587.71
603.78	586.43
604.13	583.95
604.48	582.24
604.83	582.00
605.18	580.62
605.53	581.10
605.87	583.24
606.22	586.86
606.57	590.86
606.92	595.71
607.27	601.05
607.62	606.38
607.96	611.57
608.31	615.38
608.66	619.43
609.01	623.43
609.36	627.24
609.70	630.81
610.05	633.38
610.40	635.86
610.75	637.10
611.10	638.95
611.44	641.19
611.79	641.57
612.14	641.81
612.49	640.67
612.83	638.57
613.18	634.48
613.53	628.86
613.88	622.38
614.22	614.29
614.57	606.43
614.92	598.33
615.27	591.10
615.61	582.95
615.96	576.38
616.31	569.86
616.65	564.05
617.00	557.33
617.35	550.76
617.70	544.76
618.04	539.52
618.39	534.05
618.74	530.05
619.08	525.86
619.43	521.38
619.78	517.43
620.12	513.48
620.47	510.90
620.82	508.00
621.16	504.76
621.51	503.71
621.85	501.14
622.20	499.43
622.55	496.00
622.89	494.00
623.24	491.90
623.59	488.76
623.93	487.05
624.28	485.05
624.62	485.81
624.97	485.52
625.32	483.52
625.66	482.00
626.01	479.33
626.35	477.52
626.70	476.00
627.04	475.14
627.39	473.90
627.73	472.62
628.08	470.81
628.43	469.10
628.77	466.29
629.12	464.14
629.46	461.48
629.81	459.38
630.15	457.05
630.50	454.33
630.84	452.95
631.19	450.43
631.53	448.14
631.88	442.95
632.22	439.48
632.57	437.62
632.91	434.67
633.26	433.00
633.60	430.76
633.95	428.05
634.29	424.52
634.64	422.33
634.98	419.14
635.32	417.19
635.67	415.29
636.01	412.90
636.36	410.57
636.70	409.43
637.05	408.14
637.39	406.14
637.73	404.14
638.08	403.52
638.42	401.19
638.77	399.95
639.11	398.48
639.45	396.57
639.80	394.62
640.14	393.57
640.49	391.52
640.83	389.95
641.17	389.10
641.52	388.05
641.86	386.71
642.20	386.76
642.55	384.76
642.89	383.29
643.23	381.76
643.58	381.57
643.92	379.52
644.26	378.00
644.61	377.62
644.95	377.05
645.29	374.81
645.64	374.76
645.98	373.71
646.32	373.81
646.66	373.14
647.01	372.19
647.35	371.33
647.69	370.67
648.04	369.95
648.38	369.19
648.72	368.86
649.06	367.48
649.41	366.00
649.75	365.52
650.09	364.71
650.43	364.24
650.78	362.33
651.12	361.00
651.46	360.00
651.80	358.86
652.14	357.43
652.49	356.95
652.83	355.00
653.17	353.48
653.51	351.76
653.85	350.67
654.20	349.43
654.54	347.81
654.88	346.29
655.22	344.62
655.56	342.90
655.90	341.57
656.25	340.71
656.59	339.38
656.93	338.67
657.27	338.38
657.61	337.14
657.95	336.62
658.29	336.00
658.64	336.43
658.98	335.62
659.32	334.90
659.66	333.81
660.00	333.71
660.34	333.24
660.68	332.38
661.02	331.62
661.36	330.81
661.70	330.14
662.05	329.81
662.39	330.24
662.73	330.33
663.07	331.05
663.41	330.67
663.75	330.05
664.09	329.24
664.43	327.90
664.77	327.48
665.11	326.71
665.45	326.05
665.79	325.05
666.13	324.33
666.47	323.86
666.81	323.19
667.15	322.00
667.49	321.71
667.83	322.19
668.17	321.05
668.51	320.29
668.85	319.86
669.19	320.05
669.53	318.62
669.87	317.52
670.21	316.19
670.55	315.81
670.89	316.10
671.23	315.52
671.57	314.81
671.91	314.24
672.25	314.10
672.58	314.95
672.92	313.76
673.26	313.48
673.60	312.90
673.94	312.76
674.28	312.43
674.62	312.24
674.96	311.10
675.30	311.00
675.64	311.14
675.97	310.86
676.31	310.00
676.65	309.33
676.99	309.48
677.33	308.33
677.67	307.33
678.01	305.67
678.34	305.33
678.68	305.71
679.02	304.76
679.36	303.81
679.70	302.19
680.04	301.57
680.37	300.43
680.71	300.14
681.05	299.24
681.39	299.00
681.73	298.00
682.06	297.33
682.40	296.86
682.74	296.62
683.08	297.00
683.42	295.86
683.75	295.81
684.09	295.10
684.43	294.95
684.77	294.38
685.10	293.67
685.44	293.14
685.78	292.33
686.12	292.05
686.45	291.62
686.79	291.33
687.13	291.52
687.46	291.24
687.80	290.95
688.14	290.52
688.48	290.05
688.81	289.90
689.15	290.33
689.49	290.10
689.82	289.52
690.16	288.29
690.50	288.00
690.83	287.24
691.17	286.43
691.51	286.10
691.84	286.05
692.18	285.90
692.52	285.14
692.85	284.71
693.19	285.33
693.52	285.00
693.86	284.38
694.20	284.10
694.53	283.95
694.87	283.10
695.21	282.48
695.54	282.14
695.88	281.33
696.21	279.81
696.55	279.14
696.88	278.76
697.22	278.14
697.56	278.24
697.89	278.05
698.23	278.19
698.56	277.67
698.90	277.57
699.23	277.38
699.57	277.76
699.90	277.38
700.24	276.71
700.58	276.86
700.91	277.33
701.25	278.86
701.58	279.48
701.92	280.57
702.25	281.24
702.59	281.52
702.92	282.24
703.26	282.95
703.59	283.71
703.93	286.14
704.26	286.86
704.60	287.33
704.93	287.67
705.26	287.81
705.60	288.71
705.93	288.90
706.27	290.05
706.60	290.90
706.94	292.33
707.27	292.33
707.61	292.62
707.94	292.67
708.27	291.00
708.61	290.43
708.94	289.95
709.28	289.62
709.61	289.05
709.94	288.67
710.28	288.19
710.61	287.33
710.95	283.95
711.28	284.76
711.61	284.10
711.95	284.00
712.28	282.76
712.61	281.52
712.95	281.71
713.28	281.90
713.61	280.33
713.95	278.62
714.28	277.95
714.61	276.95
714.95	275.71
715.28	274.38
715.61	273.38
715.95	272.48
716.28	271.95
716.61	271.38
716.95	270.71
717.28	269.95
717.61	269.33
717.94	269.00
718.28	267.05
718.61	266.14
718.94	264.95
719.27	265.14
719.61	264.90
719.94	263.67
720.27	261.67
720.60	261.29
720.94	260.90
721.27	260.67
721.60	260.71
721.93	260.52
722.27	261.29
722.60	261.52
722.93	261.05
723.26	260.76
723.59	260.57
723.93	260.48
724.26	260.67
724.59	260.57
724.92	260.76
725.25	261.29
725.59	261.10
725.92	261.62
726.25	261.14
726.58	261.05
726.91	261.43
727.24	262.05
727.57	261.81
727.91	261.05
728.24	260.86
728.57	260.29
728.90	260.43
729.23	259.29
729.56	260.00
729.89	259.95
730.22	259.67
730.55	259.24
730.89	258.67
731.22	258.10
731.55	257.81
731.88	257.67
732.21	257.05
732.54	256.57
732.87	256.10
733.20	256.19
733.53	256.24
733.86	255.86
734.19	254.90
734.52	255.10
734.85	257.00
735.18	257.00
735.51	257.86
735.84	257.62
736.17	258.33
736.50	256.71
736.83	259.67
737.16	259.57
737.49	259.86
737.82	259.62
738.15	260.10
738.48	260.19
738.81	259.86
739.14	259.33
739.47	259.71
739.80	259.81
740.13	259.81
740.46	259.24
740.79	258.90
741.12	258.86
741.45	258.52
741.78	257.00
742.11	257.33
742.44	256.52
742.77	257.19
743.10	257.00
743.43	257.38
743.75	254.43
744.08	257.76
744.41	257.24
744.74	257.48
745.07	256.71
745.40	257.29
745.73	258.10
746.06	258.10
746.39	258.19
746.71	257.81
747.04	257.43
747.37	257.10
747.70	257.05
748.03	257.24
748.36	257.76
748.68	257.48
749.01	256.62
749.34	256.38
749.67	255.81
750.00	255.67
750.33	257.10
750.65	257.33
750.98	253.67
751.31	253.86
751.64	253.71
751.97	255.00
752.29	254.29
752.62	253.10
752.95	253.00
753.28	252.52
753.60	252.43
753.93	252.90
754.26	253.05
754.59	252.76
754.91	252.19
755.24	251.43
755.57	251.29
755.90	251.29
756.22	251.05
756.55	250.81
756.88	250.33
757.20	248.48
757.53	247.95
757.86	248.29
758.19	248.19
758.51	248.19
758.84	246.95
759.17	246.95
759.49	247.29
759.82	248.48
760.15	248.43
760.47	248.10
760.80	247.24
761.13	247.67
761.45	247.62
761.78	247.81
762.11	248.00
762.43	248.05
762.76	247.86
763.08	248.33
763.41	248.48
763.74	248.71
764.06	248.95
764.39	248.71
764.71	248.71
765.04	248.38
765.37	248.10
765.69	247.95
766.02	247.81
766.34	247.86
766.67	246.62
767.00	247.19
767.32	248.86
767.65	250.33
767.97	250.48
768.30	250.57
768.62	250.48
768.95	250.38
769.27	250.52
769.60	250.76
769.92	250.24
770.25	249.43
770.57	249.00
770.90	248.90
771.22	248.76
771.55	248.43
771.87	248.57
772.20	248.48
772.52	250.67
772.85	253.57
773.17	253.29
773.50	253.05
773.82	252.62
774.15	251.05
774.47	249.67
774.80	249.19
775.12	248.95
775.45	249.10
775.77	248.81
776.09	248.62
776.42	248.76
776.74	249.38
777.07	249.62
777.39	249.81
777.72	249.57
778.04	250.00
778.36	250.19
778.69	250.38
779.01	250.52
779.33	248.48
779.66	245.33
779.98	245.24
780.31	245.62
780.63	246.71
780.95	247.24
781.28	247.14
781.60	247.00
781.92	247.33
782.25	247.48
782.57	247.67
782.89	247.71
783.22	247.29
783.54	247.19
783.86	247.48
784.19	247.33
784.51	248.19
784.83	247.76
785.16	247.19
785.48	247.00
785.80	247.05
786.12	246.81
786.45	246.90
786.77	247.29
787.09	247.33
787.42	246.19
787.74	246.19
788.06	246.29
788.38	246.24
788.71	245.52
789.03	245.00
789.35	245.29
789.67	244.95
789.99	245.43
790.32	244.95
790.64	245.24
790.96	247.29
791.28	246.43
791.61	246.52
791.93	246.90
792.25	246.95
792.57	248.48
792.89	248.24
793.21	248.38
793.54	248.14
793.86	247.71
