SpectraSuite Data File
++++++++++++++++++++++++++++++++++++
Date: Wed Nov 07 18:33:16 EST 2012
User: group
Dark Spectrum Present: No
Reference Spectrum Present: No
Number of Sampled Component Spectra: 1
Spectrometers: USB2E7196
Integration Time (usec): 1000000 (USB2E7196)
Spectra Averaged: 1 (USB2E7196)
Boxcar Smoothing: 10 (USB2E7196)
Correct for Electrical Dark: No (USB2E7196)
Strobe/Lamp Enabled: No (USB2E7196)
Correct for Detector Non-linearity: No (USB2E7196)
Correct for Stray Light: No (USB2E7196)
Number of Pixels in Processed Spectrum: 2048
>>>>>Begin Processed Spectral Data<<<<<
339.09	0.00
339.48	218.00
339.86	220.00
340.24	225.00
340.63	230.00
341.01	267.00
341.39	231.00
341.78	231.00
342.16	243.00
342.54	232.00
342.93	224.29
343.31	235.48
343.69	235.95
344.07	237.00
344.46	237.95
344.84	238.48
345.22	237.19
345.60	237.62
345.99	237.90
346.37	237.67
346.75	238.14
347.13	238.24
347.52	238.05
347.90	239.14
348.28	239.19
348.66	239.76
349.05	239.05
349.43	239.33
349.81	239.57
350.19	239.71
350.57	239.71
350.96	240.10
351.34	240.33
351.72	240.90
352.10	240.52
352.48	240.14
352.87	239.67
353.25	239.38
353.63	239.33
354.01	239.19
354.39	239.38
354.77	239.00
355.15	239.52
355.54	239.43
355.92	238.48
356.30	238.29
356.68	239.90
357.06	240.24
357.44	239.52
357.82	239.29
358.20	239.62
358.58	239.62
358.97	239.62
359.35	239.86
359.73	239.86
360.11	239.90
360.49	239.90
360.87	240.00
361.25	240.24
361.63	240.62
362.01	240.67
362.39	240.38
362.77	240.57
363.15	240.33
363.53	240.43
363.91	240.62
364.29	240.52
364.67	238.24
365.05	238.14
365.43	238.71
365.81	239.10
366.19	239.95
366.57	240.95
366.95	240.90
367.33	240.43
367.71	240.48
368.09	240.38
368.47	240.33
368.85	240.14
369.23	240.52
369.61	239.76
369.99	240.67
370.37	240.81
370.75	242.00
371.13	241.67
371.51	241.19
371.89	241.24
372.27	241.19
372.65	241.52
373.03	241.57
373.41	241.24
373.78	240.86
374.16	239.57
374.54	238.67
374.92	238.14
375.30	237.90
375.68	237.33
376.06	237.81
376.44	237.90
376.82	238.29
377.19	237.90
377.57	237.86
377.95	237.19
378.33	237.14
378.71	235.71
379.09	235.62
379.47	236.05
379.84	235.90
380.22	235.95
380.60	235.29
380.98	235.14
381.36	235.05
381.73	235.05
382.11	235.81
382.49	235.76
382.87	235.57
383.25	236.00
383.62	239.24
384.00	238.62
384.38	238.33
384.76	238.90
385.13	240.24
385.51	240.33
385.89	239.81
386.27	240.00
386.64	240.57
387.02	240.62
387.40	240.24
387.78	240.67
388.15	240.81
388.53	240.86
388.91	241.05
389.29	240.86
389.66	241.24
390.04	240.81
390.42	241.19
390.79	241.57
391.17	241.43
391.55	238.52
391.92	238.90
392.30	239.29
392.68	238.67
393.05	238.52
393.43	238.71
393.81	239.10
394.18	238.67
394.56	238.67
394.94	239.48
395.31	239.52
395.69	240.05
396.06	240.57
396.44	241.05
396.82	240.81
397.19	242.33
397.57	242.24
397.95	242.62
398.32	242.38
398.70	242.48
399.07	243.10
399.45	242.86
399.82	242.76
400.20	242.67
400.58	242.81
400.95	241.71
401.33	242.48
401.70	244.14
402.08	244.52
402.45	244.48
402.83	244.76
403.20	245.29
403.58	245.33
403.95	245.71
404.33	246.19
404.71	246.62
405.08	247.81
405.46	248.00
405.83	248.57
406.21	249.00
406.58	249.67
406.96	249.71
407.33	250.71
407.70	251.76
408.08	254.24
408.45	255.10
408.83	256.00
409.20	255.95
409.58	255.24
409.95	256.24
410.33	257.10
410.70	257.48
411.08	259.00
411.45	260.10
411.82	260.52
412.20	262.10
412.57	264.29
412.95	263.95
413.32	265.81
413.69	267.24
414.07	269.00
414.44	270.86
414.82	273.00
415.19	275.57
415.56	277.76
415.94	278.71
416.31	281.62
416.68	284.90
417.06	288.67
417.43	292.71
417.81	296.57
418.18	300.81
418.55	304.57
418.93	308.29
419.30	312.38
419.67	317.43
420.04	321.76
420.42	326.29
420.79	333.90
421.16	339.10
421.54	346.10
421.91	352.67
422.28	358.76
422.66	365.86
423.03	373.90
423.40	380.76
423.77	388.38
424.15	395.76
424.52	403.05
424.89	412.05
425.26	419.29
425.64	426.81
426.01	434.57
426.38	443.81
426.75	453.57
427.13	462.43
427.50	472.14
427.87	482.33
428.24	492.76
428.61	500.67
428.99	512.71
429.36	522.95
429.73	533.90
430.10	545.29
430.47	557.76
430.85	568.90
431.22	582.10
431.59	597.10
431.96	610.19
432.33	624.62
432.70	637.33
433.08	653.71
433.45	669.05
433.82	683.81
434.19	700.48
434.56	715.71
434.93	730.86
435.30	746.57
435.68	763.81
436.05	779.67
436.42	796.52
436.79	811.76
437.16	828.29
437.53	845.48
437.90	862.81
438.27	878.81
438.64	895.14
439.01	910.86
439.38	923.48
439.75	936.57
440.13	951.57
440.50	965.76
440.87	977.33
441.24	989.62
441.61	1003.76
441.98	1013.19
442.35	1025.05
442.72	1036.67
443.09	1047.67
443.46	1053.52
443.83	1057.38
444.20	1060.33
444.57	1064.38
444.94	1065.95
445.31	1067.81
445.68	1073.19
446.05	1072.52
446.42	1070.00
446.79	1067.14
447.16	1063.86
447.53	1061.76
447.90	1054.81
448.27	1047.10
448.64	1037.24
449.01	1029.14
449.37	1017.19
449.74	1005.48
450.11	994.00
450.48	978.38
450.85	962.43
451.22	949.81
451.59	938.33
451.96	926.71
452.33	911.38
452.70	896.52
453.07	879.33
453.43	857.71
453.80	841.33
454.17	825.38
454.54	809.24
454.91	792.43
455.28	775.90
455.65	760.95
456.02	751.24
456.38	739.10
456.75	724.33
457.12	711.05
457.49	698.38
457.86	683.81
458.23	675.19
458.59	663.81
458.96	652.19
459.33	641.33
459.70	631.48
460.07	623.24
460.43	614.38
460.80	606.19
461.17	598.62
461.54	591.10
461.91	583.19
462.27	576.19
462.64	569.76
463.01	563.48
463.38	557.76
463.74	546.62
464.11	540.14
464.48	535.00
464.85	529.19
465.21	525.14
465.58	520.38
465.95	514.33
466.32	509.86
466.68	504.67
467.05	499.95
467.42	494.57
467.78	489.76
468.15	485.86
468.52	482.48
468.88	478.67
469.25	474.67
469.62	472.00
469.98	468.86
470.35	465.95
470.72	463.00
471.08	458.43
471.45	456.52
471.82	454.38
472.18	450.90
472.55	448.52
472.92	445.05
473.28	442.29
473.65	439.38
474.02	437.05
474.38	435.38
474.75	434.10
475.11	432.38
475.48	430.81
475.85	428.81
476.21	427.48
476.58	426.48
476.94	425.24
477.31	424.10
477.67	422.90
478.04	421.81
478.41	420.67
478.77	422.76
479.14	421.33
479.50	420.43
479.87	420.38
480.23	420.10
480.60	419.86
480.96	420.10
481.33	421.48
481.69	421.43
482.06	421.67
482.42	422.00
482.79	422.67
483.15	423.62
483.52	425.48
483.88	425.95
484.25	426.29
484.61	427.48
484.98	428.38
485.34	430.24
485.71	432.48
486.07	433.67
486.44	432.57
486.80	434.19
487.17	435.90
487.53	438.10
487.90	440.62
488.26	443.29
488.62	445.62
488.99	446.81
489.35	449.10
489.72	451.00
490.08	453.05
490.44	454.52
490.81	456.62
491.17	458.43
491.54	460.71
491.90	463.57
492.26	465.52
492.63	467.90
492.99	469.48
493.36	471.95
493.72	475.38
494.08	478.76
494.45	481.76
494.81	484.90
495.17	487.52
495.54	490.67
495.90	493.71
496.26	497.33
496.63	500.76
496.99	504.10
497.35	507.95
497.72	512.14
498.08	516.76
498.44	520.71
498.80	525.43
499.17	529.43
499.53	533.57
499.89	538.71
500.26	543.76
500.62	548.86
500.98	553.29
501.34	557.95
501.71	563.48
502.07	568.43
502.43	573.29
502.79	578.48
503.16	583.90
503.52	588.90
503.88	593.00
504.24	598.43
504.60	604.05
504.97	610.05
505.33	614.52
505.69	620.48
506.05	626.00
506.41	630.43
506.78	635.86
507.14	640.90
507.50	646.19
507.86	651.90
508.22	657.38
508.59	663.19
508.95	668.95
509.31	674.62
509.67	680.90
510.03	686.24
510.39	692.00
510.75	696.48
511.12	701.43
511.48	706.67
511.84	711.48
512.20	716.38
512.56	720.67
512.92	726.62
513.28	731.48
513.64	735.43
514.00	740.33
514.37	745.33
514.73	750.86
515.09	755.24
515.45	758.81
515.81	763.48
516.17	767.52
516.53	771.43
516.89	774.00
517.25	777.52
517.61	782.57
517.97	785.71
518.33	790.05
518.69	794.95
519.05	798.67
519.41	802.05
519.77	807.81
520.13	811.19
520.49	813.76
520.85	815.90
521.21	820.52
521.57	823.95
521.93	826.48
522.29	828.90
522.65	831.10
523.01	834.38
523.37	835.76
523.73	838.62
524.09	841.24
524.45	844.05
524.81	845.57
525.17	846.86
525.53	848.81
525.89	850.10
526.25	851.48
526.61	853.19
526.97	855.19
527.33	855.48
527.68	859.76
528.04	861.19
528.40	863.48
528.76	864.33
529.12	866.00
529.48	868.10
529.84	870.57
530.20	872.43
530.56	874.00
530.91	876.14
531.27	877.29
531.63	878.48
531.99	879.33
532.35	880.76
532.71	882.14
533.07	883.62
533.42	887.81
533.78	888.76
534.14	889.86
534.50	890.52
534.86	892.00
535.21	890.57
535.57	891.86
535.93	891.67
536.29	894.19
536.65	895.19
537.00	896.71
537.36	897.33
537.72	899.38
538.08	900.95
538.44	902.95
538.79	904.95
539.15	906.05
539.51	908.86
539.87	911.38
540.22	912.76
540.58	914.86
540.94	913.67
541.29	915.62
541.65	917.29
542.01	919.67
542.37	921.14
542.72	922.10
543.08	922.71
543.44	924.24
543.79	922.52
544.15	922.38
544.51	922.14
544.87	921.57
545.22	920.38
545.58	918.81
545.94	916.38
546.29	914.52
546.65	912.95
547.01	909.81
547.36	907.62
547.72	905.19
548.07	903.00
548.43	900.95
548.79	897.33
549.14	894.81
549.50	892.43
549.86	888.67
550.21	886.38
550.57	884.33
550.92	881.24
551.28	879.86
551.64	878.14
551.99	875.33
552.35	872.33
552.70	869.62
553.06	867.76
553.41	865.86
553.77	864.29
554.13	862.52
554.48	862.14
554.84	859.33
555.19	858.62
555.55	858.00
555.90	855.71
556.26	854.76
556.61	851.95
556.97	849.10
557.32	846.48
557.68	845.14
558.03	844.24
558.39	842.86
558.74	840.57
559.10	838.00
559.45	835.67
559.81	834.52
560.16	833.33
560.52	831.71
560.87	830.14
561.23	827.62
561.58	827.62
561.94	824.14
562.29	823.24
562.64	820.90
563.00	817.29
563.35	816.14
563.71	813.81
564.06	812.48
564.42	811.52
564.77	810.48
565.12	808.43
565.48	808.43
565.83	807.52
566.19	806.48
566.54	804.90
566.89	804.48
567.25	803.86
567.60	804.05
567.96	804.57
568.31	805.29
568.66	805.38
569.02	801.86
569.37	801.71
569.72	800.57
570.08	799.29
570.43	798.48
570.78	796.67
571.14	795.43
571.49	794.43
571.84	793.00
572.20	792.38
572.55	791.00
572.90	786.76
573.26	785.24
573.61	782.71
573.96	781.48
574.31	779.71
574.67	777.67
575.02	774.43
575.37	770.76
575.72	767.14
576.08	764.19
576.43	762.71
576.78	760.00
577.13	758.00
577.49	756.05
577.84	754.48
578.19	753.10
578.54	751.95
578.90	750.62
579.25	749.19
579.60	747.19
579.95	745.57
580.30	745.10
580.66	743.05
581.01	742.33
581.36	741.00
581.71	739.00
582.06	738.52
582.42	737.81
582.77	735.62
583.12	734.71
583.47	732.71
583.82	731.52
584.17	730.05
584.53	728.76
584.88	727.14
585.23	726.14
585.58	723.43
585.93	721.14
586.28	719.48
586.63	716.43
586.98	713.86
587.34	712.10
587.69	709.33
588.04	706.81
588.39	704.00
588.74	701.05
589.09	699.62
589.44	695.38
589.79	692.00
590.14	689.19
590.49	685.52
590.84	682.52
591.19	679.14
591.54	676.67
591.89	673.29
592.25	672.05
592.60	667.67
592.95	665.29
593.30	662.57
593.65	659.24
594.00	656.62
594.35	660.81
594.70	656.95
595.05	653.71
595.40	651.14
595.75	648.38
596.10	645.71
596.45	642.81
596.80	640.62
597.15	637.48
597.50	635.62
597.85	634.81
598.19	632.57
598.54	629.67
598.89	626.90
599.24	624.05
599.59	619.62
599.94	616.76
600.29	614.10
600.64	611.14
600.99	609.52
601.34	607.57
601.69	598.76
602.04	596.48
602.39	594.05
602.74	592.71
603.08	591.10
603.43	589.95
603.78	588.43
604.13	585.86
604.48	584.76
604.83	583.67
605.18	581.81
605.53	581.33
605.87	582.00
606.22	584.19
606.57	587.33
606.92	590.76
607.27	595.52
607.62	599.86
607.96	604.19
608.31	606.86
608.66	609.48
609.01	611.52
609.36	613.90
609.70	616.38
610.05	617.86
610.40	619.29
610.75	619.90
611.10	620.48
611.44	621.76
611.79	621.24
612.14	620.86
612.49	618.95
612.83	616.81
613.18	614.24
613.53	609.62
613.88	603.71
614.22	597.14
614.57	589.48
614.92	582.52
615.27	576.14
615.61	569.71
615.96	563.95
616.31	558.52
616.65	553.86
617.00	548.48
617.35	542.95
617.70	537.76
618.04	533.05
618.39	527.95
618.74	523.67
619.08	519.90
619.43	515.76
619.78	512.90
620.12	510.19
620.47	507.48
620.82	504.48
621.16	501.57
621.51	500.43
621.85	498.05
622.20	496.19
622.55	492.95
622.89	490.90
623.24	488.67
623.59	486.00
623.93	483.81
624.28	481.67
624.62	482.48
624.97	481.81
625.32	479.29
625.66	477.81
626.01	476.00
626.35	474.48
626.70	472.43
627.04	471.33
627.39	469.43
627.73	468.86
628.08	466.90
628.43	465.24
628.77	462.19
629.12	460.48
629.46	457.86
629.81	456.19
630.15	453.95
630.50	451.33
630.84	449.38
631.19	447.24
631.53	444.95
631.88	439.67
632.22	435.86
632.57	435.00
632.91	432.48
633.26	430.48
633.60	428.19
633.95	426.29
634.29	422.90
634.64	420.86
634.98	416.95
635.32	415.29
635.67	413.86
636.01	412.00
636.36	409.86
636.70	408.33
637.05	406.62
637.39	405.00
637.73	403.71
638.08	402.71
638.42	400.71
638.77	399.57
639.11	398.38
639.45	397.00
639.80	394.00
640.14	392.43
640.49	391.14
640.83	390.00
641.17	389.14
641.52	387.95
641.86	386.67
642.20	386.95
642.55	385.48
642.89	383.76
643.23	383.14
643.58	383.14
643.92	381.62
644.26	380.52
644.61	379.90
644.95	379.24
645.29	377.81
645.64	377.67
645.98	376.48
646.32	376.14
646.66	375.62
647.01	375.24
647.35	374.67
647.69	373.81
648.04	373.00
648.38	372.00
648.72	371.71
649.06	371.00
649.41	369.00
649.75	368.00
650.09	367.57
650.43	365.90
650.78	363.90
651.12	363.10
651.46	362.38
651.80	361.05
652.14	359.33
652.49	359.00
652.83	357.29
653.17	356.24
653.51	354.05
653.85	353.14
654.20	351.81
654.54	350.38
654.88	348.67
655.22	347.38
655.56	345.57
655.90	344.67
656.25	343.48
656.59	342.38
656.93	341.52
657.27	341.19
657.61	340.52
657.95	340.57
658.29	339.52
658.64	338.71
658.98	337.95
659.32	337.19
659.66	335.90
660.00	335.81
660.34	335.38
660.68	335.00
661.02	333.86
661.36	333.10
661.70	332.14
662.05	331.81
662.39	332.19
662.73	332.57
663.07	332.52
663.41	332.14
663.75	331.52
664.09	331.14
664.43	329.48
664.77	328.52
665.11	327.00
665.45	326.38
665.79	326.24
666.13	325.24
666.47	324.38
666.81	323.67
667.15	322.00
667.49	321.14
667.83	321.48
668.17	320.52
668.51	320.19
668.85	320.00
669.19	320.14
669.53	318.14
669.87	316.90
670.21	315.10
670.55	314.00
670.89	314.57
671.23	313.43
671.57	312.86
671.91	312.33
672.25	311.95
672.58	312.52
672.92	310.86
673.26	310.62
673.60	310.33
673.94	309.71
674.28	309.62
674.62	309.62
674.96	308.71
675.30	309.00
675.64	308.71
675.97	308.05
676.31	306.57
676.65	305.90
676.99	306.05
677.33	305.19
677.67	304.62
678.01	303.10
678.34	303.10
678.68	303.00
679.02	302.57
679.36	302.00
679.70	300.48
680.04	300.48
680.37	299.95
680.71	299.24
681.05	299.10
681.39	298.62
681.73	297.43
682.06	296.57
682.40	295.52
682.74	295.14
683.08	295.81
683.42	295.29
683.75	295.62
684.09	294.76
684.43	295.10
684.77	294.95
685.10	294.52
685.44	293.95
685.78	293.48
686.12	292.81
686.45	292.33
686.79	291.95
687.13	291.86
687.46	291.29
687.80	292.05
688.14	291.57
688.48	291.33
688.81	291.62
689.15	291.71
689.49	291.38
689.82	291.19
690.16	289.86
690.50	289.67
690.83	289.14
691.17	288.62
691.51	287.81
691.84	287.95
692.18	287.19
692.52	286.90
692.85	286.71
693.19	287.52
693.52	287.52
693.86	287.10
694.20	286.43
694.53	286.29
694.87	285.38
695.21	284.43
695.54	284.05
695.88	282.81
696.21	281.90
696.55	281.76
696.88	281.10
697.22	280.52
697.56	280.19
697.89	279.62
698.23	279.38
698.56	279.24
698.90	278.95
699.23	278.52
699.57	278.19
699.90	277.48
700.24	276.33
700.58	276.43
700.91	276.81
701.25	278.81
701.58	279.57
701.92	280.19
702.25	280.86
702.59	280.81
702.92	281.52
703.26	282.05
703.59	282.33
703.93	284.90
704.26	285.71
704.60	286.29
704.93	286.67
705.26	286.86
705.60	287.38
705.93	287.05
706.27	288.33
706.60	289.05
706.94	290.76
707.27	290.76
707.61	290.76
707.94	290.81
708.27	288.71
708.61	287.67
708.94	287.05
709.28	286.71
709.61	285.95
709.94	285.48
710.28	284.86
710.61	284.43
710.95	281.29
711.28	282.19
711.61	281.10
711.95	280.81
712.28	279.86
712.61	279.05
712.95	279.43
713.28	279.43
713.61	278.19
713.95	276.00
714.28	275.48
714.61	274.48
714.95	273.67
715.28	272.67
715.61	272.00
715.95	271.71
716.28	270.95
716.61	271.19
716.95	270.48
717.28	269.86
717.61	269.10
717.94	269.05
718.28	266.48
718.61	266.00
718.94	265.24
719.27	264.90
719.61	264.81
719.94	263.90
720.27	262.48
720.60	262.00
720.94	261.95
721.27	262.00
721.60	262.38
721.93	261.90
722.27	262.48
722.60	262.71
722.93	262.00
723.26	262.00
723.59	261.19
723.93	261.43
724.26	261.62
724.59	261.24
724.92	261.10
725.25	261.86
725.59	262.10
725.92	262.14
726.25	262.33
726.58	262.29
726.91	262.00
727.24	262.00
727.57	262.10
727.91	261.57
728.24	261.29
728.57	260.71
728.90	260.86
729.23	259.81
729.56	260.33
729.89	260.05
730.22	259.52
730.55	259.33
730.89	259.14
731.22	258.71
731.55	258.71
731.88	258.71
732.21	258.00
732.54	257.62
732.87	257.48
733.20	257.19
733.53	257.14
733.86	257.33
734.19	256.76
734.52	257.05
734.85	258.86
735.18	258.67
735.51	259.14
735.84	259.19
736.17	260.05
736.50	258.67
736.83	261.33
737.16	261.43
737.49	261.76
737.82	261.19
738.15	261.43
738.48	261.52
738.81	261.24
739.14	261.24
739.47	261.38
739.80	261.38
740.13	261.57
740.46	261.10
740.79	260.24
741.12	260.19
741.45	259.67
741.78	258.00
742.11	258.71
742.44	258.24
742.77	258.00
743.10	257.52
743.43	257.52
743.75	255.10
744.08	257.95
744.41	257.43
744.74	257.33
745.07	256.52
745.40	256.81
745.73	257.57
746.06	257.48
746.39	257.24
746.71	256.71
747.04	256.10
747.37	255.81
747.70	256.62
748.03	256.95
748.36	257.24
748.68	257.29
749.01	256.14
749.34	255.62
749.67	255.62
750.00	255.81
750.33	257.57
750.65	257.71
750.98	254.71
751.31	254.86
751.64	254.90
751.97	256.24
752.29	255.76
752.62	254.71
752.95	254.33
753.28	254.14
753.60	254.10
753.93	254.62
754.26	254.62
754.59	253.57
754.91	253.24
755.24	252.90
755.57	252.57
755.90	252.57
756.22	252.29
756.55	251.95
756.88	251.29
757.20	249.43
757.53	248.67
757.86	248.81
758.19	249.05
758.51	248.76
758.84	247.52
759.17	247.48
759.49	247.48
759.82	248.81
760.15	248.95
760.47	248.71
760.80	248.00
761.13	248.10
761.45	248.14
761.78	247.90
762.11	247.71
762.43	247.33
762.76	247.19
763.08	247.71
763.41	247.52
763.74	248.00
764.06	248.10
764.39	248.29
764.71	247.86
765.04	247.05
765.37	247.33
765.69	247.48
766.02	247.38
766.34	247.29
766.67	246.05
767.00	246.43
767.32	247.71
767.65	249.33
767.97	249.33
768.30	249.57
768.62	249.67
768.95	249.38
769.27	249.29
769.60	249.43
769.92	249.29
770.25	249.10
770.57	248.81
770.90	248.43
771.22	248.10
771.55	248.14
771.87	248.14
772.20	248.00
772.52	249.95
772.85	252.67
773.17	252.57
773.50	252.52
773.82	252.00
774.15	251.00
774.47	249.33
774.80	248.86
775.12	248.48
775.45	248.38
775.77	248.76
776.09	249.05
776.42	249.05
776.74	249.62
777.07	249.52
777.39	249.19
777.72	249.43
778.04	249.86
778.36	249.67
778.69	249.86
779.01	250.14
779.33	247.71
779.66	244.90
779.98	244.67
780.31	244.76
780.63	245.76
780.95	246.33
781.28	246.14
781.60	245.90
781.92	245.71
782.25	245.71
782.57	245.38
782.89	245.14
783.22	245.19
783.54	244.52
783.86	244.90
784.19	244.86
784.51	245.62
784.83	245.00
785.16	245.14
785.48	245.19
785.80	244.71
786.12	245.05
786.45	245.10
786.77	245.48
787.09	245.52
787.42	244.29
787.74	243.95
788.06	244.57
788.38	244.62
788.71	244.71
789.03	244.71
789.35	245.10
789.67	245.19
789.99	245.33
790.32	244.95
790.64	245.38
790.96	247.43
791.28	246.29
791.61	246.14
791.93	246.24
792.25	246.19
792.57	247.90
792.89	247.43
793.21	247.57
793.54	246.62
793.86	246.05
