SpectraSuite Data File
++++++++++++++++++++++++++++++++++++
Date: Wed Nov 07 18:31:47 EST 2012
User: group
Dark Spectrum Present: No
Reference Spectrum Present: No
Number of Sampled Component Spectra: 1
Spectrometers: USB2E7196
Integration Time (usec): 1000000 (USB2E7196)
Spectra Averaged: 1 (USB2E7196)
Boxcar Smoothing: 10 (USB2E7196)
Correct for Electrical Dark: No (USB2E7196)
Strobe/Lamp Enabled: No (USB2E7196)
Correct for Detector Non-linearity: No (USB2E7196)
Correct for Stray Light: No (USB2E7196)
Number of Pixels in Processed Spectrum: 2048
>>>>>Begin Processed Spectral Data<<<<<
339.09	0.00
339.48	224.00
339.86	223.00
340.24	223.00
340.63	223.00
341.01	265.00
341.39	227.00
341.78	235.00
342.16	242.00
342.54	230.00
342.93	224.76
343.31	235.67
343.69	236.24
344.07	236.81
344.46	237.67
344.84	238.24
345.22	236.52
345.60	237.24
345.99	237.38
346.37	236.86
346.75	237.24
347.13	237.33
347.52	237.48
347.90	238.10
348.28	237.81
348.66	238.29
349.05	237.10
349.43	237.24
349.81	237.48
350.19	237.71
350.57	238.05
350.96	238.10
351.34	238.48
351.72	238.24
352.10	238.19
352.48	237.81
352.87	237.81
353.25	237.71
353.63	237.19
354.01	236.90
354.39	237.14
354.77	237.00
355.15	237.86
355.54	237.29
355.92	236.52
356.30	236.71
356.68	237.95
357.06	238.38
357.44	238.19
357.82	238.10
358.20	238.00
358.58	238.00
358.97	237.57
359.35	238.05
359.73	238.38
360.11	238.33
360.49	238.62
360.87	238.67
361.25	239.33
361.63	240.14
362.01	240.33
362.39	240.43
362.77	240.71
363.15	240.29
363.53	240.38
363.91	240.62
364.29	240.86
364.67	238.90
365.05	238.81
365.43	238.95
365.81	238.90
366.19	240.00
366.57	240.62
366.95	240.81
367.33	240.48
367.71	240.76
368.09	241.19
368.47	241.10
368.85	241.00
369.23	241.62
369.61	240.90
369.99	241.90
370.37	242.10
370.75	243.05
371.13	242.81
371.51	242.52
371.89	243.05
372.27	243.38
372.65	243.43
373.03	243.67
373.41	243.43
373.78	243.57
374.16	242.38
374.54	242.10
374.92	241.71
375.30	241.48
375.68	240.86
376.06	240.95
376.44	240.95
376.82	240.95
377.19	240.43
377.57	240.62
377.95	240.00
378.33	239.76
378.71	238.52
379.09	238.67
379.47	239.43
379.84	238.81
380.22	238.14
380.60	237.67
380.98	237.24
381.36	237.14
381.73	236.95
382.11	237.67
382.49	237.67
382.87	237.67
383.25	237.76
383.62	240.81
384.00	240.62
384.38	240.71
384.76	241.52
385.13	242.52
385.51	242.48
385.89	241.81
386.27	242.00
386.64	242.24
387.02	242.38
387.40	241.90
387.78	241.90
388.15	242.43
388.53	242.48
388.91	242.57
389.29	242.48
389.66	242.95
390.04	242.19
390.42	242.67
390.79	243.10
391.17	243.05
391.55	240.24
391.92	240.33
392.30	240.48
392.68	239.62
393.05	239.10
393.43	239.05
393.81	239.38
394.18	238.95
394.56	239.10
394.94	239.43
395.31	239.24
395.69	240.10
396.06	240.05
396.44	240.43
396.82	240.24
397.19	241.57
397.57	241.10
397.95	241.67
398.32	240.90
398.70	241.05
399.07	241.76
399.45	241.95
399.82	241.71
400.20	241.52
400.58	241.95
400.95	241.33
401.33	241.81
401.70	243.90
402.08	244.24
402.45	244.14
402.83	244.57
403.20	244.90
403.58	244.71
403.95	245.24
404.33	245.48
404.71	245.71
405.08	247.14
405.46	247.71
405.83	248.24
406.21	248.76
406.58	249.38
406.96	249.62
407.33	250.43
407.70	251.29
408.08	253.86
408.45	254.57
408.83	256.05
409.20	256.48
409.58	255.48
409.95	256.81
410.33	258.33
410.70	258.71
411.08	260.19
411.45	261.38
411.82	262.52
412.20	264.48
412.57	267.14
412.95	266.19
413.32	268.24
413.69	269.67
414.07	271.86
414.44	273.48
414.82	275.29
415.19	277.43
415.56	279.86
415.94	280.67
416.31	283.43
416.68	285.95
417.06	289.62
417.43	293.43
417.81	296.43
418.18	300.00
418.55	303.76
418.93	307.90
419.30	312.14
419.67	316.67
420.04	321.10
420.42	325.57
420.79	333.48
421.16	339.29
421.54	346.48
421.91	352.52
422.28	359.38
422.66	366.19
423.03	374.81
423.40	381.52
423.77	389.33
424.15	396.62
424.52	404.86
424.89	413.14
425.26	421.33
425.64	429.62
426.01	437.24
426.38	446.29
426.75	455.71
427.13	465.05
427.50	474.95
427.87	484.33
428.24	494.10
428.61	502.00
428.99	513.48
429.36	523.86
429.73	534.76
430.10	545.48
430.47	557.81
430.85	568.48
431.22	581.62
431.59	596.90
431.96	610.52
432.33	624.62
432.70	638.48
433.08	653.48
433.45	668.29
433.82	684.29
434.19	700.90
434.56	716.43
434.93	732.62
435.30	748.24
435.68	765.48
436.05	782.33
436.42	799.05
436.79	814.29
437.16	831.00
437.53	848.00
437.90	864.95
438.27	881.00
438.64	897.57
439.01	913.48
439.38	925.10
439.75	937.71
440.13	952.67
440.50	966.62
440.87	978.76
441.24	990.43
441.61	1003.33
441.98	1012.05
442.35	1023.00
442.72	1033.33
443.09	1044.48
443.46	1050.62
443.83	1053.48
444.20	1055.90
444.57	1059.10
444.94	1059.95
445.31	1062.48
445.68	1067.48
446.05	1067.57
446.42	1064.24
446.79	1061.62
447.16	1058.05
447.53	1055.90
447.90	1047.81
448.27	1040.00
448.64	1029.67
449.01	1022.62
449.37	1010.05
449.74	998.90
450.11	987.29
450.48	971.71
450.85	954.76
451.22	941.43
451.59	929.95
451.96	918.48
452.33	903.19
452.70	888.67
453.07	871.48
453.43	851.29
453.80	834.57
454.17	819.05
454.54	803.43
454.91	787.81
455.28	771.33
455.65	757.00
456.02	747.05
456.38	734.76
456.75	719.67
457.12	707.29
457.49	694.67
457.86	680.00
458.23	670.62
458.59	660.14
458.96	649.00
459.33	638.19
459.70	627.86
460.07	620.00
460.43	611.10
460.80	603.00
461.17	594.90
461.54	587.38
461.91	580.52
462.27	572.76
462.64	566.24
463.01	559.71
463.38	553.76
463.74	543.00
464.11	537.05
464.48	531.95
464.85	526.43
465.21	522.95
465.58	519.76
465.95	513.62
466.32	509.29
466.68	504.33
467.05	500.05
467.42	496.29
467.78	491.38
468.15	487.19
468.52	483.67
468.88	479.67
469.25	475.38
469.62	471.95
469.98	468.43
470.35	464.90
470.72	462.05
471.08	458.14
471.45	456.10
471.82	454.00
472.18	450.71
472.55	448.48
472.92	445.05
473.28	441.76
473.65	439.57
474.02	436.71
474.38	435.24
474.75	433.81
475.11	431.29
475.48	429.52
475.85	427.90
476.21	426.14
476.58	425.19
476.94	424.05
477.31	422.57
477.67	421.57
478.04	420.76
478.41	420.14
478.77	421.95
479.14	420.52
479.50	419.71
479.87	419.86
480.23	419.57
480.60	419.33
480.96	419.86
481.33	421.29
481.69	421.62
482.06	422.24
482.42	422.48
482.79	423.48
483.15	424.33
483.52	425.62
483.88	426.38
484.25	427.10
484.61	428.33
484.98	429.29
485.34	431.24
485.71	433.05
486.07	434.00
486.44	432.95
486.80	434.38
487.17	435.48
487.53	437.71
487.90	439.38
488.26	442.19
488.62	443.52
488.99	444.24
489.35	446.43
489.72	447.76
490.08	449.81
490.44	451.71
490.81	453.71
491.17	455.52
491.54	457.76
491.90	460.29
492.26	462.48
492.63	465.48
492.99	466.95
493.36	469.76
493.72	473.38
494.08	476.76
494.45	479.48
494.81	483.14
495.17	485.29
495.54	488.86
495.90	491.24
496.26	494.71
496.63	498.48
496.99	501.81
497.35	506.00
497.72	510.05
498.08	513.90
498.44	518.95
498.80	523.57
499.17	528.14
499.53	532.43
499.89	537.29
500.26	541.57
500.62	546.71
500.98	551.29
501.34	555.24
501.71	560.43
502.07	565.95
502.43	570.43
502.79	575.14
503.16	579.86
503.52	584.71
503.88	589.62
504.24	594.48
504.60	599.90
504.97	604.95
505.33	610.62
505.69	616.29
506.05	621.38
506.41	627.10
506.78	631.90
507.14	637.10
507.50	642.29
507.86	647.43
508.22	652.71
508.59	657.76
508.95	663.62
509.31	669.19
509.67	674.00
510.03	680.10
510.39	685.81
510.75	691.05
511.12	696.43
511.48	701.57
511.84	707.05
512.20	711.67
512.56	716.52
512.92	721.05
513.28	726.05
513.64	730.43
514.00	733.95
514.37	738.81
514.73	743.52
515.09	747.95
515.45	752.24
515.81	756.76
516.17	761.19
516.53	764.62
516.89	768.05
517.25	772.90
517.61	775.90
517.97	779.48
518.33	783.19
518.69	787.43
519.05	792.00
519.41	794.76
519.77	800.10
520.13	803.48
520.49	806.33
520.85	809.29
521.21	813.00
521.57	815.95
521.93	817.81
522.29	821.14
522.65	822.95
523.01	825.81
523.37	827.86
523.73	829.57
524.09	832.00
524.45	833.57
524.81	834.67
525.17	837.48
525.53	840.24
525.89	841.38
526.25	843.19
526.61	843.57
526.97	845.86
527.33	846.33
527.68	851.19
528.04	852.38
528.40	853.05
528.76	853.90
529.12	855.90
529.48	858.52
529.84	859.29
530.20	861.05
530.56	863.05
530.91	865.05
531.27	866.76
531.63	868.29
531.99	869.24
532.35	871.10
532.71	871.76
533.07	873.10
533.42	876.95
533.78	877.24
534.14	879.57
534.50	880.52
534.86	882.10
535.21	880.81
535.57	882.62
535.93	883.48
536.29	886.24
536.65	887.67
537.00	888.52
537.36	889.95
537.72	892.52
538.08	894.76
538.44	895.29
538.79	897.90
539.15	899.62
539.51	902.86
539.87	904.10
540.22	905.67
540.58	907.19
540.94	907.14
541.29	909.62
541.65	910.19
542.01	911.81
542.37	912.86
542.72	913.19
543.08	913.29
543.44	914.71
543.79	912.86
544.15	913.43
544.51	913.29
544.87	912.57
545.22	910.86
545.58	908.48
545.94	907.57
546.29	906.05
546.65	903.62
547.01	900.62
547.36	898.90
547.72	896.90
548.07	894.57
548.43	891.81
548.79	889.24
549.14	885.95
549.50	882.52
549.86	878.95
550.21	876.62
550.57	873.71
550.92	870.29
551.28	869.57
551.64	866.43
551.99	864.67
552.35	862.14
552.70	860.05
553.06	857.90
553.41	855.24
553.77	853.57
554.13	851.95
554.48	850.43
554.84	848.52
555.19	847.71
555.55	846.81
555.90	844.57
556.26	841.48
556.61	840.48
556.97	838.29
557.32	836.14
557.68	834.00
558.03	832.81
558.39	831.14
558.74	828.10
559.10	825.33
559.45	823.05
559.81	821.29
560.16	819.38
560.52	817.29
560.87	815.95
561.23	813.29
561.58	813.05
561.94	810.67
562.29	809.14
562.64	806.43
563.00	803.29
563.35	801.52
563.71	800.90
564.06	798.90
564.42	797.76
564.77	796.90
565.12	795.57
565.48	796.38
565.83	795.81
566.19	793.95
566.54	793.24
566.89	791.90
567.25	791.71
567.60	791.90
567.96	793.00
568.31	792.29
568.66	791.95
569.02	789.05
569.37	787.76
569.72	786.00
570.08	785.05
570.43	782.95
570.78	782.67
571.14	780.29
571.49	779.86
571.84	779.10
572.20	777.67
572.55	776.38
572.90	772.95
573.26	771.52
573.61	770.48
573.96	769.24
574.31	767.95
574.67	765.52
575.02	762.57
575.37	759.67
575.72	757.90
576.08	755.86
576.43	754.90
576.78	753.29
577.13	751.48
577.49	749.48
577.84	748.33
578.19	745.81
578.54	745.29
578.90	743.67
579.25	742.05
579.60	740.81
579.95	738.95
580.30	737.57
580.66	735.57
581.01	734.24
581.36	732.33
581.71	730.90
582.06	730.76
582.42	729.19
582.77	727.29
583.12	725.86
583.47	723.57
583.82	722.33
584.17	721.29
584.53	720.38
584.88	718.29
585.23	717.71
585.58	716.10
585.93	713.67
586.28	711.48
586.63	709.43
586.98	707.57
587.34	705.62
587.69	702.86
588.04	701.05
588.39	698.43
588.74	695.81
589.09	693.33
589.44	689.29
589.79	687.52
590.14	684.90
590.49	681.95
590.84	679.52
591.19	676.57
591.54	673.24
591.89	669.00
592.25	668.29
592.60	664.10
592.95	661.67
593.30	659.10
593.65	655.57
594.00	652.29
594.35	655.52
594.70	652.00
595.05	649.52
595.40	646.90
595.75	644.24
596.10	642.10
596.45	639.33
596.80	636.57
597.15	633.10
597.50	630.00
597.85	628.38
598.19	625.95
598.54	623.33
598.89	620.57
599.24	618.71
599.59	614.67
599.94	611.90
600.29	608.76
600.64	606.19
600.99	605.62
601.34	603.67
601.69	594.95
602.04	592.95
602.39	590.48
602.74	588.48
603.08	586.05
603.43	584.90
603.78	582.67
604.13	580.95
604.48	579.52
604.83	578.76
605.18	577.29
605.53	576.86
605.87	578.24
606.22	581.90
606.57	586.38
606.92	591.10
607.27	597.67
607.62	603.24
607.96	608.62
608.31	611.76
608.66	616.19
609.01	619.48
609.36	622.29
609.70	625.57
610.05	627.71
610.40	630.57
610.75	631.81
611.10	633.67
611.44	634.57
611.79	634.86
612.14	634.43
612.49	632.90
612.83	631.05
613.18	626.90
613.53	621.24
613.88	614.14
614.22	606.33
614.57	597.38
614.92	589.14
615.27	581.57
615.61	574.33
615.96	566.90
616.31	560.38
616.65	555.90
617.00	549.81
617.35	544.05
617.70	538.19
618.04	532.95
618.39	528.19
618.74	524.48
619.08	520.67
619.43	516.90
619.78	513.67
620.12	510.67
620.47	507.76
620.82	504.76
621.16	501.90
621.51	500.95
621.85	498.86
622.20	497.24
622.55	494.19
622.89	491.48
623.24	489.48
623.59	487.00
623.93	483.95
624.28	482.10
624.62	483.00
624.97	482.57
625.32	480.62
625.66	478.19
626.01	475.95
626.35	474.90
626.70	473.10
627.04	471.86
627.39	470.33
627.73	470.05
628.08	468.81
628.43	467.00
628.77	463.90
629.12	461.95
629.46	459.76
629.81	457.86
630.15	456.24
630.50	454.29
630.84	452.48
631.19	450.52
631.53	448.29
631.88	442.81
632.22	438.81
632.57	436.90
632.91	434.95
633.26	432.81
633.60	429.48
633.95	427.38
634.29	424.71
634.64	422.29
634.98	418.95
635.32	417.14
635.67	415.43
636.01	413.48
636.36	411.48
636.70	410.05
637.05	408.05
637.39	405.90
637.73	404.29
638.08	403.00
638.42	401.19
638.77	400.24
639.11	398.90
639.45	397.52
639.80	395.86
640.14	394.33
640.49	392.57
640.83	391.29
641.17	390.00
641.52	388.57
641.86	387.24
642.20	386.67
642.55	384.33
642.89	383.00
643.23	382.14
643.58	381.62
643.92	379.90
644.26	379.24
644.61	379.05
644.95	377.90
645.29	376.67
645.64	376.86
645.98	375.43
646.32	374.76
646.66	374.10
647.01	372.86
647.35	372.33
647.69	371.90
648.04	371.33
648.38	369.95
648.72	369.10
649.06	367.62
649.41	365.86
649.75	365.05
650.09	364.95
650.43	363.38
650.78	361.52
651.12	360.29
651.46	359.05
651.80	357.33
652.14	355.81
652.49	355.52
652.83	353.38
653.17	351.86
653.51	350.62
653.85	349.29
654.20	348.10
654.54	346.48
654.88	344.90
655.22	343.19
655.56	342.62
655.90	341.43
656.25	340.71
656.59	339.95
656.93	339.48
657.27	338.95
657.61	337.76
657.95	337.90
658.29	337.00
658.64	336.86
658.98	336.57
659.32	335.95
659.66	334.86
660.00	334.48
660.34	333.95
660.68	333.24
661.02	333.10
661.36	332.33
661.70	331.71
662.05	331.24
662.39	331.86
662.73	331.90
663.07	333.10
663.41	332.48
663.75	331.38
664.09	331.10
664.43	329.24
664.77	328.95
665.11	327.52
665.45	327.00
665.79	326.38
666.13	325.10
666.47	324.43
666.81	323.57
667.15	322.29
667.49	322.05
667.83	322.14
668.17	320.86
668.51	320.43
668.85	319.90
669.19	319.86
669.53	318.10
669.87	316.71
670.21	314.38
670.55	313.71
670.89	314.43
671.23	313.43
671.57	313.57
671.91	313.24
672.25	312.90
672.58	313.52
672.92	312.10
673.26	311.52
673.60	311.48
673.94	310.62
674.28	310.33
674.62	309.86
674.96	309.00
675.30	308.81
675.64	308.10
675.97	307.57
676.31	306.81
676.65	306.38
676.99	306.81
677.33	306.14
677.67	305.62
678.01	303.71
678.34	303.29
678.68	302.76
679.02	301.62
679.36	300.71
679.70	299.14
680.04	298.86
680.37	298.57
680.71	297.71
681.05	297.57
681.39	297.10
681.73	296.62
682.06	295.95
682.40	295.38
682.74	295.38
683.08	296.10
683.42	295.24
683.75	295.76
684.09	294.52
684.43	294.71
684.77	294.24
685.10	294.33
685.44	293.90
685.78	293.52
686.12	293.24
686.45	293.05
686.79	292.43
687.13	292.76
687.46	292.00
687.80	291.81
688.14	291.38
688.48	290.95
688.81	290.52
689.15	290.90
689.49	290.86
689.82	290.19
690.16	288.81
690.50	288.71
690.83	287.57
691.17	286.71
691.51	286.00
691.84	285.90
692.18	285.24
692.52	284.81
692.85	284.19
693.19	285.00
693.52	284.52
693.86	284.19
694.20	283.38
694.53	283.38
694.87	282.71
695.21	282.00
695.54	281.90
695.88	280.67
696.21	279.19
696.55	278.24
696.88	277.71
697.22	277.24
697.56	277.00
697.89	276.52
698.23	276.52
698.56	276.10
698.90	276.19
699.23	275.76
699.57	275.67
699.90	275.43
700.24	274.67
700.58	275.05
700.91	275.57
701.25	277.76
701.58	278.57
701.92	279.52
702.25	280.05
702.59	279.95
702.92	281.24
703.26	282.10
703.59	282.48
703.93	285.48
704.26	286.14
704.60	286.95
704.93	288.05
705.26	288.14
705.60	289.19
705.93	288.67
706.27	289.71
706.60	290.43
706.94	291.76
707.27	291.81
707.61	291.76
707.94	291.86
708.27	289.81
708.61	289.05
708.94	288.71
709.28	288.33
709.61	288.00
709.94	287.67
710.28	287.14
710.61	286.90
710.95	283.62
711.28	284.33
711.61	283.10
711.95	282.10
712.28	281.19
712.61	279.81
712.95	280.43
713.28	280.57
713.61	279.38
713.95	277.62
714.28	276.71
714.61	275.43
714.95	274.10
715.28	272.76
715.61	271.67
715.95	270.95
716.28	270.14
716.61	269.95
716.95	268.38
717.28	267.67
717.61	267.19
717.94	267.05
718.28	264.48
718.61	264.00
718.94	263.38
719.27	263.33
719.61	263.00
719.94	261.95
720.27	260.48
720.60	260.05
720.94	259.81
721.27	259.57
721.60	260.10
721.93	259.81
722.27	260.81
722.60	261.33
722.93	260.43
723.26	260.24
723.59	259.62
723.93	260.33
724.26	260.29
724.59	259.86
724.92	259.81
725.25	260.67
725.59	260.38
725.92	260.67
726.25	260.19
726.58	260.24
726.91	260.05
727.24	260.05
727.57	260.00
727.91	259.57
728.24	259.90
728.57	259.62
728.90	260.00
729.23	258.95
729.56	259.76
729.89	259.86
730.22	259.86
730.55	259.67
730.89	259.38
731.22	259.33
731.55	259.52
731.88	259.52
732.21	259.00
732.54	258.90
732.87	258.52
733.20	258.52
733.53	258.57
733.86	258.90
734.19	258.81
734.52	258.71
734.85	260.24
735.18	259.76
735.51	260.52
735.84	260.67
736.17	261.33
736.50	260.10
736.83	263.05
737.16	263.00
737.49	263.00
737.82	262.52
738.15	262.81
738.48	262.38
738.81	262.10
739.14	261.86
739.47	261.76
739.80	261.90
740.13	262.19
740.46	261.76
740.79	260.90
741.12	260.67
741.45	260.52
741.78	259.24
742.11	259.95
742.44	259.00
742.77	259.14
743.10	258.62
743.43	258.19
743.75	255.86
744.08	259.14
744.41	259.00
744.74	258.76
745.07	257.62
745.40	258.10
745.73	259.19
746.06	259.19
746.39	259.05
746.71	258.62
747.04	258.10
747.37	257.67
747.70	258.14
748.03	258.19
748.36	258.48
748.68	258.24
749.01	257.33
749.34	257.14
749.67	256.86
750.00	257.24
750.33	259.10
750.65	259.00
750.98	255.62
751.31	255.52
751.64	255.86
751.97	257.38
752.29	257.00
752.62	255.52
752.95	255.38
753.28	255.33
753.60	255.05
753.93	255.95
754.26	256.24
754.59	255.24
754.91	254.76
755.24	254.38
755.57	254.19
755.90	253.71
756.22	253.43
756.55	253.19
756.88	252.33
757.20	250.29
757.53	249.05
757.86	248.62
758.19	248.81
758.51	248.62
758.84	247.29
759.17	247.05
759.49	246.81
759.82	247.86
760.15	248.10
760.47	247.90
760.80	246.90
761.13	247.38
761.45	247.10
761.78	247.10
762.11	247.00
762.43	246.81
762.76	246.81
763.08	246.95
763.41	246.81
763.74	247.00
764.06	247.14
764.39	247.67
764.71	247.81
765.04	247.29
765.37	247.10
765.69	247.48
766.02	247.19
766.34	246.81
766.67	245.62
767.00	246.00
767.32	247.57
767.65	249.14
767.97	248.86
768.30	249.33
768.62	249.43
768.95	249.19
769.27	249.29
769.60	249.62
769.92	249.38
770.25	248.95
770.57	248.67
770.90	248.52
771.22	247.81
771.55	248.05
771.87	247.90
772.20	247.71
772.52	249.33
772.85	252.05
773.17	252.48
773.50	252.57
773.82	252.00
774.15	250.52
774.47	248.57
774.80	248.19
775.12	248.19
775.45	248.10
775.77	248.24
776.09	247.95
776.42	248.05
776.74	248.86
777.07	248.81
777.39	248.62
777.72	248.76
778.04	249.24
778.36	248.57
778.69	249.14
779.01	249.29
779.33	247.10
779.66	244.67
779.98	244.48
780.31	244.19
780.63	244.95
780.95	245.43
781.28	245.62
781.60	245.38
781.92	245.19
782.25	245.00
782.57	244.86
782.89	244.86
783.22	244.43
783.54	244.05
783.86	244.48
784.19	244.43
784.51	245.14
784.83	244.76
785.16	244.90
785.48	244.52
785.80	244.52
786.12	244.71
786.45	244.10
786.77	244.19
787.09	244.48
787.42	243.52
787.74	243.67
788.06	243.81
788.38	243.76
788.71	243.86
789.03	244.14
789.35	244.14
789.67	244.00
789.99	244.33
790.32	244.00
790.64	243.67
790.96	245.62
791.28	244.57
791.61	244.86
791.93	245.19
792.25	245.19
792.57	247.10
792.89	246.38
793.21	247.10
793.54	246.86
793.86	246.43
