SpectraSuite Data File
++++++++++++++++++++++++++++++++++++
Date: Wed Nov 07 18:32:02 EST 2012
User: group
Dark Spectrum Present: No
Reference Spectrum Present: No
Number of Sampled Component Spectra: 1
Spectrometers: USB2E7196
Integration Time (usec): 1000000 (USB2E7196)
Spectra Averaged: 1 (USB2E7196)
Boxcar Smoothing: 10 (USB2E7196)
Correct for Electrical Dark: No (USB2E7196)
Strobe/Lamp Enabled: No (USB2E7196)
Correct for Detector Non-linearity: No (USB2E7196)
Correct for Stray Light: No (USB2E7196)
Number of Pixels in Processed Spectrum: 2048
>>>>>Begin Processed Spectral Data<<<<<
339.09	0.00
339.48	221.00
339.86	220.00
340.24	216.00
340.63	216.00
341.01	257.00
341.39	227.00
341.78	234.00
342.16	231.00
342.54	232.00
342.93	222.00
343.31	233.14
343.69	233.81
344.07	234.43
344.46	235.71
344.84	236.52
345.22	235.33
345.60	235.95
345.99	236.24
346.37	236.67
346.75	236.71
347.13	236.71
347.52	236.71
347.90	237.71
348.28	237.57
348.66	238.29
349.05	237.52
349.43	237.33
349.81	237.29
350.19	237.81
350.57	237.71
350.96	238.14
351.34	238.33
351.72	238.33
352.10	238.62
352.48	238.29
352.87	238.48
353.25	239.00
353.63	238.76
354.01	238.43
354.39	238.57
354.77	238.81
355.15	239.52
355.54	239.57
355.92	238.81
356.30	239.05
356.68	240.52
357.06	240.81
357.44	240.24
357.82	240.57
358.20	240.95
358.58	241.14
358.97	241.38
359.35	241.90
359.73	242.38
360.11	242.19
360.49	242.48
360.87	242.57
361.25	242.48
361.63	243.38
362.01	243.95
362.39	243.62
362.77	243.90
363.15	243.62
363.53	243.86
363.91	244.05
364.29	244.05
364.67	241.57
365.05	241.67
365.43	242.24
365.81	242.38
366.19	243.24
366.57	244.38
366.95	244.38
367.33	243.62
367.71	243.71
368.09	243.90
368.47	243.52
368.85	243.67
369.23	244.10
369.61	243.05
369.99	243.43
370.37	243.86
370.75	244.86
371.13	244.62
371.51	244.38
371.89	244.48
372.27	244.62
372.65	244.71
373.03	244.57
373.41	244.48
373.78	244.38
374.16	242.57
374.54	241.57
374.92	240.90
375.30	241.48
375.68	240.95
376.06	241.48
376.44	241.57
376.82	241.71
377.19	241.38
377.57	241.43
377.95	240.52
378.33	240.10
378.71	238.48
379.09	238.62
379.47	238.81
379.84	238.76
380.22	238.43
380.60	238.48
380.98	238.05
381.36	238.24
381.73	237.81
382.11	238.52
382.49	238.52
382.87	238.29
383.25	237.86
383.62	240.67
384.00	240.14
384.38	240.00
384.76	240.48
385.13	241.52
385.51	241.67
385.89	241.52
386.27	241.76
386.64	242.48
387.02	242.57
387.40	242.29
387.78	242.14
388.15	242.24
388.53	241.76
388.91	242.05
389.29	241.86
389.66	242.14
390.04	241.81
390.42	242.14
390.79	242.52
391.17	242.43
391.55	239.71
391.92	239.81
392.30	240.00
392.68	238.86
393.05	238.81
393.43	238.81
393.81	239.33
394.18	239.10
394.56	239.05
394.94	239.52
395.31	239.19
395.69	240.33
396.06	240.43
396.44	241.00
396.82	240.76
397.19	242.00
397.57	242.10
397.95	242.62
398.32	242.14
398.70	242.24
399.07	242.90
399.45	242.67
399.82	242.52
400.20	242.81
400.58	243.29
400.95	242.52
401.33	243.24
401.70	244.71
402.08	244.95
402.45	244.95
402.83	245.38
403.20	245.86
403.58	245.38
403.95	246.14
404.33	246.29
404.71	247.19
405.08	248.67
405.46	248.67
405.83	249.24
406.21	249.52
406.58	250.14
406.96	250.24
407.33	251.24
407.70	251.90
408.08	254.19
408.45	255.29
408.83	256.10
409.20	256.43
409.58	255.81
409.95	256.71
410.33	257.71
410.70	257.95
411.08	259.48
411.45	260.71
411.82	261.33
412.20	263.14
412.57	265.33
412.95	264.86
413.32	267.00
413.69	268.19
414.07	269.71
414.44	271.57
414.82	273.95
415.19	276.05
415.56	278.43
415.94	279.52
416.31	282.52
416.68	285.71
417.06	289.00
417.43	292.48
417.81	296.10
418.18	299.71
418.55	303.81
418.93	307.67
419.30	311.90
419.67	316.52
420.04	320.86
420.42	325.67
420.79	332.67
421.16	337.71
421.54	345.19
421.91	351.57
422.28	357.76
422.66	364.38
423.03	373.29
423.40	380.29
423.77	387.33
424.15	394.43
424.52	401.76
424.89	410.43
425.26	418.14
425.64	425.81
426.01	434.52
426.38	442.76
426.75	452.52
427.13	461.48
427.50	471.67
427.87	481.76
428.24	491.38
428.61	499.90
428.99	512.05
429.36	522.38
429.73	533.43
430.10	545.10
430.47	557.29
430.85	568.24
431.22	581.10
431.59	597.10
431.96	610.05
432.33	624.67
432.70	638.57
433.08	655.38
433.45	671.10
433.82	686.33
434.19	703.24
434.56	718.71
434.93	733.90
435.30	749.19
435.68	765.62
436.05	782.52
436.42	799.05
436.79	813.81
437.16	830.48
437.53	847.86
437.90	864.76
438.27	880.86
438.64	897.14
439.01	912.81
439.38	924.14
439.75	937.52
440.13	951.90
440.50	965.62
440.87	976.76
441.24	987.90
441.61	1000.48
441.98	1010.38
442.35	1021.38
442.72	1032.95
443.09	1044.86
443.46	1051.10
443.83	1054.33
444.20	1057.14
444.57	1060.62
444.94	1061.52
445.31	1062.86
445.68	1066.90
446.05	1066.24
446.42	1063.43
446.79	1061.29
447.16	1057.57
447.53	1054.81
447.90	1047.67
448.27	1040.05
448.64	1029.57
449.01	1022.33
449.37	1009.43
449.74	996.43
450.11	984.90
450.48	970.05
450.85	953.62
451.22	940.24
451.59	928.05
451.96	916.05
452.33	901.24
452.70	887.38
453.07	871.05
453.43	850.76
453.80	834.76
454.17	819.38
454.54	803.62
454.91	788.14
455.28	772.71
455.65	758.38
456.02	748.52
456.38	736.62
456.75	721.57
457.12	709.38
457.49	697.10
457.86	683.05
458.23	673.24
458.59	661.48
458.96	650.90
459.33	640.43
459.70	630.71
460.07	623.38
460.43	613.86
460.80	606.14
461.17	599.10
461.54	591.71
461.91	583.67
462.27	576.29
462.64	569.71
463.01	562.76
463.38	556.86
463.74	545.57
464.11	538.95
464.48	534.43
464.85	529.19
465.21	526.00
465.58	521.24
465.95	515.24
466.32	511.19
466.68	506.43
467.05	501.71
467.42	497.00
467.78	491.62
468.15	487.48
468.52	483.67
468.88	479.48
469.25	475.19
469.62	472.14
469.98	468.29
470.35	465.29
470.72	461.48
471.08	456.71
471.45	454.48
471.82	453.10
472.18	448.95
472.55	446.52
472.92	442.90
473.28	440.29
473.65	437.24
474.02	434.62
474.38	433.05
474.75	431.57
475.11	429.33
475.48	428.14
475.85	426.19
476.21	424.67
476.58	423.81
476.94	422.48
477.31	421.90
477.67	420.76
478.04	419.71
478.41	419.43
478.77	421.52
479.14	420.33
479.50	419.29
479.87	419.67
480.23	419.67
480.60	419.62
480.96	420.00
481.33	421.43
481.69	422.05
482.06	422.00
482.42	423.29
482.79	424.57
483.15	425.05
483.52	426.19
483.88	426.95
484.25	427.48
484.61	428.62
484.98	428.62
485.34	430.90
485.71	433.05
486.07	434.86
486.44	434.48
486.80	436.10
487.17	437.14
487.53	439.38
487.90	440.95
488.26	444.14
488.62	446.33
488.99	447.62
489.35	449.67
489.72	451.81
490.08	452.76
490.44	454.10
490.81	456.43
491.17	458.19
491.54	460.14
491.90	462.90
492.26	465.62
492.63	468.86
492.99	470.67
493.36	472.95
493.72	475.33
494.08	478.57
494.45	481.38
494.81	485.14
495.17	488.29
495.54	491.90
495.90	493.86
496.26	497.05
496.63	500.81
496.99	503.67
497.35	506.95
497.72	511.67
498.08	515.52
498.44	519.24
498.80	524.76
499.17	529.05
499.53	532.76
499.89	538.05
500.26	542.43
500.62	547.19
500.98	552.48
501.34	557.19
501.71	561.71
502.07	566.90
502.43	571.38
502.79	575.86
503.16	580.62
503.52	585.71
503.88	590.05
504.24	595.48
504.60	600.90
504.97	606.71
505.33	611.14
505.69	618.00
506.05	623.38
506.41	628.00
506.78	633.29
507.14	638.52
507.50	643.71
507.86	649.38
508.22	655.29
508.59	659.57
508.95	665.57
509.31	671.33
509.67	676.52
510.03	682.00
510.39	686.29
510.75	692.14
511.12	697.48
511.48	702.62
511.84	706.90
512.20	712.05
512.56	717.00
512.92	721.81
513.28	725.95
513.64	730.52
514.00	735.43
514.37	740.24
514.73	744.52
515.09	748.76
515.45	752.33
515.81	756.33
516.17	760.33
516.53	763.10
516.89	766.48
517.25	770.38
517.61	774.38
517.97	779.43
518.33	783.14
518.69	787.24
519.05	791.67
519.41	796.29
519.77	801.00
520.13	804.10
520.49	807.29
520.85	810.10
521.21	815.24
521.57	819.00
521.93	821.52
522.29	825.10
522.65	827.00
523.01	830.14
523.37	831.29
523.73	835.05
524.09	838.24
524.45	840.24
524.81	842.38
525.17	844.38
525.53	846.48
525.89	847.71
526.25	849.57
526.61	850.86
526.97	851.57
527.33	852.86
527.68	857.10
528.04	858.76
528.40	859.76
528.76	860.10
529.12	860.52
529.48	862.10
529.84	863.00
530.20	864.67
530.56	865.90
530.91	868.33
531.27	869.38
531.63	870.29
531.99	871.38
532.35	872.48
532.71	873.81
533.07	874.67
533.42	878.62
533.78	879.05
534.14	880.43
534.50	882.29
534.86	884.33
535.21	882.90
535.57	885.05
535.93	886.05
536.29	888.10
536.65	889.33
537.00	890.62
537.36	892.71
537.72	894.71
538.08	897.43
538.44	899.38
538.79	901.95
539.15	903.95
539.51	906.19
539.87	908.00
540.22	909.86
540.58	912.19
540.94	911.95
541.29	914.48
541.65	916.71
542.01	919.00
542.37	919.48
542.72	920.14
543.08	920.19
543.44	920.90
543.79	918.57
544.15	918.95
544.51	919.38
544.87	918.33
545.22	917.29
545.58	914.48
545.94	912.29
546.29	909.43
546.65	907.57
547.01	904.71
547.36	902.95
547.72	899.90
548.07	896.33
548.43	892.71
548.79	889.71
549.14	886.38
549.50	882.95
549.86	879.38
550.21	876.71
550.57	874.00
550.92	871.43
551.28	870.57
551.64	868.33
551.99	865.71
552.35	863.76
552.70	860.90
553.06	859.19
553.41	856.76
553.77	855.67
554.13	853.81
554.48	852.76
554.84	851.10
555.19	849.52
555.55	850.38
555.90	848.86
556.26	846.67
556.61	844.10
556.97	840.62
557.32	838.29
557.68	836.81
558.03	835.10
558.39	833.33
558.74	830.71
559.10	828.43
559.45	826.95
559.81	824.86
560.16	823.62
560.52	821.86
560.87	820.71
561.23	817.76
561.58	817.62
561.94	815.19
562.29	813.14
562.64	811.48
563.00	807.14
563.35	805.81
563.71	803.86
564.06	802.24
564.42	800.95
564.77	799.86
565.12	798.52
565.48	799.33
565.83	798.52
566.19	797.90
566.54	796.29
566.89	793.90
567.25	793.19
567.60	792.76
567.96	794.14
568.31	794.38
568.66	794.14
569.02	791.10
569.37	789.90
569.72	788.57
570.08	787.33
570.43	786.24
570.78	784.00
571.14	783.05
571.49	782.05
571.84	781.14
572.20	780.14
572.55	778.76
572.90	774.90
573.26	773.00
573.61	771.33
573.96	770.05
574.31	769.43
574.67	767.90
575.02	765.62
575.37	761.57
575.72	758.76
576.08	756.48
576.43	755.67
576.78	754.76
577.13	753.24
577.49	751.81
577.84	750.67
578.19	750.24
578.54	749.05
578.90	748.38
579.25	747.43
579.60	745.43
579.95	743.38
580.30	743.43
580.66	742.19
581.01	740.43
581.36	738.81
581.71	736.43
582.06	735.67
582.42	734.52
582.77	732.76
583.12	731.67
583.47	731.14
583.82	730.05
584.17	729.00
584.53	728.43
584.88	726.52
585.23	725.86
585.58	722.76
585.93	720.62
586.28	718.38
586.63	716.43
586.98	715.19
587.34	714.05
587.69	710.10
588.04	707.38
588.39	705.81
588.74	703.14
589.09	702.38
589.44	698.00
589.79	694.43
590.14	692.48
590.49	689.05
590.84	684.86
591.19	680.57
591.54	677.48
591.89	673.43
592.25	672.52
592.60	667.67
592.95	665.62
593.30	663.52
593.65	660.00
594.00	656.24
594.35	659.48
594.70	655.81
595.05	653.67
595.40	651.10
595.75	647.33
596.10	645.38
596.45	642.00
596.80	639.76
597.15	637.52
597.50	634.29
597.85	632.38
598.19	630.24
598.54	627.95
598.89	624.38
599.24	621.86
599.59	617.81
599.94	615.62
600.29	613.29
600.64	610.14
600.99	608.67
601.34	606.76
601.69	597.62
602.04	595.76
602.39	593.24
602.74	591.14
603.08	589.81
603.43	587.95
603.78	585.48
604.13	583.71
604.48	582.00
604.83	581.10
605.18	579.71
605.53	580.05
605.87	581.67
606.22	585.48
606.57	590.00
606.92	595.00
607.27	600.90
607.62	606.43
607.96	612.24
608.31	616.10
608.66	620.24
609.01	624.43
609.36	627.29
609.70	630.71
610.05	633.67
610.40	636.10
610.75	638.14
611.10	639.90
611.44	641.52
611.79	641.52
612.14	641.86
612.49	640.86
612.83	638.52
613.18	634.71
613.53	629.24
613.88	622.38
614.22	614.24
614.57	606.14
614.92	597.38
615.27	589.24
615.61	582.10
615.96	575.19
616.31	568.05
616.65	562.33
617.00	556.10
617.35	550.00
617.70	544.00
618.04	538.05
618.39	533.05
618.74	528.57
619.08	524.86
619.43	520.71
619.78	517.43
620.12	514.05
620.47	511.38
620.82	508.19
621.16	504.76
621.51	503.90
621.85	500.81
622.20	499.19
622.55	495.95
622.89	493.24
623.24	491.71
623.59	489.71
623.93	487.67
624.28	485.52
624.62	486.48
624.97	486.24
625.32	484.14
625.66	482.05
626.01	480.00
626.35	478.57
626.70	476.38
627.04	474.95
627.39	473.52
627.73	472.76
628.08	470.90
628.43	469.71
628.77	466.76
629.12	465.19
629.46	462.95
629.81	461.38
630.15	459.33
630.50	456.57
630.84	454.29
631.19	452.24
631.53	450.00
631.88	444.62
632.22	440.57
632.57	439.19
632.91	437.33
633.26	434.76
633.60	432.33
633.95	430.00
634.29	427.38
634.64	424.67
634.98	421.19
635.32	419.48
635.67	417.24
636.01	414.43
636.36	412.14
636.70	410.71
637.05	408.57
637.39	406.90
637.73	405.10
638.08	404.19
638.42	402.05
638.77	400.86
639.11	399.14
639.45	397.10
639.80	395.38
640.14	393.57
640.49	391.90
640.83	389.86
641.17	388.62
641.52	387.19
641.86	386.00
642.20	386.10
642.55	384.24
642.89	382.90
643.23	382.52
643.58	382.38
643.92	379.95
644.26	379.29
644.61	378.76
644.95	377.95
645.29	376.14
645.64	376.00
645.98	375.05
646.32	375.10
646.66	374.33
647.01	372.95
647.35	372.19
647.69	372.05
648.04	371.62
648.38	370.86
648.72	370.05
649.06	368.57
649.41	366.10
649.75	365.05
650.09	364.95
650.43	363.33
650.78	361.71
651.12	361.24
651.46	360.10
651.80	358.67
652.14	356.95
652.49	356.76
652.83	354.81
653.17	353.71
653.51	351.43
653.85	350.90
654.20	349.67
654.54	348.57
654.88	346.81
655.22	345.71
655.56	344.43
655.90	343.29
656.25	342.57
656.59	341.86
656.93	341.29
657.27	340.57
657.61	340.00
657.95	340.00
658.29	338.90
658.64	338.95
658.98	337.71
659.32	337.00
659.66	335.48
660.00	335.00
660.34	333.71
660.68	333.71
661.02	332.62
661.36	331.95
661.70	330.95
662.05	330.00
662.39	329.81
662.73	329.95
663.07	330.71
663.41	330.52
663.75	329.43
664.09	328.95
664.43	327.62
664.77	326.90
665.11	325.29
665.45	324.76
665.79	323.81
666.13	322.95
666.47	322.10
666.81	321.86
667.15	321.29
667.49	321.33
667.83	321.38
668.17	320.76
668.51	320.24
668.85	320.19
669.19	320.90
669.53	319.14
669.87	318.00
670.21	316.05
670.55	315.10
670.89	316.00
671.23	315.19
671.57	314.86
671.91	314.38
672.25	313.67
672.58	314.43
672.92	313.14
673.26	313.00
673.60	312.90
673.94	311.95
674.28	311.67
674.62	310.76
674.96	309.76
675.30	309.29
675.64	308.67
675.97	308.14
676.31	307.24
676.65	307.48
676.99	307.43
677.33	306.52
677.67	306.14
678.01	304.52
678.34	304.00
678.68	303.67
679.02	302.95
679.36	302.81
679.70	301.10
680.04	300.67
680.37	300.29
680.71	299.33
681.05	299.10
681.39	298.29
681.73	297.76
682.06	296.81
682.40	296.38
682.74	296.81
683.08	297.33
683.42	296.48
683.75	296.38
684.09	295.62
684.43	295.67
684.77	295.10
685.10	294.57
685.44	294.19
685.78	293.43
686.12	292.81
686.45	292.10
686.79	291.38
687.13	292.00
687.46	291.52
687.80	292.05
688.14	291.67
688.48	291.10
688.81	290.90
689.15	291.43
689.49	290.90
689.82	290.38
690.16	288.43
690.50	288.10
690.83	287.48
691.17	286.76
691.51	286.43
691.84	286.33
692.18	286.10
692.52	285.62
692.85	285.33
693.19	286.05
693.52	285.95
693.86	285.90
694.20	284.90
694.53	284.71
694.87	283.95
695.21	283.05
695.54	282.86
695.88	282.14
696.21	281.14
696.55	280.86
696.88	280.10
697.22	279.76
697.56	279.81
697.89	279.05
698.23	278.95
698.56	278.52
698.90	278.57
699.23	277.95
699.57	278.00
699.90	277.52
700.24	276.29
700.58	276.33
700.91	276.43
701.25	278.29
701.58	279.00
701.92	279.71
702.25	280.43
702.59	280.57
702.92	281.05
703.26	281.43
703.59	281.81
703.93	284.29
704.26	285.48
704.60	285.95
704.93	286.57
705.26	286.90
705.60	287.33
705.93	286.95
706.27	288.00
706.60	288.71
706.94	290.38
707.27	290.95
707.61	291.43
707.94	291.57
708.27	289.86
708.61	288.71
708.94	288.24
709.28	288.33
709.61	287.71
709.94	287.38
710.28	287.00
710.61	286.52
710.95	283.57
711.28	284.05
711.61	282.67
711.95	282.38
712.28	281.33
712.61	280.67
712.95	281.33
713.28	281.38
713.61	280.33
713.95	278.33
714.28	277.71
714.61	276.29
714.95	275.33
715.28	274.10
715.61	273.81
715.95	273.38
716.28	271.95
716.61	271.71
716.95	270.67
717.28	270.05
717.61	269.29
717.94	268.76
718.28	266.52
718.61	266.19
718.94	265.48
719.27	265.14
719.61	264.52
719.94	263.57
720.27	262.14
720.60	261.33
720.94	261.05
721.27	260.67
721.60	260.90
721.93	260.67
722.27	261.95
722.60	261.76
722.93	261.24
723.26	261.52
723.59	261.14
723.93	261.48
724.26	261.76
724.59	261.29
724.92	261.38
725.25	261.95
725.59	261.95
725.92	262.00
726.25	261.81
726.58	261.81
726.91	261.38
727.24	261.95
727.57	261.67
727.91	261.38
728.24	261.43
728.57	260.71
728.90	261.05
729.23	259.67
729.56	260.43
729.89	260.29
730.22	259.86
730.55	259.62
730.89	259.57
731.22	259.10
731.55	259.38
731.88	259.29
732.21	258.90
732.54	258.57
732.87	258.14
733.20	258.05
733.53	257.90
733.86	258.33
734.19	257.52
734.52	258.00
734.85	259.57
735.18	259.24
735.51	260.05
735.84	259.90
736.17	260.67
736.50	259.38
736.83	262.24
737.16	262.05
737.49	262.24
737.82	261.52
738.15	261.48
738.48	261.38
738.81	261.29
739.14	260.62
739.47	260.62
739.80	260.76
740.13	260.62
740.46	260.48
740.79	259.48
741.12	259.43
741.45	258.67
741.78	257.10
742.11	257.62
742.44	256.71
742.77	256.95
743.10	256.67
743.43	256.62
743.75	253.81
744.08	257.24
744.41	256.90
744.74	256.90
745.07	256.67
745.40	257.00
745.73	257.81
746.06	258.10
746.39	258.10
746.71	257.76
747.04	257.33
747.37	257.00
747.70	257.33
748.03	257.33
748.36	257.86
748.68	257.76
749.01	256.86
749.34	256.86
749.67	256.57
750.00	256.19
750.33	258.05
750.65	258.00
750.98	254.62
751.31	254.90
751.64	254.90
751.97	255.81
752.29	255.43
752.62	254.10
752.95	253.76
753.28	253.57
753.60	253.05
753.93	253.95
754.26	253.90
754.59	253.29
754.91	252.86
755.24	252.48
755.57	252.48
755.90	252.43
756.22	252.43
756.55	252.14
756.88	251.81
757.20	250.19
757.53	249.52
757.86	249.43
758.19	249.14
758.51	249.24
758.84	248.24
759.17	248.10
759.49	248.05
759.82	249.05
760.15	249.05
760.47	249.38
760.80	248.48
761.13	248.81
761.45	249.00
761.78	248.90
762.11	249.24
762.43	248.67
762.76	248.48
763.08	248.52
763.41	248.67
763.74	248.86
764.06	248.48
764.39	248.67
764.71	248.62
765.04	248.33
765.37	248.33
765.69	247.95
766.02	247.76
766.34	247.81
766.67	247.05
767.00	247.52
767.32	248.81
767.65	250.62
767.97	250.52
768.30	250.71
768.62	250.81
768.95	250.19
769.27	250.52
769.60	250.62
769.92	250.71
770.25	249.81
770.57	249.00
770.90	249.29
771.22	249.00
771.55	249.00
771.87	249.19
772.20	249.05
772.52	251.14
772.85	253.95
773.17	254.48
773.50	254.24
773.82	253.62
774.15	252.33
774.47	250.62
774.80	250.52
775.12	250.24
775.45	250.38
775.77	250.67
776.09	250.52
776.42	251.00
776.74	251.33
777.07	251.52
777.39	251.71
777.72	251.38
778.04	251.24
778.36	251.00
778.69	251.10
779.01	251.19
779.33	249.10
779.66	246.33
779.98	245.67
780.31	245.86
780.63	247.19
780.95	247.62
781.28	247.48
781.60	247.00
781.92	247.10
782.25	247.00
782.57	246.95
782.89	246.86
783.22	246.43
783.54	245.81
783.86	246.19
784.19	246.00
784.51	246.76
784.83	246.76
785.16	246.48
785.48	246.19
785.80	246.00
786.12	246.24
786.45	246.29
786.77	246.81
787.09	246.62
787.42	245.62
787.74	245.52
788.06	245.52
788.38	245.57
788.71	245.14
789.03	245.24
789.35	245.52
789.67	245.29
789.99	245.57
790.32	245.33
790.64	245.48
790.96	247.71
791.28	246.81
791.61	246.90
791.93	247.14
792.25	246.90
792.57	248.52
792.89	248.19
793.21	248.19
793.54	247.52
793.86	247.24
