SpectraSuite Data File
++++++++++++++++++++++++++++++++++++
Date: Wed Nov 07 18:33:12 EST 2012
User: group
Dark Spectrum Present: No
Reference Spectrum Present: No
Number of Sampled Component Spectra: 1
Spectrometers: USB2E7196
Integration Time (usec): 1000000 (USB2E7196)
Spectra Averaged: 1 (USB2E7196)
Boxcar Smoothing: 10 (USB2E7196)
Correct for Electrical Dark: No (USB2E7196)
Strobe/Lamp Enabled: No (USB2E7196)
Correct for Detector Non-linearity: No (USB2E7196)
Correct for Stray Light: No (USB2E7196)
Number of Pixels in Processed Spectrum: 2048
>>>>>Begin Processed Spectral Data<<<<<
339.09	0.00
339.48	221.00
339.86	218.00
340.24	219.00
340.63	217.00
341.01	265.00
341.39	226.00
341.78	231.00
342.16	233.00
342.54	231.00
342.93	221.10
343.31	232.14
343.69	233.00
344.07	233.57
344.46	234.62
344.84	235.57
345.22	234.24
345.60	234.86
345.99	235.14
346.37	235.38
346.75	235.33
347.13	235.48
347.52	235.81
347.90	236.86
348.28	237.05
348.66	237.86
349.05	237.67
349.43	238.43
349.81	238.62
350.19	238.67
350.57	238.48
350.96	239.29
351.34	239.62
351.72	239.43
352.10	239.57
352.48	239.14
352.87	239.00
353.25	238.86
353.63	238.76
354.01	238.62
354.39	238.86
354.77	239.24
355.15	239.90
355.54	239.43
355.92	238.67
356.30	238.62
356.68	239.95
357.06	240.00
357.44	239.24
357.82	239.10
358.20	239.57
358.58	240.00
358.97	239.86
359.35	240.19
359.73	241.05
360.11	241.24
360.49	241.67
360.87	241.67
361.25	242.14
361.63	243.10
362.01	243.43
362.39	243.29
362.77	243.48
363.15	242.90
363.53	243.14
363.91	243.19
364.29	243.14
364.67	240.62
365.05	240.81
365.43	240.95
365.81	241.29
366.19	242.14
366.57	242.90
366.95	242.48
367.33	241.95
367.71	241.38
368.09	241.81
368.47	241.52
368.85	241.33
369.23	241.62
369.61	240.43
369.99	241.29
370.37	241.43
370.75	242.43
371.13	242.33
371.51	241.86
371.89	242.29
372.27	242.33
372.65	242.38
373.03	242.67
373.41	242.71
373.78	242.33
374.16	241.05
374.54	240.10
374.92	240.10
375.30	240.24
375.68	239.95
376.06	240.14
376.44	239.86
376.82	240.33
377.19	240.48
377.57	240.57
377.95	239.67
378.33	239.38
378.71	237.76
379.09	238.14
379.47	238.90
379.84	238.19
380.22	237.90
380.60	237.71
380.98	237.19
381.36	236.90
381.73	236.81
382.11	237.76
382.49	237.67
382.87	237.43
383.25	237.43
383.62	240.05
384.00	239.14
384.38	239.71
384.76	239.95
385.13	240.52
385.51	240.38
385.89	240.10
386.27	240.10
386.64	240.76
387.02	240.57
387.40	240.33
387.78	241.10
388.15	241.24
388.53	241.00
388.91	241.10
389.29	241.14
389.66	241.43
390.04	240.86
390.42	241.52
390.79	241.81
391.17	241.90
391.55	239.38
391.92	239.57
392.30	239.81
392.68	239.33
393.05	239.62
393.43	239.33
393.81	239.48
394.18	239.14
394.56	239.10
394.94	239.57
395.31	239.24
395.69	239.57
396.06	240.24
396.44	240.62
396.82	240.24
397.19	241.57
397.57	241.29
397.95	241.67
398.32	241.05
398.70	241.33
399.07	241.67
399.45	241.57
399.82	241.76
400.20	241.14
400.58	241.19
400.95	239.95
401.33	241.19
401.70	242.67
402.08	243.10
402.45	243.43
402.83	244.05
403.20	244.62
403.58	244.62
403.95	245.05
404.33	245.67
404.71	246.48
405.08	248.10
405.46	248.24
405.83	248.86
406.21	249.10
406.58	249.33
406.96	249.62
407.33	250.38
407.70	251.14
408.08	253.90
408.45	255.05
408.83	256.14
409.20	256.33
409.58	255.86
409.95	256.86
410.33	257.95
410.70	257.86
411.08	258.86
411.45	260.00
411.82	260.57
412.20	262.57
412.57	264.67
412.95	263.95
413.32	266.24
413.69	267.38
414.07	269.38
414.44	271.33
414.82	273.71
415.19	276.10
415.56	278.29
415.94	279.19
416.31	282.24
416.68	285.19
417.06	288.81
417.43	292.33
417.81	296.14
418.18	299.62
418.55	303.62
418.93	308.33
419.30	312.52
419.67	317.33
420.04	321.52
420.42	326.19
420.79	333.62
421.16	339.67
421.54	346.95
421.91	353.29
422.28	359.90
422.66	366.29
423.03	375.05
423.40	382.33
423.77	389.62
424.15	396.86
424.52	404.81
424.89	413.29
425.26	421.57
425.64	429.00
426.01	437.33
426.38	446.38
426.75	456.10
427.13	465.76
427.50	475.10
427.87	484.90
428.24	495.00
428.61	503.24
428.99	514.67
429.36	525.00
429.73	536.24
430.10	547.57
430.47	559.57
430.85	570.05
431.22	582.33
431.59	598.76
431.96	612.33
432.33	625.95
432.70	640.10
433.08	656.52
433.45	672.52
433.82	688.33
434.19	705.48
434.56	720.71
434.93	735.38
435.30	751.52
435.68	769.10
436.05	785.81
436.42	802.29
436.79	816.90
437.16	833.52
437.53	851.33
437.90	868.24
438.27	885.33
438.64	901.33
439.01	917.71
439.38	928.48
439.75	941.24
440.13	957.10
440.50	970.38
440.87	981.81
441.24	993.38
441.61	1005.86
441.98	1015.29
442.35	1025.67
442.72	1036.67
443.09	1048.29
443.46	1054.57
443.83	1057.95
444.20	1061.33
444.57	1064.90
444.94	1065.81
445.31	1067.10
445.68	1071.71
446.05	1070.67
446.42	1069.19
446.79	1066.57
447.16	1063.38
447.53	1060.10
447.90	1051.76
448.27	1044.43
448.64	1034.86
449.01	1027.24
449.37	1015.19
449.74	1003.52
450.11	992.19
450.48	977.48
450.85	960.43
451.22	946.71
451.59	934.19
451.96	921.57
452.33	906.95
452.70	892.67
453.07	876.29
453.43	855.95
453.80	839.71
454.17	823.48
454.54	807.90
454.91	791.95
455.28	775.95
455.65	762.14
456.02	752.19
456.38	739.14
456.75	723.67
457.12	710.76
457.49	697.90
457.86	684.14
458.23	674.90
458.59	663.71
458.96	652.19
459.33	642.19
459.70	632.38
460.07	624.00
460.43	615.19
460.80	606.76
461.17	599.38
461.54	592.00
461.91	584.19
462.27	576.24
462.64	570.48
463.01	564.10
463.38	557.90
463.74	546.76
464.11	540.10
464.48	535.00
464.85	529.33
465.21	525.38
465.58	520.43
465.95	513.81
466.32	509.90
466.68	505.14
467.05	500.76
467.42	495.95
467.78	490.90
468.15	486.57
468.52	482.90
468.88	478.10
469.25	473.52
469.62	470.71
469.98	467.38
470.35	464.29
470.72	461.52
471.08	457.14
471.45	454.95
471.82	452.86
472.18	450.14
472.55	448.05
472.92	444.81
473.28	442.57
473.65	440.29
474.02	437.48
474.38	436.05
474.75	434.14
475.11	432.19
475.48	430.90
475.85	428.90
476.21	426.52
476.58	425.81
476.94	424.76
477.31	423.52
477.67	422.62
478.04	421.43
478.41	420.76
478.77	422.48
479.14	421.29
479.50	420.76
479.87	420.52
480.23	420.43
480.60	420.00
480.96	419.95
481.33	421.10
481.69	421.71
482.06	421.90
482.42	422.67
482.79	423.76
483.15	424.71
483.52	426.29
483.88	427.48
484.25	428.38
484.61	429.67
484.98	430.14
485.34	432.33
485.71	433.86
486.07	435.57
486.44	435.14
486.80	437.00
487.17	438.38
487.53	440.71
487.90	442.00
488.26	444.38
488.62	446.76
488.99	448.29
489.35	449.67
489.72	451.52
490.08	453.10
490.44	455.05
490.81	457.95
491.17	459.19
491.54	461.57
491.90	464.14
492.26	466.19
492.63	469.14
492.99	470.57
493.36	472.81
493.72	475.24
494.08	477.48
494.45	480.24
494.81	483.52
495.17	485.90
495.54	489.71
495.90	492.76
496.26	496.29
496.63	499.76
496.99	503.90
497.35	507.86
497.72	512.29
498.08	515.76
498.44	519.52
498.80	524.86
499.17	529.24
499.53	533.33
499.89	538.81
500.26	543.86
500.62	548.86
500.98	554.10
501.34	559.19
501.71	565.14
502.07	570.10
502.43	574.71
502.79	579.48
503.16	584.05
503.52	588.76
503.88	593.00
504.24	598.14
504.60	603.00
504.97	608.38
505.33	613.19
505.69	619.38
506.05	624.33
506.41	629.86
506.78	635.43
507.14	640.62
507.50	646.05
507.86	651.29
508.22	656.43
508.59	661.14
508.95	665.81
509.31	672.05
509.67	677.48
510.03	683.71
510.39	689.52
510.75	695.00
511.12	700.67
511.48	706.00
511.84	710.67
512.20	716.33
512.56	720.62
512.92	726.19
513.28	731.00
513.64	735.57
514.00	739.33
514.37	743.86
514.73	748.90
515.09	753.14
515.45	757.71
515.81	762.29
516.17	766.67
516.53	771.62
516.89	774.90
517.25	778.90
517.61	783.10
517.97	786.33
518.33	790.33
518.69	794.62
519.05	798.76
519.41	803.48
519.77	808.48
520.13	812.86
520.49	815.48
520.85	818.71
521.21	824.24
521.57	828.19
521.93	831.10
522.29	833.76
522.65	835.86
523.01	837.48
523.37	839.71
523.73	842.19
524.09	844.71
524.45	846.48
524.81	848.67
525.17	851.29
525.53	853.90
525.89	855.71
526.25	857.76
526.61	859.33
526.97	860.19
527.33	860.14
527.68	863.95
528.04	865.71
528.40	866.67
528.76	866.33
529.12	867.57
529.48	869.48
529.84	870.38
530.20	872.57
530.56	874.86
530.91	876.10
531.27	877.81
531.63	879.10
531.99	879.67
532.35	880.71
532.71	880.57
533.07	881.81
533.42	885.81
533.78	886.52
534.14	887.38
534.50	888.76
534.86	891.10
535.21	890.76
535.57	892.52
535.93	894.81
536.29	897.76
536.65	899.33
537.00	899.95
537.36	901.19
537.72	903.05
538.08	906.43
538.44	908.62
538.79	911.62
539.15	913.48
539.51	915.62
539.87	918.10
540.22	920.48
540.58	922.19
540.94	921.62
541.29	923.19
541.65	925.52
542.01	927.43
542.37	928.90
542.72	928.90
543.08	929.71
543.44	929.90
543.79	928.10
544.15	928.10
544.51	928.95
544.87	929.86
545.22	927.76
545.58	925.10
545.94	923.14
546.29	920.81
546.65	917.71
547.01	915.48
547.36	913.24
547.72	910.29
548.07	908.52
548.43	905.19
548.79	902.24
549.14	898.19
549.50	895.52
549.86	891.43
550.21	888.71
550.57	886.05
550.92	882.95
551.28	881.52
551.64	879.14
551.99	876.10
552.35	873.05
552.70	871.24
553.06	869.33
553.41	866.86
553.77	865.57
554.13	864.19
554.48	863.00
554.84	861.14
555.19	859.48
555.55	858.95
555.90	857.90
556.26	855.90
556.61	853.81
556.97	850.95
557.32	848.71
557.68	847.86
558.03	845.90
558.39	844.14
558.74	841.29
559.10	839.10
559.45	837.52
559.81	835.71
560.16	834.10
560.52	831.48
560.87	830.95
561.23	827.95
561.58	828.48
561.94	826.48
562.29	824.48
562.64	823.43
563.00	820.29
563.35	818.38
563.71	816.90
564.06	815.57
564.42	813.62
564.77	812.38
565.12	810.24
565.48	810.62
565.83	809.19
566.19	807.43
566.54	805.95
566.89	803.86
567.25	803.48
567.60	804.14
567.96	805.48
568.31	805.24
568.66	805.10
569.02	801.76
569.37	800.19
569.72	798.90
570.08	797.14
570.43	795.19
570.78	793.10
571.14	792.00
571.49	791.62
571.84	790.90
572.20	789.57
572.55	788.10
572.90	784.43
573.26	783.19
573.61	782.48
573.96	781.43
574.31	780.48
574.67	779.10
575.02	776.05
575.37	773.38
575.72	770.43
576.08	767.81
576.43	766.95
576.78	765.33
577.13	763.48
577.49	762.05
577.84	760.71
578.19	759.57
578.54	758.38
578.90	757.10
579.25	756.29
579.60	754.90
579.95	753.10
580.30	752.05
580.66	750.81
581.01	749.19
581.36	747.76
581.71	746.52
582.06	745.52
582.42	743.48
582.77	741.00
583.12	740.29
583.47	738.48
583.82	737.05
584.17	736.57
584.53	735.48
584.88	733.67
585.23	732.81
585.58	730.62
585.93	727.81
586.28	725.57
586.63	723.76
586.98	722.14
587.34	720.71
587.69	717.76
588.04	715.48
588.39	712.71
588.74	709.62
589.09	707.71
589.44	703.57
589.79	701.24
590.14	697.67
590.49	694.10
590.84	690.90
591.19	687.24
591.54	683.67
591.89	680.29
592.25	678.71
592.60	674.24
592.95	672.19
593.30	670.00
593.65	666.81
594.00	662.81
594.35	666.62
594.70	663.10
595.05	660.57
595.40	657.62
595.75	654.38
596.10	651.67
596.45	648.29
596.80	645.57
597.15	642.48
597.50	639.81
597.85	637.95
598.19	635.38
598.54	632.76
598.89	630.00
599.24	627.19
599.59	623.29
599.94	621.19
600.29	618.24
600.64	616.00
600.99	614.38
601.34	612.71
601.69	603.19
602.04	600.57
602.39	598.57
602.74	596.14
603.08	594.81
603.43	593.24
603.78	590.71
604.13	589.10
604.48	587.67
604.83	587.43
605.18	586.52
605.53	587.62
605.87	589.48
606.22	593.10
606.57	597.90
606.92	603.10
607.27	609.00
607.62	614.81
607.96	620.10
608.31	624.05
608.66	628.14
609.01	631.52
609.36	635.19
609.70	638.57
610.05	641.14
610.40	643.86
610.75	645.76
611.10	648.10
611.44	649.76
611.79	650.14
612.14	649.48
612.49	648.00
612.83	644.86
613.18	640.38
613.53	634.43
613.88	627.29
614.22	619.62
614.57	610.67
614.92	601.57
615.27	593.62
615.61	586.14
615.96	578.38
616.31	571.86
616.65	566.19
617.00	559.00
617.35	552.62
617.70	546.52
618.04	541.48
618.39	535.95
618.74	530.81
619.08	526.62
619.43	523.00
619.78	519.05
620.12	515.95
620.47	512.81
620.82	509.43
621.16	506.14
621.51	504.62
621.85	502.62
622.20	501.00
622.55	498.10
622.89	495.57
623.24	493.86
623.59	491.71
623.93	489.14
624.28	487.76
624.62	488.90
624.97	488.29
625.32	485.67
625.66	483.71
626.01	482.05
626.35	480.67
626.70	478.76
627.04	478.14
627.39	477.14
627.73	476.95
628.08	475.33
628.43	474.05
628.77	470.62
629.12	468.48
629.46	466.67
629.81	464.62
630.15	462.19
630.50	459.76
630.84	457.86
631.19	455.76
631.53	453.24
631.88	448.43
632.22	444.86
632.57	443.29
632.91	441.00
633.26	438.62
633.60	435.71
633.95	433.62
634.29	430.43
634.64	427.71
634.98	424.05
635.32	422.43
635.67	420.14
636.01	418.43
636.36	416.14
636.70	414.71
637.05	412.48
637.39	410.81
637.73	409.00
638.08	407.67
638.42	405.33
638.77	404.24
639.11	402.38
639.45	400.52
639.80	398.67
640.14	397.86
640.49	396.29
640.83	394.86
641.17	393.14
641.52	391.48
641.86	390.33
642.20	390.10
642.55	388.43
642.89	387.33
643.23	385.76
643.58	385.90
643.92	383.10
644.26	381.67
644.61	381.00
644.95	379.90
645.29	378.29
645.64	378.76
645.98	377.43
646.32	377.38
646.66	376.43
647.01	375.24
647.35	374.38
647.69	373.62
648.04	373.19
648.38	372.62
648.72	371.52
649.06	369.71
649.41	368.05
649.75	367.14
650.09	367.00
650.43	366.10
650.78	363.67
651.12	362.90
651.46	362.29
651.80	361.00
652.14	359.81
652.49	359.29
652.83	356.67
653.17	355.71
653.51	353.57
653.85	352.48
654.20	351.48
654.54	349.48
654.88	347.52
655.22	345.86
655.56	344.05
655.90	343.38
656.25	342.86
656.59	342.00
656.93	340.81
657.27	339.95
657.61	338.86
657.95	338.86
658.29	338.52
658.64	338.71
658.98	337.71
659.32	337.29
659.66	335.86
660.00	335.86
660.34	335.29
660.68	335.05
661.02	334.71
661.36	333.67
661.70	332.95
662.05	332.81
662.39	332.90
662.73	333.29
663.07	333.95
663.41	333.33
663.75	331.95
664.09	331.81
664.43	330.29
664.77	329.71
665.11	328.52
665.45	327.71
665.79	326.81
666.13	326.00
666.47	325.19
666.81	324.86
667.15	323.48
667.49	322.90
667.83	322.67
668.17	321.67
668.51	321.52
668.85	321.24
669.19	321.29
669.53	320.19
669.87	319.33
670.21	317.48
670.55	316.95
670.89	317.81
671.23	316.86
671.57	316.38
671.91	316.00
672.25	315.24
672.58	315.76
672.92	314.14
673.26	313.76
673.60	313.10
673.94	312.52
674.28	312.29
674.62	311.38
674.96	310.43
675.30	309.95
675.64	309.14
675.97	308.43
676.31	307.52
676.65	307.10
676.99	306.86
677.33	305.86
677.67	305.19
678.01	303.62
678.34	302.95
678.68	302.86
679.02	302.10
679.36	301.52
679.70	299.81
680.04	299.86
680.37	299.24
680.71	298.33
681.05	297.76
681.39	297.43
681.73	297.14
682.06	296.48
682.40	295.90
682.74	295.90
683.08	296.62
683.42	295.95
683.75	296.00
684.09	295.10
684.43	295.14
684.77	294.33
685.10	294.14
685.44	293.76
685.78	293.05
686.12	292.48
686.45	292.10
686.79	291.48
687.13	291.33
687.46	291.19
687.80	291.52
688.14	291.10
688.48	290.43
688.81	289.90
689.15	290.33
689.49	289.95
689.82	289.76
690.16	288.24
690.50	287.76
690.83	286.43
691.17	285.86
691.51	285.48
691.84	285.71
692.18	285.10
692.52	284.57
692.85	284.38
693.19	285.00
693.52	284.86
693.86	284.48
694.20	284.33
694.53	284.24
694.87	283.57
695.21	282.48
695.54	282.81
695.88	282.38
696.21	281.10
696.55	280.86
696.88	280.19
697.22	279.57
697.56	279.43
697.89	279.33
698.23	278.90
698.56	278.57
698.90	278.14
699.23	277.76
699.57	277.90
699.90	277.19
700.24	276.33
700.58	276.24
700.91	276.76
701.25	278.38
701.58	279.05
701.92	280.10
702.25	281.38
702.59	281.00
702.92	281.62
703.26	282.29
703.59	282.76
703.93	285.14
704.26	285.90
704.60	286.57
704.93	286.76
705.26	287.10
705.60	287.38
705.93	287.19
706.27	288.29
706.60	289.19
706.94	290.62
707.27	290.76
707.61	291.19
707.94	291.33
708.27	289.81
708.61	288.95
708.94	288.43
709.28	287.95
709.61	287.86
709.94	287.14
710.28	286.67
710.61	285.90
710.95	283.10
711.28	284.33
711.61	283.29
711.95	283.38
712.28	282.52
712.61	281.76
712.95	282.81
713.28	282.76
713.61	281.33
713.95	279.67
714.28	278.76
714.61	277.33
714.95	276.05
715.28	274.57
715.61	273.62
715.95	272.90
716.28	272.05
716.61	271.57
716.95	270.86
717.28	270.29
717.61	269.86
717.94	269.38
718.28	266.71
718.61	266.14
718.94	265.29
719.27	265.05
719.61	264.76
719.94	263.48
720.27	261.81
720.60	261.33
720.94	261.29
721.27	261.48
721.60	262.19
721.93	262.19
722.27	262.95
722.60	263.19
722.93	262.76
723.26	262.76
723.59	262.05
723.93	262.10
724.26	261.95
724.59	261.76
724.92	262.00
725.25	262.86
725.59	262.86
725.92	263.10
726.25	263.05
726.58	263.24
726.91	262.86
727.24	263.57
727.57	263.52
727.91	262.95
728.24	262.71
728.57	261.71
728.90	261.81
729.23	260.76
729.56	261.86
729.89	261.38
730.22	261.00
730.55	261.10
730.89	261.19
731.22	260.67
731.55	260.14
731.88	259.95
732.21	259.19
732.54	258.62
732.87	258.67
733.20	258.57
733.53	258.24
733.86	258.57
734.19	257.71
734.52	257.90
734.85	259.38
735.18	258.67
735.51	259.38
735.84	259.48
736.17	260.05
736.50	258.57
736.83	261.67
737.16	261.52
737.49	261.29
737.82	260.71
738.15	261.33
738.48	261.52
738.81	261.38
739.14	261.00
739.47	261.00
739.80	260.14
740.13	260.38
740.46	260.05
740.79	259.29
741.12	258.76
741.45	258.43
741.78	257.00
742.11	258.10
742.44	257.62
742.77	257.76
743.10	257.29
743.43	256.95
743.75	254.24
744.08	257.52
744.41	257.52
744.74	257.38
745.07	256.43
745.40	256.95
745.73	257.67
746.06	257.71
746.39	258.14
746.71	257.90
747.04	257.00
747.37	256.76
747.70	257.14
748.03	257.76
748.36	258.00
748.68	258.05
749.01	256.90
749.34	256.57
749.67	256.29
750.00	256.57
750.33	258.43
750.65	258.19
750.98	254.71
751.31	254.76
751.64	255.05
751.97	256.67
752.29	256.29
752.62	254.95
752.95	254.81
753.28	254.52
753.60	254.29
753.93	255.05
754.26	255.29
754.59	254.43
754.91	253.81
755.24	253.62
755.57	253.19
755.90	253.00
756.22	252.90
756.55	252.29
756.88	251.67
757.20	249.57
757.53	248.90
757.86	248.81
758.19	248.95
758.51	248.76
758.84	247.10
759.17	246.67
759.49	246.86
759.82	247.95
760.15	247.81
760.47	248.19
760.80	247.48
761.13	248.00
761.45	247.81
761.78	248.05
762.11	247.67
762.43	247.67
762.76	247.86
763.08	248.05
763.41	248.43
763.74	248.33
764.06	248.43
764.39	248.67
764.71	248.48
765.04	248.10
765.37	247.71
765.69	247.71
766.02	247.52
766.34	247.33
766.67	246.29
767.00	246.81
767.32	247.86
767.65	249.43
767.97	248.81
768.30	249.43
768.62	249.19
768.95	248.81
769.27	248.86
769.60	249.05
769.92	248.62
770.25	248.24
770.57	247.90
770.90	248.05
771.22	247.71
771.55	248.00
771.87	248.14
772.20	248.10
772.52	250.14
772.85	253.10
773.17	253.00
773.50	252.48
773.82	251.81
774.15	250.33
774.47	248.86
774.80	248.76
775.12	248.67
775.45	248.67
775.77	248.76
776.09	248.90
776.42	249.05
776.74	249.71
777.07	249.67
777.39	249.71
777.72	249.29
778.04	249.62
778.36	249.29
778.69	249.05
779.01	249.19
779.33	247.10
779.66	244.52
779.98	244.19
780.31	244.57
780.63	245.67
780.95	246.52
781.28	246.00
781.60	245.67
781.92	245.52
782.25	245.38
782.57	245.48
782.89	245.38
783.22	245.05
783.54	244.86
783.86	244.71
784.19	244.81
784.51	245.52
784.83	245.24
785.16	245.19
785.48	245.19
785.80	245.24
786.12	245.81
786.45	245.67
786.77	245.71
787.09	245.71
787.42	244.57
787.74	244.38
788.06	244.67
788.38	244.81
788.71	244.52
789.03	244.62
789.35	245.10
789.67	244.43
789.99	244.52
790.32	244.10
790.64	244.57
790.96	246.29
791.28	245.71
791.61	245.43
791.93	245.86
792.25	245.71
792.57	247.33
792.89	246.52
793.21	246.57
793.54	246.57
793.86	246.33
