SpectraSuite Data File
++++++++++++++++++++++++++++++++++++
Date: Wed Nov 07 18:32:26 EST 2012
User: group
Dark Spectrum Present: No
Reference Spectrum Present: No
Number of Sampled Component Spectra: 1
Spectrometers: USB2E7196
Integration Time (usec): 1000000 (USB2E7196)
Spectra Averaged: 1 (USB2E7196)
Boxcar Smoothing: 10 (USB2E7196)
Correct for Electrical Dark: No (USB2E7196)
Strobe/Lamp Enabled: No (USB2E7196)
Correct for Detector Non-linearity: No (USB2E7196)
Correct for Stray Light: No (USB2E7196)
Number of Pixels in Processed Spectrum: 2048
>>>>>Begin Processed Spectral Data<<<<<
339.09	0.00
339.48	212.00
339.86	219.00
340.24	217.00
340.63	221.00
341.01	259.00
341.39	229.00
341.78	231.00
342.16	238.00
342.54	231.00
342.93	221.71
343.31	232.86
343.69	233.90
344.07	234.48
344.46	235.62
344.84	236.00
345.22	235.14
345.60	235.62
345.99	235.95
346.37	235.90
346.75	236.05
347.13	235.90
347.52	236.29
347.90	237.14
348.28	237.24
348.66	238.10
349.05	237.62
349.43	238.14
349.81	238.29
350.19	238.38
350.57	238.57
350.96	238.71
351.34	238.95
351.72	239.05
352.10	239.29
352.48	238.90
352.87	239.29
353.25	238.86
353.63	238.38
354.01	238.33
354.39	238.43
354.77	238.71
355.15	239.67
355.54	239.24
355.92	238.76
356.30	238.90
356.68	240.05
357.06	239.95
357.44	239.71
357.82	239.67
358.20	239.86
358.58	240.19
358.97	240.38
359.35	240.95
359.73	241.29
360.11	241.33
360.49	241.38
360.87	241.24
361.25	242.05
361.63	242.90
362.01	243.10
362.39	242.86
362.77	243.19
363.15	243.05
363.53	242.90
363.91	242.86
364.29	242.62
364.67	240.62
365.05	241.00
365.43	241.52
365.81	241.81
366.19	242.71
366.57	243.38
366.95	242.86
367.33	242.29
367.71	242.19
368.09	242.57
368.47	242.76
368.85	242.67
369.23	242.81
369.61	241.90
369.99	242.52
370.37	243.05
370.75	243.90
371.13	243.14
371.51	243.00
371.89	243.14
372.27	243.52
372.65	243.81
373.03	243.38
373.41	242.48
373.78	242.14
374.16	240.86
374.54	240.10
374.92	240.05
375.30	240.00
375.68	240.00
376.06	239.90
376.44	239.90
376.82	240.48
377.19	240.14
377.57	240.38
377.95	239.48
378.33	239.33
378.71	237.71
379.09	238.14
379.47	238.52
379.84	238.57
380.22	238.05
380.60	237.48
380.98	237.71
381.36	237.81
381.73	237.48
382.11	238.00
382.49	238.14
382.87	238.24
383.25	237.95
383.62	240.67
384.00	240.52
384.38	240.52
384.76	240.71
385.13	241.62
385.51	241.81
385.89	241.76
386.27	241.71
386.64	242.05
387.02	241.81
387.40	241.67
387.78	241.57
388.15	241.95
388.53	242.10
388.91	242.14
389.29	242.38
389.66	243.00
390.04	242.95
390.42	243.33
390.79	243.10
391.17	243.29
391.55	240.38
391.92	240.29
392.30	240.86
392.68	240.43
393.05	240.38
393.43	240.57
393.81	240.81
394.18	240.33
394.56	240.76
394.94	241.43
395.31	241.05
395.69	242.00
396.06	242.24
396.44	242.29
396.82	241.76
397.19	243.19
397.57	243.00
397.95	243.52
398.32	242.90
398.70	243.29
399.07	243.71
399.45	243.76
399.82	243.81
400.20	243.38
400.58	243.38
400.95	242.29
401.33	242.48
401.70	244.19
402.08	244.62
402.45	244.43
402.83	245.05
403.20	245.71
403.58	245.38
403.95	246.19
404.33	246.71
404.71	247.24
405.08	248.24
405.46	248.67
405.83	248.90
406.21	249.38
406.58	249.76
406.96	250.38
407.33	250.86
407.70	251.57
408.08	253.71
408.45	254.67
408.83	255.86
409.20	256.38
409.58	255.57
409.95	257.14
410.33	258.29
410.70	258.48
411.08	260.10
411.45	261.33
411.82	261.67
412.20	263.38
412.57	266.14
412.95	265.43
413.32	267.29
413.69	268.67
414.07	270.81
414.44	272.81
414.82	274.81
415.19	277.33
415.56	279.48
415.94	280.95
416.31	283.86
416.68	287.10
417.06	290.76
417.43	294.90
417.81	298.57
418.18	302.43
418.55	306.24
418.93	310.10
419.30	314.43
419.67	319.33
420.04	323.52
420.42	327.71
420.79	335.57
421.16	340.95
421.54	348.33
421.91	354.43
422.28	360.71
422.66	367.19
423.03	375.62
423.40	383.00
423.77	389.95
424.15	396.71
424.52	404.14
424.89	412.57
425.26	419.38
425.64	426.76
426.01	434.67
426.38	443.81
426.75	453.19
427.13	461.95
427.50	471.38
427.87	481.43
428.24	491.10
428.61	499.43
428.99	510.81
429.36	520.52
429.73	531.71
430.10	543.52
430.47	555.43
430.85	566.00
431.22	579.05
431.59	594.76
431.96	607.52
432.33	621.43
432.70	635.71
433.08	653.00
433.45	667.71
433.82	683.33
434.19	699.86
434.56	715.33
434.93	730.71
435.30	746.43
435.68	763.76
436.05	780.81
436.42	796.38
436.79	811.62
437.16	828.67
437.53	845.81
437.90	863.19
438.27	879.19
438.64	896.19
439.01	911.14
439.38	923.14
439.75	938.10
440.13	953.71
440.50	968.14
440.87	979.43
441.24	991.62
441.61	1004.90
441.98	1014.00
442.35	1026.00
442.72	1037.81
443.09	1049.57
443.46	1055.38
443.83	1059.19
444.20	1062.24
444.57	1066.19
444.94	1067.81
445.31	1068.90
445.68	1073.48
446.05	1074.52
446.42	1071.05
446.79	1069.14
447.16	1064.86
447.53	1060.95
447.90	1052.48
448.27	1043.62
448.64	1033.48
449.01	1026.14
449.37	1013.05
449.74	1001.71
450.11	989.29
450.48	973.71
450.85	957.10
451.22	944.19
451.59	931.24
451.96	920.19
452.33	904.71
452.70	889.71
453.07	874.19
453.43	853.05
453.80	836.05
454.17	820.38
454.54	804.05
454.91	789.05
455.28	773.43
455.65	758.86
456.02	748.86
456.38	736.29
456.75	720.86
457.12	708.10
457.49	695.76
457.86	681.71
458.23	671.90
458.59	660.90
458.96	649.43
459.33	639.05
459.70	628.52
460.07	620.57
460.43	611.29
460.80	602.62
461.17	595.38
461.54	587.43
461.91	580.48
462.27	573.71
462.64	566.95
463.01	560.14
463.38	554.95
463.74	544.00
464.11	538.00
464.48	532.81
464.85	527.76
465.21	523.38
465.58	518.76
465.95	512.33
466.32	508.10
466.68	503.14
467.05	498.71
467.42	494.76
467.78	489.95
468.15	486.10
468.52	482.38
468.88	478.05
469.25	474.00
469.62	470.76
469.98	467.14
470.35	463.67
470.72	460.52
471.08	456.14
471.45	453.76
471.82	451.38
472.18	448.81
472.55	446.33
472.92	443.10
473.28	440.62
473.65	438.62
474.02	436.00
474.38	434.48
474.75	433.24
475.11	431.10
475.48	429.90
475.85	428.48
476.21	426.38
476.58	424.81
476.94	424.14
477.31	422.90
477.67	421.86
478.04	421.05
478.41	420.52
478.77	422.52
479.14	421.29
479.50	420.52
479.87	420.05
480.23	419.86
480.60	419.67
480.96	419.67
481.33	421.10
481.69	421.57
482.06	421.95
482.42	422.86
482.79	423.33
483.15	423.71
483.52	424.81
483.88	425.81
484.25	427.14
484.61	427.90
484.98	429.05
485.34	430.76
485.71	432.00
486.07	433.33
486.44	432.67
486.80	433.95
487.17	434.95
487.53	437.05
487.90	439.19
488.26	442.14
488.62	444.57
488.99	445.19
489.35	446.62
489.72	448.48
490.08	450.19
490.44	451.71
490.81	454.05
491.17	455.57
491.54	457.57
491.90	460.52
492.26	463.10
492.63	465.05
492.99	467.10
493.36	470.38
493.72	473.24
494.08	476.33
494.45	480.24
494.81	484.33
495.17	487.10
495.54	489.95
495.90	492.71
496.26	495.95
496.63	499.71
496.99	503.67
497.35	507.76
497.72	511.81
498.08	516.24
498.44	520.90
498.80	525.62
499.17	529.81
499.53	533.19
499.89	537.57
500.26	542.33
500.62	547.05
500.98	552.10
501.34	556.81
501.71	561.67
502.07	566.57
502.43	571.10
502.79	575.90
503.16	581.05
503.52	585.43
503.88	590.14
504.24	595.81
504.60	600.48
504.97	605.81
505.33	610.62
505.69	616.71
506.05	620.81
506.41	626.05
506.78	632.14
507.14	637.95
507.50	643.33
507.86	649.48
508.22	655.52
508.59	659.67
508.95	664.76
509.31	670.76
509.67	675.52
510.03	679.76
510.39	684.86
510.75	690.05
511.12	695.38
511.48	700.38
511.84	704.71
512.20	710.05
512.56	714.62
512.92	719.90
513.28	723.81
513.64	729.05
514.00	733.52
514.37	737.86
514.73	742.71
515.09	747.33
515.45	751.52
515.81	754.52
516.17	759.57
516.53	763.71
516.89	766.57
517.25	770.95
517.61	776.86
517.97	780.71
518.33	784.48
518.69	789.33
519.05	793.33
519.41	797.67
519.77	802.62
520.13	806.00
520.49	808.52
520.85	812.10
521.21	817.10
521.57	819.86
521.93	821.86
522.29	825.05
522.65	827.14
523.01	829.71
523.37	832.52
523.73	834.48
524.09	837.48
524.45	840.14
524.81	842.86
525.17	844.14
525.53	846.52
525.89	848.33
526.25	849.52
526.61	851.10
526.97	852.10
527.33	852.76
527.68	856.48
528.04	858.00
528.40	859.76
528.76	859.86
529.12	861.90
529.48	864.67
529.84	864.48
530.20	867.00
530.56	868.05
530.91	869.48
531.27	871.38
531.63	872.38
531.99	872.81
532.35	873.14
532.71	874.24
533.07	876.14
533.42	880.19
533.78	880.86
534.14	882.29
534.50	883.62
534.86	885.95
535.21	885.14
535.57	887.52
535.93	887.81
536.29	890.62
536.65	891.71
537.00	892.81
537.36	895.38
537.72	896.62
538.08	898.95
538.44	902.00
538.79	903.90
539.15	905.00
539.51	908.33
539.87	911.00
540.22	913.57
540.58	915.48
540.94	915.05
541.29	917.90
541.65	919.52
542.01	922.57
542.37	923.19
542.72	923.76
543.08	923.81
543.44	925.05
543.79	922.67
544.15	923.67
544.51	924.43
544.87	923.67
545.22	922.81
545.58	921.19
545.94	918.10
546.29	916.29
546.65	915.29
547.01	912.10
547.36	909.19
547.72	906.19
548.07	902.38
548.43	899.90
548.79	896.05
549.14	892.95
549.50	888.38
549.86	883.90
550.21	881.67
550.57	879.14
550.92	876.57
551.28	875.81
551.64	873.81
551.99	870.33
552.35	866.90
552.70	863.62
553.06	861.86
553.41	859.52
553.77	859.00
554.13	857.33
554.48	856.43
554.84	854.43
555.19	851.95
555.55	853.29
555.90	850.33
556.26	848.14
556.61	845.81
556.97	844.19
557.32	843.29
557.68	841.71
558.03	839.48
558.39	836.52
558.74	834.33
559.10	830.62
559.45	828.76
559.81	827.48
560.16	826.52
560.52	824.57
560.87	824.00
561.23	820.76
561.58	820.33
561.94	817.38
562.29	815.90
562.64	815.24
563.00	810.86
563.35	810.19
563.71	808.33
564.06	806.71
564.42	804.43
564.77	802.90
565.12	801.52
565.48	802.48
565.83	802.76
566.19	801.00
566.54	800.14
566.89	798.29
567.25	798.62
567.60	798.10
567.96	798.62
568.31	798.95
568.66	798.86
569.02	795.71
569.37	794.81
569.72	793.76
570.08	792.00
570.43	790.76
570.78	788.76
571.14	788.33
571.49	787.24
571.84	786.81
572.20	786.05
572.55	783.95
572.90	780.48
573.26	778.24
573.61	776.57
573.96	775.52
574.31	775.10
574.67	773.67
575.02	771.05
575.37	767.62
575.72	764.90
576.08	762.67
576.43	761.90
576.78	760.38
577.13	759.05
577.49	757.10
577.84	756.05
578.19	755.57
578.54	754.71
578.90	754.10
579.25	752.29
579.60	751.05
579.95	749.76
580.30	749.05
580.66	748.19
581.01	747.38
581.36	745.95
581.71	744.62
582.06	744.00
582.42	743.19
582.77	742.24
583.12	740.86
583.47	739.38
583.82	737.71
584.17	737.00
584.53	736.10
584.88	735.48
585.23	734.33
585.58	731.00
585.93	727.76
586.28	725.57
586.63	724.48
586.98	721.90
587.34	720.19
587.69	717.86
588.04	715.14
588.39	712.43
588.74	709.24
589.09	706.86
589.44	701.52
589.79	699.05
590.14	695.86
590.49	692.24
590.84	688.33
591.19	685.10
591.54	681.95
591.89	677.57
592.25	676.81
592.60	672.29
592.95	670.38
593.30	668.24
593.65	665.33
594.00	661.38
594.35	665.57
594.70	662.05
595.05	658.52
595.40	655.38
595.75	652.71
596.10	650.19
596.45	647.29
596.80	645.29
597.15	642.29
597.50	639.14
597.85	637.33
598.19	635.33
598.54	632.14
598.89	628.71
599.24	626.33
599.59	621.33
599.94	619.33
600.29	616.52
600.64	614.38
600.99	612.29
601.34	610.29
601.69	600.24
602.04	598.14
602.39	595.67
602.74	594.38
603.08	592.19
603.43	591.33
603.78	589.43
604.13	587.52
604.48	585.67
604.83	585.29
605.18	584.48
605.53	584.57
605.87	586.52
606.22	590.52
606.57	595.19
606.92	599.90
607.27	604.95
607.62	610.38
607.96	616.10
608.31	620.00
608.66	624.24
609.01	628.00
609.36	631.52
609.70	635.24
610.05	637.00
610.40	639.52
610.75	640.95
611.10	642.29
611.44	643.81
611.79	644.67
612.14	644.43
612.49	642.76
612.83	640.19
613.18	636.62
613.53	630.43
613.88	623.14
614.22	615.00
614.57	607.10
614.92	598.95
615.27	590.10
615.61	582.48
615.96	575.52
616.31	569.19
616.65	563.48
617.00	556.95
617.35	551.52
617.70	545.52
618.04	540.19
618.39	534.86
618.74	530.38
619.08	525.52
619.43	521.67
619.78	517.86
620.12	515.05
620.47	511.67
620.82	508.81
621.16	506.38
621.51	505.43
621.85	503.62
622.20	501.43
622.55	498.86
622.89	496.76
623.24	494.57
623.59	491.67
623.93	489.14
624.28	487.52
624.62	488.10
624.97	487.52
625.32	485.33
625.66	483.48
626.01	481.33
626.35	479.67
626.70	477.29
627.04	476.57
627.39	474.48
627.73	473.38
628.08	471.86
628.43	469.24
628.77	466.00
629.12	462.86
629.46	460.57
629.81	458.48
630.15	456.14
630.50	453.71
630.84	452.00
631.19	449.57
631.53	447.14
631.88	441.86
632.22	438.00
632.57	436.14
632.91	433.86
633.26	431.29
633.60	429.19
633.95	427.24
634.29	423.90
634.64	421.95
634.98	419.10
635.32	416.52
635.67	415.38
636.01	413.52
636.36	411.86
636.70	410.19
637.05	408.29
637.39	406.62
637.73	405.38
638.08	404.24
638.42	401.86
638.77	400.48
639.11	398.81
639.45	397.38
639.80	395.05
640.14	393.57
640.49	392.10
640.83	390.00
641.17	388.43
641.52	386.62
641.86	385.24
642.20	384.81
642.55	383.52
642.89	382.00
643.23	381.00
643.58	380.71
643.92	379.10
644.26	378.00
644.61	377.10
644.95	375.57
645.29	374.38
645.64	374.81
645.98	373.57
646.32	373.43
646.66	372.48
647.01	371.52
647.35	371.19
647.69	370.57
648.04	370.81
648.38	370.14
648.72	369.86
649.06	368.57
649.41	366.76
649.75	365.81
650.09	365.19
650.43	363.86
650.78	362.48
651.12	361.48
651.46	360.38
651.80	359.00
652.14	357.57
652.49	356.90
652.83	355.33
653.17	354.33
653.51	352.48
653.85	351.14
654.20	350.14
654.54	348.29
654.88	346.86
655.22	344.86
655.56	343.52
655.90	342.24
656.25	341.33
656.59	340.76
656.93	340.00
657.27	339.33
657.61	338.05
657.95	337.14
658.29	336.43
658.64	336.33
658.98	335.19
659.32	334.48
659.66	333.10
660.00	332.33
660.34	331.52
660.68	330.86
661.02	330.33
661.36	329.43
661.70	328.48
662.05	327.90
662.39	328.71
662.73	328.95
663.07	329.71
663.41	329.43
663.75	328.62
664.09	328.05
664.43	326.38
664.77	326.38
665.11	325.29
665.45	324.71
665.79	324.19
666.13	323.90
666.47	323.43
666.81	323.00
667.15	321.90
667.49	321.33
667.83	321.76
668.17	320.67
668.51	320.14
668.85	320.19
669.19	320.38
669.53	318.43
669.87	316.76
670.21	314.95
670.55	314.10
670.89	314.52
671.23	313.90
671.57	313.81
671.91	313.05
672.25	312.90
672.58	313.43
672.92	312.48
673.26	312.19
673.60	311.76
673.94	311.38
674.28	311.19
674.62	311.00
674.96	310.05
675.30	310.10
675.64	309.86
675.97	308.95
676.31	307.86
676.65	307.52
676.99	307.90
677.33	306.95
677.67	306.71
678.01	304.86
678.34	304.38
678.68	304.43
679.02	303.62
679.36	302.86
679.70	301.52
680.04	301.00
680.37	300.52
680.71	299.71
681.05	299.05
681.39	298.52
681.73	297.43
682.06	296.33
682.40	295.95
682.74	295.57
683.08	296.14
683.42	295.67
683.75	295.52
684.09	294.71
684.43	294.48
684.77	293.48
685.10	293.19
685.44	292.76
685.78	291.81
686.12	291.57
686.45	291.38
686.79	290.33
687.13	290.10
687.46	289.43
687.80	289.76
688.14	289.24
688.48	289.14
688.81	289.33
689.15	289.90
689.49	289.05
689.82	289.00
690.16	287.86
690.50	287.05
690.83	286.43
691.17	285.52
691.51	285.33
691.84	285.38
692.18	285.52
692.52	285.00
692.85	284.76
693.19	285.33
693.52	284.62
693.86	284.43
694.20	284.05
694.53	284.00
694.87	282.81
695.21	282.05
695.54	281.24
695.88	280.29
696.21	279.29
696.55	279.33
696.88	278.62
697.22	278.14
697.56	278.38
697.89	277.81
698.23	278.43
698.56	278.05
698.90	278.29
699.23	277.52
699.57	277.33
699.90	276.86
700.24	275.81
700.58	275.86
700.91	276.24
701.25	278.24
701.58	278.81
701.92	280.10
702.25	281.05
702.59	281.19
702.92	281.76
703.26	282.19
703.59	282.48
703.93	285.24
704.26	286.10
704.60	286.67
704.93	287.24
705.26	287.00
705.60	287.62
705.93	287.48
706.27	288.52
706.60	289.43
706.94	291.00
707.27	291.43
707.61	292.05
707.94	292.14
708.27	289.95
708.61	289.00
708.94	288.71
709.28	288.33
709.61	288.05
709.94	287.43
710.28	286.81
710.61	286.00
710.95	282.81
711.28	283.19
711.61	281.95
711.95	281.43
712.28	280.19
712.61	279.24
712.95	279.62
713.28	279.52
713.61	278.19
713.95	276.05
714.28	275.29
714.61	273.86
714.95	272.90
715.28	272.05
715.61	271.38
715.95	270.38
716.28	269.67
716.61	269.33
716.95	268.71
717.28	268.33
717.61	267.90
717.94	267.62
718.28	265.48
718.61	265.19
718.94	264.43
719.27	264.29
719.61	264.38
719.94	262.81
720.27	261.43
720.60	261.00
720.94	260.86
721.27	260.52
721.60	260.67
721.93	260.48
722.27	261.14
722.60	261.76
722.93	261.24
723.26	261.05
723.59	260.57
723.93	260.95
724.26	260.71
724.59	260.38
724.92	260.19
725.25	260.90
725.59	260.67
725.92	261.24
726.25	260.86
726.58	260.52
726.91	260.62
727.24	260.62
727.57	260.57
727.91	260.19
728.24	260.38
728.57	260.00
728.90	260.29
729.23	259.33
729.56	259.48
729.89	259.43
730.22	259.10
730.55	259.10
730.89	258.57
731.22	258.48
731.55	258.67
731.88	258.62
732.21	258.14
732.54	257.95
732.87	257.52
733.20	257.71
733.53	257.90
733.86	258.19
734.19	257.90
734.52	258.14
734.85	259.81
735.18	259.05
735.51	259.95
735.84	259.76
736.17	260.43
736.50	259.24
736.83	262.00
737.16	261.86
737.49	261.67
737.82	261.38
738.15	261.52
738.48	261.29
738.81	260.86
739.14	260.62
739.47	260.48
739.80	260.38
740.13	260.62
740.46	259.67
740.79	259.05
741.12	259.14
741.45	258.52
741.78	257.10
742.11	258.00
742.44	257.10
742.77	257.33
743.10	256.67
743.43	256.62
743.75	253.67
744.08	256.71
744.41	256.67
744.74	256.38
745.07	255.48
745.40	255.90
745.73	257.24
746.06	257.00
746.39	257.24
746.71	256.95
747.04	256.62
747.37	256.90
747.70	257.05
748.03	256.90
748.36	257.48
748.68	257.00
749.01	256.05
749.34	256.19
749.67	255.86
750.00	256.24
750.33	257.81
750.65	258.38
750.98	255.38
751.31	255.48
751.64	255.86
751.97	257.86
752.29	257.33
752.62	256.33
752.95	256.14
753.28	255.76
753.60	255.48
753.93	255.76
754.26	255.71
754.59	254.90
754.91	254.33
755.24	253.67
755.57	253.90
755.90	254.05
756.22	253.67
756.55	253.52
756.88	252.90
757.20	251.57
757.53	250.57
757.86	250.52
758.19	250.38
758.51	250.19
758.84	248.57
759.17	248.38
759.49	248.14
759.82	249.57
760.15	249.95
760.47	250.10
760.80	249.29
761.13	249.52
761.45	249.95
761.78	250.05
762.11	250.14
762.43	250.19
762.76	250.10
763.08	250.14
763.41	250.05
763.74	249.95
764.06	249.81
764.39	250.05
764.71	249.90
765.04	249.81
765.37	249.90
765.69	250.05
766.02	250.24
766.34	250.19
766.67	248.76
767.00	249.10
767.32	250.52
767.65	252.00
767.97	251.81
768.30	252.05
768.62	251.95
768.95	251.57
769.27	251.38
769.60	251.33
769.92	251.10
770.25	250.67
770.57	250.24
770.90	250.10
771.22	249.95
771.55	249.81
771.87	249.81
772.20	249.24
772.52	251.14
772.85	253.95
773.17	253.95
773.50	254.05
773.82	253.57
774.15	252.57
774.47	251.19
774.80	250.90
775.12	250.71
775.45	250.52
775.77	250.52
776.09	250.38
776.42	250.33
776.74	251.05
777.07	251.00
777.39	251.62
777.72	251.33
778.04	251.43
778.36	251.29
778.69	251.38
779.01	251.48
779.33	249.33
779.66	246.43
779.98	246.10
780.31	246.10
780.63	246.76
780.95	246.81
781.28	246.71
781.60	246.38
781.92	246.29
782.25	246.33
782.57	247.10
782.89	247.05
783.22	246.76
783.54	246.24
783.86	246.19
784.19	245.95
784.51	246.76
784.83	246.38
785.16	246.10
785.48	245.62
785.80	245.76
786.12	245.71
786.45	245.57
786.77	245.43
787.09	245.33
787.42	244.57
787.74	244.19
788.06	244.33
788.38	244.48
788.71	244.00
789.03	244.38
789.35	244.05
789.67	243.86
789.99	244.19
790.32	243.81
790.64	244.29
790.96	245.95
791.28	244.86
791.61	244.76
791.93	245.29
792.25	245.52
792.57	247.05
792.89	246.67
793.21	246.95
793.54	247.14
793.86	246.86
