SpectraSuite Data File
++++++++++++++++++++++++++++++++++++
Date: Wed Nov 07 18:31:32 EST 2012
User: group
Dark Spectrum Present: No
Reference Spectrum Present: No
Number of Sampled Component Spectra: 1
Spectrometers: USB2E7196
Integration Time (usec): 1000000 (USB2E7196)
Spectra Averaged: 1 (USB2E7196)
Boxcar Smoothing: 10 (USB2E7196)
Correct for Electrical Dark: No (USB2E7196)
Strobe/Lamp Enabled: No (USB2E7196)
Correct for Detector Non-linearity: No (USB2E7196)
Correct for Stray Light: No (USB2E7196)
Number of Pixels in Processed Spectrum: 2048
>>>>>Begin Processed Spectral Data<<<<<
339.09	0.00
339.48	218.00
339.86	219.00
340.24	221.00
340.63	229.00
341.01	260.00
341.39	226.00
341.78	231.00
342.16	243.00
342.54	230.00
342.93	222.76
343.31	233.95
343.69	234.62
344.07	235.33
344.46	236.14
344.84	236.48
345.22	234.95
345.60	235.38
345.99	235.67
346.37	235.19
346.75	235.57
347.13	235.86
347.52	236.05
347.90	236.71
348.28	236.76
348.66	237.33
349.05	236.90
349.43	237.43
349.81	237.86
350.19	238.00
350.57	238.10
350.96	238.24
351.34	238.62
351.72	238.67
352.10	238.48
352.48	238.48
352.87	238.19
353.25	238.57
353.63	238.57
354.01	238.62
354.39	239.24
354.77	239.29
355.15	239.67
355.54	239.57
355.92	239.14
356.30	239.33
356.68	240.81
357.06	240.67
357.44	240.43
357.82	240.10
358.20	240.43
358.58	240.71
358.97	241.05
359.35	241.43
359.73	242.00
360.11	242.19
360.49	242.24
360.87	242.48
361.25	242.81
361.63	244.00
362.01	244.00
362.39	243.38
362.77	243.33
363.15	243.43
363.53	243.57
363.91	243.90
364.29	243.71
364.67	241.62
365.05	241.67
365.43	242.05
365.81	242.33
366.19	243.24
366.57	244.14
366.95	243.67
367.33	242.90
367.71	242.76
368.09	243.24
368.47	243.24
368.85	243.38
369.23	243.57
369.61	242.29
369.99	243.05
370.37	243.38
370.75	244.57
371.13	244.00
371.51	243.43
371.89	243.33
372.27	243.43
372.65	243.48
373.03	243.52
373.41	243.00
373.78	242.90
374.16	241.67
374.54	240.81
374.92	240.86
375.30	240.90
375.68	240.62
376.06	240.76
376.44	240.57
376.82	240.67
377.19	240.90
377.57	240.86
377.95	240.14
378.33	240.00
378.71	238.67
379.09	238.86
379.47	239.10
379.84	238.95
380.22	238.81
380.60	238.57
380.98	238.38
381.36	238.43
381.73	237.95
382.11	238.38
382.49	238.57
382.87	238.33
383.25	238.24
383.62	240.81
384.00	240.14
384.38	240.19
384.76	240.48
385.13	241.10
385.51	241.05
385.89	240.86
386.27	241.05
386.64	241.33
387.02	241.29
387.40	241.19
387.78	241.33
388.15	240.95
388.53	240.71
388.91	240.71
389.29	240.76
389.66	241.38
390.04	241.10
390.42	241.14
390.79	241.29
391.17	241.67
391.55	239.00
391.92	239.05
392.30	239.33
392.68	238.95
393.05	239.00
393.43	239.05
393.81	239.52
394.18	239.14
394.56	239.05
394.94	239.76
395.31	239.81
395.69	240.19
396.06	241.05
396.44	241.43
396.82	241.33
397.19	242.67
397.57	242.29
397.95	242.62
398.32	242.00
398.70	242.19
399.07	242.67
399.45	242.90
399.82	242.81
400.20	243.00
400.58	243.19
400.95	241.90
401.33	242.71
401.70	244.10
402.08	244.29
402.45	244.57
402.83	244.86
403.20	245.10
403.58	245.29
403.95	245.90
404.33	246.43
404.71	247.05
405.08	248.29
405.46	248.52
405.83	249.29
406.21	250.05
406.58	250.67
406.96	250.62
407.33	251.33
407.70	252.05
408.08	254.43
408.45	255.19
408.83	256.52
409.20	256.95
409.58	256.43
409.95	257.52
410.33	258.57
410.70	259.14
411.08	260.57
411.45	261.67
411.82	262.43
412.20	264.19
412.57	266.67
412.95	266.14
413.32	268.14
413.69	269.24
414.07	270.71
414.44	272.48
414.82	274.48
415.19	276.67
415.56	279.24
415.94	280.19
416.31	282.86
416.68	285.71
417.06	289.14
417.43	292.76
417.81	296.62
418.18	300.62
418.55	304.29
418.93	308.24
419.30	312.43
419.67	317.05
420.04	321.33
420.42	325.43
420.79	332.95
421.16	338.62
421.54	345.76
421.91	352.57
422.28	358.86
422.66	365.76
423.03	374.48
423.40	381.71
423.77	388.95
424.15	396.71
424.52	404.48
424.89	412.95
425.26	420.24
425.64	427.86
426.01	436.05
426.38	445.05
426.75	454.43
427.13	463.48
427.50	473.19
427.87	483.05
428.24	492.71
428.61	500.29
428.99	511.90
429.36	522.67
429.73	533.29
430.10	545.57
430.47	557.81
430.85	568.33
431.22	581.52
431.59	598.00
431.96	611.57
432.33	626.33
432.70	640.67
433.08	657.81
433.45	673.71
433.82	688.29
434.19	705.14
434.56	721.24
434.93	737.52
435.30	753.62
435.68	770.29
436.05	787.10
436.42	803.14
436.79	818.24
437.16	835.00
437.53	852.29
437.90	867.86
438.27	883.76
438.64	900.43
439.01	915.57
439.38	927.19
439.75	939.19
440.13	953.71
440.50	967.62
440.87	978.29
441.24	989.67
441.61	1003.38
441.98	1012.24
442.35	1022.10
442.72	1032.48
443.09	1043.62
443.46	1049.90
443.83	1053.90
444.20	1058.38
444.57	1061.71
444.94	1063.24
445.31	1064.71
445.68	1069.67
446.05	1070.00
446.42	1066.62
446.79	1064.19
447.16	1059.67
447.53	1057.24
447.90	1049.57
448.27	1041.76
448.64	1031.71
449.01	1023.71
449.37	1011.52
449.74	1000.33
450.11	989.48
450.48	973.52
450.85	956.14
451.22	942.52
451.59	929.76
451.96	917.24
452.33	901.95
452.70	886.90
453.07	870.48
453.43	850.33
453.80	833.67
454.17	818.29
454.54	802.71
454.91	786.95
455.28	771.95
455.65	757.24
456.02	746.43
456.38	734.48
456.75	721.00
457.12	707.19
457.49	694.29
457.86	680.71
458.23	672.38
458.59	662.52
458.96	651.57
459.33	641.67
459.70	631.71
460.07	624.52
460.43	615.19
460.80	606.95
461.17	599.57
461.54	592.29
461.91	584.62
462.27	576.95
462.64	570.52
463.01	562.95
463.38	557.14
463.74	546.43
464.11	539.86
464.48	533.71
464.85	528.48
465.21	525.00
465.58	520.14
465.95	513.10
466.32	508.00
466.68	503.57
467.05	499.14
467.42	494.67
467.78	489.24
468.15	485.24
468.52	481.86
468.88	477.43
469.25	472.67
469.62	470.48
469.98	467.14
470.35	464.19
470.72	461.57
471.08	457.14
471.45	455.10
471.82	453.57
472.18	450.10
472.55	448.43
472.92	444.86
473.28	442.24
473.65	440.33
474.02	438.19
474.38	436.38
474.75	434.38
475.11	431.81
475.48	430.76
475.85	429.19
476.21	427.29
476.58	426.10
476.94	424.95
477.31	423.33
477.67	422.33
478.04	421.10
478.41	420.38
478.77	422.71
479.14	421.95
479.50	420.90
479.87	421.33
480.23	421.38
480.60	421.62
480.96	422.05
481.33	423.33
481.69	423.71
482.06	425.10
482.42	426.38
482.79	428.05
483.15	429.05
483.52	430.67
483.88	432.29
484.25	433.81
484.61	435.57
484.98	436.90
485.34	439.33
485.71	441.76
486.07	443.76
486.44	443.33
486.80	444.86
487.17	446.43
487.53	449.00
487.90	450.86
488.26	453.48
488.62	456.19
488.99	457.76
489.35	459.33
489.72	460.67
490.08	462.14
490.44	463.90
490.81	466.52
491.17	468.43
491.54	470.76
491.90	473.05
492.26	474.81
492.63	477.52
492.99	478.95
493.36	481.38
493.72	483.57
494.08	486.48
494.45	489.48
494.81	493.19
495.17	495.81
495.54	499.24
495.90	501.24
496.26	504.38
496.63	508.24
496.99	511.76
497.35	515.05
497.72	519.67
498.08	523.10
498.44	526.19
498.80	530.76
499.17	534.10
499.53	537.95
499.89	542.00
500.26	546.43
500.62	550.81
500.98	555.38
501.34	559.86
501.71	564.90
502.07	569.10
502.43	573.14
502.79	576.48
503.16	580.67
503.52	586.24
503.88	589.67
504.24	594.86
504.60	600.52
504.97	606.14
505.33	610.29
505.69	616.19
506.05	620.86
506.41	625.62
506.78	631.00
507.14	635.90
507.50	642.38
507.86	647.81
508.22	653.62
508.59	658.48
508.95	664.14
509.31	669.86
509.67	675.48
510.03	680.67
510.39	686.00
510.75	690.86
511.12	695.48
511.48	701.38
511.84	705.33
512.20	709.52
512.56	714.81
512.92	719.76
513.28	724.90
513.64	729.38
514.00	734.10
514.37	738.86
514.73	743.86
515.09	748.14
515.45	751.81
515.81	755.67
516.17	759.67
516.53	762.95
516.89	765.52
517.25	769.52
517.61	774.00
517.97	778.33
518.33	783.48
518.69	787.33
519.05	791.19
519.41	794.57
519.77	800.67
520.13	802.33
520.49	805.67
520.85	807.95
521.21	812.71
521.57	815.76
521.93	818.19
522.29	820.95
522.65	822.76
523.01	825.76
523.37	827.52
523.73	829.71
524.09	832.24
524.45	834.10
524.81	835.62
525.17	837.24
525.53	839.14
525.89	839.52
526.25	841.38
526.61	841.90
526.97	843.43
527.33	843.43
527.68	847.76
528.04	849.48
528.40	851.48
528.76	852.57
529.12	852.86
529.48	855.24
529.84	856.00
530.20	858.48
530.56	859.62
530.91	862.00
531.27	863.29
531.63	865.10
531.99	866.52
532.35	868.10
532.71	868.81
533.07	869.95
533.42	874.48
533.78	875.67
534.14	877.52
534.50	879.05
534.86	881.10
535.21	880.57
535.57	883.19
535.93	884.19
536.29	887.90
536.65	890.62
537.00	892.14
537.36	895.62
537.72	898.52
538.08	903.10
538.44	906.38
538.79	911.86
539.15	916.29
539.51	921.76
539.87	925.86
540.22	930.95
540.58	936.43
540.94	939.19
541.29	945.10
541.65	950.86
542.01	957.00
542.37	960.86
542.72	964.67
543.08	964.95
543.44	967.43
543.79	965.67
544.15	967.10
544.51	968.33
544.87	968.05
545.22	966.43
545.58	963.29
545.94	960.62
546.29	956.95
546.65	952.67
547.01	947.19
547.36	944.00
547.72	939.57
548.07	934.76
548.43	928.67
548.79	921.43
549.14	914.76
549.50	908.33
549.86	901.48
550.21	896.43
550.57	893.24
550.92	887.81
551.28	885.62
551.64	881.24
551.99	877.38
552.35	872.76
552.70	868.90
553.06	865.86
553.41	863.00
553.77	861.24
554.13	858.62
554.48	857.05
554.84	854.52
555.19	851.29
555.55	850.86
555.90	848.52
556.26	846.71
556.61	843.90
556.97	840.67
557.32	838.67
557.68	836.67
558.03	834.00
558.39	832.90
558.74	829.57
559.10	827.05
559.45	824.33
559.81	823.10
560.16	821.67
560.52	819.90
560.87	818.52
561.23	815.05
561.58	814.90
561.94	812.81
562.29	810.19
562.64	809.29
563.00	805.48
563.35	804.29
563.71	802.71
564.06	801.29
564.42	799.52
564.77	797.76
565.12	796.19
565.48	797.43
565.83	796.52
566.19	795.00
566.54	793.57
566.89	792.67
567.25	792.86
567.60	793.48
567.96	794.76
568.31	795.19
568.66	795.67
569.02	793.10
569.37	792.10
569.72	791.57
570.08	790.29
570.43	788.95
570.78	787.71
571.14	786.33
571.49	785.76
571.84	784.95
572.20	783.86
572.55	783.05
572.90	779.86
573.26	778.33
573.61	777.29
573.96	777.24
574.31	775.48
574.67	772.62
575.02	770.38
575.37	766.71
575.72	764.29
576.08	762.10
576.43	761.24
576.78	760.38
577.13	758.95
577.49	758.10
577.84	756.86
578.19	755.95
578.54	755.86
578.90	754.52
579.25	754.10
579.60	753.90
579.95	752.38
580.30	751.86
580.66	751.43
581.01	750.52
581.36	748.81
581.71	747.81
582.06	748.14
582.42	747.71
582.77	746.76
583.12	744.95
583.47	743.57
583.82	742.76
584.17	741.10
584.53	740.57
584.88	738.81
585.23	737.33
585.58	735.29
585.93	732.33
586.28	730.95
586.63	729.05
586.98	727.10
587.34	725.38
587.69	722.48
588.04	719.24
588.39	717.00
588.74	714.76
589.09	713.38
589.44	709.19
589.79	704.90
590.14	701.43
590.49	697.10
590.84	693.43
591.19	689.05
591.54	685.81
591.89	681.24
592.25	679.29
592.60	675.95
592.95	672.95
593.30	670.48
593.65	667.24
594.00	663.29
594.35	665.90
594.70	662.19
595.05	658.90
595.40	655.43
595.75	652.05
596.10	649.33
596.45	645.90
596.80	643.57
597.15	640.95
597.50	637.76
597.85	636.67
598.19	634.29
598.54	632.19
598.89	629.19
599.24	627.00
599.59	623.24
599.94	620.33
600.29	617.10
600.64	614.48
600.99	612.33
601.34	610.90
601.69	602.43
602.04	599.62
602.39	596.76
602.74	595.90
603.08	594.19
603.43	593.38
603.78	590.95
604.13	588.62
604.48	587.19
604.83	586.52
605.18	585.76
605.53	586.57
605.87	588.52
606.22	593.33
606.57	599.62
606.92	606.52
607.27	614.14
607.62	621.90
607.96	629.43
608.31	634.86
608.66	639.71
609.01	644.67
609.36	649.86
609.70	655.76
610.05	658.71
610.40	662.62
610.75	664.29
611.10	667.24
611.44	669.14
611.79	669.86
612.14	670.43
612.49	669.19
612.83	666.33
613.18	662.19
613.53	655.29
613.88	646.90
614.22	637.38
614.57	627.33
614.92	617.14
615.27	607.57
615.61	598.57
615.96	590.48
616.31	582.76
616.65	575.57
617.00	567.62
617.35	560.90
617.70	554.14
618.04	547.67
618.39	541.29
618.74	536.62
619.08	532.24
619.43	528.24
619.78	524.67
620.12	521.29
620.47	518.10
620.82	515.38
621.16	512.05
621.51	510.48
621.85	507.57
622.20	506.00
622.55	502.57
622.89	500.38
623.24	498.19
623.59	495.48
623.93	492.86
624.28	490.24
624.62	490.57
624.97	488.90
625.32	486.48
625.66	485.14
626.01	482.95
626.35	481.00
626.70	478.24
627.04	477.57
627.39	475.76
627.73	474.95
628.08	473.38
628.43	470.95
628.77	467.43
629.12	464.95
629.46	462.62
629.81	460.81
630.15	458.14
630.50	455.76
630.84	453.38
631.19	451.05
631.53	449.29
631.88	444.00
632.22	440.52
632.57	439.10
632.91	435.90
633.26	433.10
633.60	430.62
633.95	428.43
634.29	424.52
634.64	422.33
634.98	418.90
635.32	416.90
635.67	415.71
636.01	414.10
636.36	412.76
636.70	410.71
637.05	408.43
637.39	406.71
637.73	404.76
638.08	403.71
638.42	401.76
638.77	399.90
639.11	398.52
639.45	396.71
639.80	394.62
640.14	393.48
640.49	392.29
640.83	390.43
641.17	389.48
641.52	388.24
641.86	387.05
642.20	386.62
642.55	384.67
642.89	382.81
643.23	381.86
643.58	381.33
643.92	379.90
644.26	379.33
644.61	378.90
644.95	378.00
645.29	376.57
645.64	376.62
645.98	375.19
646.32	374.90
646.66	374.67
647.01	373.71
647.35	372.76
647.69	372.48
648.04	372.19
648.38	371.71
648.72	370.95
649.06	369.67
649.41	368.05
649.75	366.76
650.09	366.48
650.43	365.00
650.78	363.76
651.12	362.48
651.46	361.43
651.80	360.24
652.14	358.43
652.49	358.00
652.83	356.48
653.17	355.62
653.51	353.52
653.85	352.29
654.20	350.95
654.54	349.33
654.88	347.24
655.22	345.71
655.56	344.05
655.90	343.24
656.25	342.24
656.59	341.29
656.93	340.67
657.27	340.29
657.61	339.19
657.95	338.33
658.29	337.67
658.64	337.19
658.98	336.10
659.32	335.71
659.66	334.62
660.00	333.81
660.34	333.48
660.68	333.05
661.02	332.57
661.36	331.95
661.70	331.38
662.05	330.67
662.39	330.76
662.73	330.81
663.07	331.05
663.41	330.76
663.75	329.86
664.09	329.33
664.43	328.19
664.77	327.86
665.11	326.43
665.45	325.76
665.79	325.52
666.13	324.52
666.47	323.76
666.81	323.05
667.15	321.86
667.49	321.05
667.83	321.29
668.17	320.14
668.51	319.14
668.85	318.95
669.19	319.43
669.53	318.29
669.87	316.76
670.21	315.10
670.55	314.38
670.89	314.71
671.23	314.14
671.57	313.24
671.91	312.67
672.25	312.24
672.58	312.43
672.92	310.90
673.26	310.95
673.60	310.38
673.94	309.86
674.28	309.90
674.62	309.29
674.96	308.33
675.30	307.95
675.64	308.10
675.97	307.52
676.31	306.48
676.65	305.81
676.99	306.29
677.33	305.62
677.67	305.43
678.01	304.05
678.34	303.62
678.68	303.62
679.02	303.19
679.36	302.86
679.70	301.86
680.04	301.24
680.37	300.81
680.71	300.52
681.05	300.14
681.39	299.67
681.73	299.43
682.06	298.90
682.40	298.33
682.74	297.90
683.08	298.52
683.42	298.05
683.75	298.10
684.09	297.19
684.43	297.00
684.77	296.05
685.10	296.05
685.44	295.67
685.78	295.10
686.12	294.33
686.45	293.76
686.79	293.33
687.13	293.71
687.46	292.95
687.80	293.00
688.14	292.14
688.48	291.81
688.81	291.38
689.15	291.86
689.49	291.43
689.82	291.19
690.16	289.81
690.50	289.62
690.83	288.81
691.17	287.71
691.51	287.33
691.84	287.43
692.18	286.86
692.52	286.24
692.85	286.05
693.19	286.76
693.52	286.48
693.86	285.76
694.20	284.76
694.53	284.67
694.87	283.81
695.21	283.19
695.54	282.76
695.88	281.90
696.21	280.33
696.55	280.00
696.88	279.43
697.22	278.48
697.56	278.33
697.89	277.95
698.23	278.19
698.56	277.62
698.90	277.24
699.23	276.81
699.57	276.81
699.90	276.14
700.24	274.95
700.58	275.19
700.91	275.67
701.25	277.86
701.58	278.52
701.92	279.33
702.25	280.05
702.59	280.00
702.92	280.67
703.26	281.62
703.59	282.14
703.93	284.71
704.26	285.86
704.60	286.29
704.93	286.48
705.26	286.67
705.60	287.67
705.93	287.76
706.27	288.52
706.60	289.10
706.94	290.62
707.27	290.90
707.61	291.24
707.94	290.95
708.27	289.19
708.61	288.33
708.94	287.90
709.28	287.62
709.61	287.33
709.94	287.33
710.28	286.67
710.61	286.24
710.95	283.29
711.28	284.48
711.61	283.43
711.95	283.29
712.28	282.14
712.61	281.10
712.95	281.57
713.28	282.14
713.61	280.90
713.95	279.00
714.28	278.19
714.61	276.90
714.95	276.00
715.28	274.57
715.61	273.86
715.95	273.48
716.28	272.48
716.61	271.95
716.95	270.81
717.28	270.38
717.61	269.57
717.94	269.29
718.28	266.38
718.61	265.57
718.94	264.43
719.27	264.33
719.61	264.10
719.94	262.90
720.27	260.81
720.60	260.29
720.94	260.00
721.27	260.14
721.60	260.24
721.93	259.86
722.27	260.90
722.60	261.00
722.93	260.38
723.26	260.38
723.59	260.00
723.93	260.14
724.26	259.86
724.59	259.62
724.92	259.76
725.25	261.10
725.59	261.05
725.92	261.57
726.25	261.19
726.58	260.86
726.91	260.71
727.24	261.33
727.57	261.43
727.91	261.19
728.24	260.90
728.57	260.57
728.90	261.10
729.23	260.05
729.56	260.81
729.89	260.52
730.22	260.38
730.55	260.00
730.89	259.43
731.22	259.00
731.55	258.52
731.88	257.81
732.21	256.71
732.54	256.52
732.87	256.19
733.20	256.33
733.53	256.29
733.86	256.05
734.19	255.52
734.52	255.90
734.85	257.52
735.18	256.95
735.51	257.67
735.84	257.57
736.17	258.00
736.50	256.71
736.83	259.67
737.16	259.76
737.49	259.76
737.82	259.90
738.15	260.24
738.48	260.48
738.81	260.33
739.14	259.95
739.47	259.86
739.80	259.81
740.13	260.05
740.46	259.52
740.79	259.33
741.12	259.05
741.45	258.38
741.78	257.24
742.11	258.05
742.44	257.19
742.77	257.05
743.10	256.67
743.43	256.57
743.75	254.00
744.08	256.90
744.41	256.67
744.74	256.14
745.07	255.57
745.40	255.81
745.73	257.29
746.06	257.33
746.39	257.71
746.71	257.33
747.04	256.71
747.37	256.81
747.70	257.43
748.03	257.62
748.36	258.00
748.68	257.14
749.01	256.48
749.34	256.67
749.67	256.57
750.00	256.95
750.33	258.76
750.65	258.67
750.98	255.67
751.31	256.14
751.64	256.43
751.97	257.67
752.29	257.81
752.62	256.43
752.95	256.33
753.28	255.95
753.60	255.95
753.93	256.67
754.26	256.86
754.59	255.71
754.91	255.52
755.24	255.10
755.57	255.33
755.90	255.33
756.22	254.86
756.55	254.62
756.88	254.14
757.20	252.33
757.53	251.48
757.86	251.62
758.19	251.71
758.51	251.71
758.84	250.81
759.17	250.43
759.49	250.33
759.82	251.43
760.15	251.38
760.47	251.24
760.80	250.52
761.13	250.81
761.45	250.52
761.78	250.24
762.11	250.24
762.43	250.05
762.76	249.86
763.08	250.19
763.41	250.33
763.74	249.95
764.06	249.86
764.39	250.38
764.71	249.81
765.04	249.33
765.37	248.81
765.69	248.67
766.02	248.19
766.34	248.19
766.67	246.90
767.00	247.43
767.32	248.67
767.65	250.24
767.97	250.00
768.30	250.67
768.62	250.86
768.95	250.43
769.27	250.05
769.60	250.43
769.92	249.95
770.25	249.57
770.57	249.67
770.90	249.33
771.22	248.86
771.55	248.86
771.87	249.05
772.20	249.33
772.52	251.43
772.85	254.71
773.17	254.57
773.50	254.57
773.82	254.05
774.15	253.10
774.47	251.24
774.80	250.95
775.12	250.71
775.45	250.19
775.77	250.48
776.09	250.76
776.42	250.57
776.74	251.38
777.07	251.14
777.39	250.81
777.72	250.67
778.04	250.57
778.36	250.52
778.69	250.33
779.01	249.81
779.33	247.43
779.66	244.52
779.98	244.29
780.31	244.29
780.63	245.33
780.95	245.67
781.28	245.62
781.60	245.29
781.92	244.86
782.25	245.24
782.57	245.10
782.89	244.90
783.22	244.57
783.54	243.90
783.86	244.14
784.19	244.00
784.51	244.81
784.83	245.24
785.16	245.05
785.48	244.86
785.80	245.33
786.12	245.67
786.45	245.67
786.77	245.62
787.09	245.52
787.42	244.29
787.74	244.10
788.06	244.00
788.38	243.95
788.71	244.24
789.03	244.38
789.35	244.52
789.67	244.29
789.99	244.57
790.32	244.38
790.64	244.43
790.96	246.67
791.28	246.05
791.61	245.29
791.93	245.57
792.25	245.71
792.57	247.48
792.89	246.86
793.21	246.76
793.54	246.76
793.86	246.67
