SpectraSuite Data File
++++++++++++++++++++++++++++++++++++
Date: Wed Nov 07 18:33:34 EST 2012
User: group
Dark Spectrum Present: No
Reference Spectrum Present: No
Number of Sampled Component Spectra: 1
Spectrometers: USB2E7196
Integration Time (usec): 1000000 (USB2E7196)
Spectra Averaged: 1 (USB2E7196)
Boxcar Smoothing: 10 (USB2E7196)
Correct for Electrical Dark: No (USB2E7196)
Strobe/Lamp Enabled: No (USB2E7196)
Correct for Detector Non-linearity: No (USB2E7196)
Correct for Stray Light: No (USB2E7196)
Number of Pixels in Processed Spectrum: 2048
>>>>>Begin Processed Spectral Data<<<<<
339.09	0.00
339.48	222.00
339.86	222.00
340.24	225.00
340.63	225.00
341.01	267.00
341.39	236.00
341.78	231.00
342.16	243.00
342.54	233.00
342.93	225.19
343.31	236.38
343.69	236.81
344.07	237.52
344.46	238.48
344.84	239.10
345.22	237.62
345.60	237.76
345.99	237.86
346.37	237.33
346.75	237.24
347.13	237.00
347.52	237.19
347.90	238.10
348.28	238.10
348.66	238.43
349.05	237.52
349.43	237.86
349.81	237.81
350.19	237.90
350.57	237.81
350.96	237.57
351.34	237.43
351.72	237.43
352.10	237.19
352.48	236.48
352.87	236.33
353.25	236.10
353.63	235.62
354.01	235.81
354.39	235.90
354.77	235.95
355.15	236.48
355.54	236.05
355.92	235.57
356.30	235.38
356.68	237.19
357.06	237.33
357.44	236.81
357.82	236.62
358.20	236.71
358.58	236.67
358.97	237.24
359.35	237.71
359.73	238.48
360.11	238.24
360.49	238.43
360.87	238.29
361.25	238.52
361.63	239.43
362.01	239.29
362.39	239.33
362.77	239.81
363.15	240.00
363.53	240.19
363.91	240.29
364.29	240.71
364.67	238.19
365.05	238.10
365.43	238.43
365.81	239.14
366.19	240.05
366.57	240.86
366.95	240.43
367.33	240.14
367.71	239.86
368.09	240.67
368.47	240.86
368.85	241.00
369.23	241.86
369.61	241.19
369.99	242.43
370.37	242.76
370.75	244.10
371.13	243.43
371.51	243.24
371.89	243.24
372.27	243.33
372.65	243.86
373.03	243.81
373.41	243.90
373.78	243.52
374.16	242.71
374.54	242.10
374.92	242.10
375.30	242.43
375.68	241.86
376.06	242.19
376.44	241.76
376.82	242.05
377.19	241.67
377.57	241.71
377.95	241.00
378.33	240.90
378.71	239.14
379.09	239.86
379.47	240.14
379.84	239.90
380.22	239.95
380.60	239.38
380.98	239.62
381.36	239.67
381.73	239.81
382.11	240.19
382.49	240.48
382.87	240.19
383.25	240.05
383.62	243.14
384.00	242.52
384.38	242.71
384.76	242.90
385.13	243.86
385.51	243.86
385.89	243.29
386.27	243.33
386.64	243.95
387.02	243.67
387.40	243.67
387.78	244.14
388.15	243.76
388.53	243.67
388.91	243.57
389.29	243.33
389.66	243.67
390.04	243.43
390.42	243.71
390.79	244.14
391.17	244.14
391.55	241.33
391.92	241.10
392.30	241.67
392.68	241.57
393.05	241.57
393.43	241.71
393.81	241.95
394.18	241.81
394.56	241.71
394.94	242.19
395.31	242.14
395.69	242.90
396.06	243.57
396.44	243.81
396.82	243.48
397.19	244.81
397.57	244.48
397.95	244.90
398.32	243.95
398.70	244.19
399.07	244.67
399.45	244.71
399.82	245.19
400.20	244.95
400.58	244.62
400.95	243.52
401.33	243.86
401.70	245.57
402.08	245.62
402.45	245.76
402.83	245.86
403.20	246.00
403.58	245.19
403.95	245.33
404.33	245.67
404.71	246.14
405.08	247.14
405.46	247.33
405.83	247.29
406.21	247.71
406.58	247.90
406.96	248.14
407.33	248.95
407.70	249.48
408.08	251.90
408.45	253.00
408.83	254.05
409.20	254.67
409.58	254.05
409.95	255.24
410.33	256.05
410.70	256.52
411.08	257.62
411.45	258.86
411.82	259.71
412.20	261.52
412.57	264.05
412.95	263.38
413.32	265.33
413.69	266.76
414.07	268.38
414.44	270.43
414.82	272.57
415.19	275.10
415.56	277.33
415.94	278.24
416.31	281.19
416.68	283.76
417.06	287.10
417.43	290.43
417.81	294.05
418.18	297.57
418.55	301.38
418.93	305.19
419.30	309.43
419.67	314.05
420.04	318.52
420.42	322.95
420.79	330.62
421.16	336.29
421.54	343.29
421.91	350.38
422.28	356.67
422.66	363.33
423.03	372.00
423.40	379.24
423.77	386.81
424.15	394.24
424.52	402.57
424.89	411.62
425.26	419.48
425.64	427.24
426.01	436.10
426.38	445.29
426.75	455.19
427.13	464.62
427.50	474.43
427.87	484.14
428.24	494.29
428.61	502.38
428.99	514.05
429.36	524.67
429.73	535.43
430.10	547.00
430.47	559.10
430.85	569.29
431.22	581.43
431.59	597.67
431.96	610.86
432.33	625.29
432.70	639.24
433.08	656.19
433.45	672.05
433.82	687.57
434.19	704.05
434.56	720.71
434.93	736.48
435.30	751.95
435.68	769.71
436.05	786.19
436.42	802.95
436.79	818.19
437.16	834.67
437.53	852.38
437.90	869.10
438.27	886.33
438.64	902.81
439.01	919.48
439.38	931.62
439.75	944.52
440.13	959.14
440.50	972.71
440.87	983.62
441.24	994.71
441.61	1007.33
441.98	1017.38
442.35	1027.10
442.72	1038.05
443.09	1050.24
443.46	1055.81
443.83	1059.48
444.20	1062.52
444.57	1066.57
444.94	1068.00
445.31	1068.86
445.68	1074.14
446.05	1072.52
446.42	1070.33
446.79	1068.19
447.16	1063.19
447.53	1061.05
447.90	1053.14
448.27	1044.76
448.64	1034.71
449.01	1026.76
449.37	1014.90
449.74	1001.81
450.11	990.67
450.48	974.43
450.85	957.10
451.22	943.90
451.59	930.90
451.96	918.43
452.33	902.48
452.70	888.29
453.07	872.10
453.43	851.29
453.80	835.00
454.17	818.90
454.54	802.62
454.91	787.24
455.28	771.00
455.65	756.29
456.02	747.14
456.38	734.76
456.75	720.57
457.12	707.76
457.49	695.57
457.86	681.24
458.23	673.71
458.59	663.38
458.96	651.86
459.33	642.33
459.70	632.90
460.07	625.24
460.43	615.90
460.80	608.00
461.17	600.29
461.54	593.29
461.91	585.95
462.27	578.33
462.64	571.67
463.01	564.71
463.38	559.48
463.74	547.62
464.11	541.38
464.48	535.76
464.85	529.62
465.21	526.67
465.58	522.33
465.95	515.24
466.32	510.52
466.68	506.10
467.05	501.00
467.42	496.48
467.78	491.57
468.15	487.67
468.52	484.05
468.88	480.00
469.25	475.00
469.62	471.95
469.98	468.62
470.35	465.43
470.72	462.29
471.08	457.76
471.45	455.62
471.82	453.29
472.18	450.10
472.55	448.05
472.92	444.05
473.28	441.43
473.65	438.90
474.02	436.24
474.38	434.67
474.75	433.24
475.11	430.76
475.48	429.14
475.85	427.57
476.21	425.67
476.58	424.71
476.94	423.86
477.31	422.52
477.67	421.00
478.04	420.29
478.41	419.71
478.77	421.90
479.14	421.33
479.50	421.10
479.87	421.19
480.23	420.71
480.60	420.76
480.96	421.05
481.33	421.90
481.69	422.62
482.06	422.67
482.42	423.90
482.79	424.90
483.15	425.76
483.52	427.14
483.88	428.14
484.25	428.81
484.61	430.10
484.98	431.19
485.34	433.62
485.71	435.10
486.07	436.90
486.44	435.52
486.80	436.62
487.17	438.00
487.53	440.00
487.90	442.38
488.26	445.14
488.62	446.67
488.99	448.05
489.35	449.86
489.72	452.14
490.08	453.48
490.44	455.38
490.81	457.48
491.17	458.29
491.54	460.52
491.90	463.19
492.26	465.81
492.63	468.10
492.99	469.86
493.36	472.62
493.72	475.48
494.08	478.33
494.45	481.52
494.81	484.43
495.17	487.19
495.54	490.62
495.90	493.14
496.26	496.95
496.63	500.76
496.99	504.14
497.35	507.29
497.72	511.90
498.08	515.90
498.44	520.19
498.80	525.57
499.17	530.00
499.53	534.05
499.89	539.19
500.26	544.10
500.62	549.33
500.98	554.33
501.34	558.90
501.71	565.19
502.07	570.33
502.43	575.38
502.79	580.38
503.16	584.95
503.52	589.86
503.88	594.10
504.24	599.76
504.60	605.48
504.97	611.38
505.33	615.86
505.69	621.57
506.05	626.62
506.41	631.71
506.78	636.48
507.14	641.62
507.50	646.48
507.86	651.43
508.22	656.19
508.59	661.14
508.95	666.76
509.31	672.29
509.67	677.62
510.03	682.76
510.39	687.57
510.75	693.14
511.12	699.38
511.48	704.67
511.84	709.48
512.20	714.33
512.56	719.05
512.92	724.67
513.28	729.62
513.64	734.29
514.00	738.43
514.37	743.62
514.73	748.62
515.09	752.38
515.45	757.19
515.81	761.86
516.17	765.86
516.53	769.19
516.89	772.43
517.25	776.90
517.61	781.81
517.97	786.76
518.33	790.33
518.69	794.43
519.05	798.76
519.41	802.24
519.77	806.81
520.13	810.57
520.49	813.38
520.85	816.67
521.21	820.95
521.57	824.90
521.93	827.57
522.29	831.14
522.65	833.86
523.01	836.95
523.37	839.19
523.73	842.24
524.09	844.95
524.45	846.95
524.81	848.71
525.17	850.24
525.53	852.00
525.89	853.67
526.25	855.14
526.61	856.71
526.97	858.19
527.33	858.62
527.68	861.81
528.04	863.24
528.40	864.48
528.76	866.05
529.12	866.81
529.48	867.67
529.84	868.43
530.20	871.10
530.56	872.62
530.91	874.90
531.27	876.71
531.63	878.24
531.99	880.14
532.35	881.57
532.71	882.19
533.07	882.76
533.42	886.95
533.78	887.67
534.14	889.29
534.50	890.57
534.86	892.90
535.21	892.05
535.57	894.38
535.93	895.38
536.29	897.33
536.65	899.10
537.00	900.76
537.36	902.19
537.72	902.62
538.08	904.38
538.44	905.29
538.79	907.05
539.15	908.43
539.51	909.86
539.87	911.81
540.22	914.24
540.58	916.76
540.94	916.95
541.29	918.71
541.65	920.48
542.01	923.10
542.37	923.81
542.72	925.10
543.08	925.00
543.44	925.48
543.79	924.24
544.15	923.62
544.51	924.86
544.87	924.76
545.22	924.38
545.58	922.86
545.94	921.62
546.29	919.33
546.65	917.52
547.01	915.14
547.36	912.76
547.72	909.81
548.07	907.24
548.43	903.90
548.79	900.67
549.14	896.67
549.50	893.38
549.86	889.86
550.21	887.29
550.57	884.62
550.92	881.67
551.28	880.00
551.64	877.86
551.99	875.10
552.35	871.71
552.70	869.10
553.06	867.81
553.41	866.43
553.77	866.62
554.13	864.95
554.48	863.00
554.84	861.24
555.19	861.24
555.55	861.38
555.90	859.52
556.26	858.00
556.61	856.43
556.97	853.90
557.32	852.57
557.68	851.24
558.03	849.48
558.39	848.24
558.74	845.86
559.10	843.90
559.45	841.81
559.81	840.81
560.16	839.05
560.52	835.95
560.87	832.95
561.23	829.24
561.58	828.86
561.94	827.38
562.29	824.86
562.64	822.24
563.00	818.19
563.35	816.48
563.71	815.24
564.06	813.95
564.42	812.48
564.77	811.14
565.12	809.48
565.48	810.57
565.83	809.38
566.19	808.00
566.54	807.48
566.89	805.76
567.25	804.95
567.60	805.29
567.96	806.71
568.31	807.95
568.66	808.05
569.02	805.43
569.37	803.86
569.72	802.76
570.08	801.00
570.43	800.24
570.78	798.62
571.14	797.05
571.49	795.67
571.84	794.33
572.20	792.48
572.55	791.48
572.90	787.38
573.26	786.10
573.61	783.71
573.96	781.90
574.31	780.95
574.67	779.29
575.02	777.67
575.37	774.00
575.72	770.38
576.08	767.76
576.43	766.67
576.78	765.62
577.13	764.43
577.49	763.24
577.84	761.90
578.19	760.14
578.54	759.48
578.90	758.19
579.25	757.86
579.60	757.33
579.95	755.48
580.30	755.14
580.66	753.81
581.01	752.52
581.36	751.10
581.71	749.33
582.06	748.86
582.42	746.19
582.77	744.62
583.12	743.76
583.47	741.90
583.82	740.90
584.17	739.19
584.53	739.10
584.88	738.00
585.23	736.76
585.58	735.00
585.93	732.05
586.28	731.05
586.63	728.14
586.98	726.33
587.34	724.05
587.69	721.00
588.04	718.38
588.39	716.52
588.74	713.95
589.09	712.19
589.44	707.38
589.79	705.67
590.14	703.33
590.49	699.76
590.84	696.90
591.19	693.33
591.54	691.05
591.89	685.76
592.25	684.33
592.60	680.67
592.95	678.24
593.30	674.90
593.65	671.43
594.00	668.14
594.35	671.38
594.70	668.38
595.05	665.19
595.40	662.38
595.75	659.10
596.10	656.43
596.45	653.00
596.80	651.05
597.15	647.81
597.50	643.76
597.85	642.43
598.19	640.29
598.54	637.14
598.89	633.19
599.24	631.57
599.59	626.95
599.94	623.81
600.29	620.81
600.64	619.19
600.99	617.19
601.34	615.29
601.69	605.95
602.04	603.24
602.39	601.10
602.74	599.19
603.08	597.05
603.43	595.62
603.78	593.14
604.13	590.81
604.48	589.00
604.83	588.81
605.18	587.67
605.53	587.14
605.87	589.19
606.22	592.81
606.57	597.14
606.92	601.38
607.27	607.00
607.62	613.00
607.96	618.38
608.31	621.62
608.66	625.81
609.01	629.38
609.36	633.14
609.70	637.14
610.05	640.00
610.40	643.10
610.75	644.38
611.10	646.33
611.44	648.24
611.79	648.57
612.14	648.00
612.49	645.95
612.83	644.00
613.18	639.90
613.53	634.38
613.88	627.14
614.22	620.19
614.57	612.19
614.92	602.76
615.27	594.62
615.61	587.52
615.96	580.10
616.31	573.10
616.65	567.62
617.00	561.33
617.35	554.90
617.70	548.76
618.04	543.71
618.39	538.48
618.74	533.86
619.08	529.81
619.43	526.62
619.78	523.10
620.12	519.90
620.47	516.52
620.82	513.19
621.16	510.43
621.51	508.81
621.85	505.71
622.20	504.10
622.55	501.10
622.89	498.67
623.24	496.76
623.59	494.19
623.93	491.81
624.28	489.00
624.62	489.10
624.97	488.43
625.32	486.00
625.66	484.19
626.01	481.76
626.35	480.00
626.70	478.48
627.04	477.52
627.39	475.43
627.73	474.90
628.08	473.62
628.43	471.76
628.77	468.90
629.12	467.05
629.46	465.05
629.81	463.29
630.15	461.14
630.50	458.33
630.84	456.48
631.19	453.76
631.53	451.33
631.88	446.33
632.22	442.67
632.57	441.19
632.91	438.95
633.26	436.86
633.60	434.24
633.95	430.76
634.29	427.29
634.64	425.19
634.98	421.38
635.32	419.57
635.67	417.81
636.01	415.52
636.36	413.52
636.70	412.14
637.05	409.95
637.39	408.24
637.73	407.19
638.08	406.14
638.42	404.29
638.77	403.48
639.11	402.38
639.45	401.05
639.80	398.67
640.14	396.95
640.49	395.48
640.83	394.05
641.17	393.14
641.52	392.10
641.86	390.57
642.20	390.95
642.55	389.10
642.89	388.05
643.23	386.76
643.58	387.19
643.92	385.24
644.26	384.24
644.61	383.29
644.95	381.95
645.29	381.00
645.64	380.86
645.98	379.76
646.32	379.76
646.66	378.43
647.01	377.52
647.35	377.24
647.69	376.62
648.04	376.05
648.38	375.00
648.72	374.00
649.06	373.00
649.41	371.00
649.75	370.19
650.09	369.43
650.43	368.86
650.78	366.52
651.12	365.33
651.46	364.48
651.80	363.33
652.14	361.52
652.49	360.67
652.83	358.57
653.17	357.24
653.51	355.00
653.85	354.24
654.20	353.43
654.54	351.52
654.88	349.62
655.22	348.43
655.56	347.05
655.90	346.67
656.25	345.52
656.59	344.67
656.93	343.90
657.27	343.33
657.61	342.19
657.95	341.57
658.29	341.05
658.64	340.71
658.98	339.90
659.32	339.33
659.66	338.52
660.00	338.43
660.34	337.38
660.68	336.67
661.02	335.86
661.36	334.71
661.70	334.10
662.05	333.95
662.39	333.95
662.73	334.24
663.07	334.81
663.41	334.33
663.75	333.52
664.09	332.90
664.43	331.29
664.77	330.48
665.11	329.43
665.45	328.76
665.79	327.76
666.13	326.76
666.47	326.10
666.81	325.29
667.15	324.05
667.49	323.95
667.83	324.43
668.17	323.57
668.51	322.95
668.85	322.86
669.19	322.90
669.53	321.19
669.87	319.62
670.21	317.81
670.55	317.14
670.89	317.86
671.23	317.38
671.57	316.90
671.91	316.38
672.25	315.95
672.58	316.43
672.92	315.43
673.26	315.29
673.60	314.95
673.94	313.95
674.28	313.38
674.62	312.62
674.96	311.19
675.30	311.14
675.64	311.05
675.97	310.10
676.31	308.71
676.65	308.19
676.99	308.57
677.33	307.43
677.67	306.67
678.01	304.86
678.34	304.10
678.68	304.29
679.02	303.29
679.36	302.76
679.70	301.38
680.04	300.95
680.37	300.29
680.71	299.38
681.05	298.95
681.39	298.24
681.73	297.29
682.06	296.71
682.40	296.05
682.74	295.57
683.08	296.24
683.42	296.00
683.75	296.24
684.09	294.81
684.43	294.43
684.77	294.14
685.10	293.90
685.44	293.67
685.78	292.81
686.12	292.86
686.45	292.57
686.79	291.81
687.13	291.76
687.46	291.29
687.80	291.48
688.14	291.24
688.48	291.29
688.81	291.33
689.15	291.71
689.49	290.95
689.82	290.67
690.16	288.95
690.50	288.48
690.83	287.67
691.17	287.19
691.51	287.10
691.84	286.86
692.18	286.29
692.52	285.86
692.85	285.86
693.19	286.10
693.52	285.52
693.86	285.14
694.20	285.05
694.53	284.76
694.87	283.90
695.21	283.19
695.54	282.67
695.88	281.90
696.21	280.71
696.55	280.71
696.88	280.57
697.22	280.33
697.56	280.43
697.89	279.57
698.23	279.86
698.56	279.43
698.90	279.67
699.23	279.24
699.57	278.90
699.90	278.05
700.24	277.62
700.58	277.81
700.91	278.24
701.25	279.48
701.58	280.24
701.92	281.52
702.25	281.95
702.59	282.10
702.92	282.71
703.26	283.52
703.59	283.71
703.93	285.57
704.26	286.52
704.60	286.95
704.93	287.57
705.26	287.71
705.60	288.33
705.93	287.90
706.27	288.95
706.60	289.67
706.94	290.95
707.27	290.52
707.61	290.57
707.94	290.43
708.27	289.24
708.61	288.52
708.94	288.14
709.28	287.90
709.61	287.52
709.94	287.05
710.28	286.33
710.61	285.86
710.95	282.76
711.28	283.57
711.61	282.57
711.95	282.38
712.28	281.48
712.61	280.57
712.95	281.19
713.28	281.52
713.61	280.38
713.95	278.67
714.28	278.10
714.61	277.00
714.95	275.86
715.28	274.29
715.61	273.33
715.95	272.38
716.28	271.24
716.61	270.81
716.95	270.00
717.28	269.24
717.61	268.52
717.94	268.33
718.28	265.90
718.61	265.24
718.94	264.52
719.27	264.05
719.61	263.62
719.94	262.48
720.27	260.62
720.60	259.81
720.94	259.19
721.27	259.29
721.60	259.38
721.93	259.48
722.27	260.14
722.60	260.19
722.93	259.57
723.26	259.62
723.59	259.24
723.93	259.52
724.26	259.52
724.59	259.14
724.92	259.43
725.25	260.05
725.59	260.14
725.92	260.19
726.25	260.14
726.58	260.05
726.91	259.67
727.24	259.67
727.57	259.86
727.91	259.76
728.24	260.00
728.57	259.57
728.90	259.71
729.23	258.95
729.56	260.43
729.89	260.52
730.22	260.05
730.55	259.76
730.89	259.71
731.22	259.48
731.55	259.57
731.88	259.38
732.21	258.86
732.54	258.24
732.87	258.14
733.20	258.14
733.53	258.24
733.86	258.33
734.19	257.76
734.52	257.90
734.85	259.43
735.18	258.52
735.51	259.67
735.84	259.48
736.17	260.00
736.50	257.95
736.83	260.76
737.16	261.10
737.49	261.10
737.82	260.43
738.15	260.90
738.48	260.52
738.81	260.00
739.14	259.43
739.47	259.48
739.80	259.33
740.13	259.48
740.46	258.90
740.79	258.33
741.12	258.33
741.45	257.95
741.78	256.57
742.11	257.19
742.44	256.19
742.77	256.24
743.10	255.95
743.43	256.00
743.75	252.90
744.08	255.86
744.41	255.38
744.74	255.43
745.07	254.62
745.40	255.29
745.73	256.71
746.06	256.57
746.39	256.52
746.71	256.24
747.04	255.95
747.37	255.71
747.70	256.33
748.03	256.57
748.36	256.52
748.68	256.52
749.01	255.48
749.34	255.48
749.67	255.57
750.00	255.48
750.33	257.10
750.65	257.19
750.98	253.90
751.31	254.33
751.64	254.57
751.97	256.14
752.29	255.76
752.62	254.43
752.95	254.48
753.28	254.33
753.60	254.24
753.93	254.62
754.26	254.81
754.59	253.95
754.91	253.67
755.24	253.67
755.57	253.52
755.90	253.95
756.22	253.57
756.55	252.90
756.88	252.43
757.20	250.86
757.53	250.29
757.86	250.38
758.19	250.48
758.51	250.10
758.84	248.57
759.17	248.00
759.49	248.05
759.82	249.24
760.15	249.14
760.47	248.86
760.80	248.00
761.13	248.43
761.45	248.38
761.78	248.19
762.11	247.81
762.43	247.48
762.76	247.05
763.08	247.29
763.41	247.86
763.74	248.00
764.06	248.00
764.39	248.19
764.71	248.24
765.04	247.95
765.37	247.90
765.69	247.76
766.02	248.05
766.34	247.57
766.67	246.57
767.00	247.05
767.32	248.71
767.65	250.33
767.97	250.05
768.30	250.52
768.62	250.76
768.95	250.76
769.27	250.67
769.60	250.90
769.92	250.48
770.25	249.81
770.57	249.48
770.90	249.33
771.22	249.10
771.55	249.00
771.87	249.14
772.20	248.76
772.52	251.14
772.85	254.10
773.17	254.62
773.50	254.52
773.82	254.19
774.15	252.57
774.47	250.81
774.80	250.67
775.12	250.38
775.45	249.95
775.77	250.48
776.09	250.86
776.42	251.00
776.74	251.81
777.07	251.76
777.39	252.05
777.72	251.81
778.04	252.10
778.36	251.86
778.69	251.95
779.01	252.43
779.33	250.10
779.66	247.33
779.98	246.90
780.31	246.86
780.63	247.71
780.95	248.19
781.28	248.05
781.60	247.81
781.92	247.76
782.25	247.90
782.57	247.24
782.89	246.81
783.22	246.24
783.54	245.81
783.86	245.76
784.19	245.19
784.51	246.19
784.83	245.76
785.16	245.62
785.48	245.52
785.80	245.05
786.12	245.05
786.45	244.67
786.77	244.90
787.09	244.90
787.42	243.81
787.74	243.95
788.06	244.14
788.38	243.86
788.71	243.52
789.03	243.62
789.35	244.10
789.67	243.57
789.99	244.14
790.32	243.67
790.64	244.00
790.96	246.14
791.28	245.10
791.61	244.95
791.93	245.33
792.25	245.24
792.57	247.10
792.89	246.86
793.21	247.19
793.54	246.95
793.86	246.62
