SpectraSuite Data File
++++++++++++++++++++++++++++++++++++
Date: Wed Nov 07 18:31:19 EST 2012
User: group
Dark Spectrum Present: No
Reference Spectrum Present: No
Number of Sampled Component Spectra: 1
Spectrometers: USB2E7196
Integration Time (usec): 1000000 (USB2E7196)
Spectra Averaged: 1 (USB2E7196)
Boxcar Smoothing: 10 (USB2E7196)
Correct for Electrical Dark: No (USB2E7196)
Strobe/Lamp Enabled: No (USB2E7196)
Correct for Detector Non-linearity: No (USB2E7196)
Correct for Stray Light: No (USB2E7196)
Number of Pixels in Processed Spectrum: 2048
>>>>>Begin Processed Spectral Data<<<<<
339.09	0.00
339.48	214.00
339.86	222.00
340.24	226.00
340.63	220.00
341.01	265.00
341.39	228.00
341.78	235.00
342.16	237.00
342.54	236.00
342.93	223.10
343.31	234.10
343.69	234.86
344.07	235.05
344.46	235.62
344.84	236.24
345.22	234.71
345.60	235.05
345.99	235.14
346.37	235.10
346.75	234.76
347.13	234.71
347.52	235.14
347.90	236.05
348.28	236.33
348.66	237.29
349.05	236.38
349.43	236.86
349.81	236.90
350.19	237.10
350.57	237.19
350.96	237.62
351.34	238.00
351.72	238.10
352.10	238.67
352.48	238.52
352.87	238.57
353.25	238.81
353.63	238.81
354.01	238.76
354.39	238.86
354.77	239.19
355.15	240.00
355.54	239.86
355.92	239.00
356.30	238.86
356.68	239.90
357.06	240.38
357.44	239.90
357.82	239.95
358.20	240.33
358.58	240.14
358.97	240.14
359.35	240.71
359.73	241.33
360.11	241.29
360.49	241.71
360.87	241.86
361.25	242.14
361.63	243.29
362.01	243.52
362.39	243.62
362.77	243.81
363.15	243.62
363.53	243.14
363.91	243.29
364.29	243.19
364.67	240.90
365.05	241.19
365.43	241.67
365.81	242.24
366.19	243.14
366.57	244.43
366.95	244.19
367.33	243.29
367.71	243.38
368.09	243.81
368.47	243.67
368.85	243.67
369.23	244.00
369.61	242.81
369.99	243.52
370.37	243.62
370.75	245.10
371.13	244.67
371.51	244.76
371.89	245.00
372.27	245.43
372.65	245.76
373.03	245.48
373.41	245.14
373.78	244.76
374.16	243.43
374.54	242.29
374.92	242.00
375.30	242.43
375.68	241.76
376.06	241.86
376.44	241.43
376.82	241.43
377.19	241.00
377.57	240.90
377.95	240.38
378.33	240.10
378.71	238.48
379.09	238.90
379.47	239.19
379.84	238.95
380.22	238.19
380.60	237.86
380.98	237.86
381.36	238.05
381.73	237.43
382.11	238.05
382.49	238.95
382.87	238.81
383.25	238.71
383.62	241.57
384.00	240.90
384.38	241.19
384.76	241.71
385.13	243.00
385.51	243.19
385.89	242.62
386.27	242.81
386.64	243.00
387.02	242.43
387.40	241.95
387.78	242.24
388.15	242.67
388.53	242.52
388.91	242.57
389.29	242.38
389.66	243.05
390.04	242.62
390.42	242.57
390.79	242.76
391.17	242.76
391.55	240.10
391.92	240.19
392.30	240.24
392.68	239.43
393.05	239.00
393.43	239.14
393.81	239.52
394.18	239.57
394.56	239.67
394.94	240.48
395.31	240.71
395.69	241.48
396.06	241.81
396.44	242.00
396.82	241.67
397.19	243.05
397.57	242.86
397.95	243.33
398.32	242.48
398.70	242.71
399.07	243.33
399.45	243.19
399.82	243.62
400.20	243.48
400.58	243.95
400.95	242.90
401.33	242.86
401.70	244.48
402.08	244.62
402.45	244.48
402.83	244.90
403.20	244.76
403.58	244.29
403.95	244.67
404.33	245.14
404.71	245.71
405.08	246.90
405.46	247.24
405.83	247.43
406.21	247.71
406.58	248.38
406.96	248.43
407.33	249.38
407.70	249.81
408.08	252.24
408.45	253.38
408.83	254.76
409.20	255.71
409.58	255.14
409.95	256.19
410.33	257.33
410.70	257.67
411.08	259.29
411.45	260.67
411.82	261.52
412.20	263.38
412.57	266.43
412.95	265.62
413.32	267.33
413.69	268.67
414.07	270.67
414.44	272.43
414.82	274.76
415.19	276.95
415.56	279.10
415.94	280.38
416.31	282.90
416.68	285.33
417.06	288.71
417.43	292.57
417.81	295.76
418.18	299.76
418.55	303.76
418.93	307.90
419.30	311.76
419.67	316.48
420.04	320.33
420.42	324.24
420.79	332.24
421.16	337.76
421.54	345.14
421.91	351.52
422.28	357.95
422.66	364.19
423.03	372.86
423.40	379.67
423.77	387.00
424.15	394.14
424.52	402.33
424.89	410.81
425.26	418.38
425.64	426.43
426.01	434.05
426.38	442.71
426.75	452.33
427.13	462.43
427.50	471.86
427.87	481.76
428.24	491.81
428.61	499.90
428.99	510.86
429.36	520.71
429.73	532.00
430.10	544.29
430.47	556.52
430.85	567.19
431.22	580.38
431.59	595.62
431.96	609.00
432.33	623.33
432.70	637.10
433.08	653.57
433.45	668.90
433.82	684.57
434.19	702.33
434.56	717.95
434.93	732.05
435.30	748.48
435.68	766.86
436.05	782.24
436.42	798.57
436.79	814.19
437.16	831.38
437.53	848.43
437.90	864.24
438.27	880.57
438.64	897.52
439.01	913.71
439.38	925.81
439.75	938.57
440.13	954.29
440.50	968.19
440.87	979.14
441.24	990.24
441.61	1003.00
441.98	1010.62
442.35	1020.76
442.72	1032.62
443.09	1044.24
443.46	1048.90
443.83	1053.33
444.20	1056.76
444.57	1060.71
444.94	1062.14
445.31	1063.95
445.68	1068.38
446.05	1067.95
446.42	1064.33
446.79	1060.67
447.16	1057.48
447.53	1055.52
447.90	1047.52
448.27	1039.90
448.64	1029.38
449.01	1022.24
449.37	1010.19
449.74	998.86
450.11	988.52
450.48	973.33
450.85	955.76
451.22	942.48
451.59	930.52
451.96	917.90
452.33	903.29
452.70	888.43
453.07	870.67
453.43	850.52
453.80	835.05
454.17	820.00
454.54	804.81
454.91	788.86
455.28	772.43
455.65	757.33
456.02	747.62
456.38	736.10
456.75	721.86
457.12	709.19
457.49	696.86
457.86	682.29
458.23	673.19
458.59	662.57
458.96	651.48
459.33	641.10
459.70	631.38
460.07	623.10
460.43	613.48
460.80	605.71
461.17	598.19
461.54	590.05
461.91	582.43
462.27	574.71
462.64	568.10
463.01	561.57
463.38	555.67
463.74	543.86
464.11	537.00
464.48	531.52
464.85	525.38
465.21	521.86
465.58	517.24
465.95	510.81
466.32	505.86
466.68	501.29
467.05	497.14
467.42	492.43
467.78	487.52
468.15	483.95
468.52	481.10
468.88	476.86
469.25	472.48
469.62	469.48
469.98	465.90
470.35	462.33
470.72	459.14
471.08	455.48
471.45	453.48
471.82	451.71
472.18	448.14
472.55	446.57
472.92	442.95
473.28	440.33
473.65	437.57
474.02	435.86
474.38	434.52
474.75	431.81
475.11	429.48
475.48	427.57
475.85	426.14
476.21	424.19
476.58	423.43
476.94	422.38
477.31	420.62
477.67	419.71
478.04	419.00
478.41	418.19
478.77	419.14
479.14	418.38
479.50	417.86
479.87	417.86
480.23	417.95
480.60	417.76
480.96	418.19
481.33	419.38
481.69	419.62
482.06	420.33
482.42	421.86
482.79	422.90
483.15	424.00
483.52	425.10
483.88	425.76
484.25	426.52
484.61	427.81
484.98	429.19
485.34	431.38
485.71	433.00
486.07	435.14
486.44	435.00
486.80	436.38
487.17	437.81
487.53	440.05
487.90	442.19
488.26	445.24
488.62	447.38
488.99	448.81
489.35	450.62
489.72	451.62
490.08	453.10
490.44	454.81
490.81	457.33
491.17	459.81
491.54	462.33
491.90	465.24
492.26	467.19
492.63	469.43
492.99	471.19
493.36	474.29
493.72	476.62
494.08	479.38
494.45	482.86
494.81	486.43
495.17	489.33
495.54	491.95
495.90	494.05
496.26	497.29
496.63	500.67
496.99	503.81
497.35	507.62
497.72	511.81
498.08	515.90
498.44	519.52
498.80	523.24
499.17	526.95
499.53	530.62
499.89	536.10
500.26	540.48
500.62	545.52
500.98	549.95
501.34	554.52
501.71	560.33
502.07	564.62
502.43	568.95
502.79	573.62
503.16	578.05
503.52	583.14
503.88	588.00
504.24	592.95
504.60	597.90
504.97	603.48
505.33	608.33
505.69	614.67
506.05	619.33
506.41	624.67
506.78	630.00
507.14	634.71
507.50	639.05
507.86	644.29
508.22	649.43
508.59	654.24
508.95	660.38
509.31	665.57
509.67	671.00
510.03	675.29
510.39	680.24
510.75	685.81
511.12	690.81
511.48	695.24
511.84	700.10
512.20	705.19
512.56	710.00
512.92	714.81
513.28	718.76
513.64	723.71
514.00	727.48
514.37	732.10
514.73	736.76
515.09	741.76
515.45	746.57
515.81	750.14
516.17	754.10
516.53	756.95
516.89	759.86
517.25	763.62
517.61	769.14
517.97	772.67
518.33	776.48
518.69	780.48
519.05	784.38
519.41	787.81
519.77	792.67
520.13	795.95
520.49	798.95
520.85	801.57
521.21	806.33
521.57	809.81
521.93	812.48
522.29	815.71
522.65	816.86
523.01	818.38
523.37	820.62
523.73	823.10
524.09	825.81
524.45	828.24
524.81	830.14
525.17	831.52
525.53	833.95
525.89	834.86
526.25	836.90
526.61	838.38
526.97	839.90
527.33	841.05
527.68	844.48
528.04	846.48
528.40	848.14
528.76	847.90
529.12	849.48
529.48	851.14
529.84	851.48
530.20	853.52
530.56	855.67
530.91	858.00
531.27	859.05
531.63	860.43
531.99	861.57
532.35	862.86
532.71	863.05
533.07	863.38
533.42	868.29
533.78	869.19
534.14	871.00
534.50	872.24
534.86	873.71
535.21	872.90
535.57	874.62
535.93	874.95
536.29	878.19
536.65	880.19
537.00	882.43
537.36	885.24
537.72	888.38
538.08	891.48
538.44	893.24
538.79	897.67
539.15	899.95
539.51	902.71
539.87	906.62
540.22	910.38
540.58	914.52
540.94	914.38
541.29	917.95
541.65	920.29
542.01	923.24
542.37	924.52
542.72	925.90
543.08	926.10
543.44	927.24
543.79	925.00
544.15	924.52
544.51	923.86
544.87	922.90
545.22	921.14
545.58	919.00
545.94	917.38
546.29	913.81
546.65	910.19
547.01	906.57
547.36	902.24
547.72	898.24
548.07	894.95
548.43	890.81
548.79	885.43
549.14	880.33
549.50	877.19
549.86	872.81
550.21	869.71
550.57	866.90
550.92	864.19
551.28	863.00
551.64	860.19
551.99	857.57
552.35	854.48
552.70	851.57
553.06	849.00
553.41	846.57
553.77	845.19
554.13	843.90
554.48	842.86
554.84	840.90
555.19	838.57
555.55	838.19
555.90	836.71
556.26	834.76
556.61	833.38
556.97	830.38
557.32	828.33
557.68	826.29
558.03	824.00
558.39	822.14
558.74	818.95
559.10	817.14
559.45	815.19
559.81	814.14
560.16	812.19
560.52	810.71
560.87	808.57
561.23	806.10
561.58	806.43
561.94	803.52
562.29	801.33
562.64	800.76
563.00	796.33
563.35	794.71
563.71	793.57
564.06	791.52
564.42	790.14
564.77	789.10
565.12	787.33
565.48	787.81
565.83	786.81
566.19	785.14
566.54	783.62
566.89	782.33
567.25	781.19
567.60	781.00
567.96	781.52
568.31	781.33
568.66	780.57
569.02	776.86
569.37	775.95
569.72	774.86
570.08	773.14
570.43	772.29
570.78	770.76
571.14	769.29
571.49	768.86
571.84	767.05
572.20	765.90
572.55	764.90
572.90	761.76
573.26	759.76
573.61	758.76
573.96	757.43
574.31	755.81
574.67	753.81
575.02	751.57
575.37	748.19
575.72	745.95
576.08	743.71
576.43	742.67
576.78	740.95
577.13	740.10
577.49	738.33
577.84	737.10
578.19	735.62
578.54	734.24
578.90	732.33
579.25	731.52
579.60	730.62
579.95	729.90
580.30	728.67
580.66	727.81
581.01	727.10
581.36	725.43
581.71	723.90
582.06	724.00
582.42	722.48
582.77	721.14
583.12	719.90
583.47	718.52
583.82	716.52
584.17	714.86
584.53	713.81
584.88	712.67
585.23	711.38
585.58	709.90
585.93	707.29
586.28	705.67
586.63	703.81
586.98	701.62
587.34	698.81
587.69	696.29
588.04	694.10
588.39	691.14
588.74	688.14
589.09	686.33
589.44	682.29
589.79	679.52
590.14	675.95
590.49	672.81
590.84	669.33
591.19	666.57
591.54	663.95
591.89	660.14
592.25	659.00
592.60	654.52
592.95	651.71
593.30	649.43
593.65	646.14
594.00	642.52
594.35	645.76
594.70	642.76
595.05	640.29
595.40	637.29
595.75	634.86
596.10	632.62
596.45	629.71
596.80	626.76
597.15	624.00
597.50	621.57
597.85	620.10
598.19	617.81
598.54	615.81
598.89	613.10
599.24	610.76
599.59	606.05
599.94	603.90
600.29	601.00
600.64	599.33
600.99	597.38
601.34	595.71
601.69	587.05
602.04	584.81
602.39	582.10
602.74	580.29
603.08	577.86
603.43	576.86
603.78	574.19
604.13	571.57
604.48	570.14
604.83	568.57
605.18	566.86
605.53	566.52
605.87	568.19
606.22	571.19
606.57	574.71
606.92	578.90
607.27	583.71
607.62	588.33
607.96	593.05
608.31	596.43
608.66	599.52
609.01	601.86
609.36	604.86
609.70	608.10
610.05	610.38
610.40	612.90
610.75	613.52
611.10	615.48
611.44	617.29
611.79	617.10
612.14	617.67
612.49	615.62
612.83	613.62
613.18	608.90
613.53	603.29
613.88	596.52
614.22	589.48
614.57	581.81
614.92	574.14
615.27	566.76
615.61	560.86
615.96	554.81
616.31	549.43
616.65	544.00
617.00	538.19
617.35	532.05
617.70	526.33
618.04	521.90
618.39	517.14
618.74	513.43
619.08	510.38
619.43	506.43
619.78	504.00
620.12	501.57
620.47	499.38
620.82	496.81
621.16	494.52
621.51	493.76
621.85	491.71
622.20	490.33
622.55	487.24
622.89	484.86
623.24	482.38
623.59	480.05
623.93	478.05
624.28	476.14
624.62	477.33
624.97	476.81
625.32	474.81
625.66	472.71
626.01	470.33
626.35	468.62
626.70	466.95
627.04	465.57
627.39	463.33
627.73	462.29
628.08	461.52
628.43	459.48
628.77	456.05
629.12	454.05
629.46	451.52
629.81	449.76
630.15	447.57
630.50	445.52
630.84	443.43
631.19	440.95
631.53	438.95
631.88	434.14
632.22	430.52
632.57	428.62
632.91	426.38
633.26	424.71
633.60	421.71
633.95	419.33
634.29	416.48
634.64	414.43
634.98	411.62
635.32	409.81
635.67	408.33
636.01	407.00
636.36	405.10
636.70	403.81
637.05	401.81
637.39	399.43
637.73	398.05
638.08	397.00
638.42	395.24
638.77	393.86
639.11	392.24
639.45	391.10
639.80	389.48
640.14	388.33
640.49	386.19
640.83	384.86
641.17	383.71
641.52	382.71
641.86	381.67
642.20	381.48
642.55	379.57
642.89	378.24
643.23	376.57
643.58	376.33
643.92	374.67
644.26	373.86
644.61	373.86
644.95	372.86
645.29	371.43
645.64	371.38
645.98	370.24
646.32	370.14
646.66	368.67
647.01	367.76
647.35	367.57
647.69	367.71
648.04	368.00
648.38	367.24
648.72	366.43
649.06	365.57
649.41	363.71
649.75	362.48
650.09	361.57
650.43	360.81
650.78	358.86
651.12	357.71
651.46	356.62
651.80	355.29
652.14	353.57
652.49	352.86
652.83	351.14
653.17	349.81
653.51	348.05
653.85	347.86
654.20	346.48
654.54	344.29
654.88	342.24
655.22	340.14
655.56	338.76
655.90	337.71
656.25	336.43
656.59	335.57
656.93	334.76
657.27	334.81
657.61	333.86
657.95	334.10
658.29	333.67
658.64	333.38
658.98	332.67
659.32	332.14
659.66	331.29
660.00	330.81
660.34	330.10
660.68	329.14
661.02	327.95
661.36	327.38
661.70	326.86
662.05	326.76
662.39	327.29
662.73	327.76
663.07	328.29
663.41	328.48
663.75	327.67
664.09	327.19
664.43	326.00
664.77	325.33
665.11	324.10
665.45	323.33
665.79	323.05
666.13	322.29
666.47	321.71
666.81	321.62
667.15	320.62
667.49	320.29
667.83	320.71
668.17	319.90
668.51	318.90
668.85	318.52
669.19	318.90
669.53	317.33
669.87	315.90
670.21	314.33
670.55	312.95
670.89	313.33
671.23	312.76
671.57	312.00
671.91	311.62
672.25	311.38
672.58	311.57
672.92	309.86
673.26	309.33
673.60	309.10
673.94	308.19
674.28	307.76
674.62	307.67
674.96	306.86
675.30	306.67
675.64	306.81
675.97	306.24
676.31	304.67
676.65	304.24
676.99	304.38
677.33	303.86
677.67	303.57
678.01	301.90
678.34	301.48
678.68	301.33
679.02	300.81
679.36	299.71
679.70	298.52
680.04	298.57
680.37	298.48
680.71	297.76
681.05	297.43
681.39	296.81
681.73	295.52
682.06	295.10
682.40	294.71
682.74	294.52
683.08	295.00
683.42	294.38
683.75	294.57
684.09	293.48
684.43	293.14
684.77	292.38
685.10	292.33
685.44	291.86
685.78	291.29
686.12	290.38
686.45	289.81
686.79	289.14
687.13	289.33
687.46	288.71
687.80	288.81
688.14	288.33
688.48	288.38
688.81	288.86
689.15	288.81
689.49	288.48
689.82	288.00
690.16	287.00
690.50	286.76
690.83	285.76
691.17	284.67
691.51	284.19
691.84	284.33
692.18	283.76
692.52	283.38
692.85	283.24
693.19	284.33
693.52	284.14
693.86	284.14
694.20	283.19
694.53	283.14
694.87	282.67
695.21	281.95
695.54	281.86
695.88	280.57
696.21	279.19
696.55	279.00
696.88	278.48
697.22	277.81
697.56	277.86
697.89	277.57
698.23	278.24
698.56	277.86
698.90	277.90
699.23	277.71
699.57	277.33
699.90	276.71
700.24	275.57
700.58	275.90
700.91	276.10
701.25	278.19
701.58	278.24
701.92	278.81
702.25	278.90
702.59	278.52
702.92	279.43
703.26	280.05
703.59	280.14
703.93	282.24
704.26	282.76
704.60	283.33
704.93	283.81
705.26	283.86
705.60	284.62
705.93	284.43
706.27	285.52
706.60	286.38
706.94	287.67
707.27	287.86
707.61	287.90
707.94	287.52
708.27	285.86
708.61	285.29
708.94	284.86
709.28	284.33
709.61	283.90
709.94	283.57
710.28	283.14
710.61	282.76
710.95	280.05
711.28	281.05
711.61	279.81
711.95	279.95
712.28	279.24
712.61	278.43
712.95	278.62
713.28	278.81
713.61	277.48
713.95	275.67
714.28	275.24
714.61	274.43
714.95	274.19
715.28	272.90
715.61	272.24
715.95	271.67
716.28	271.57
716.61	271.33
716.95	270.05
717.28	269.43
717.61	268.67
717.94	268.57
718.28	266.19
718.61	265.81
718.94	264.43
719.27	264.00
719.61	263.62
719.94	262.71
720.27	260.90
720.60	260.33
720.94	260.14
721.27	259.81
721.60	259.90
721.93	259.29
722.27	260.19
722.60	260.19
722.93	259.38
723.26	259.43
723.59	259.05
723.93	259.48
724.26	259.48
724.59	259.38
724.92	259.05
725.25	259.81
725.59	259.38
725.92	259.76
726.25	259.71
726.58	259.71
726.91	259.48
727.24	259.71
727.57	259.95
727.91	259.57
728.24	259.76
728.57	259.29
728.90	259.38
729.23	258.19
729.56	259.24
729.89	259.57
730.22	258.95
730.55	258.57
730.89	258.29
731.22	258.52
731.55	258.43
731.88	258.71
732.21	258.10
732.54	258.33
732.87	258.00
733.20	257.81
733.53	257.76
733.86	258.10
734.19	257.86
734.52	257.90
734.85	259.86
735.18	259.14
735.51	259.76
735.84	259.86
736.17	260.62
736.50	259.19
736.83	261.86
737.16	262.14
737.49	262.24
737.82	261.62
738.15	261.52
738.48	261.57
738.81	261.33
739.14	260.90
739.47	260.43
739.80	260.48
740.13	260.86
740.46	260.29
740.79	259.71
741.12	259.48
741.45	259.24
741.78	257.38
742.11	258.29
742.44	258.00
742.77	258.14
743.10	257.71
743.43	257.57
743.75	254.71
744.08	257.71
744.41	257.52
744.74	257.76
745.07	257.00
745.40	257.00
745.73	258.00
746.06	258.24
746.39	258.57
746.71	258.19
747.04	257.43
747.37	257.57
747.70	257.81
748.03	258.00
748.36	258.52
748.68	258.76
749.01	257.67
749.34	257.38
749.67	257.10
750.00	257.43
750.33	259.29
750.65	259.52
750.98	256.10
751.31	255.67
751.64	256.14
751.97	257.43
752.29	257.33
752.62	255.81
752.95	255.57
753.28	255.24
753.60	255.10
753.93	255.86
754.26	255.62
754.59	254.76
754.91	254.29
755.24	254.05
755.57	253.62
755.90	253.48
756.22	252.90
756.55	252.67
756.88	251.81
757.20	249.90
757.53	248.81
757.86	248.71
758.19	249.19
758.51	248.57
758.84	247.24
759.17	246.90
759.49	247.05
759.82	248.14
760.15	248.33
760.47	248.19
760.80	247.24
761.13	247.71
761.45	247.81
761.78	247.62
762.11	247.29
762.43	246.90
762.76	247.00
763.08	247.24
763.41	247.00
763.74	247.52
764.06	247.29
764.39	247.67
764.71	247.90
765.04	247.48
765.37	247.19
765.69	247.05
766.02	247.19
766.34	246.86
766.67	246.10
767.00	246.43
767.32	248.10
767.65	249.71
767.97	249.10
768.30	249.19
768.62	249.19
768.95	248.86
769.27	249.19
769.60	249.24
769.92	248.76
770.25	248.86
770.57	248.29
770.90	248.29
771.22	248.10
771.55	248.05
771.87	248.10
772.20	248.33
772.52	250.38
772.85	253.19
773.17	253.24
773.50	253.10
773.82	252.33
774.15	250.71
774.47	248.86
774.80	248.90
775.12	248.71
775.45	248.71
775.77	248.81
776.09	248.90
776.42	249.10
776.74	249.90
777.07	249.48
777.39	249.67
777.72	249.48
778.04	249.81
778.36	249.43
778.69	249.76
779.01	249.86
779.33	247.71
779.66	244.62
779.98	244.86
780.31	244.67
780.63	246.14
780.95	246.57
781.28	246.86
781.60	246.43
781.92	246.33
782.25	246.24
782.57	246.33
782.89	246.05
783.22	245.67
783.54	244.90
783.86	245.14
784.19	244.48
784.51	245.38
784.83	244.76
785.16	244.67
785.48	244.57
785.80	244.43
786.12	244.95
786.45	244.95
786.77	244.86
787.09	244.71
787.42	243.57
787.74	243.81
788.06	244.00
788.38	244.19
788.71	244.24
789.03	244.33
789.35	244.71
789.67	244.43
789.99	245.05
790.32	245.14
790.64	245.62
790.96	247.57
791.28	246.43
791.61	246.62
791.93	246.81
792.25	246.81
792.57	248.52
792.89	247.81
793.21	248.00
793.54	247.81
793.86	247.52
