SpectraSuite Data File
++++++++++++++++++++++++++++++++++++
Date: Wed Nov 07 18:33:30 EST 2012
User: group
Dark Spectrum Present: No
Reference Spectrum Present: No
Number of Sampled Component Spectra: 1
Spectrometers: USB2E7196
Integration Time (usec): 1000000 (USB2E7196)
Spectra Averaged: 1 (USB2E7196)
Boxcar Smoothing: 10 (USB2E7196)
Correct for Electrical Dark: No (USB2E7196)
Strobe/Lamp Enabled: No (USB2E7196)
Correct for Detector Non-linearity: No (USB2E7196)
Correct for Stray Light: No (USB2E7196)
Number of Pixels in Processed Spectrum: 2048
>>>>>Begin Processed Spectral Data<<<<<
339.09	0.00
339.48	222.00
339.86	220.00
340.24	225.00
340.63	226.00
341.01	259.00
341.39	229.00
341.78	235.00
342.16	243.00
342.54	230.00
342.93	223.57
343.31	234.71
343.69	235.29
344.07	236.05
344.46	236.76
344.84	237.52
345.22	236.24
345.60	236.62
345.99	236.95
346.37	236.48
346.75	236.57
347.13	236.86
347.52	237.14
347.90	238.43
348.28	238.10
348.66	238.48
349.05	237.76
349.43	238.33
349.81	238.57
350.19	238.71
350.57	239.00
350.96	239.62
351.34	239.86
351.72	239.95
352.10	239.95
352.48	239.62
352.87	239.43
353.25	239.67
353.63	239.76
354.01	239.33
354.39	239.43
354.77	239.43
355.15	240.10
355.54	239.81
355.92	238.76
356.30	239.10
356.68	240.71
357.06	240.67
357.44	240.33
357.82	240.19
358.20	240.14
358.58	239.86
358.97	239.76
359.35	240.19
359.73	240.52
360.11	240.67
360.49	240.76
360.87	240.71
361.25	240.95
361.63	241.43
362.01	241.95
362.39	242.00
362.77	242.38
363.15	241.90
363.53	241.29
363.91	241.38
364.29	241.14
364.67	238.67
365.05	238.95
365.43	239.48
365.81	239.71
366.19	240.71
366.57	241.57
366.95	241.33
367.33	240.81
367.71	240.71
368.09	241.05
368.47	241.00
368.85	240.57
369.23	240.90
369.61	240.05
369.99	240.71
370.37	241.24
370.75	242.57
371.13	242.29
371.51	242.57
371.89	242.76
372.27	242.95
372.65	243.24
373.03	242.90
373.41	242.38
373.78	242.10
374.16	240.86
374.54	240.29
374.92	240.19
375.30	240.10
375.68	239.67
376.06	239.52
376.44	239.48
376.82	239.76
377.19	239.71
377.57	239.67
377.95	238.62
378.33	238.19
378.71	236.52
379.09	237.00
379.47	237.19
379.84	236.57
380.22	236.33
380.60	235.71
380.98	235.76
381.36	235.90
381.73	236.05
382.11	236.62
382.49	236.81
382.87	236.67
383.25	236.71
383.62	239.62
384.00	239.33
384.38	239.43
384.76	240.00
385.13	240.86
385.51	240.81
385.89	240.38
386.27	240.14
386.64	240.67
387.02	240.00
387.40	239.67
387.78	240.05
388.15	240.14
388.53	240.33
388.91	240.48
389.29	240.14
389.66	240.29
390.04	240.14
390.42	240.38
390.79	240.48
391.17	240.57
391.55	237.67
391.92	237.57
392.30	237.86
392.68	237.29
393.05	237.10
393.43	237.19
393.81	237.57
394.18	237.48
394.56	237.19
394.94	238.05
395.31	238.29
395.69	239.05
396.06	239.24
396.44	239.67
396.82	239.48
397.19	240.81
397.57	240.48
397.95	240.76
398.32	240.05
398.70	240.52
399.07	240.86
399.45	241.05
399.82	241.29
400.20	240.90
400.58	240.90
400.95	240.14
401.33	240.90
401.70	243.00
402.08	243.29
402.45	243.76
402.83	244.29
403.20	244.10
403.58	243.95
403.95	244.48
404.33	244.86
404.71	245.24
405.08	246.62
405.46	247.10
405.83	247.57
406.21	248.33
406.58	248.48
406.96	249.05
407.33	249.95
407.70	250.62
408.08	253.33
408.45	254.71
408.83	255.71
409.20	256.33
409.58	255.52
409.95	256.71
410.33	257.43
410.70	257.57
411.08	259.14
411.45	260.43
411.82	261.52
412.20	263.52
412.57	266.19
412.95	265.52
413.32	267.14
413.69	268.14
414.07	269.76
414.44	271.57
414.82	273.57
415.19	275.76
415.56	278.00
415.94	278.76
416.31	281.38
416.68	284.10
417.06	287.43
417.43	291.19
417.81	294.95
418.18	299.00
418.55	303.14
418.93	307.52
419.30	311.90
419.67	316.48
420.04	320.71
420.42	324.86
420.79	332.76
421.16	338.86
421.54	346.67
421.91	353.14
422.28	359.48
422.66	366.33
423.03	374.86
423.40	381.76
423.77	389.90
424.15	397.38
424.52	405.52
424.89	413.86
425.26	421.14
425.64	428.52
426.01	436.57
426.38	445.10
426.75	454.52
427.13	463.71
427.50	473.00
427.87	482.81
428.24	492.57
428.61	500.62
428.99	512.19
429.36	522.19
429.73	533.14
430.10	545.48
430.47	557.48
430.85	567.95
431.22	580.86
431.59	595.95
431.96	608.43
432.33	622.76
432.70	636.76
433.08	653.95
433.45	669.10
433.82	684.29
434.19	701.86
434.56	718.00
434.93	733.62
435.30	749.43
435.68	767.00
436.05	784.90
436.42	801.86
436.79	816.62
437.16	834.10
437.53	851.10
437.90	867.10
438.27	882.86
438.64	900.19
439.01	915.67
439.38	927.90
439.75	942.05
440.13	957.24
440.50	971.38
440.87	981.86
441.24	993.90
441.61	1007.38
441.98	1016.48
442.35	1026.95
442.72	1037.90
443.09	1049.52
443.46	1054.81
443.83	1057.76
444.20	1060.95
444.57	1065.05
444.94	1065.52
445.31	1067.33
445.68	1072.43
446.05	1072.81
446.42	1069.29
446.79	1067.95
447.16	1063.86
447.53	1060.52
447.90	1052.48
448.27	1044.81
448.64	1034.48
449.01	1026.10
449.37	1014.05
449.74	1002.05
450.11	990.71
450.48	974.90
450.85	958.43
451.22	945.05
451.59	932.86
451.96	920.14
452.33	904.67
452.70	890.38
453.07	873.33
453.43	852.19
453.80	835.90
454.17	820.00
454.54	803.62
454.91	788.24
455.28	772.29
455.65	758.05
456.02	747.48
456.38	735.71
456.75	721.86
457.12	708.52
457.49	696.05
457.86	681.29
458.23	672.38
458.59	661.38
458.96	650.43
459.33	639.81
459.70	629.95
460.07	622.24
460.43	613.19
460.80	605.71
461.17	598.52
461.54	590.62
461.91	584.24
462.27	576.33
462.64	569.52
463.01	563.00
463.38	557.43
463.74	546.62
464.11	540.29
464.48	534.90
464.85	529.29
465.21	525.43
465.58	521.33
465.95	515.10
466.32	510.57
466.68	506.29
467.05	501.86
467.42	497.00
467.78	492.19
468.15	488.05
468.52	484.00
468.88	479.81
469.25	475.62
469.62	472.24
469.98	469.24
470.35	465.71
470.72	462.95
471.08	457.52
471.45	455.10
471.82	452.95
472.18	450.14
472.55	447.86
472.92	444.57
473.28	441.52
473.65	438.48
474.02	436.00
474.38	434.14
474.75	432.10
475.11	429.62
475.48	428.24
475.85	426.00
476.21	424.48
476.58	423.38
476.94	422.14
477.31	420.10
477.67	418.90
478.04	418.10
478.41	417.57
478.77	420.33
479.14	419.33
479.50	418.86
479.87	418.86
480.23	419.38
480.60	418.81
480.96	418.86
481.33	420.38
481.69	420.38
482.06	420.90
482.42	421.86
482.79	423.57
483.15	423.24
483.52	425.14
483.88	425.81
484.25	426.43
484.61	427.48
484.98	429.00
485.34	430.81
485.71	432.86
486.07	433.29
486.44	432.14
486.80	433.52
487.17	434.19
487.53	435.24
487.90	436.19
488.26	439.14
488.62	441.38
488.99	442.43
489.35	444.71
489.72	446.52
490.08	448.14
490.44	449.33
490.81	452.10
491.17	453.24
491.54	455.67
491.90	458.90
492.26	461.90
492.63	463.81
492.99	466.14
493.36	468.10
493.72	471.48
494.08	474.24
494.45	477.38
494.81	482.10
495.17	485.67
495.54	489.90
495.90	492.24
496.26	495.86
496.63	499.57
496.99	503.05
497.35	506.48
497.72	511.10
498.08	515.24
498.44	519.33
498.80	524.52
499.17	528.76
499.53	533.00
499.89	537.67
500.26	542.38
500.62	546.67
500.98	552.19
501.34	557.19
501.71	562.38
502.07	567.62
502.43	571.86
502.79	576.38
503.16	580.33
503.52	585.33
503.88	589.67
504.24	595.48
504.60	600.95
504.97	606.81
505.33	611.19
505.69	617.52
506.05	623.05
506.41	628.24
506.78	633.38
507.14	638.14
507.50	643.76
507.86	650.10
508.22	655.71
508.59	660.24
508.95	665.95
509.31	672.57
509.67	677.14
510.03	682.43
510.39	688.10
510.75	693.48
511.12	698.67
511.48	704.24
511.84	708.29
512.20	713.38
512.56	718.43
512.92	724.05
513.28	728.86
513.64	733.19
514.00	737.24
514.37	742.43
514.73	747.57
515.09	751.76
515.45	755.62
515.81	759.81
516.17	764.14
516.53	767.62
516.89	770.14
517.25	774.29
517.61	778.95
517.97	782.76
518.33	787.33
518.69	792.38
519.05	796.29
519.41	800.95
519.77	805.48
520.13	808.81
520.49	811.38
520.85	815.10
521.21	820.05
521.57	823.43
521.93	825.90
522.29	828.62
522.65	830.29
523.01	833.81
523.37	835.95
523.73	839.43
524.09	842.19
524.45	844.38
524.81	846.76
525.17	848.76
525.53	851.19
525.89	852.57
526.25	854.14
526.61	856.00
526.97	857.19
527.33	858.38
527.68	862.33
528.04	864.33
528.40	864.86
528.76	865.10
529.12	866.81
529.48	869.19
529.84	870.76
530.20	873.10
530.56	874.05
530.91	876.10
531.27	877.05
531.63	878.48
531.99	880.10
532.35	881.48
532.71	881.86
533.07	883.14
533.42	887.33
533.78	887.48
534.14	888.48
534.50	889.95
534.86	891.33
535.21	889.52
535.57	891.33
535.93	892.00
536.29	894.76
536.65	895.86
537.00	896.24
537.36	897.43
537.72	898.29
538.08	900.33
538.44	902.00
538.79	903.81
539.15	904.90
539.51	906.29
539.87	908.43
540.22	910.48
540.58	911.90
540.94	911.10
541.29	912.90
541.65	913.95
542.01	916.14
542.37	916.76
542.72	917.14
543.08	916.90
543.44	917.52
543.79	915.10
544.15	916.33
544.51	917.24
544.87	916.62
545.22	915.81
545.58	914.19
545.94	912.52
546.29	911.33
546.65	909.48
547.01	907.38
547.36	905.90
547.72	902.95
548.07	901.14
548.43	898.19
548.79	895.57
549.14	893.43
549.50	890.95
549.86	888.19
550.21	886.67
550.57	885.00
550.92	882.19
551.28	881.48
551.64	877.95
551.99	874.38
552.35	871.29
552.70	868.90
553.06	866.71
553.41	864.24
553.77	863.14
554.13	861.76
554.48	860.67
554.84	858.95
555.19	858.29
555.55	858.29
555.90	856.86
556.26	855.62
556.61	853.62
556.97	850.71
557.32	848.57
557.68	847.00
558.03	845.00
558.39	844.05
558.74	841.43
559.10	839.33
559.45	838.38
559.81	837.52
560.16	836.29
560.52	835.10
560.87	833.86
561.23	830.14
561.58	830.48
561.94	827.81
562.29	825.05
562.64	822.86
563.00	818.67
563.35	817.00
563.71	815.10
564.06	813.14
564.42	811.10
564.77	809.81
565.12	808.00
565.48	808.33
565.83	807.29
566.19	805.90
566.54	804.57
566.89	803.00
567.25	801.67
567.60	801.57
567.96	802.10
568.31	802.62
568.66	802.67
569.02	799.57
569.37	798.81
569.72	797.76
570.08	796.14
570.43	795.05
570.78	793.33
571.14	791.24
571.49	790.29
571.84	789.10
572.20	787.33
572.55	785.95
572.90	782.38
573.26	780.05
573.61	778.38
573.96	777.48
574.31	776.67
574.67	775.62
575.02	773.29
575.37	769.29
575.72	765.62
576.08	763.00
576.43	760.67
576.78	758.67
577.13	757.14
577.49	755.57
577.84	753.43
578.19	752.10
578.54	751.52
578.90	750.10
579.25	748.95
579.60	747.62
579.95	745.48
580.30	744.76
580.66	743.57
581.01	741.67
581.36	739.33
581.71	736.62
582.06	734.86
582.42	733.67
582.77	731.62
583.12	730.57
583.47	728.48
583.82	726.81
584.17	724.81
584.53	723.38
584.88	722.14
585.23	721.52
585.58	719.38
585.93	716.95
586.28	714.52
586.63	711.86
586.98	710.05
587.34	708.33
587.69	704.62
588.04	702.00
588.39	700.24
588.74	697.71
589.09	696.00
589.44	692.57
589.79	688.57
590.14	686.24
590.49	682.62
590.84	679.67
591.19	676.52
591.54	674.19
591.89	670.24
592.25	668.24
592.60	663.86
592.95	660.05
593.30	658.14
593.65	654.95
594.00	651.67
594.35	655.52
594.70	652.14
595.05	650.00
595.40	647.24
595.75	643.90
596.10	641.52
596.45	638.10
596.80	635.24
597.15	632.67
597.50	628.95
597.85	627.29
598.19	625.29
598.54	623.29
598.89	620.00
599.24	618.29
599.59	614.38
599.94	612.67
600.29	611.00
600.64	607.24
600.99	606.00
601.34	604.48
601.69	595.29
602.04	593.29
602.39	590.33
602.74	589.05
603.08	587.10
603.43	586.43
603.78	584.52
604.13	582.62
604.48	580.67
604.83	580.43
605.18	578.95
605.53	578.57
605.87	578.90
606.22	581.19
606.57	583.00
606.92	585.86
607.27	588.43
607.62	592.05
607.96	595.95
608.31	598.24
608.66	600.48
609.01	602.48
609.36	604.95
609.70	607.38
610.05	608.19
610.40	609.71
610.75	609.52
611.10	610.33
611.44	611.52
611.79	611.86
612.14	610.95
612.49	609.43
612.83	607.29
613.18	603.67
613.53	599.38
613.88	594.38
614.22	588.38
614.57	581.95
614.92	574.33
615.27	568.19
615.61	561.81
615.96	556.05
616.31	550.29
616.65	545.29
617.00	540.05
617.35	534.90
617.70	529.90
618.04	524.95
618.39	520.19
618.74	517.05
619.08	513.57
619.43	510.48
619.78	507.24
620.12	504.67
620.47	502.52
620.82	499.33
621.16	496.33
621.51	495.62
621.85	493.24
622.20	492.10
622.55	488.86
622.89	486.81
623.24	484.90
623.59	483.43
623.93	480.90
624.28	479.24
624.62	479.57
624.97	478.90
625.32	477.10
625.66	475.48
626.01	472.48
626.35	471.00
626.70	468.86
627.04	468.14
627.39	465.86
627.73	464.76
628.08	463.14
628.43	461.19
628.77	458.00
629.12	456.95
629.46	455.19
629.81	453.67
630.15	450.81
630.50	448.71
630.84	446.24
631.19	444.38
631.53	442.14
631.88	437.67
632.22	434.43
632.57	433.00
632.91	431.00
633.26	429.52
633.60	427.33
633.95	425.43
634.29	422.14
634.64	420.43
634.98	417.90
635.32	416.38
635.67	414.95
636.01	412.76
636.36	410.67
636.70	409.29
637.05	407.38
637.39	406.71
637.73	405.38
638.08	404.67
638.42	402.48
638.77	401.33
639.11	399.86
639.45	398.43
639.80	396.67
640.14	395.57
640.49	393.67
640.83	391.90
641.17	390.62
641.52	389.19
641.86	387.76
642.20	387.19
642.55	385.52
642.89	384.19
643.23	383.24
643.58	382.90
643.92	381.00
644.26	380.52
644.61	379.62
644.95	378.62
645.29	377.00
645.64	377.05
645.98	375.43
646.32	375.00
646.66	373.86
647.01	372.81
647.35	371.95
647.69	371.86
648.04	371.38
648.38	370.62
648.72	370.19
649.06	368.57
649.41	366.38
649.75	365.29
650.09	364.29
650.43	363.24
650.78	361.14
651.12	360.24
651.46	358.81
651.80	357.52
652.14	356.00
652.49	355.48
652.83	353.76
653.17	352.95
653.51	351.48
653.85	350.86
654.20	350.14
654.54	348.48
654.88	346.33
655.22	344.29
655.56	342.57
655.90	341.14
656.25	340.90
656.59	340.48
656.93	339.67
657.27	339.71
657.61	338.57
657.95	338.14
658.29	336.90
658.64	336.19
658.98	335.48
659.32	334.81
659.66	333.62
660.00	333.38
660.34	332.52
660.68	331.71
661.02	330.86
661.36	329.52
661.70	328.90
662.05	328.76
662.39	329.38
662.73	329.86
663.07	331.10
663.41	330.48
663.75	329.38
664.09	329.10
664.43	327.81
664.77	327.29
665.11	326.10
665.45	325.48
665.79	325.29
666.13	324.48
666.47	323.86
666.81	323.10
667.15	321.57
667.49	321.05
667.83	320.86
668.17	320.19
668.51	319.81
668.85	319.43
669.19	319.81
669.53	318.38
669.87	317.05
670.21	314.86
670.55	314.38
670.89	315.00
671.23	314.33
671.57	313.71
671.91	313.43
672.25	312.90
672.58	313.67
672.92	312.10
673.26	312.00
673.60	311.24
673.94	311.05
674.28	310.71
674.62	310.76
674.96	310.48
675.30	309.81
675.64	309.38
675.97	308.76
676.31	307.24
676.65	306.48
676.99	306.90
677.33	306.52
677.67	305.81
678.01	304.38
678.34	304.05
678.68	303.81
679.02	302.86
679.36	302.57
679.70	301.10
680.04	301.05
680.37	300.24
680.71	299.86
681.05	299.43
681.39	299.29
681.73	298.24
682.06	297.19
682.40	296.76
682.74	296.43
683.08	297.19
683.42	296.67
683.75	297.14
684.09	296.19
684.43	295.24
684.77	294.57
685.10	294.14
685.44	293.90
685.78	293.29
686.12	292.76
686.45	292.24
686.79	291.67
687.13	291.76
687.46	291.19
687.80	291.38
688.14	290.29
688.48	289.57
688.81	289.62
689.15	289.67
689.49	289.14
689.82	288.86
690.16	287.19
690.50	286.62
690.83	285.43
691.17	284.38
691.51	284.57
691.84	284.38
692.18	283.90
692.52	283.19
692.85	282.76
693.19	283.52
693.52	283.52
693.86	282.76
694.20	282.14
694.53	281.95
694.87	281.10
695.21	281.14
695.54	281.24
695.88	280.05
696.21	279.24
696.55	279.05
696.88	278.67
697.22	278.38
697.56	278.62
697.89	278.62
698.23	278.71
698.56	278.33
698.90	278.33
699.23	277.90
699.57	277.67
699.90	277.14
700.24	276.24
700.58	276.05
700.91	276.95
701.25	279.14
701.58	280.00
701.92	280.52
702.25	280.57
702.59	280.52
702.92	281.48
703.26	281.95
703.59	282.38
703.93	284.43
704.26	285.19
704.60	285.38
704.93	285.81
705.26	285.81
705.60	286.57
705.93	285.86
706.27	286.86
706.60	287.62
706.94	289.24
707.27	289.38
707.61	289.43
707.94	289.29
708.27	287.05
708.61	285.95
708.94	285.52
709.28	285.19
709.61	284.33
709.94	283.95
710.28	283.43
710.61	282.86
710.95	279.71
711.28	280.43
711.61	279.52
711.95	278.90
712.28	277.95
712.61	277.10
712.95	278.10
713.28	278.52
713.61	277.14
713.95	275.52
714.28	274.48
714.61	273.57
714.95	272.29
715.28	271.43
715.61	270.86
715.95	270.33
716.28	269.76
716.61	269.67
716.95	268.71
717.28	268.05
717.61	267.71
717.94	267.57
718.28	265.38
718.61	264.67
718.94	264.10
719.27	264.10
719.61	263.76
719.94	262.76
720.27	261.10
720.60	260.81
720.94	260.29
721.27	260.38
721.60	260.71
721.93	260.57
722.27	261.14
722.60	261.33
722.93	260.81
723.26	260.62
723.59	260.24
723.93	260.57
724.26	260.90
724.59	260.48
724.92	260.48
725.25	261.05
725.59	261.14
725.92	261.24
726.25	261.10
726.58	261.14
726.91	260.76
727.24	260.71
727.57	260.24
727.91	259.76
728.24	259.90
728.57	259.24
728.90	259.33
729.23	258.57
729.56	259.29
729.89	259.14
730.22	259.24
730.55	258.95
730.89	258.67
731.22	257.95
731.55	257.86
731.88	258.10
732.21	257.43
732.54	257.19
732.87	256.86
733.20	256.62
733.53	256.57
733.86	256.90
734.19	256.67
734.52	257.38
734.85	259.43
735.18	259.05
735.51	259.71
735.84	260.24
736.17	260.95
736.50	259.76
736.83	262.81
737.16	262.48
737.49	263.19
737.82	263.24
738.15	263.95
738.48	263.95
738.81	263.81
739.14	263.43
739.47	263.24
739.80	263.14
740.13	263.57
740.46	262.67
740.79	262.33
741.12	262.14
741.45	261.29
741.78	259.76
742.11	260.33
742.44	259.81
742.77	259.81
743.10	258.90
743.43	258.81
743.75	255.86
744.08	259.00
744.41	258.57
744.74	257.95
745.07	257.33
745.40	257.52
745.73	258.43
746.06	258.76
746.39	259.05
746.71	258.86
747.04	258.33
747.37	258.29
747.70	258.52
748.03	258.86
748.36	259.33
748.68	259.05
749.01	258.00
749.34	257.95
749.67	257.67
750.00	258.10
750.33	259.57
750.65	259.57
750.98	256.52
751.31	256.24
751.64	255.90
751.97	257.24
752.29	257.19
752.62	255.95
752.95	255.71
753.28	255.33
753.60	255.29
753.93	255.62
754.26	255.81
754.59	254.95
754.91	254.38
755.24	254.29
755.57	254.14
755.90	254.43
756.22	253.90
756.55	253.10
756.88	252.57
757.20	250.90
757.53	250.33
757.86	250.24
758.19	250.10
758.51	250.38
758.84	249.14
759.17	248.57
759.49	248.38
759.82	249.43
760.15	249.52
760.47	249.33
760.80	248.52
761.13	248.62
761.45	248.81
761.78	248.71
762.11	248.43
762.43	248.29
762.76	247.95
763.08	247.90
763.41	248.29
763.74	248.29
764.06	248.05
764.39	247.86
764.71	247.57
765.04	247.62
765.37	247.43
765.69	247.05
766.02	247.05
766.34	247.10
766.67	245.90
767.00	246.48
767.32	248.05
767.65	249.71
767.97	249.38
768.30	249.43
768.62	249.14
768.95	249.05
769.27	248.76
769.60	249.38
769.92	249.29
770.25	249.00
770.57	248.71
770.90	248.71
771.22	248.90
771.55	249.10
771.87	249.29
772.20	249.05
772.52	250.76
772.85	253.86
773.17	253.81
773.50	253.48
773.82	253.10
774.15	251.38
774.47	249.67
774.80	249.81
775.12	249.38
775.45	249.48
775.77	249.71
776.09	250.05
776.42	249.24
776.74	249.71
777.07	249.62
777.39	249.52
777.72	249.62
778.04	249.57
778.36	249.52
778.69	249.00
779.01	249.48
779.33	247.38
779.66	244.29
779.98	244.00
780.31	244.52
780.63	245.14
780.95	245.76
781.28	245.90
781.60	245.57
781.92	245.76
782.25	245.48
782.57	245.14
782.89	244.52
783.22	244.52
783.54	244.29
783.86	244.14
784.19	243.62
784.51	244.19
784.83	244.10
785.16	243.38
785.48	243.67
785.80	243.48
786.12	243.76
786.45	243.62
786.77	244.05
787.09	243.90
787.42	242.76
787.74	242.67
788.06	242.71
788.38	242.76
788.71	242.48
789.03	242.81
789.35	243.19
789.67	242.95
789.99	243.10
790.32	243.05
790.64	243.57
790.96	245.81
791.28	244.90
791.61	244.76
791.93	245.10
792.25	244.90
792.57	246.38
792.89	245.95
793.21	246.48
793.54	246.10
793.86	245.62
