SpectraSuite Data File
++++++++++++++++++++++++++++++++++++
Date: Wed Nov 07 18:33:02 EST 2012
User: group
Dark Spectrum Present: No
Reference Spectrum Present: No
Number of Sampled Component Spectra: 1
Spectrometers: USB2E7196
Integration Time (usec): 1000000 (USB2E7196)
Spectra Averaged: 1 (USB2E7196)
Boxcar Smoothing: 10 (USB2E7196)
Correct for Electrical Dark: No (USB2E7196)
Strobe/Lamp Enabled: No (USB2E7196)
Correct for Detector Non-linearity: No (USB2E7196)
Correct for Stray Light: No (USB2E7196)
Number of Pixels in Processed Spectrum: 2048
>>>>>Begin Processed Spectral Data<<<<<
339.09	0.00
339.48	221.00
339.86	222.00
340.24	225.00
340.63	227.00
341.01	264.00
341.39	227.00
341.78	235.00
342.16	242.00
342.54	235.00
342.93	225.52
343.31	236.76
343.69	237.29
344.07	238.00
344.46	238.67
344.84	239.14
345.22	238.19
345.60	238.57
345.99	238.67
346.37	238.76
346.75	238.67
347.13	238.95
347.52	238.95
347.90	239.29
348.28	239.14
348.66	239.24
349.05	238.48
349.43	238.76
349.81	238.67
350.19	238.62
350.57	238.62
350.96	238.86
351.34	238.95
351.72	239.05
352.10	238.90
352.48	238.57
352.87	238.43
353.25	237.67
353.63	237.71
354.01	237.67
354.39	237.33
354.77	237.52
355.15	237.95
355.54	237.48
355.92	236.67
356.30	236.76
356.68	238.43
357.06	238.38
357.44	237.71
357.82	237.48
358.20	237.52
358.58	237.10
358.97	237.00
359.35	237.48
359.73	237.95
360.11	237.90
360.49	238.14
360.87	238.19
361.25	238.76
361.63	239.57
362.01	239.48
362.39	239.29
362.77	239.38
363.15	239.05
363.53	238.90
363.91	239.38
364.29	239.29
364.67	236.76
365.05	237.05
365.43	237.62
365.81	238.19
366.19	239.33
366.57	240.52
366.95	240.33
367.33	239.86
367.71	239.67
368.09	240.19
368.47	239.95
368.85	239.57
369.23	240.05
369.61	239.10
369.99	240.05
370.37	240.67
370.75	241.95
371.13	241.67
371.51	241.57
371.89	241.48
372.27	241.81
372.65	242.10
373.03	242.43
373.41	242.24
373.78	241.95
374.16	240.67
374.54	239.62
374.92	239.33
375.30	239.19
375.68	238.86
376.06	238.62
376.44	238.86
376.82	239.62
377.19	239.38
377.57	239.38
377.95	238.43
378.33	238.10
378.71	236.43
379.09	236.90
379.47	237.33
379.84	237.29
380.22	236.90
380.60	236.67
380.98	236.48
381.36	236.48
381.73	236.24
382.11	236.86
382.49	237.19
382.87	237.19
383.25	237.33
383.62	240.43
384.00	240.05
384.38	239.95
384.76	240.05
385.13	241.29
385.51	241.14
385.89	241.05
386.27	241.05
386.64	241.38
387.02	240.95
387.40	240.71
387.78	240.81
388.15	241.19
388.53	241.38
388.91	241.48
389.29	241.33
389.66	241.71
390.04	241.24
390.42	241.52
390.79	241.57
391.17	241.52
391.55	238.48
391.92	238.71
392.30	239.14
392.68	238.81
393.05	238.43
393.43	238.57
393.81	239.05
394.18	238.52
394.56	238.57
394.94	239.33
395.31	239.05
395.69	239.95
396.06	240.29
396.44	240.38
396.82	240.00
397.19	241.48
397.57	241.29
397.95	241.90
398.32	241.48
398.70	241.76
399.07	242.29
399.45	242.48
399.82	242.52
400.20	241.95
400.58	241.86
400.95	240.95
401.33	241.38
401.70	243.14
402.08	243.76
402.45	244.00
402.83	244.57
403.20	245.00
403.58	244.95
403.95	245.57
404.33	246.48
404.71	247.24
405.08	248.48
405.46	248.90
405.83	248.95
406.21	249.38
406.58	249.95
406.96	250.19
407.33	250.90
407.70	251.71
408.08	254.81
408.45	255.90
408.83	256.86
409.20	257.71
409.58	256.95
409.95	257.95
410.33	259.10
410.70	259.33
411.08	261.05
411.45	261.90
411.82	262.71
412.20	264.24
412.57	266.62
412.95	266.05
413.32	268.05
413.69	269.76
414.07	271.57
414.44	273.52
414.82	275.81
415.19	278.24
415.56	280.81
415.94	281.71
416.31	284.38
416.68	287.24
417.06	290.90
417.43	294.95
417.81	299.05
418.18	302.57
418.55	306.43
418.93	310.48
419.30	314.71
419.67	319.29
420.04	323.52
420.42	327.86
420.79	335.62
421.16	340.86
421.54	348.52
421.91	354.71
422.28	361.19
422.66	367.81
423.03	376.29
423.40	383.05
423.77	390.29
424.15	397.48
424.52	405.67
424.89	413.67
425.26	421.00
425.64	428.19
426.01	436.52
426.38	445.10
426.75	455.00
427.13	464.33
427.50	473.71
427.87	483.43
428.24	493.52
428.61	501.48
428.99	513.33
429.36	523.10
429.73	534.95
430.10	546.48
430.47	558.86
430.85	569.95
431.22	582.86
431.59	598.38
431.96	611.48
432.33	625.62
432.70	639.67
433.08	656.05
433.45	671.52
433.82	687.24
434.19	704.57
434.56	720.95
434.93	736.29
435.30	752.29
435.68	769.76
436.05	786.43
436.42	801.67
436.79	816.38
437.16	832.81
437.53	849.24
437.90	866.00
438.27	882.00
438.64	898.24
439.01	913.62
439.38	925.76
439.75	939.48
440.13	955.29
440.50	969.00
440.87	979.90
441.24	992.05
441.61	1004.62
441.98	1014.14
442.35	1024.00
442.72	1036.00
443.09	1047.67
443.46	1053.52
443.83	1057.48
444.20	1062.33
444.57	1066.19
444.94	1067.29
445.31	1069.24
445.68	1074.00
446.05	1073.43
446.42	1069.33
446.79	1067.14
447.16	1064.29
447.53	1061.48
447.90	1053.33
448.27	1046.52
448.64	1037.05
449.01	1029.14
449.37	1017.10
449.74	1004.67
450.11	993.05
450.48	977.29
450.85	960.19
451.22	946.86
451.59	934.29
451.96	921.24
452.33	906.57
452.70	892.48
453.07	875.00
453.43	854.57
453.80	839.10
454.17	824.71
454.54	808.90
454.91	791.76
455.28	776.00
455.65	760.86
456.02	750.57
456.38	737.76
456.75	722.24
457.12	709.24
457.49	696.33
457.86	681.90
458.23	672.86
458.59	662.10
458.96	650.38
459.33	639.76
459.70	630.05
460.07	621.81
460.43	612.95
460.80	605.24
461.17	597.38
461.54	589.76
461.91	581.95
462.27	574.33
462.64	568.00
463.01	561.24
463.38	555.29
463.74	543.57
464.11	537.38
464.48	533.05
464.85	527.57
465.21	524.43
465.58	520.38
465.95	513.52
466.32	509.48
466.68	505.05
467.05	500.90
467.42	496.19
467.78	491.19
468.15	486.81
468.52	483.76
468.88	479.52
469.25	474.24
469.62	471.33
469.98	468.43
470.35	465.10
470.72	461.86
471.08	457.81
471.45	455.90
471.82	454.29
472.18	450.38
472.55	448.24
472.92	444.57
473.28	441.81
473.65	439.29
474.02	436.14
474.38	434.38
474.75	432.95
475.11	431.43
475.48	430.19
475.85	428.14
476.21	426.00
476.58	425.29
476.94	424.57
477.31	423.62
477.67	422.05
478.04	421.48
478.41	421.33
478.77	423.29
479.14	421.67
479.50	420.57
479.87	420.81
480.23	420.90
480.60	420.95
480.96	420.76
481.33	422.43
481.69	423.38
482.06	424.43
482.42	424.86
482.79	425.38
483.15	426.00
483.52	428.14
483.88	429.43
484.25	429.81
484.61	430.90
484.98	431.24
485.34	432.86
485.71	434.29
486.07	435.24
486.44	434.95
486.80	436.71
487.17	437.71
487.53	439.62
487.90	440.90
488.26	443.95
488.62	446.33
488.99	447.38
489.35	448.71
489.72	449.71
490.08	450.95
490.44	452.57
490.81	454.95
491.17	456.19
491.54	458.33
491.90	461.24
492.26	463.57
492.63	466.52
492.99	468.95
493.36	471.86
493.72	475.10
494.08	477.14
494.45	480.29
494.81	484.38
495.17	487.00
495.54	490.67
495.90	493.00
496.26	496.24
496.63	499.71
496.99	503.14
497.35	507.52
497.72	512.14
498.08	515.95
498.44	520.10
498.80	524.86
499.17	528.95
499.53	533.33
499.89	538.33
500.26	542.95
500.62	548.00
500.98	553.19
501.34	557.43
501.71	563.19
502.07	568.05
502.43	572.62
502.79	577.90
503.16	582.33
503.52	587.67
503.88	592.43
504.24	598.24
504.60	603.81
504.97	609.00
505.33	613.38
505.69	620.38
506.05	625.10
506.41	630.29
506.78	635.67
507.14	640.33
507.50	645.05
507.86	650.90
508.22	655.76
508.59	660.67
508.95	667.14
509.31	672.90
509.67	678.14
510.03	682.90
510.39	688.48
510.75	694.05
511.12	698.67
511.48	704.24
511.84	708.05
512.20	713.48
512.56	718.10
512.92	723.33
513.28	727.29
513.64	732.29
514.00	737.14
514.37	742.14
514.73	747.00
515.09	752.86
515.45	756.52
515.81	761.10
516.17	765.52
516.53	768.57
516.89	771.81
517.25	776.86
517.61	782.19
517.97	786.10
518.33	789.86
518.69	794.19
519.05	797.24
519.41	801.14
519.77	806.05
520.13	809.62
520.49	812.90
520.85	816.43
521.21	821.52
521.57	825.14
521.93	827.52
522.29	830.95
522.65	832.71
523.01	836.48
523.37	838.86
523.73	841.00
524.09	844.33
524.45	847.29
524.81	848.95
525.17	850.43
525.53	853.00
525.89	855.33
526.25	857.10
526.61	858.52
526.97	860.52
527.33	861.67
527.68	865.38
528.04	866.71
528.40	868.19
528.76	867.95
529.12	869.05
529.48	871.10
529.84	871.81
530.20	873.52
530.56	875.38
530.91	877.05
531.27	878.95
531.63	879.71
531.99	880.29
532.35	881.00
532.71	881.62
533.07	882.05
533.42	885.67
533.78	886.71
534.14	889.14
534.50	889.62
534.86	891.48
535.21	890.52
535.57	892.29
535.93	892.38
536.29	895.52
536.65	897.57
537.00	897.81
537.36	899.62
537.72	901.29
538.08	902.00
538.44	903.76
538.79	906.14
539.15	907.81
539.51	910.05
539.87	912.67
540.22	914.76
540.58	916.95
540.94	916.81
541.29	918.48
541.65	919.86
542.01	922.90
542.37	923.52
542.72	924.62
543.08	925.67
543.44	926.76
543.79	925.14
544.15	924.62
544.51	925.76
544.87	925.48
545.22	924.57
545.58	923.10
545.94	921.76
546.29	919.52
546.65	917.14
547.01	913.71
547.36	910.71
547.72	908.62
548.07	906.19
548.43	903.24
548.79	901.00
549.14	898.05
549.50	894.95
549.86	890.95
550.21	888.81
550.57	886.62
550.92	883.62
551.28	881.52
551.64	879.38
551.99	876.62
552.35	873.81
552.70	870.52
553.06	868.38
553.41	865.14
553.77	863.81
554.13	861.76
554.48	861.19
554.84	860.29
555.19	857.67
555.55	858.48
555.90	856.62
556.26	853.71
556.61	851.62
556.97	849.43
557.32	847.90
557.68	846.00
558.03	843.86
558.39	842.62
558.74	839.71
559.10	837.57
559.45	835.81
559.81	833.81
560.16	833.24
560.52	832.33
560.87	831.43
561.23	828.95
561.58	829.90
561.94	827.10
562.29	824.57
562.64	823.24
563.00	818.67
563.35	816.48
563.71	815.00
564.06	813.38
564.42	811.33
564.77	809.48
565.12	807.90
565.48	807.86
565.83	806.71
566.19	806.29
566.54	805.10
566.89	804.33
567.25	804.43
567.60	804.29
567.96	804.86
568.31	805.86
568.66	805.43
569.02	802.00
569.37	800.62
569.72	799.86
570.08	798.71
570.43	797.00
570.78	795.19
571.14	793.67
571.49	792.67
571.84	791.43
572.20	790.67
572.55	789.19
572.90	785.90
573.26	784.00
573.61	782.05
573.96	780.43
574.31	778.90
574.67	776.67
575.02	774.24
575.37	770.10
575.72	766.95
576.08	765.00
576.43	763.10
576.78	763.29
577.13	761.43
577.49	760.38
577.84	759.76
578.19	759.67
578.54	759.33
578.90	757.48
579.25	756.14
579.60	753.71
579.95	751.81
580.30	751.52
580.66	751.00
581.01	749.67
581.36	748.29
581.71	746.10
582.06	745.62
582.42	743.86
582.77	742.57
583.12	741.33
583.47	738.90
583.82	737.71
584.17	735.24
584.53	734.48
584.88	732.86
585.23	731.52
585.58	729.24
585.93	727.38
586.28	726.38
586.63	724.86
586.98	723.67
587.34	722.14
587.69	718.86
588.04	716.05
588.39	713.90
588.74	710.76
589.09	709.43
589.44	705.05
589.79	702.29
590.14	699.52
590.49	695.43
590.84	692.24
591.19	689.62
591.54	686.52
591.89	682.19
592.25	681.10
592.60	676.90
592.95	673.52
593.30	669.76
593.65	666.48
594.00	662.24
594.35	666.10
594.70	663.19
595.05	659.95
595.40	656.62
595.75	653.24
596.10	650.52
596.45	646.81
596.80	645.14
597.15	642.43
597.50	639.33
597.85	638.00
598.19	635.95
598.54	633.14
598.89	630.29
599.24	628.52
599.59	623.90
599.94	620.81
600.29	618.86
600.64	616.90
600.99	614.90
601.34	613.43
601.69	604.14
602.04	601.71
602.39	599.48
602.74	598.52
603.08	595.86
603.43	594.57
603.78	592.52
604.13	590.00
604.48	588.19
604.83	587.52
605.18	586.14
605.53	586.10
605.87	587.62
606.22	591.05
606.57	595.52
606.92	600.00
607.27	606.14
607.62	611.24
607.96	616.19
608.31	619.81
608.66	623.67
609.01	627.52
609.36	630.71
609.70	634.19
610.05	636.33
610.40	640.29
610.75	642.24
611.10	644.10
611.44	645.48
611.79	646.19
612.14	646.14
612.49	644.33
612.83	642.19
613.18	638.43
613.53	632.62
613.88	625.43
614.22	617.90
614.57	609.38
614.92	601.10
615.27	593.38
615.61	585.95
615.96	578.81
616.31	571.52
616.65	565.29
617.00	559.05
617.35	552.33
617.70	546.05
618.04	540.33
618.39	534.95
618.74	530.62
619.08	526.38
619.43	521.86
619.78	519.24
620.12	515.48
620.47	512.67
620.82	509.67
621.16	506.48
621.51	505.57
621.85	503.29
622.20	501.19
622.55	498.19
622.89	496.05
623.24	494.14
623.59	491.76
623.93	489.90
624.28	487.33
624.62	488.14
624.97	487.95
625.32	485.57
625.66	483.86
626.01	482.14
626.35	480.52
626.70	479.14
627.04	478.05
627.39	476.52
627.73	475.10
628.08	473.71
628.43	471.67
628.77	468.24
629.12	466.14
629.46	463.90
629.81	462.24
630.15	460.48
630.50	458.00
630.84	456.81
631.19	454.43
631.53	452.43
631.88	447.90
632.22	443.90
632.57	442.33
632.91	439.67
633.26	436.95
633.60	434.19
633.95	431.29
634.29	427.62
634.64	425.71
634.98	423.19
635.32	420.95
635.67	419.33
636.01	417.38
636.36	415.38
636.70	414.19
637.05	412.05
637.39	409.71
637.73	408.48
638.08	406.95
638.42	404.81
638.77	403.43
639.11	401.57
639.45	399.48
639.80	397.19
640.14	396.24
640.49	394.48
640.83	392.62
641.17	391.76
641.52	390.48
641.86	389.05
642.20	388.29
642.55	386.81
642.89	385.52
643.23	384.43
643.58	383.86
643.92	381.48
644.26	380.76
644.61	380.29
644.95	379.05
645.29	377.57
645.64	377.67
645.98	376.71
646.32	376.33
646.66	375.57
647.01	374.81
647.35	374.24
647.69	374.33
648.04	374.19
648.38	373.19
648.72	372.24
649.06	370.90
649.41	368.95
649.75	368.19
650.09	367.57
650.43	366.48
650.78	365.29
651.12	364.33
651.46	363.05
651.80	361.38
652.14	359.86
652.49	359.10
652.83	357.38
653.17	356.29
653.51	354.38
653.85	353.57
654.20	352.43
654.54	350.52
654.88	348.29
655.22	346.76
655.56	345.38
655.90	344.71
656.25	344.00
656.59	343.62
656.93	342.57
657.27	342.14
657.61	340.62
657.95	340.19
658.29	339.71
658.64	339.33
658.98	338.62
659.32	338.14
659.66	337.24
660.00	336.67
660.34	335.90
660.68	335.52
661.02	334.48
661.36	333.81
661.70	332.76
662.05	332.52
662.39	332.57
662.73	332.67
663.07	333.10
663.41	332.67
663.75	331.29
664.09	330.76
664.43	329.52
664.77	329.81
665.11	328.86
665.45	328.10
665.79	327.67
666.13	326.81
666.47	326.10
666.81	325.29
667.15	324.05
667.49	323.81
667.83	323.76
668.17	323.10
668.51	322.71
668.85	322.95
669.19	322.81
669.53	321.52
669.87	320.29
670.21	318.33
670.55	317.52
670.89	318.19
671.23	317.71
671.57	317.10
671.91	316.43
672.25	315.57
672.58	316.14
672.92	314.86
673.26	314.48
673.60	314.05
673.94	313.62
674.28	313.33
674.62	312.76
674.96	311.76
675.30	311.57
675.64	310.71
675.97	310.05
676.31	308.90
676.65	308.10
676.99	308.52
677.33	307.67
677.67	307.29
678.01	305.29
678.34	304.71
678.68	304.67
679.02	303.62
679.36	302.95
679.70	301.57
680.04	301.33
680.37	300.86
680.71	300.14
681.05	299.48
681.39	298.90
681.73	298.29
682.06	297.81
682.40	297.33
682.74	297.57
683.08	298.10
683.42	297.62
683.75	298.33
684.09	297.14
684.43	297.24
684.77	296.24
685.10	296.33
685.44	295.67
685.78	294.81
686.12	294.76
686.45	294.38
686.79	293.38
687.13	293.10
687.46	292.62
687.80	292.76
688.14	292.24
688.48	292.24
688.81	292.10
689.15	292.24
689.49	291.95
689.82	291.24
690.16	289.33
690.50	289.14
690.83	287.71
691.17	287.14
691.51	286.57
691.84	286.62
692.18	286.05
692.52	285.43
692.85	285.19
693.19	285.24
693.52	284.76
693.86	284.62
694.20	284.43
694.53	284.05
694.87	283.10
695.21	282.38
695.54	281.81
695.88	281.05
696.21	279.67
696.55	279.05
696.88	278.29
697.22	278.05
697.56	277.76
697.89	277.33
698.23	277.24
698.56	277.10
698.90	277.14
699.23	276.48
699.57	276.81
699.90	276.19
700.24	275.33
700.58	275.43
700.91	275.81
701.25	277.38
701.58	278.19
701.92	279.33
702.25	279.71
702.59	279.57
702.92	279.90
703.26	280.76
703.59	281.38
703.93	284.24
704.26	284.86
704.60	285.67
704.93	286.29
705.26	286.48
705.60	287.14
705.93	286.71
706.27	287.76
706.60	288.57
706.94	290.38
707.27	290.67
707.61	291.38
707.94	291.48
708.27	289.90
708.61	289.00
708.94	288.52
709.28	288.38
709.61	288.05
709.94	287.81
710.28	287.05
710.61	286.48
710.95	283.24
711.28	284.43
711.61	283.00
711.95	282.52
712.28	281.62
712.61	280.57
712.95	281.19
713.28	281.24
713.61	280.10
713.95	277.71
714.28	277.10
714.61	275.76
714.95	274.57
715.28	273.29
715.61	272.52
715.95	271.76
716.28	270.90
716.61	270.95
716.95	269.86
717.28	269.48
717.61	268.71
717.94	268.33
718.28	265.71
718.61	265.29
718.94	264.57
719.27	264.52
719.61	264.29
719.94	263.48
720.27	262.10
720.60	261.29
720.94	261.38
721.27	261.14
721.60	261.29
721.93	261.05
722.27	261.86
722.60	262.29
722.93	261.67
723.26	261.90
723.59	261.38
723.93	261.62
724.26	261.67
724.59	261.57
724.92	261.95
725.25	262.67
725.59	262.62
725.92	262.86
726.25	262.29
726.58	262.38
726.91	262.05
727.24	262.38
727.57	262.33
727.91	262.05
728.24	262.33
728.57	262.00
728.90	262.38
729.23	261.38
729.56	261.81
729.89	262.00
730.22	261.76
730.55	261.71
730.89	261.76
731.22	261.52
731.55	261.43
731.88	261.14
732.21	260.67
732.54	260.33
732.87	260.10
733.20	260.19
733.53	260.00
733.86	260.19
734.19	259.38
734.52	259.76
734.85	261.24
735.18	260.62
735.51	261.05
735.84	261.00
736.17	261.57
736.50	260.57
736.83	263.14
737.16	263.05
737.49	263.05
737.82	262.62
738.15	262.81
738.48	262.62
738.81	262.38
739.14	261.90
739.47	261.57
739.80	261.57
740.13	261.95
740.46	261.48
740.79	260.81
741.12	261.29
741.45	260.86
741.78	259.05
742.11	259.62
742.44	259.00
742.77	258.90
743.10	258.14
743.43	257.62
743.75	255.00
744.08	257.71
744.41	257.05
744.74	256.95
745.07	256.52
745.40	257.00
745.73	258.05
746.06	258.29
746.39	258.76
746.71	258.43
747.04	258.00
747.37	257.81
747.70	258.05
748.03	258.24
748.36	258.67
748.68	258.90
749.01	257.76
749.34	257.43
749.67	257.24
750.00	257.62
750.33	259.43
750.65	259.43
750.98	256.33
751.31	256.24
751.64	256.14
751.97	257.05
752.29	256.52
752.62	255.43
752.95	254.86
753.28	254.52
753.60	254.10
753.93	254.29
754.26	254.52
754.59	253.76
754.91	253.00
755.24	252.33
755.57	252.05
755.90	252.19
756.22	251.95
756.55	251.62
756.88	251.05
757.20	249.24
757.53	248.38
757.86	248.43
758.19	248.86
758.51	248.81
758.84	247.67
759.17	247.29
759.49	247.43
759.82	248.81
760.15	248.86
760.47	249.05
760.80	248.38
761.13	248.86
761.45	248.81
761.78	248.95
762.11	249.19
762.43	249.19
762.76	249.29
763.08	249.95
763.41	250.14
763.74	250.05
764.06	250.05
764.39	250.14
764.71	250.05
765.04	249.71
765.37	249.05
765.69	249.14
766.02	249.48
766.34	249.10
766.67	247.76
767.00	248.19
767.32	249.43
767.65	251.00
767.97	250.19
768.30	250.48
768.62	250.10
768.95	249.57
769.27	249.48
769.60	249.76
769.92	249.05
770.25	248.52
770.57	248.14
770.90	248.24
771.22	247.76
771.55	247.95
771.87	248.00
772.20	248.24
772.52	250.10
772.85	252.67
773.17	252.48
773.50	252.52
773.82	252.19
774.15	250.76
774.47	249.10
774.80	248.86
775.12	248.71
775.45	248.52
775.77	248.48
776.09	248.48
776.42	248.14
776.74	249.10
777.07	248.76
777.39	248.95
777.72	248.52
778.04	249.29
778.36	249.05
778.69	249.05
779.01	249.10
779.33	246.57
779.66	243.90
779.98	243.81
780.31	243.81
780.63	244.76
780.95	245.38
781.28	245.38
781.60	245.43
781.92	245.71
782.25	246.05
782.57	246.43
782.89	246.19
783.22	246.14
783.54	245.19
783.86	245.57
784.19	245.10
784.51	245.81
784.83	245.14
785.16	244.71
785.48	244.57
785.80	244.86
786.12	245.38
786.45	245.29
786.77	245.38
787.09	245.43
787.42	244.33
787.74	244.29
788.06	244.24
788.38	244.24
788.71	243.71
789.03	243.62
789.35	243.71
789.67	243.33
789.99	243.33
790.32	243.00
790.64	243.43
790.96	245.76
791.28	245.29
791.61	245.29
791.93	245.67
792.25	245.71
792.57	247.19
792.89	246.62
793.21	246.57
793.54	246.48
793.86	246.10
