SpectraSuite Data File
++++++++++++++++++++++++++++++++++++
Date: Wed Nov 07 18:33:08 EST 2012
User: group
Dark Spectrum Present: No
Reference Spectrum Present: No
Number of Sampled Component Spectra: 1
Spectrometers: USB2E7196
Integration Time (usec): 1000000 (USB2E7196)
Spectra Averaged: 1 (USB2E7196)
Boxcar Smoothing: 10 (USB2E7196)
Correct for Electrical Dark: No (USB2E7196)
Strobe/Lamp Enabled: No (USB2E7196)
Correct for Detector Non-linearity: No (USB2E7196)
Correct for Stray Light: No (USB2E7196)
Number of Pixels in Processed Spectrum: 2048
>>>>>Begin Processed Spectral Data<<<<<
339.09	0.00
339.48	215.00
339.86	223.00
340.24	227.00
340.63	224.00
341.01	268.00
341.39	228.00
341.78	235.00
342.16	243.00
342.54	238.00
342.93	225.14
343.31	236.10
343.69	237.05
344.07	237.57
344.46	238.29
344.84	239.10
345.22	237.67
345.60	238.14
345.99	238.48
346.37	238.00
346.75	238.00
347.13	238.00
347.52	238.14
347.90	239.00
348.28	239.05
348.66	239.57
349.05	238.52
349.43	238.81
349.81	238.71
350.19	238.62
350.57	238.29
350.96	238.57
351.34	239.00
351.72	239.14
352.10	239.05
352.48	238.67
352.87	238.43
353.25	238.43
353.63	238.43
354.01	238.14
354.39	238.14
354.77	238.24
355.15	238.95
355.54	238.57
355.92	237.86
356.30	237.86
356.68	239.19
357.06	239.43
357.44	238.90
357.82	238.67
358.20	239.05
358.58	239.33
358.97	239.38
359.35	239.90
359.73	240.14
360.11	240.19
360.49	240.10
360.87	240.14
361.25	240.19
361.63	240.95
362.01	241.10
362.39	240.86
362.77	240.57
363.15	240.05
363.53	240.10
363.91	240.14
364.29	240.00
364.67	237.71
365.05	237.95
365.43	238.29
365.81	238.76
366.19	239.52
366.57	240.48
366.95	239.81
367.33	238.95
367.71	238.86
368.09	239.29
368.47	239.48
368.85	239.24
369.23	239.71
369.61	238.62
369.99	239.33
370.37	240.14
370.75	241.67
371.13	241.48
371.51	241.14
371.89	241.00
372.27	241.10
372.65	241.43
373.03	241.43
373.41	241.48
373.78	241.24
374.16	240.05
374.54	239.24
374.92	239.62
375.30	239.62
375.68	239.38
376.06	239.67
376.44	239.48
376.82	239.38
377.19	239.38
377.57	239.67
377.95	238.71
378.33	238.24
378.71	236.95
379.09	237.43
379.47	237.76
379.84	237.86
380.22	237.62
380.60	237.05
380.98	237.14
381.36	237.14
381.73	237.05
382.11	237.57
382.49	237.67
382.87	237.14
383.25	237.14
383.62	239.95
384.00	239.48
384.38	239.76
384.76	240.67
385.13	241.33
385.51	241.10
385.89	240.90
386.27	240.95
386.64	241.05
387.02	240.95
387.40	240.76
387.78	240.86
388.15	241.05
388.53	241.05
388.91	240.90
389.29	240.52
389.66	240.67
390.04	240.24
390.42	240.67
390.79	241.48
391.17	241.76
391.55	239.10
391.92	239.00
392.30	239.29
392.68	238.86
393.05	238.81
393.43	239.05
393.81	239.29
394.18	238.95
394.56	238.90
394.94	239.19
395.31	239.29
395.69	240.10
396.06	240.62
396.44	240.90
396.82	240.38
397.19	241.95
397.57	241.81
397.95	242.19
398.32	241.52
398.70	241.19
399.07	242.00
399.45	241.90
399.82	241.71
400.20	241.29
400.58	241.00
400.95	240.00
401.33	240.52
401.70	242.76
402.08	243.43
402.45	243.57
402.83	243.95
403.20	244.43
403.58	244.52
403.95	245.24
404.33	245.76
404.71	246.52
405.08	247.76
405.46	248.00
405.83	248.38
406.21	248.62
406.58	249.57
406.96	249.29
407.33	250.14
407.70	250.95
408.08	253.67
408.45	254.95
408.83	256.19
409.20	256.76
409.58	255.67
409.95	256.71
410.33	257.86
410.70	258.24
411.08	259.62
411.45	260.57
411.82	261.14
412.20	262.90
412.57	265.33
412.95	264.62
413.32	267.05
413.69	268.62
414.07	270.43
414.44	272.05
414.82	274.05
415.19	276.57
415.56	279.19
415.94	280.19
416.31	283.00
416.68	285.81
417.06	289.10
417.43	292.95
417.81	296.29
418.18	299.81
418.55	303.90
418.93	307.81
419.30	311.67
419.67	316.48
420.04	320.52
420.42	325.14
420.79	333.10
421.16	338.43
421.54	345.86
421.91	352.57
422.28	359.33
422.66	366.38
423.03	374.38
423.40	380.95
423.77	388.19
424.15	395.67
424.52	403.67
424.89	412.48
425.26	419.95
425.64	428.10
426.01	436.71
426.38	445.57
426.75	454.95
427.13	464.62
427.50	473.52
427.87	483.62
428.24	493.57
428.61	501.57
428.99	513.14
429.36	523.67
429.73	534.48
430.10	545.76
430.47	557.24
430.85	567.67
431.22	580.33
431.59	596.29
431.96	608.62
432.33	622.57
432.70	636.48
433.08	653.14
433.45	668.48
433.82	683.24
434.19	700.38
434.56	716.76
434.93	732.29
435.30	748.67
435.68	765.90
436.05	782.57
436.42	798.67
436.79	813.29
437.16	828.76
437.53	846.33
437.90	862.19
438.27	879.24
438.64	896.86
439.01	913.71
439.38	925.86
439.75	939.71
440.13	954.81
440.50	969.57
440.87	980.67
441.24	992.52
441.61	1005.10
441.98	1014.43
442.35	1025.81
442.72	1038.10
443.09	1049.86
443.46	1055.90
443.83	1059.48
444.20	1063.52
444.57	1067.95
444.94	1070.38
445.31	1072.14
445.68	1077.90
446.05	1077.57
446.42	1073.67
446.79	1070.29
447.16	1065.67
447.53	1062.67
447.90	1055.71
448.27	1046.90
448.64	1037.19
449.01	1029.33
449.37	1017.90
449.74	1005.10
450.11	993.43
450.48	976.52
450.85	959.90
451.22	946.62
451.59	934.00
451.96	921.29
452.33	905.57
452.70	890.90
453.07	873.62
453.43	853.76
453.80	837.71
454.17	822.67
454.54	807.14
454.91	792.62
455.28	777.24
455.65	762.10
456.02	752.14
456.38	738.95
456.75	724.38
457.12	711.62
457.49	699.71
457.86	684.33
458.23	675.81
458.59	664.38
458.96	653.19
459.33	643.14
459.70	633.24
460.07	625.52
460.43	616.57
460.80	608.05
461.17	599.48
461.54	591.81
461.91	584.14
462.27	577.29
462.64	569.90
463.01	562.95
463.38	557.38
463.74	546.10
464.11	540.57
464.48	535.19
464.85	529.48
465.21	525.81
465.58	521.86
465.95	515.00
466.32	510.38
466.68	505.33
467.05	500.38
467.42	495.95
467.78	491.48
468.15	486.86
468.52	483.95
468.88	480.38
469.25	475.90
469.62	473.43
469.98	469.38
470.35	466.52
470.72	463.52
471.08	458.76
471.45	456.43
471.82	453.90
472.18	450.52
472.55	448.38
472.92	444.62
473.28	441.71
473.65	439.33
474.02	437.14
474.38	435.67
474.75	434.67
475.11	432.29
475.48	430.71
475.85	429.19
476.21	427.19
476.58	425.71
476.94	424.48
477.31	422.95
477.67	421.90
478.04	420.95
478.41	420.19
478.77	422.14
479.14	420.90
479.50	420.33
479.87	420.52
480.23	419.95
480.60	419.86
480.96	420.48
481.33	421.81
481.69	422.05
482.06	422.24
482.42	422.81
482.79	423.90
483.15	424.24
483.52	425.52
483.88	426.57
484.25	427.52
484.61	428.71
484.98	429.38
485.34	431.33
485.71	432.81
486.07	434.14
486.44	433.29
486.80	435.10
487.17	436.71
487.53	438.33
487.90	440.52
488.26	443.67
488.62	445.71
488.99	446.33
489.35	447.81
489.72	449.86
490.08	451.43
490.44	453.14
490.81	455.71
491.17	457.48
491.54	460.14
491.90	462.81
492.26	465.33
492.63	467.48
492.99	469.81
493.36	472.43
493.72	475.62
494.08	478.24
494.45	481.24
494.81	484.05
495.17	487.33
495.54	490.76
495.90	493.10
496.26	496.19
496.63	500.38
496.99	504.33
497.35	507.90
497.72	512.05
498.08	516.43
498.44	520.24
498.80	524.67
499.17	528.71
499.53	532.71
499.89	537.57
500.26	542.14
500.62	546.67
500.98	551.29
501.34	556.10
501.71	561.43
502.07	566.19
502.43	571.10
502.79	575.19
503.16	580.19
503.52	584.95
503.88	589.29
504.24	594.90
504.60	600.57
504.97	606.67
505.33	611.86
505.69	617.38
506.05	622.57
506.41	628.05
506.78	633.05
507.14	637.95
507.50	643.48
507.86	650.00
508.22	655.48
508.59	660.86
508.95	666.00
509.31	672.33
509.67	677.81
510.03	683.67
510.39	688.86
510.75	694.05
511.12	699.29
511.48	705.05
511.84	709.10
512.20	714.00
512.56	718.24
512.92	722.52
513.28	727.24
513.64	731.90
514.00	736.57
514.37	741.00
514.73	746.81
515.09	750.86
515.45	754.71
515.81	758.24
516.17	762.19
516.53	766.14
516.89	768.86
517.25	772.10
517.61	777.29
517.97	782.43
518.33	786.00
518.69	790.95
519.05	795.24
519.41	799.48
519.77	804.81
520.13	808.00
520.49	810.81
520.85	814.05
521.21	818.38
521.57	821.57
521.93	824.67
522.29	826.57
522.65	829.00
523.01	831.43
523.37	834.19
523.73	836.86
524.09	839.14
524.45	841.57
524.81	844.86
525.17	845.95
525.53	847.67
525.89	849.24
526.25	850.71
526.61	851.62
526.97	852.38
527.33	853.05
527.68	857.33
528.04	860.19
528.40	861.48
528.76	862.29
529.12	863.62
529.48	865.67
529.84	867.29
530.20	869.57
530.56	871.86
530.91	873.67
531.27	875.05
531.63	875.76
531.99	877.14
532.35	878.14
532.71	878.86
533.07	879.05
533.42	883.71
533.78	884.67
534.14	886.57
534.50	888.76
534.86	889.86
535.21	888.86
535.57	890.48
535.93	891.67
536.29	894.38
536.65	896.62
537.00	898.10
537.36	899.29
537.72	900.62
538.08	902.14
538.44	903.10
538.79	905.29
539.15	908.29
539.51	911.57
539.87	913.81
540.22	916.43
540.58	919.19
540.94	918.76
541.29	920.14
541.65	921.48
542.01	923.71
542.37	925.24
542.72	925.95
543.08	926.29
543.44	927.38
543.79	925.33
544.15	925.29
544.51	924.52
544.87	924.14
545.22	923.43
545.58	921.86
545.94	920.90
546.29	919.48
546.65	917.48
547.01	913.57
547.36	911.33
547.72	908.43
548.07	906.10
548.43	902.81
548.79	900.19
549.14	897.29
549.50	893.86
549.86	889.48
550.21	887.81
550.57	885.52
550.92	882.24
551.28	880.33
551.64	876.29
551.99	875.14
552.35	873.24
552.70	870.19
553.06	868.05
553.41	865.52
553.77	864.57
554.13	862.52
554.48	860.76
554.84	858.95
555.19	857.19
555.55	857.05
555.90	855.24
556.26	853.19
556.61	851.00
556.97	848.00
557.32	845.86
557.68	843.52
558.03	841.43
558.39	839.24
558.74	837.57
559.10	836.81
559.45	834.00
559.81	832.24
560.16	830.57
560.52	829.33
560.87	829.05
561.23	825.67
561.58	825.81
561.94	824.19
562.29	822.43
562.64	821.05
563.00	817.00
563.35	815.19
563.71	813.19
564.06	811.62
564.42	810.86
564.77	810.38
565.12	809.19
565.48	810.19
565.83	809.90
566.19	808.57
566.54	807.38
566.89	806.10
567.25	805.19
567.60	805.52
567.96	805.62
568.31	804.95
568.66	805.43
569.02	802.57
569.37	801.00
569.72	799.71
570.08	798.24
570.43	796.71
570.78	795.48
571.14	795.10
571.49	794.19
571.84	792.95
572.20	791.86
572.55	790.33
572.90	786.38
573.26	784.24
573.61	782.57
573.96	780.57
574.31	778.86
574.67	776.86
575.02	774.10
575.37	770.90
575.72	768.33
576.08	765.52
576.43	763.43
576.78	762.86
577.13	761.71
577.49	760.10
577.84	759.48
578.19	758.29
578.54	757.00
578.90	756.14
579.25	754.67
579.60	753.81
579.95	752.67
580.30	751.33
580.66	750.48
581.01	749.86
581.36	748.52
581.71	747.00
582.06	746.57
582.42	745.14
582.77	743.86
583.12	742.33
583.47	740.81
583.82	739.81
584.17	738.10
584.53	736.52
584.88	735.05
585.23	733.76
585.58	731.95
585.93	729.05
586.28	726.33
586.63	724.76
586.98	722.43
587.34	720.10
587.69	717.52
588.04	714.71
588.39	711.24
588.74	708.38
589.09	707.48
589.44	703.05
589.79	700.43
590.14	697.90
590.49	694.90
590.84	690.90
591.19	687.62
591.54	684.67
591.89	680.33
592.25	679.19
592.60	675.29
592.95	672.43
593.30	669.43
593.65	666.38
594.00	662.71
594.35	666.38
594.70	663.05
595.05	660.52
595.40	658.05
595.75	655.48
596.10	653.33
596.45	649.67
596.80	647.62
597.15	644.67
597.50	641.33
597.85	639.52
598.19	637.52
598.54	634.67
598.89	631.52
599.24	630.43
599.59	625.62
599.94	623.14
600.29	620.43
600.64	618.52
600.99	616.71
601.34	615.29
601.69	605.86
602.04	603.10
602.39	599.86
602.74	597.76
603.08	595.71
603.43	594.33
603.78	591.76
604.13	589.90
604.48	587.95
604.83	587.33
605.18	586.00
605.53	586.19
605.87	587.81
606.22	591.10
606.57	595.10
606.92	600.43
607.27	606.10
607.62	611.67
607.96	617.86
608.31	621.90
608.66	625.43
609.01	628.62
609.36	632.14
609.70	635.81
610.05	638.19
610.40	641.48
610.75	642.95
611.10	644.86
611.44	645.67
611.79	646.52
612.14	646.05
612.49	644.38
612.83	642.14
613.18	638.38
613.53	633.24
613.88	625.67
614.22	617.95
614.57	610.10
614.92	600.90
615.27	592.05
615.61	584.38
615.96	577.76
616.31	571.43
616.65	565.38
617.00	559.67
617.35	553.81
617.70	547.19
618.04	541.90
618.39	537.00
618.74	533.48
619.08	529.67
619.43	526.00
619.78	522.67
620.12	518.95
620.47	516.52
620.82	513.52
621.16	510.95
621.51	509.24
621.85	506.10
622.20	504.62
622.55	501.52
622.89	499.62
623.24	496.90
623.59	494.67
623.93	493.00
624.28	491.00
624.62	491.24
624.97	490.71
625.32	488.24
625.66	486.24
626.01	483.19
626.35	481.81
626.70	479.52
627.04	478.95
627.39	477.76
627.73	476.19
628.08	474.14
628.43	471.52
628.77	468.14
629.12	466.38
629.46	464.19
629.81	462.43
630.15	459.81
630.50	457.57
630.84	455.57
631.19	452.95
631.53	450.29
631.88	445.33
632.22	441.48
632.57	439.76
632.91	437.38
633.26	435.52
633.60	432.52
633.95	430.38
634.29	426.67
634.64	424.76
634.98	421.52
635.32	419.62
635.67	418.19
636.01	416.52
636.36	414.48
636.70	413.00
637.05	411.48
637.39	409.52
637.73	408.19
638.08	407.05
638.42	405.52
638.77	404.38
639.11	402.90
639.45	401.24
639.80	399.43
640.14	398.14
640.49	396.62
640.83	394.62
641.17	393.10
641.52	391.95
641.86	390.33
642.20	390.29
642.55	388.81
642.89	387.71
643.23	386.95
643.58	386.62
643.92	384.62
644.26	383.57
644.61	383.52
644.95	382.24
645.29	380.38
645.64	380.05
645.98	378.86
646.32	378.48
646.66	377.62
647.01	376.33
647.35	375.38
647.69	374.38
648.04	374.43
648.38	374.10
648.72	373.24
649.06	372.10
649.41	370.62
649.75	369.48
650.09	368.76
650.43	367.43
650.78	365.43
651.12	364.71
651.46	363.14
651.80	361.48
652.14	360.05
652.49	359.57
652.83	357.67
653.17	356.71
653.51	355.33
653.85	354.43
654.20	353.52
654.54	352.14
654.88	350.86
655.22	348.95
655.56	347.10
655.90	345.90
656.25	344.81
656.59	343.52
656.93	342.62
657.27	342.29
657.61	341.05
657.95	340.86
658.29	340.14
658.64	340.14
658.98	339.19
659.32	338.19
659.66	337.19
660.00	336.71
660.34	335.67
660.68	334.90
661.02	334.38
661.36	333.71
661.70	333.10
662.05	332.67
662.39	332.90
662.73	333.43
663.07	334.38
663.41	334.00
663.75	332.76
664.09	332.29
664.43	330.86
664.77	330.33
665.11	329.24
665.45	328.24
665.79	327.81
666.13	326.90
666.47	326.24
666.81	325.24
667.15	324.05
667.49	323.62
667.83	323.67
668.17	322.52
668.51	321.67
668.85	321.24
669.19	321.52
669.53	319.95
669.87	318.24
670.21	316.10
670.55	315.48
670.89	316.48
671.23	315.71
671.57	314.81
671.91	314.48
672.25	313.90
672.58	314.43
672.92	313.19
673.26	312.71
673.60	312.57
673.94	312.43
674.28	312.10
674.62	312.24
674.96	311.24
675.30	311.19
675.64	311.05
675.97	310.38
676.31	308.81
676.65	308.62
676.99	308.90
677.33	308.33
677.67	307.86
678.01	305.62
678.34	305.14
678.68	305.43
679.02	304.38
679.36	303.57
679.70	302.33
680.04	301.57
680.37	300.90
680.71	300.05
681.05	299.43
681.39	298.81
681.73	297.62
682.06	297.00
682.40	296.29
682.74	295.95
683.08	296.76
683.42	296.57
683.75	296.52
684.09	295.24
684.43	295.19
684.77	294.48
685.10	294.86
685.44	294.43
685.78	293.71
686.12	293.33
686.45	292.90
686.79	292.00
687.13	292.10
687.46	291.95
687.80	292.57
688.14	292.10
688.48	292.05
688.81	291.33
689.15	291.52
689.49	290.95
689.82	290.43
690.16	288.71
690.50	288.05
690.83	287.24
691.17	286.90
691.51	286.05
691.84	285.76
692.18	284.95
692.52	284.67
692.85	284.24
693.19	285.05
693.52	285.00
693.86	284.52
694.20	283.86
694.53	283.29
694.87	282.14
695.21	281.24
695.54	280.86
695.88	280.29
696.21	279.29
696.55	279.14
696.88	278.62
697.22	278.19
697.56	278.24
697.89	277.81
698.23	277.76
698.56	277.52
698.90	277.48
699.23	277.10
699.57	276.48
699.90	275.86
700.24	275.10
700.58	275.24
700.91	275.90
701.25	278.19
701.58	279.14
701.92	280.14
702.25	281.00
702.59	281.14
702.92	282.05
703.26	282.76
703.59	283.19
703.93	285.76
704.26	286.29
704.60	286.71
704.93	287.14
705.26	287.14
705.60	288.00
705.93	287.62
706.27	288.95
706.60	290.14
706.94	291.38
707.27	291.38
707.61	291.33
707.94	291.33
708.27	289.38
708.61	288.76
708.94	288.19
709.28	287.86
709.61	287.29
709.94	286.52
710.28	285.67
710.61	285.19
710.95	282.05
711.28	283.14
711.61	281.95
711.95	281.95
712.28	281.24
712.61	280.00
712.95	280.57
713.28	280.29
713.61	279.05
713.95	277.48
714.28	276.57
714.61	275.52
714.95	274.48
715.28	272.81
715.61	272.19
715.95	271.48
716.28	270.67
716.61	270.24
716.95	269.52
717.28	269.05
717.61	268.24
717.94	267.90
718.28	265.10
718.61	264.76
718.94	263.62
719.27	263.10
719.61	263.10
719.94	262.14
720.27	260.76
720.60	260.57
720.94	260.62
721.27	260.43
721.60	260.48
721.93	260.38
722.27	261.38
722.60	261.00
722.93	260.19
723.26	260.10
723.59	259.62
723.93	260.05
724.26	259.95
724.59	259.71
724.92	259.71
725.25	260.71
725.59	260.48
725.92	260.57
726.25	260.24
726.58	260.05
726.91	259.67
727.24	260.19
727.57	259.76
727.91	259.33
728.24	259.43
728.57	259.38
728.90	259.67
729.23	258.71
729.56	259.86
729.89	259.76
730.22	259.62
730.55	259.52
730.89	259.10
731.22	258.90
731.55	258.90
731.88	258.81
732.21	258.19
732.54	258.00
732.87	257.76
733.20	257.95
733.53	258.05
733.86	258.43
734.19	257.67
734.52	258.00
734.85	259.52
735.18	259.43
735.51	259.95
735.84	259.67
736.17	260.43
736.50	259.00
736.83	261.95
737.16	261.76
737.49	261.90
737.82	261.76
738.15	261.86
738.48	261.52
738.81	261.38
739.14	260.95
739.47	260.67
739.80	260.52
740.13	260.90
740.46	260.05
740.79	259.48
741.12	259.33
741.45	258.90
741.78	257.67
742.11	257.90
742.44	256.81
742.77	257.10
743.10	256.57
743.43	256.29
743.75	253.67
744.08	256.67
744.41	256.29
744.74	256.14
745.07	255.33
745.40	255.67
745.73	256.76
746.06	256.62
746.39	257.14
746.71	256.90
747.04	256.29
747.37	256.33
747.70	256.57
748.03	256.62
748.36	256.67
748.68	255.90
749.01	255.19
749.34	255.29
749.67	255.05
750.00	255.24
750.33	257.00
750.65	256.81
750.98	253.62
751.31	253.19
751.64	253.10
751.97	254.76
752.29	254.71
752.62	253.24
752.95	253.57
753.28	253.24
753.60	252.90
753.93	253.38
754.26	253.48
754.59	253.10
754.91	252.76
755.24	252.38
755.57	252.48
755.90	252.00
756.22	251.62
756.55	250.86
756.88	250.10
757.20	248.43
757.53	247.95
757.86	248.14
758.19	248.52
758.51	248.43
758.84	246.90
759.17	246.48
759.49	246.81
759.82	247.81
760.15	248.00
760.47	248.19
760.80	247.38
761.13	248.10
761.45	247.90
761.78	247.81
762.11	248.10
762.43	248.19
762.76	248.10
763.08	248.62
763.41	248.90
763.74	249.29
764.06	249.24
764.39	249.19
764.71	248.86
765.04	248.43
765.37	248.33
765.69	248.14
766.02	248.05
766.34	247.57
766.67	246.52
767.00	246.67
767.32	247.81
767.65	249.38
767.97	248.67
768.30	248.38
768.62	248.43
768.95	248.10
769.27	247.86
769.60	248.67
769.92	248.14
770.25	248.00
770.57	247.43
770.90	247.29
771.22	247.00
771.55	246.95
771.87	247.19
772.20	246.76
772.52	248.86
772.85	251.71
773.17	251.95
773.50	251.86
773.82	251.62
774.15	250.29
774.47	248.95
774.80	248.67
775.12	248.81
775.45	248.76
775.77	248.90
776.09	249.05
776.42	248.62
776.74	249.48
777.07	249.05
777.39	249.19
777.72	248.76
778.04	249.24
778.36	249.14
778.69	249.43
779.01	249.86
779.33	247.76
779.66	245.00
779.98	244.67
780.31	244.76
780.63	245.57
780.95	246.10
781.28	245.90
781.60	245.90
781.92	245.81
782.25	245.62
782.57	245.57
782.89	245.43
783.22	245.10
783.54	244.52
783.86	244.67
784.19	244.33
784.51	245.67
784.83	245.33
785.16	245.33
785.48	245.19
785.80	245.19
786.12	245.05
786.45	245.14
786.77	245.71
787.09	245.43
787.42	244.76
787.74	245.00
788.06	244.95
788.38	244.76
788.71	244.52
789.03	244.76
789.35	245.05
789.67	244.71
789.99	244.90
790.32	244.38
790.64	244.71
790.96	246.95
791.28	245.62
791.61	245.62
791.93	245.76
792.25	245.57
792.57	247.24
792.89	247.10
793.21	247.24
793.54	247.10
793.86	246.81
