SpectraSuite Data File
++++++++++++++++++++++++++++++++++++
Date: Wed Nov 07 18:32:54 EST 2012
User: group
Dark Spectrum Present: No
Reference Spectrum Present: No
Number of Sampled Component Spectra: 1
Spectrometers: USB2E7196
Integration Time (usec): 1000000 (USB2E7196)
Spectra Averaged: 1 (USB2E7196)
Boxcar Smoothing: 10 (USB2E7196)
Correct for Electrical Dark: No (USB2E7196)
Strobe/Lamp Enabled: No (USB2E7196)
Correct for Detector Non-linearity: No (USB2E7196)
Correct for Stray Light: No (USB2E7196)
Number of Pixels in Processed Spectrum: 2048
>>>>>Begin Processed Spectral Data<<<<<
339.09	0.00
339.48	211.00
339.86	221.00
340.24	222.00
340.63	221.00
341.01	264.00
341.39	222.00
341.78	237.00
342.16	244.00
342.54	230.00
342.93	221.81
343.31	232.90
343.69	234.00
344.07	234.57
344.46	235.38
344.84	236.00
345.22	234.48
345.60	235.33
345.99	235.57
346.37	235.33
346.75	235.57
347.13	235.43
347.52	235.52
347.90	236.62
348.28	236.95
348.66	237.62
349.05	237.43
349.43	237.71
349.81	238.19
350.19	238.33
350.57	238.43
350.96	238.95
351.34	239.19
351.72	239.38
352.10	239.62
352.48	239.24
352.87	239.52
353.25	239.81
353.63	239.76
354.01	239.33
354.39	239.38
354.77	239.38
355.15	240.29
355.54	240.00
355.92	239.29
356.30	239.19
356.68	240.62
357.06	240.57
357.44	240.67
357.82	240.38
358.20	240.48
358.58	240.10
358.97	239.95
359.35	240.67
359.73	241.00
360.11	240.76
360.49	241.00
360.87	240.67
361.25	240.57
361.63	241.29
362.01	241.48
362.39	241.29
362.77	241.62
363.15	241.33
363.53	241.62
363.91	241.95
364.29	242.19
364.67	239.90
365.05	240.00
365.43	239.76
365.81	239.86
366.19	240.62
366.57	241.52
366.95	241.48
367.33	240.43
367.71	240.38
368.09	240.67
368.47	240.86
368.85	240.90
369.23	241.71
369.61	240.71
369.99	241.33
370.37	242.14
370.75	243.05
371.13	242.71
371.51	242.10
371.89	241.81
372.27	241.67
372.65	241.86
373.03	242.00
373.41	242.00
373.78	242.00
374.16	240.86
374.54	240.43
374.92	240.38
375.30	240.62
375.68	240.05
376.06	240.43
376.44	240.19
376.82	240.19
377.19	239.86
377.57	239.52
377.95	238.81
378.33	238.14
378.71	236.57
379.09	237.00
379.47	237.33
379.84	237.14
380.22	236.90
380.60	236.57
380.98	236.14
381.36	236.24
381.73	235.90
382.11	236.52
382.49	236.33
382.87	236.10
383.25	236.00
383.62	238.71
384.00	238.00
384.38	237.90
384.76	238.62
385.13	239.48
385.51	239.67
385.89	239.52
386.27	239.24
386.64	239.86
387.02	239.43
387.40	239.29
387.78	239.33
388.15	239.52
388.53	239.52
388.91	239.62
389.29	239.33
389.66	239.90
390.04	239.57
390.42	240.24
390.79	240.33
391.17	240.33
391.55	238.05
391.92	238.19
392.30	238.38
392.68	237.67
393.05	237.67
393.43	237.86
393.81	237.86
394.18	237.90
394.56	237.90
394.94	238.52
395.31	238.29
395.69	239.24
396.06	239.90
396.44	239.86
396.82	239.67
397.19	241.05
397.57	240.95
397.95	241.33
398.32	240.52
398.70	240.95
399.07	241.67
399.45	241.33
399.82	241.43
400.20	241.48
400.58	241.71
400.95	240.90
401.33	241.76
401.70	243.67
402.08	244.05
402.45	244.19
402.83	244.57
403.20	245.05
403.58	244.90
403.95	245.19
404.33	245.67
404.71	246.29
405.08	247.52
405.46	247.57
405.83	248.29
406.21	248.62
406.58	249.05
406.96	249.48
407.33	250.38
407.70	251.48
408.08	254.00
408.45	254.81
408.83	255.86
409.20	255.90
409.58	255.43
409.95	256.33
410.33	257.05
410.70	257.33
411.08	258.62
411.45	259.71
411.82	260.24
412.20	262.10
412.57	264.52
412.95	263.81
413.32	265.90
413.69	266.67
414.07	268.67
414.44	270.10
414.82	271.81
415.19	274.19
415.56	276.48
415.94	277.33
416.31	280.33
416.68	282.76
417.06	286.24
417.43	289.62
417.81	293.52
418.18	298.00
418.55	302.05
418.93	306.00
419.30	309.86
419.67	314.52
420.04	318.95
420.42	323.14
420.79	331.05
421.16	336.57
421.54	344.19
421.91	350.76
422.28	357.29
422.66	364.05
423.03	372.43
423.40	379.00
423.77	386.76
424.15	394.14
424.52	401.90
424.89	410.24
425.26	418.00
425.64	425.52
426.01	433.43
426.38	442.19
426.75	451.81
427.13	461.19
427.50	470.76
427.87	480.71
428.24	490.19
428.61	498.24
428.99	509.76
429.36	520.10
429.73	530.71
430.10	542.57
430.47	555.00
430.85	565.71
431.22	578.90
431.59	594.48
431.96	606.86
432.33	621.81
432.70	636.67
433.08	652.81
433.45	668.24
433.82	683.95
434.19	701.33
434.56	717.62
434.93	734.19
435.30	750.14
435.68	767.52
436.05	785.38
436.42	802.05
436.79	817.33
437.16	833.90
437.53	851.10
437.90	868.10
438.27	884.86
438.64	901.14
439.01	917.24
439.38	929.10
439.75	942.71
440.13	957.29
440.50	971.43
440.87	983.43
441.24	995.62
441.61	1008.52
441.98	1016.76
442.35	1027.29
442.72	1038.52
443.09	1050.00
443.46	1055.76
443.83	1058.67
444.20	1061.90
444.57	1065.62
444.94	1067.38
445.31	1069.67
445.68	1073.95
446.05	1073.52
446.42	1071.14
446.79	1068.67
447.16	1064.43
447.53	1061.86
447.90	1054.86
448.27	1047.10
448.64	1036.67
449.01	1028.71
449.37	1016.00
449.74	1005.00
450.11	993.52
450.48	976.95
450.85	959.90
451.22	946.81
451.59	935.38
451.96	923.14
452.33	907.86
452.70	893.38
453.07	876.14
453.43	856.00
453.80	839.38
454.17	822.81
454.54	806.48
454.91	791.19
455.28	775.48
455.65	760.57
456.02	749.71
456.38	737.57
456.75	722.76
457.12	710.14
457.49	697.38
457.86	683.62
458.23	674.71
458.59	664.05
458.96	652.57
459.33	641.52
459.70	631.76
460.07	624.00
460.43	614.57
460.80	606.29
461.17	598.90
461.54	591.19
461.91	584.19
462.27	576.76
462.64	570.19
463.01	563.48
463.38	557.52
463.74	546.76
464.11	541.05
464.48	535.57
464.85	530.00
465.21	526.52
465.58	521.71
465.95	515.43
466.32	511.14
466.68	506.29
467.05	501.81
467.42	496.81
467.78	491.90
468.15	487.57
468.52	484.43
468.88	479.86
469.25	475.29
469.62	473.00
469.98	469.57
470.35	466.19
470.72	463.14
471.08	458.48
471.45	455.86
471.82	453.62
472.18	450.52
472.55	448.05
472.92	444.38
473.28	441.48
473.65	438.52
474.02	436.43
474.38	435.10
474.75	433.38
475.11	431.33
475.48	429.62
475.85	428.14
476.21	426.10
476.58	424.71
476.94	423.95
477.31	422.14
477.67	420.52
478.04	420.05
478.41	419.10
478.77	421.38
479.14	420.00
479.50	418.81
479.87	418.38
480.23	418.67
480.60	418.38
480.96	418.48
481.33	420.33
481.69	420.00
482.06	420.67
482.42	422.05
482.79	422.81
483.15	423.52
483.52	425.19
483.88	426.10
484.25	427.38
484.61	428.38
484.98	429.90
485.34	432.81
485.71	434.29
486.07	435.48
486.44	433.95
486.80	436.00
487.17	437.00
487.53	439.43
487.90	441.29
488.26	444.24
488.62	446.33
488.99	447.62
489.35	449.33
489.72	450.81
490.08	452.14
490.44	454.05
490.81	456.43
491.17	457.95
491.54	461.05
491.90	463.81
492.26	466.00
492.63	467.90
492.99	469.62
493.36	471.71
493.72	475.29
494.08	478.81
494.45	482.14
494.81	486.38
495.17	488.95
495.54	492.14
495.90	494.67
496.26	498.48
496.63	501.62
496.99	506.00
497.35	509.86
497.72	514.33
498.08	517.71
498.44	521.90
498.80	526.62
499.17	530.24
499.53	534.24
499.89	539.71
500.26	544.52
500.62	548.81
500.98	553.81
501.34	557.90
501.71	562.62
502.07	567.29
502.43	571.43
502.79	576.29
503.16	581.33
503.52	586.14
503.88	591.24
504.24	596.76
504.60	601.81
504.97	607.76
505.33	612.33
505.69	618.86
506.05	623.81
506.41	628.95
506.78	634.67
507.14	640.10
507.50	644.71
507.86	650.29
508.22	656.67
508.59	661.57
508.95	667.71
509.31	674.33
509.67	679.33
510.03	683.67
510.39	689.10
510.75	694.33
511.12	699.62
511.48	704.48
511.84	709.38
512.20	714.52
512.56	718.33
512.92	723.62
513.28	728.33
513.64	733.62
514.00	737.76
514.37	742.33
514.73	747.19
515.09	752.67
515.45	756.38
515.81	760.00
516.17	764.71
516.53	768.67
516.89	771.00
517.25	774.81
517.61	780.33
517.97	784.14
518.33	787.81
518.69	791.48
519.05	794.95
519.41	799.19
519.77	803.33
520.13	807.67
520.49	811.00
520.85	814.05
521.21	818.19
521.57	821.76
521.93	824.57
522.29	827.52
522.65	829.33
523.01	832.24
523.37	834.71
523.73	836.95
524.09	839.14
524.45	841.71
524.81	844.86
525.17	847.00
525.53	849.43
525.89	850.43
526.25	853.05
526.61	855.00
526.97	855.86
527.33	857.24
527.68	861.24
528.04	862.52
528.40	863.76
528.76	863.81
529.12	864.86
529.48	866.29
529.84	867.38
530.20	868.71
530.56	870.76
530.91	872.05
531.27	874.14
531.63	875.71
531.99	877.48
532.35	877.90
532.71	879.33
533.07	880.62
533.42	885.38
533.78	887.00
534.14	889.10
534.50	891.52
534.86	893.00
535.21	891.10
535.57	892.90
535.93	893.71
536.29	897.00
536.65	898.81
537.00	899.95
537.36	900.67
537.72	902.57
538.08	904.33
538.44	906.52
538.79	908.33
539.15	910.38
539.51	912.57
539.87	915.38
540.22	916.81
540.58	918.76
540.94	918.10
541.29	919.95
541.65	921.05
542.01	923.29
542.37	925.05
542.72	926.43
543.08	926.19
543.44	927.33
543.79	925.76
544.15	926.33
544.51	926.00
544.87	926.10
545.22	924.48
545.58	923.90
545.94	921.48
546.29	919.10
546.65	916.48
547.01	913.48
547.36	910.71
547.72	908.81
548.07	906.90
548.43	904.14
548.79	900.95
549.14	897.05
549.50	893.14
549.86	889.05
550.21	886.10
550.57	883.76
550.92	880.86
551.28	879.10
551.64	875.90
551.99	874.76
552.35	872.10
552.70	870.29
553.06	867.52
553.41	865.90
553.77	865.52
554.13	863.48
554.48	862.76
554.84	860.38
555.19	858.52
555.55	857.57
555.90	856.10
556.26	853.95
556.61	852.57
556.97	849.86
557.32	848.33
557.68	846.57
558.03	844.81
558.39	843.52
558.74	840.52
559.10	838.67
559.45	836.05
559.81	834.52
560.16	833.10
560.52	831.24
560.87	830.57
561.23	827.24
561.58	828.10
561.94	825.62
562.29	824.71
562.64	823.48
563.00	819.71
563.35	818.19
563.71	815.86
564.06	813.86
564.42	812.67
564.77	811.19
565.12	810.33
565.48	811.95
565.83	811.38
566.19	810.86
566.54	809.90
566.89	808.57
567.25	807.57
567.60	807.71
567.96	808.24
568.31	807.14
568.66	807.43
569.02	803.52
569.37	802.43
569.72	801.05
570.08	798.48
570.43	796.14
570.78	793.14
571.14	791.76
571.49	789.67
571.84	788.33
572.20	787.24
572.55	785.57
572.90	780.76
573.26	778.29
573.61	776.86
573.96	775.38
574.31	774.33
574.67	773.29
575.02	771.24
575.37	768.14
575.72	765.19
576.08	763.00
576.43	762.57
576.78	762.14
577.13	759.90
577.49	759.00
577.84	759.14
578.19	758.95
578.54	758.52
578.90	757.76
579.25	756.33
579.60	754.90
579.95	752.95
580.30	752.29
580.66	750.90
581.01	749.19
581.36	747.14
581.71	745.57
582.06	744.90
582.42	743.62
582.77	742.19
583.12	741.48
583.47	739.86
583.82	738.29
584.17	735.95
584.53	735.43
584.88	733.57
585.23	732.33
585.58	729.90
585.93	727.00
586.28	725.52
586.63	723.67
586.98	720.62
587.34	718.76
587.69	715.33
588.04	712.95
588.39	710.57
588.74	708.24
589.09	706.24
589.44	702.33
589.79	699.00
590.14	695.62
590.49	692.05
590.84	688.86
591.19	685.86
591.54	682.62
591.89	678.86
592.25	678.19
592.60	673.76
592.95	671.90
593.30	669.43
593.65	666.62
594.00	662.76
594.35	667.48
594.70	665.05
595.05	663.33
595.40	660.24
595.75	657.57
596.10	654.71
596.45	651.38
596.80	648.76
597.15	645.24
597.50	642.57
597.85	640.81
598.19	637.95
598.54	634.76
598.89	631.57
599.24	629.29
599.59	624.33
599.94	622.38
600.29	619.24
600.64	616.81
600.99	615.24
601.34	613.43
601.69	604.19
602.04	600.95
602.39	598.29
602.74	596.95
603.08	594.48
603.43	593.38
603.78	591.57
604.13	589.43
604.48	587.90
604.83	587.19
605.18	586.52
605.53	587.14
605.87	588.71
606.22	592.19
606.57	596.71
606.92	601.48
607.27	606.19
607.62	612.05
607.96	617.86
608.31	620.62
608.66	624.76
609.01	627.86
609.36	631.71
609.70	635.19
610.05	637.43
610.40	640.29
610.75	642.05
611.10	644.19
611.44	645.48
611.79	646.14
612.14	646.33
612.49	644.43
612.83	641.86
613.18	637.76
613.53	632.29
613.88	625.05
614.22	616.67
614.57	609.67
614.92	600.29
615.27	591.95
615.61	585.33
615.96	577.52
616.31	571.19
616.65	565.19
617.00	558.62
617.35	552.67
617.70	546.90
618.04	541.38
618.39	535.24
618.74	530.86
619.08	526.81
619.43	521.76
619.78	518.00
620.12	514.67
620.47	512.52
620.82	509.76
621.16	506.81
621.51	506.43
621.85	503.71
622.20	502.57
622.55	499.71
622.89	497.48
623.24	496.24
623.59	493.86
623.93	491.10
624.28	489.29
624.62	489.67
624.97	488.62
625.32	486.33
625.66	484.62
626.01	482.10
626.35	480.43
626.70	478.81
627.04	478.19
627.39	476.67
627.73	474.95
628.08	473.19
628.43	471.24
628.77	467.67
629.12	465.43
629.46	463.48
629.81	461.81
630.15	459.86
630.50	457.43
630.84	455.33
631.19	453.38
631.53	451.19
631.88	446.05
632.22	442.67
632.57	440.71
632.91	438.76
633.26	436.81
633.60	434.19
633.95	432.10
634.29	428.81
634.64	426.57
634.98	423.43
635.32	421.67
635.67	420.00
636.01	418.57
636.36	416.48
636.70	414.81
637.05	412.52
637.39	410.14
637.73	408.86
638.08	407.86
638.42	405.62
638.77	403.81
639.11	402.67
639.45	400.71
639.80	398.90
640.14	397.19
640.49	395.76
640.83	394.29
641.17	393.29
641.52	392.33
641.86	391.10
642.20	390.81
642.55	389.05
642.89	387.48
643.23	386.48
643.58	386.24
643.92	384.00
644.26	383.19
644.61	383.29
644.95	382.19
645.29	380.76
645.64	380.95
645.98	380.00
646.32	379.71
646.66	378.67
647.01	377.71
647.35	377.14
647.69	376.24
648.04	375.67
648.38	374.57
648.72	373.71
649.06	372.33
649.41	370.57
649.75	369.05
650.09	368.33
650.43	367.00
650.78	365.24
651.12	363.90
651.46	362.67
651.80	360.86
652.14	359.43
652.49	358.62
652.83	356.90
653.17	355.67
653.51	353.76
653.85	352.90
654.20	351.86
654.54	349.86
654.88	348.38
655.22	346.67
655.56	345.10
655.90	344.10
656.25	343.14
656.59	342.33
656.93	341.95
657.27	341.76
657.61	340.14
657.95	339.14
658.29	338.62
658.64	338.14
658.98	336.90
659.32	335.76
659.66	334.86
660.00	334.29
660.34	334.05
660.68	333.43
661.02	332.95
661.36	331.90
661.70	331.62
662.05	330.95
662.39	331.48
662.73	332.29
663.07	332.86
663.41	332.19
663.75	331.19
664.09	330.52
664.43	328.76
664.77	328.33
665.11	327.05
665.45	326.38
665.79	326.10
666.13	325.76
666.47	324.90
666.81	324.10
667.15	323.10
667.49	322.48
667.83	322.76
668.17	321.95
668.51	321.71
668.85	321.24
669.19	321.67
669.53	320.19
669.87	318.24
670.21	316.10
670.55	315.57
670.89	316.10
671.23	315.57
671.57	315.48
671.91	315.33
672.25	315.43
672.58	315.90
672.92	314.71
673.26	314.33
673.60	314.05
673.94	313.38
674.28	313.38
674.62	312.90
674.96	311.48
675.30	311.52
675.64	310.86
675.97	310.29
676.31	308.86
676.65	307.90
676.99	308.52
677.33	308.00
677.67	307.57
678.01	306.05
678.34	305.14
678.68	305.00
679.02	304.19
679.36	303.81
679.70	302.38
680.04	301.81
680.37	300.90
680.71	300.38
681.05	299.95
681.39	298.95
681.73	298.05
682.06	297.90
682.40	296.86
682.74	296.43
683.08	296.43
683.42	296.05
683.75	296.19
684.09	295.05
684.43	294.43
684.77	294.05
685.10	293.71
685.44	293.76
685.78	292.76
686.12	292.43
686.45	291.71
686.79	291.10
687.13	291.29
687.46	290.90
687.80	291.14
688.14	290.76
688.48	290.86
688.81	290.86
689.15	290.95
689.49	290.43
689.82	290.29
690.16	289.67
690.50	289.14
690.83	288.33
691.17	287.76
691.51	288.14
691.84	287.71
692.18	287.48
692.52	286.81
692.85	286.57
693.19	286.95
693.52	286.52
693.86	286.33
694.20	285.62
694.53	285.33
694.87	284.24
695.21	283.67
695.54	282.90
695.88	282.10
696.21	280.62
696.55	280.38
696.88	279.62
697.22	278.67
697.56	278.48
697.89	277.86
698.23	277.43
698.56	276.67
698.90	276.52
699.23	275.95
699.57	275.81
699.90	275.52
700.24	274.43
700.58	274.67
700.91	274.76
701.25	276.95
701.58	277.71
701.92	278.90
702.25	279.10
702.59	279.24
702.92	279.48
703.26	280.24
703.59	280.48
703.93	282.95
704.26	283.76
704.60	284.62
704.93	285.29
705.26	285.81
705.60	286.52
705.93	286.24
706.27	287.43
706.60	288.19
706.94	289.71
707.27	290.00
707.61	290.29
707.94	290.48
708.27	288.62
708.61	287.81
708.94	287.29
709.28	287.00
709.61	286.48
709.94	286.14
710.28	285.57
710.61	285.05
710.95	282.33
711.28	283.24
711.61	282.05
711.95	281.76
712.28	280.57
712.61	279.43
712.95	280.10
713.28	280.10
713.61	278.90
713.95	276.71
714.28	275.81
714.61	274.62
714.95	273.67
715.28	272.24
715.61	271.43
715.95	270.48
716.28	270.14
716.61	269.90
716.95	269.29
717.28	268.52
717.61	268.05
717.94	267.67
718.28	265.33
718.61	264.81
718.94	264.05
719.27	263.95
719.61	263.52
719.94	262.33
720.27	260.48
720.60	259.86
720.94	259.62
721.27	259.62
721.60	259.48
721.93	259.14
722.27	260.19
722.60	260.38
722.93	259.95
723.26	259.71
723.59	259.38
723.93	259.76
724.26	260.00
724.59	259.67
724.92	259.71
725.25	260.43
725.59	260.14
725.92	260.29
726.25	259.95
726.58	260.33
726.91	259.67
727.24	260.19
727.57	260.33
727.91	260.24
728.24	260.33
728.57	260.05
728.90	260.10
729.23	258.90
729.56	259.90
729.89	259.90
730.22	259.57
730.55	259.14
730.89	258.62
731.22	258.38
731.55	258.48
731.88	258.19
732.21	257.10
732.54	257.19
732.87	256.86
733.20	257.14
733.53	256.86
733.86	257.52
734.19	256.81
734.52	256.71
734.85	257.90
735.18	257.57
735.51	258.14
735.84	258.19
736.17	258.71
736.50	257.43
736.83	260.14
737.16	260.19
737.49	260.24
737.82	260.00
738.15	260.33
738.48	259.95
738.81	259.62
739.14	259.71
739.47	259.19
739.80	259.14
740.13	259.10
740.46	258.71
740.79	258.14
741.12	258.10
741.45	257.95
741.78	256.95
742.11	257.57
742.44	257.43
742.77	257.62
743.10	257.48
743.43	257.19
743.75	254.62
744.08	257.43
744.41	257.19
744.74	256.95
745.07	256.10
745.40	256.48
745.73	257.52
746.06	257.57
746.39	257.90
746.71	257.81
747.04	257.38
747.37	257.14
747.70	257.76
748.03	258.00
748.36	258.10
748.68	257.86
749.01	256.95
749.34	256.38
749.67	256.19
750.00	256.10
750.33	257.81
750.65	257.76
750.98	254.67
751.31	255.19
751.64	255.29
751.97	256.76
752.29	256.38
752.62	255.33
752.95	255.14
753.28	254.86
753.60	254.81
753.93	255.33
754.26	255.57
754.59	254.52
754.91	254.14
755.24	254.00
755.57	253.81
755.90	253.81
756.22	253.81
756.55	253.38
756.88	253.10
757.20	251.19
757.53	250.48
757.86	250.57
758.19	250.57
758.51	250.43
758.84	249.10
759.17	249.05
759.49	249.29
759.82	250.38
760.15	250.76
760.47	250.48
760.80	249.48
761.13	249.71
761.45	249.57
761.78	249.43
762.11	249.10
762.43	248.95
762.76	248.81
763.08	249.19
763.41	249.19
763.74	249.10
764.06	249.14
764.39	249.29
764.71	248.81
765.04	248.48
765.37	248.43
765.69	248.48
766.02	248.29
766.34	247.52
766.67	246.43
767.00	246.67
767.32	248.05
767.65	249.62
767.97	249.33
768.30	249.57
768.62	249.57
768.95	249.38
769.27	249.33
769.60	249.81
769.92	249.33
770.25	249.05
770.57	248.62
770.90	248.67
771.22	248.48
771.55	248.81
771.87	248.57
772.20	248.38
772.52	250.43
772.85	253.48
773.17	253.81
773.50	253.76
773.82	252.90
774.15	251.57
774.47	249.86
774.80	249.57
775.12	249.48
775.45	249.24
775.77	249.38
776.09	249.43
776.42	249.00
776.74	249.52
777.07	249.48
777.39	249.52
777.72	249.14
778.04	249.29
778.36	249.10
778.69	249.00
779.01	249.14
779.33	246.81
779.66	243.86
779.98	243.48
780.31	243.24
780.63	244.19
780.95	244.62
781.28	244.52
781.60	244.43
781.92	244.43
782.25	244.33
782.57	244.19
782.89	244.00
783.22	243.90
783.54	243.10
783.86	243.29
784.19	243.14
784.51	244.00
784.83	243.48
785.16	242.90
785.48	242.86
785.80	242.67
786.12	242.67
786.45	242.52
786.77	242.90
787.09	243.05
787.42	242.57
787.74	242.81
788.06	243.33
788.38	243.33
788.71	243.00
789.03	243.14
789.35	243.48
789.67	243.10
789.99	243.33
790.32	243.43
790.64	243.76
790.96	245.67
791.28	244.95
791.61	245.14
791.93	245.52
792.25	245.29
792.57	247.24
792.89	247.29
793.21	247.43
793.54	247.24
793.86	246.76
