SpectraSuite Data File
++++++++++++++++++++++++++++++++++++
Date: Wed Nov 07 18:32:38 EST 2012
User: group
Dark Spectrum Present: No
Reference Spectrum Present: No
Number of Sampled Component Spectra: 1
Spectrometers: USB2E7196
Integration Time (usec): 1000000 (USB2E7196)
Spectra Averaged: 1 (USB2E7196)
Boxcar Smoothing: 10 (USB2E7196)
Correct for Electrical Dark: No (USB2E7196)
Strobe/Lamp Enabled: No (USB2E7196)
Correct for Detector Non-linearity: No (USB2E7196)
Correct for Stray Light: No (USB2E7196)
Number of Pixels in Processed Spectrum: 2048
>>>>>Begin Processed Spectral Data<<<<<
339.09	0.00
339.48	221.00
339.86	215.00
340.24	218.00
340.63	219.00
341.01	262.00
341.39	224.00
341.78	228.00
342.16	236.00
342.54	228.00
342.93	220.71
343.31	231.67
343.69	232.14
344.07	232.95
344.46	233.95
344.84	234.62
345.22	233.33
345.60	233.90
345.99	234.38
346.37	234.14
346.75	234.43
347.13	234.81
347.52	234.95
347.90	235.57
348.28	235.67
348.66	236.57
349.05	236.05
349.43	236.19
349.81	235.95
350.19	236.10
350.57	236.00
350.96	236.57
351.34	237.10
351.72	237.19
352.10	236.95
352.48	236.90
352.87	237.10
353.25	237.10
353.63	237.00
354.01	236.90
354.39	237.52
354.77	237.57
355.15	238.29
355.54	238.24
355.92	238.00
356.30	238.38
356.68	239.90
357.06	240.33
357.44	240.00
357.82	240.38
358.20	240.67
358.58	240.86
358.97	240.95
359.35	241.29
359.73	241.62
360.11	242.14
360.49	242.00
360.87	241.90
361.25	242.29
361.63	243.24
362.01	243.38
362.39	243.05
362.77	243.43
363.15	243.29
363.53	243.14
363.91	243.29
364.29	243.00
364.67	240.43
365.05	240.48
365.43	240.95
365.81	241.14
366.19	242.10
366.57	243.19
366.95	243.24
367.33	242.76
367.71	242.76
368.09	243.14
368.47	243.57
368.85	243.48
369.23	244.29
369.61	243.24
369.99	243.95
370.37	244.14
370.75	245.38
371.13	245.14
371.51	244.86
371.89	244.81
372.27	245.00
372.65	245.19
373.03	245.29
373.41	244.86
373.78	244.67
374.16	243.71
374.54	242.90
374.92	242.43
375.30	242.48
375.68	241.95
376.06	241.57
376.44	241.14
376.82	241.24
377.19	240.62
377.57	240.43
377.95	239.67
378.33	239.43
378.71	237.81
379.09	237.81
379.47	238.29
379.84	238.19
380.22	237.81
380.60	237.57
380.98	237.38
381.36	237.52
381.73	237.19
382.11	237.29
382.49	237.29
382.87	237.14
383.25	236.86
383.62	240.14
384.00	240.00
384.38	239.81
384.76	240.57
385.13	241.57
385.51	242.19
385.89	241.86
386.27	242.24
386.64	242.71
387.02	242.52
387.40	242.24
387.78	242.29
388.15	242.67
388.53	242.62
388.91	242.48
389.29	242.10
389.66	242.29
390.04	242.10
390.42	242.48
390.79	242.86
391.17	243.00
391.55	240.05
391.92	240.33
392.30	241.19
392.68	240.86
393.05	240.71
393.43	240.48
393.81	240.86
394.18	240.48
394.56	240.43
394.94	240.95
395.31	240.62
395.69	241.48
396.06	241.81
396.44	242.05
396.82	241.90
397.19	243.33
397.57	243.24
397.95	243.86
398.32	243.14
398.70	243.43
399.07	244.05
399.45	244.05
399.82	244.05
400.20	243.24
400.58	242.90
400.95	242.00
401.33	242.52
401.70	244.10
402.08	244.05
402.45	244.24
402.83	244.90
403.20	245.24
403.58	244.76
403.95	244.95
404.33	245.24
404.71	245.48
405.08	246.90
405.46	247.38
405.83	247.71
406.21	248.24
406.58	248.29
406.96	248.52
407.33	249.48
407.70	250.05
408.08	252.71
408.45	253.81
408.83	254.76
409.20	255.19
409.58	254.38
409.95	256.00
410.33	256.76
410.70	256.62
411.08	258.38
411.45	259.81
411.82	260.48
412.20	262.33
412.57	265.05
412.95	264.48
413.32	266.48
413.69	268.00
414.07	270.00
414.44	271.95
414.82	274.29
415.19	276.71
415.56	279.19
415.94	280.33
416.31	283.10
416.68	285.95
417.06	289.52
417.43	293.67
417.81	297.10
418.18	301.19
418.55	305.14
418.93	309.05
419.30	312.95
419.67	318.29
420.04	322.52
420.42	326.76
420.79	334.14
421.16	339.38
421.54	346.29
421.91	352.43
422.28	358.67
422.66	365.05
423.03	373.10
423.40	380.10
423.77	388.14
424.15	395.57
424.52	403.19
424.89	412.00
425.26	419.48
425.64	427.14
426.01	435.10
426.38	444.10
426.75	453.24
427.13	462.81
427.50	471.90
427.87	481.67
428.24	491.71
428.61	500.00
428.99	511.81
429.36	522.43
429.73	533.43
430.10	545.29
430.47	557.48
430.85	568.29
431.22	581.38
431.59	595.86
431.96	608.81
432.33	623.29
432.70	637.14
433.08	652.76
433.45	668.81
433.82	684.14
434.19	701.48
434.56	717.67
434.93	733.14
435.30	748.90
435.68	767.19
436.05	783.62
436.42	800.05
436.79	814.86
437.16	831.19
437.53	848.33
437.90	864.86
438.27	881.38
438.64	897.52
439.01	913.05
439.38	925.62
439.75	939.10
440.13	954.48
440.50	968.33
440.87	980.52
441.24	990.67
441.61	1004.00
441.98	1012.52
442.35	1023.71
442.72	1035.14
443.09	1047.00
443.46	1052.05
443.83	1056.43
444.20	1060.43
444.57	1065.29
444.94	1067.00
445.31	1069.00
445.68	1074.00
446.05	1074.10
446.42	1071.95
446.79	1069.38
447.16	1065.19
447.53	1062.62
447.90	1055.43
448.27	1046.95
448.64	1035.81
449.01	1029.33
449.37	1016.81
449.74	1006.10
450.11	994.05
450.48	978.38
450.85	961.48
451.22	948.19
451.59	935.48
451.96	922.19
452.33	906.38
452.70	891.48
453.07	874.57
453.43	854.14
453.80	837.67
454.17	822.05
454.54	806.57
454.91	791.05
455.28	774.57
455.65	758.71
456.02	748.90
456.38	737.48
456.75	722.00
457.12	709.19
457.49	696.38
457.86	682.48
458.23	673.14
458.59	662.62
458.96	651.48
459.33	641.14
459.70	631.52
460.07	623.43
460.43	614.52
460.80	606.48
461.17	598.14
461.54	589.76
461.91	581.86
462.27	573.76
462.64	567.43
463.01	560.86
463.38	555.48
463.74	544.19
464.11	538.24
464.48	533.52
464.85	527.43
465.21	523.24
465.58	518.90
465.95	512.33
466.32	507.33
466.68	502.81
467.05	498.62
467.42	494.14
467.78	489.19
468.15	485.14
468.52	481.52
468.88	478.10
469.25	474.19
469.62	471.57
469.98	468.76
470.35	465.33
470.72	462.24
471.08	458.00
471.45	456.10
471.82	453.57
472.18	449.81
472.55	448.14
472.92	444.62
473.28	441.57
473.65	439.19
474.02	436.90
474.38	435.00
474.75	433.00
475.11	431.10
475.48	429.24
475.85	427.29
476.21	425.95
476.58	424.76
476.94	423.43
477.31	421.71
477.67	420.43
478.04	419.67
478.41	419.38
478.77	421.48
479.14	420.43
479.50	419.48
479.87	419.57
480.23	418.76
480.60	418.57
480.96	418.81
481.33	419.90
481.69	420.05
482.06	420.57
482.42	421.33
482.79	422.10
483.15	422.86
483.52	424.10
483.88	424.14
484.25	425.05
484.61	426.38
484.98	427.57
485.34	429.48
485.71	431.24
486.07	432.19
486.44	431.48
486.80	433.00
487.17	435.43
487.53	437.86
487.90	439.76
488.26	442.76
488.62	444.81
488.99	445.95
489.35	448.29
489.72	449.95
490.08	451.24
490.44	452.43
490.81	454.95
491.17	456.81
491.54	459.38
491.90	461.76
492.26	464.19
492.63	466.57
492.99	468.76
493.36	471.38
493.72	475.29
494.08	477.52
494.45	480.43
494.81	483.52
495.17	486.48
495.54	490.62
495.90	492.86
496.26	496.29
496.63	500.19
496.99	503.76
497.35	507.19
497.72	512.10
498.08	516.48
498.44	520.48
498.80	524.95
499.17	530.05
499.53	534.24
499.89	539.24
500.26	543.90
500.62	548.57
500.98	553.29
501.34	557.14
501.71	562.90
502.07	567.90
502.43	572.38
502.79	576.52
503.16	580.67
503.52	586.10
503.88	591.05
504.24	596.43
504.60	601.95
504.97	608.10
505.33	612.62
505.69	618.62
506.05	624.10
506.41	629.43
506.78	633.95
507.14	639.14
507.50	644.10
507.86	649.95
508.22	655.05
508.59	660.43
508.95	666.62
509.31	672.52
509.67	677.95
510.03	682.81
510.39	687.95
510.75	693.05
511.12	698.57
511.48	703.05
511.84	707.52
512.20	712.67
512.56	717.48
512.92	722.67
513.28	727.43
513.64	732.24
514.00	737.43
514.37	741.90
514.73	746.43
515.09	751.29
515.45	755.95
515.81	760.38
516.17	764.05
516.53	767.48
516.89	770.24
517.25	774.38
517.61	779.71
517.97	783.81
518.33	788.24
518.69	791.62
519.05	796.62
519.41	800.81
519.77	805.05
520.13	808.43
520.49	811.62
520.85	815.29
521.21	819.19
521.57	822.10
521.93	825.52
522.29	829.19
522.65	831.48
523.01	833.52
523.37	835.00
523.73	837.71
524.09	840.48
524.45	842.81
524.81	844.90
525.17	846.29
525.53	848.71
525.89	850.81
526.25	853.24
526.61	853.76
526.97	855.33
527.33	855.95
527.68	859.43
528.04	860.86
528.40	862.29
528.76	862.86
529.12	863.71
529.48	864.95
529.84	865.38
530.20	867.05
530.56	869.05
530.91	871.48
531.27	872.86
531.63	873.90
531.99	874.86
532.35	876.33
532.71	876.90
533.07	877.86
533.42	881.81
533.78	882.14
534.14	883.67
534.50	884.76
534.86	886.19
535.21	885.67
535.57	887.62
535.93	887.81
536.29	891.29
536.65	892.33
537.00	894.86
537.36	897.38
537.72	899.19
538.08	901.43
538.44	903.05
538.79	905.14
539.15	907.62
539.51	910.67
539.87	912.29
540.22	914.95
540.58	917.90
540.94	917.48
541.29	920.43
541.65	922.67
542.01	924.57
542.37	926.00
542.72	927.00
543.08	927.10
543.44	927.62
543.79	925.19
544.15	926.95
544.51	925.86
544.87	925.43
545.22	923.48
545.58	921.38
545.94	919.81
546.29	918.14
546.65	915.24
547.01	912.52
547.36	910.57
547.72	907.95
548.07	904.95
548.43	901.57
548.79	897.62
549.14	894.24
549.50	891.10
549.86	888.10
550.21	885.00
550.57	882.81
550.92	879.90
551.28	877.62
551.64	874.10
551.99	872.14
552.35	869.05
552.70	867.29
553.06	865.81
553.41	863.10
553.77	862.38
554.13	860.24
554.48	858.43
554.84	856.52
555.19	854.38
555.55	854.67
555.90	853.14
556.26	850.81
556.61	848.38
556.97	846.43
557.32	843.38
557.68	841.86
558.03	840.52
558.39	838.81
558.74	837.38
559.10	835.29
559.45	832.67
559.81	831.24
560.16	828.90
560.52	826.33
560.87	825.52
561.23	823.00
561.58	823.90
561.94	822.14
562.29	819.86
562.64	818.38
563.00	814.43
563.35	813.38
563.71	812.81
564.06	812.29
564.42	810.05
564.77	810.00
565.12	808.00
565.48	807.29
565.83	806.81
566.19	805.00
566.54	804.19
566.89	803.90
567.25	803.52
567.60	804.38
567.96	805.43
568.31	805.33
568.66	804.05
569.02	800.43
569.37	799.10
569.72	798.00
570.08	796.29
570.43	795.14
570.78	792.76
571.14	790.62
571.49	788.86
571.84	788.24
572.20	785.95
572.55	785.14
572.90	782.62
573.26	781.10
573.61	780.14
573.96	778.52
574.31	777.00
574.67	775.19
575.02	772.43
575.37	769.05
575.72	766.19
576.08	764.62
576.43	763.67
576.78	761.90
577.13	760.90
577.49	760.05
577.84	758.86
578.19	757.90
578.54	757.67
578.90	756.43
579.25	754.90
579.60	754.76
579.95	753.33
580.30	752.33
580.66	751.52
581.01	750.14
581.36	748.86
581.71	747.19
582.06	746.86
582.42	745.24
582.77	743.71
583.12	742.76
583.47	741.14
583.82	739.86
584.17	739.62
584.53	738.62
584.88	737.19
585.23	736.62
585.58	734.43
585.93	731.33
586.28	729.24
586.63	727.43
586.98	724.71
587.34	722.24
587.69	719.14
588.04	716.14
588.39	712.76
588.74	709.95
589.09	707.38
589.44	703.00
589.79	701.10
590.14	698.19
590.49	695.05
590.84	691.05
591.19	687.67
591.54	683.81
591.89	680.10
592.25	678.67
592.60	673.57
592.95	670.67
593.30	668.29
593.65	665.52
594.00	662.48
594.35	666.24
594.70	663.29
595.05	660.71
595.40	657.43
595.75	655.29
596.10	652.62
596.45	649.38
596.80	645.90
597.15	642.48
597.50	639.38
597.85	638.24
598.19	636.00
598.54	633.00
598.89	629.95
599.24	627.29
599.59	623.05
599.94	621.10
600.29	618.62
600.64	616.71
600.99	615.14
601.34	612.67
601.69	602.86
602.04	600.38
602.39	597.76
602.74	596.48
603.08	594.62
603.43	593.57
603.78	591.62
604.13	590.05
604.48	588.43
604.83	587.38
605.18	585.05
605.53	585.38
605.87	586.76
606.22	590.81
606.57	596.29
606.92	601.19
607.27	606.43
607.62	612.38
607.96	617.19
608.31	620.62
608.66	624.81
609.01	628.67
609.36	632.29
609.70	635.76
610.05	637.76
610.40	640.43
610.75	641.38
611.10	643.38
611.44	644.62
611.79	645.33
612.14	645.52
612.49	644.48
612.83	642.29
613.18	638.86
613.53	632.52
613.88	624.10
614.22	615.10
614.57	606.29
614.92	597.76
615.27	589.90
615.61	582.00
615.96	574.76
616.31	568.43
616.65	562.43
617.00	556.10
617.35	550.24
617.70	543.76
618.04	539.10
618.39	534.19
618.74	530.76
619.08	527.00
619.43	522.86
619.78	518.52
620.12	515.29
620.47	512.57
620.82	509.57
621.16	506.90
621.51	506.57
621.85	504.38
622.20	501.62
622.55	498.62
622.89	496.57
623.24	494.71
623.59	491.90
623.93	489.33
624.28	487.14
624.62	487.71
624.97	487.57
625.32	484.48
625.66	482.00
626.01	479.10
626.35	476.71
626.70	474.33
627.04	473.67
627.39	472.19
627.73	471.00
628.08	469.19
628.43	467.29
628.77	463.81
629.12	462.05
629.46	460.29
629.81	458.52
630.15	456.90
630.50	454.10
630.84	452.57
631.19	450.14
631.53	448.05
631.88	443.19
632.22	438.62
632.57	437.62
632.91	435.33
633.26	433.48
633.60	431.19
633.95	429.48
634.29	426.52
634.64	423.81
634.98	420.43
635.32	418.43
635.67	416.81
636.01	415.29
636.36	413.19
636.70	411.71
637.05	409.71
637.39	407.52
637.73	406.86
638.08	405.38
638.42	404.14
638.77	402.86
639.11	401.19
639.45	400.05
639.80	398.00
640.14	396.52
640.49	394.86
640.83	393.33
641.17	392.24
641.52	390.67
641.86	389.76
642.20	389.48
642.55	387.95
642.89	386.52
643.23	385.00
643.58	384.86
643.92	383.10
644.26	382.14
644.61	381.48
644.95	379.52
645.29	378.14
645.64	378.00
645.98	376.62
646.32	376.71
646.66	376.10
647.01	375.00
647.35	374.81
647.69	374.10
648.04	373.38
648.38	372.24
648.72	371.76
649.06	370.24
649.41	368.62
649.75	367.62
650.09	366.86
650.43	366.14
650.78	364.05
651.12	362.95
651.46	361.86
651.80	360.57
652.14	359.33
652.49	359.05
652.83	357.33
653.17	356.10
653.51	354.19
653.85	353.10
654.20	351.62
654.54	349.90
654.88	347.95
655.22	346.62
655.56	345.24
655.90	344.00
656.25	343.43
656.59	342.43
656.93	341.52
657.27	341.24
657.61	340.00
657.95	339.71
658.29	339.19
658.64	339.14
658.98	338.05
659.32	337.57
659.66	336.19
660.00	335.43
660.34	334.86
660.68	333.76
661.02	333.24
661.36	332.52
661.70	331.76
662.05	331.48
662.39	331.57
662.73	331.43
663.07	332.57
663.41	332.00
663.75	331.57
664.09	331.43
664.43	330.10
664.77	329.62
665.11	328.48
665.45	327.71
665.79	327.14
666.13	326.38
666.47	325.43
666.81	324.86
667.15	323.81
667.49	323.00
667.83	323.43
668.17	322.95
668.51	322.62
668.85	322.62
669.19	323.24
669.53	322.10
669.87	321.29
670.21	319.24
670.55	318.38
670.89	318.48
671.23	317.33
671.57	316.43
671.91	316.14
672.25	315.57
672.58	315.71
672.92	314.24
673.26	314.24
673.60	313.86
673.94	313.14
674.28	313.05
674.62	312.71
674.96	311.95
675.30	310.90
675.64	310.24
675.97	309.24
676.31	307.90
676.65	306.95
676.99	307.14
677.33	306.43
677.67	306.00
678.01	304.57
678.34	304.29
678.68	304.43
679.02	303.48
679.36	303.33
679.70	302.38
680.04	301.90
680.37	301.33
680.71	300.95
681.05	300.76
681.39	300.10
681.73	299.29
682.06	298.43
682.40	298.43
682.74	298.57
683.08	299.24
683.42	298.90
683.75	299.05
684.09	298.00
684.43	297.90
684.77	297.57
685.10	297.19
685.44	296.57
685.78	295.95
686.12	295.81
686.45	295.19
686.79	294.33
687.13	294.33
687.46	293.81
687.80	294.00
688.14	293.48
688.48	293.52
688.81	293.71
689.15	294.05
689.49	293.33
689.82	292.95
690.16	291.38
690.50	290.81
690.83	290.05
691.17	289.24
691.51	288.48
691.84	288.33
692.18	287.67
692.52	287.48
692.85	287.29
693.19	288.00
693.52	287.52
693.86	287.24
694.20	286.71
694.53	286.19
694.87	285.38
695.21	284.57
695.54	284.10
695.88	283.10
696.21	282.00
696.55	281.71
696.88	281.05
697.22	280.48
697.56	280.52
697.89	280.00
698.23	280.10
698.56	279.86
698.90	279.38
699.23	279.48
699.57	279.57
699.90	278.86
700.24	277.71
700.58	277.67
700.91	277.81
701.25	279.71
701.58	280.62
701.92	281.00
702.25	281.62
702.59	281.57
702.92	282.24
703.26	282.57
703.59	283.38
703.93	285.67
704.26	286.67
704.60	286.67
704.93	287.14
705.26	287.00
705.60	287.52
705.93	287.57
706.27	288.48
706.60	288.95
706.94	290.67
707.27	290.67
707.61	290.76
707.94	290.76
708.27	288.95
708.61	288.05
708.94	287.95
709.28	287.62
709.61	286.86
709.94	286.57
710.28	286.24
710.61	285.19
710.95	282.62
711.28	283.10
711.61	282.62
711.95	282.71
712.28	281.67
712.61	280.71
712.95	281.29
713.28	281.38
713.61	279.95
713.95	277.76
714.28	276.71
714.61	275.76
714.95	274.81
715.28	273.38
715.61	272.76
715.95	272.19
716.28	271.10
716.61	270.81
716.95	270.24
717.28	269.57
717.61	269.10
717.94	268.29
718.28	265.81
718.61	264.86
718.94	263.48
719.27	263.48
719.61	263.43
719.94	262.19
720.27	260.19
720.60	259.71
720.94	259.81
721.27	260.19
721.60	260.67
721.93	260.29
722.27	261.14
722.60	261.05
722.93	260.76
723.26	260.81
723.59	260.29
723.93	260.33
724.26	260.14
724.59	259.81
724.92	259.86
725.25	260.90
725.59	261.00
725.92	261.33
726.25	261.05
726.58	260.90
726.91	260.62
727.24	260.71
727.57	260.76
727.91	259.95
728.24	259.90
728.57	259.33
728.90	260.10
729.23	259.57
729.56	260.33
729.89	259.86
730.22	259.90
730.55	259.76
730.89	259.19
731.22	259.00
731.55	259.05
731.88	259.24
732.21	258.48
732.54	258.24
732.87	258.05
733.20	258.38
733.53	258.38
733.86	258.57
734.19	258.81
734.52	259.38
734.85	261.43
735.18	260.67
735.51	261.48
735.84	261.24
736.17	261.29
736.50	259.90
736.83	262.62
737.16	262.10
737.49	262.43
737.82	262.38
738.15	262.76
738.48	262.33
738.81	261.81
739.14	261.29
739.47	260.76
739.80	260.48
740.13	259.90
740.46	259.29
740.79	258.86
741.12	258.48
741.45	257.81
741.78	255.95
742.11	256.62
742.44	256.00
742.77	256.05
743.10	255.81
743.43	255.71
743.75	253.05
744.08	256.48
744.41	256.00
744.74	255.81
745.07	255.05
745.40	255.48
745.73	256.52
746.06	256.67
746.39	257.33
746.71	256.86
747.04	256.81
747.37	256.90
747.70	257.14
748.03	257.00
748.36	257.00
748.68	257.05
749.01	256.48
749.34	256.14
749.67	255.67
750.00	256.29
750.33	258.33
750.65	258.95
750.98	255.52
751.31	255.43
751.64	255.38
751.97	256.76
752.29	256.29
752.62	254.86
752.95	254.52
753.28	253.81
753.60	253.95
753.93	254.76
754.26	254.48
754.59	253.57
754.91	253.52
755.24	253.38
755.57	253.38
755.90	253.24
756.22	252.90
756.55	252.86
756.88	251.76
757.20	249.86
757.53	249.00
757.86	249.10
758.19	249.10
758.51	248.95
758.84	247.86
759.17	247.81
759.49	248.10
759.82	249.48
760.15	249.86
760.47	250.05
760.80	249.38
761.13	250.10
761.45	250.00
761.78	249.95
762.11	250.00
762.43	249.57
762.76	249.48
763.08	249.86
763.41	249.67
763.74	249.62
764.06	249.81
764.39	249.57
764.71	249.52
765.04	249.57
765.37	249.52
765.69	249.19
766.02	249.05
766.34	248.81
766.67	247.81
767.00	248.00
767.32	249.19
767.65	250.62
767.97	250.24
768.30	250.67
768.62	250.48
768.95	250.00
769.27	250.00
769.60	250.52
769.92	249.90
770.25	249.33
770.57	249.05
770.90	248.38
771.22	248.10
771.55	247.90
771.87	247.86
772.20	247.67
772.52	249.71
772.85	252.76
773.17	253.05
773.50	252.71
773.82	252.05
774.15	250.71
774.47	249.19
774.80	248.86
775.12	249.00
775.45	249.05
775.77	249.33
776.09	249.43
776.42	249.00
776.74	249.71
777.07	249.81
777.39	249.90
777.72	250.10
778.04	250.33
778.36	250.48
778.69	250.52
779.01	250.76
779.33	248.29
779.66	245.38
779.98	244.67
780.31	244.67
780.63	246.24
780.95	246.71
781.28	246.38
781.60	246.29
781.92	245.90
782.25	245.67
782.57	245.76
782.89	245.38
783.22	245.05
783.54	244.62
783.86	244.86
784.19	244.62
784.51	245.19
784.83	244.95
785.16	244.86
785.48	244.48
785.80	244.62
786.12	245.10
786.45	245.19
786.77	245.43
787.09	245.48
787.42	244.48
787.74	244.48
788.06	244.33
788.38	244.05
788.71	243.71
789.03	243.86
789.35	244.14
789.67	243.81
789.99	243.95
790.32	243.62
790.64	243.57
790.96	246.05
791.28	245.00
791.61	244.81
791.93	244.67
792.25	244.62
792.57	246.00
792.89	245.38
793.21	245.29
793.54	245.43
793.86	245.38
