SpectraSuite Data File
++++++++++++++++++++++++++++++++++++
Date: Wed Nov 07 18:31:04 EST 2012
User: group
Dark Spectrum Present: No
Reference Spectrum Present: No
Number of Sampled Component Spectra: 1
Spectrometers: USB2E7196
Integration Time (usec): 1000000 (USB2E7196)
Spectra Averaged: 1 (USB2E7196)
Boxcar Smoothing: 10 (USB2E7196)
Correct for Electrical Dark: No (USB2E7196)
Strobe/Lamp Enabled: No (USB2E7196)
Correct for Detector Non-linearity: No (USB2E7196)
Correct for Stray Light: No (USB2E7196)
Number of Pixels in Processed Spectrum: 2048
>>>>>Begin Processed Spectral Data<<<<<
339.09	0.00
339.48	219.00
339.86	223.00
340.24	220.00
340.63	223.00
341.01	267.00
341.39	232.00
341.78	238.00
342.16	239.00
342.54	234.00
342.93	223.86
343.31	234.67
343.69	235.14
344.07	235.62
344.46	236.67
344.84	237.29
345.22	235.95
345.60	236.14
345.99	236.14
346.37	235.81
346.75	235.81
347.13	235.62
347.52	235.43
347.90	236.19
348.28	235.86
348.66	236.24
349.05	235.33
349.43	235.67
349.81	235.90
350.19	235.90
350.57	235.76
350.96	236.14
351.34	236.43
351.72	236.81
352.10	237.05
352.48	236.57
352.87	236.48
353.25	236.14
353.63	235.90
354.01	235.43
354.39	235.86
354.77	236.00
355.15	236.67
355.54	236.67
355.92	236.00
356.30	236.33
356.68	238.00
357.06	238.24
357.44	237.57
357.82	237.62
358.20	238.19
358.58	238.67
358.97	238.86
359.35	239.76
359.73	239.90
360.11	240.14
360.49	240.52
360.87	240.52
361.25	241.19
361.63	242.19
362.01	242.76
362.39	242.67
362.77	243.10
363.15	243.00
363.53	243.29
363.91	243.52
364.29	243.48
364.67	241.05
365.05	241.24
365.43	241.76
365.81	242.05
366.19	242.86
366.57	243.48
366.95	243.33
367.33	242.43
367.71	242.48
368.09	242.95
368.47	242.90
368.85	243.19
369.23	243.48
369.61	242.43
369.99	242.95
370.37	243.10
370.75	244.10
371.13	243.90
371.51	243.52
371.89	244.05
372.27	244.05
372.65	244.62
373.03	245.10
373.41	244.86
373.78	244.76
374.16	243.76
374.54	243.19
374.92	243.38
375.30	243.71
375.68	243.76
376.06	243.62
376.44	243.62
376.82	243.67
377.19	243.33
377.57	243.48
377.95	242.86
378.33	242.67
378.71	240.71
379.09	241.10
379.47	241.52
379.84	240.52
380.22	240.71
380.60	240.10
380.98	239.81
381.36	239.76
381.73	239.24
382.11	239.38
382.49	239.14
382.87	238.33
383.25	238.14
383.62	240.71
384.00	239.76
384.38	239.86
384.76	240.62
385.13	241.57
385.51	241.81
385.89	241.57
386.27	241.62
386.64	242.57
387.02	242.29
387.40	241.86
387.78	242.67
388.15	242.43
388.53	242.33
388.91	242.24
389.29	242.19
389.66	242.67
390.04	242.33
390.42	242.90
390.79	243.43
391.17	243.62
391.55	240.57
391.92	240.76
392.30	241.00
392.68	239.95
393.05	239.48
393.43	239.52
393.81	239.81
394.18	239.76
394.56	239.71
394.94	240.24
395.31	240.24
395.69	240.76
396.06	241.24
396.44	241.52
396.82	241.48
397.19	242.67
397.57	242.67
397.95	243.19
398.32	242.48
398.70	242.48
399.07	243.33
399.45	243.71
399.82	243.95
400.20	243.62
400.58	243.81
400.95	243.43
401.33	244.24
401.70	246.33
402.08	246.52
402.45	246.76
402.83	247.19
403.20	247.38
403.58	247.33
403.95	247.67
404.33	248.14
404.71	248.48
405.08	250.14
405.46	250.33
405.83	250.62
406.21	251.14
406.58	251.76
406.96	251.52
407.33	252.19
407.70	253.14
408.08	255.81
408.45	256.86
408.83	257.57
409.20	257.57
409.58	256.14
409.95	257.38
410.33	258.05
410.70	258.24
411.08	259.52
411.45	260.19
411.82	260.86
412.20	262.62
412.57	265.24
412.95	264.33
413.32	266.43
413.69	267.71
414.07	269.38
414.44	271.05
414.82	273.81
415.19	276.05
415.56	278.14
415.94	279.10
416.31	282.38
416.68	285.43
417.06	288.90
417.43	293.14
417.81	297.05
418.18	300.62
418.55	304.57
418.93	308.71
419.30	313.14
419.67	318.10
420.04	322.29
420.42	326.33
420.79	333.95
421.16	339.67
421.54	346.86
421.91	353.10
422.28	359.19
422.66	365.38
423.03	373.86
423.40	380.48
423.77	387.52
424.15	393.86
424.52	401.57
424.89	409.95
425.26	417.29
425.64	423.95
426.01	432.76
426.38	441.00
426.75	450.14
427.13	459.38
427.50	468.86
427.87	479.19
428.24	488.90
428.61	496.81
428.99	507.86
429.36	518.38
429.73	530.10
430.10	543.14
430.47	556.57
430.85	568.19
431.22	582.81
431.59	599.71
431.96	614.90
432.33	631.14
432.70	646.29
433.08	664.00
433.45	680.33
433.82	695.67
434.19	713.86
434.56	730.00
434.93	745.29
435.30	761.10
435.68	778.29
436.05	795.81
436.42	812.43
436.79	827.76
437.16	844.33
437.53	860.52
437.90	876.29
438.27	890.81
438.64	906.10
439.01	920.71
439.38	931.52
439.75	942.95
440.13	956.29
440.50	969.38
440.87	979.67
441.24	991.00
441.61	1003.43
441.98	1011.95
442.35	1023.62
442.72	1035.00
443.09	1046.43
443.46	1051.86
443.83	1055.29
444.20	1058.48
444.57	1062.43
444.94	1064.33
445.31	1067.05
445.68	1071.14
446.05	1072.14
446.42	1069.62
446.79	1067.05
447.16	1063.52
447.53	1060.52
447.90	1051.95
448.27	1044.29
448.64	1034.76
449.01	1026.86
449.37	1015.05
449.74	1004.14
450.11	991.57
450.48	976.62
450.85	960.52
451.22	947.71
451.59	935.57
451.96	923.86
452.33	908.67
452.70	893.86
453.07	876.24
453.43	856.38
453.80	839.33
454.17	823.71
454.54	808.43
454.91	792.52
455.28	776.95
455.65	763.24
456.02	752.90
456.38	739.90
456.75	725.48
457.12	712.76
457.49	699.05
457.86	685.19
458.23	676.14
458.59	665.43
458.96	654.24
459.33	643.52
459.70	633.43
460.07	625.76
460.43	616.57
460.80	608.86
461.17	601.43
461.54	593.62
461.91	585.62
462.27	577.29
462.64	571.05
463.01	565.33
463.38	559.81
463.74	548.86
464.11	542.81
464.48	537.86
464.85	532.19
465.21	528.90
465.58	524.57
465.95	517.90
466.32	512.86
466.68	508.24
467.05	504.00
467.42	499.86
467.78	494.52
468.15	490.43
468.52	486.76
468.88	482.67
469.25	479.24
469.62	477.19
469.98	474.48
470.35	471.29
470.72	467.43
471.08	463.00
471.45	460.48
471.82	458.48
472.18	454.57
472.55	451.95
472.92	448.38
473.28	446.10
473.65	443.90
474.02	441.43
474.38	439.95
474.75	438.38
475.11	436.10
475.48	434.67
475.85	433.00
476.21	432.00
476.58	430.62
476.94	428.90
477.31	427.24
477.67	426.14
478.04	425.38
478.41	425.14
478.77	427.48
479.14	427.38
479.50	426.71
479.87	427.57
480.23	428.43
480.60	429.57
480.96	430.43
481.33	432.52
481.69	433.86
482.06	435.33
482.42	437.38
482.79	439.52
483.15	442.00
483.52	445.05
483.88	446.67
484.25	448.90
484.61	451.81
484.98	454.90
485.34	458.43
485.71	461.71
486.07	464.76
486.44	465.43
486.80	467.48
487.17	470.14
487.53	473.10
487.90	475.95
488.26	479.71
488.62	482.05
488.99	482.95
489.35	485.38
489.72	487.19
490.08	488.19
490.44	489.81
490.81	491.62
491.17	492.48
491.54	494.57
491.90	496.62
492.26	498.05
492.63	499.76
492.99	500.48
493.36	501.90
493.72	504.10
494.08	505.90
494.45	508.33
494.81	511.29
495.17	513.19
495.54	515.71
495.90	517.19
496.26	520.00
496.63	522.90
496.99	525.67
497.35	528.62
497.72	532.76
498.08	535.38
498.44	538.48
498.80	542.33
499.17	546.00
499.53	549.29
499.89	553.67
500.26	557.10
500.62	560.95
500.98	565.14
501.34	568.71
501.71	573.00
502.07	577.19
502.43	581.10
502.79	584.90
503.16	588.52
503.52	592.57
503.88	596.76
504.24	601.81
504.60	605.86
504.97	611.10
505.33	615.19
505.69	621.52
506.05	625.62
506.41	630.67
506.78	636.14
507.14	641.14
507.50	646.24
507.86	651.62
508.22	657.67
508.59	662.43
508.95	668.38
509.31	674.33
509.67	679.81
510.03	684.10
510.39	689.14
510.75	694.33
511.12	699.52
511.48	704.38
511.84	709.52
512.20	714.81
512.56	718.52
512.92	723.90
513.28	727.43
513.64	732.05
514.00	736.57
514.37	740.33
514.73	744.86
515.09	748.90
515.45	753.38
515.81	756.81
516.17	761.48
516.53	764.67
516.89	767.57
517.25	771.33
517.61	776.52
517.97	780.67
518.33	784.38
518.69	788.00
519.05	791.48
519.41	794.71
519.77	799.24
520.13	802.57
520.49	804.38
520.85	807.95
521.21	812.57
521.57	815.57
521.93	817.71
522.29	820.81
522.65	822.52
523.01	824.00
523.37	825.71
523.73	827.81
524.09	829.86
524.45	832.24
524.81	833.24
525.17	835.57
525.53	838.00
525.89	839.24
526.25	841.29
526.61	842.19
526.97	844.00
527.33	845.14
527.68	849.52
528.04	851.90
528.40	853.00
528.76	853.95
529.12	854.90
529.48	857.52
529.84	858.71
530.20	860.57
530.56	862.57
530.91	864.81
531.27	866.52
531.63	867.67
531.99	868.10
532.35	869.71
532.71	870.33
533.07	871.38
533.42	876.67
533.78	877.10
534.14	880.14
534.50	881.62
534.86	884.38
535.21	885.14
535.57	889.00
535.93	891.86
536.29	897.00
536.65	902.48
537.00	908.10
537.36	915.43
537.72	923.81
538.08	934.19
538.44	944.10
538.79	955.19
539.15	966.71
539.51	979.33
539.87	993.00
540.22	1004.90
540.58	1017.57
540.94	1029.48
541.29	1044.38
541.65	1057.19
542.01	1070.57
542.37	1080.38
542.72	1087.86
543.08	1094.10
543.44	1099.67
543.79	1102.00
544.15	1104.29
544.51	1105.33
544.87	1103.62
545.22	1100.57
545.58	1094.05
545.94	1087.19
546.29	1079.00
546.65	1070.19
547.01	1060.05
547.36	1049.19
547.72	1039.10
548.07	1027.81
548.43	1013.29
548.79	999.57
549.14	985.90
549.50	972.57
549.86	960.14
550.21	950.48
550.57	941.19
550.92	932.57
551.28	925.48
551.64	917.67
551.99	909.90
552.35	903.43
552.70	897.05
553.06	892.62
553.41	887.38
553.77	883.43
554.13	879.38
554.48	875.76
554.84	871.62
555.19	866.90
555.55	865.00
555.90	861.19
556.26	857.19
556.61	852.81
556.97	848.33
557.32	845.62
557.68	842.86
558.03	839.14
558.39	837.29
558.74	833.62
559.10	831.00
559.45	829.10
559.81	826.67
560.16	823.95
560.52	821.38
560.87	819.43
561.23	816.76
561.58	817.05
561.94	815.10
562.29	813.33
562.64	812.29
563.00	808.67
563.35	808.71
563.71	807.52
564.06	806.62
564.42	806.10
564.77	804.43
565.12	802.57
565.48	804.00
565.83	802.38
566.19	801.43
566.54	800.10
566.89	797.71
567.25	797.62
567.60	799.19
567.96	799.86
568.31	800.95
568.66	800.52
569.02	796.19
569.37	794.81
569.72	793.57
570.08	791.48
570.43	790.00
570.78	787.33
571.14	785.38
571.49	784.86
571.84	783.71
572.20	783.19
572.55	782.86
572.90	778.76
573.26	777.67
573.61	776.43
573.96	776.00
574.31	775.86
574.67	773.95
575.02	771.33
575.37	768.71
575.72	766.62
576.08	766.05
576.43	766.43
576.78	766.05
577.13	765.19
577.49	765.62
577.84	764.95
578.19	765.57
578.54	766.48
578.90	766.05
579.25	765.81
579.60	765.71
579.95	764.71
580.30	765.95
580.66	765.81
581.01	765.24
581.36	764.38
581.71	763.05
582.06	764.24
582.42	763.67
582.77	762.48
583.12	761.81
583.47	760.29
583.82	760.24
584.17	759.29
584.53	759.71
584.88	757.81
585.23	758.05
585.58	755.52
585.93	752.76
586.28	750.38
586.63	748.00
586.98	745.24
587.34	743.43
587.69	739.81
588.04	736.95
588.39	734.67
588.74	730.95
589.09	728.95
589.44	723.57
589.79	719.71
590.14	717.00
590.49	712.48
590.84	707.90
591.19	703.00
591.54	698.71
591.89	692.95
592.25	690.86
592.60	685.33
592.95	682.14
593.30	679.38
593.65	675.62
594.00	671.38
594.35	674.67
594.70	670.00
595.05	666.62
595.40	663.00
595.75	658.86
596.10	656.10
596.45	652.24
596.80	649.86
597.15	646.19
597.50	642.29
597.85	640.14
598.19	637.10
598.54	634.00
598.89	631.29
599.24	629.14
599.59	624.38
599.94	621.19
600.29	617.57
600.64	614.52
600.99	613.10
601.34	610.76
601.69	601.14
602.04	598.95
602.39	596.48
602.74	594.38
603.08	592.29
603.43	591.29
603.78	589.52
604.13	587.38
604.48	586.57
604.83	585.95
605.18	585.71
605.53	587.00
605.87	590.95
606.22	596.95
606.57	604.86
606.92	614.29
607.27	624.57
607.62	635.52
607.96	644.52
608.31	652.00
608.66	659.14
609.01	665.52
609.36	672.05
609.70	678.29
610.05	683.43
610.40	688.48
610.75	691.81
611.10	695.38
611.44	698.38
611.79	700.00
612.14	701.38
612.49	699.62
612.83	697.38
613.18	691.67
613.53	683.48
613.88	673.29
614.22	661.57
614.57	649.62
614.92	636.67
615.27	625.57
615.61	614.86
615.96	605.52
616.31	596.81
616.65	588.00
617.00	579.10
617.35	571.38
617.70	563.24
618.04	556.52
618.39	550.00
618.74	543.90
619.08	538.33
619.43	533.71
619.78	530.19
620.12	526.33
620.47	523.24
620.82	520.48
621.16	517.33
621.51	516.29
621.85	513.57
622.20	511.57
622.55	508.00
622.89	505.24
623.24	502.48
623.59	499.33
623.93	496.71
624.28	494.71
624.62	494.00
624.97	493.24
625.32	490.29
625.66	487.81
626.01	485.48
626.35	484.10
626.70	481.81
627.04	480.38
627.39	479.14
627.73	478.24
628.08	476.00
628.43	473.52
628.77	469.71
629.12	467.33
629.46	464.95
629.81	463.19
630.15	461.00
630.50	458.76
630.84	456.76
631.19	454.29
631.53	451.14
631.88	446.19
632.22	442.24
632.57	440.57
632.91	438.29
633.26	436.24
633.60	433.38
633.95	430.33
634.29	426.57
634.64	423.05
634.98	419.38
635.32	417.52
635.67	415.62
636.01	413.62
636.36	411.14
636.70	409.33
637.05	407.24
637.39	404.86
637.73	402.76
638.08	401.19
638.42	399.48
638.77	398.14
639.11	396.76
639.45	395.19
639.80	392.76
640.14	390.95
640.49	389.29
640.83	387.95
641.17	387.00
641.52	386.10
641.86	385.14
642.20	384.62
642.55	382.76
642.89	381.52
643.23	380.76
643.58	381.05
643.92	379.48
644.26	378.24
644.61	378.14
644.95	377.10
645.29	376.14
645.64	375.62
645.98	374.52
646.32	374.19
646.66	373.62
647.01	372.29
647.35	372.19
647.69	371.38
648.04	370.38
648.38	369.43
648.72	368.67
649.06	367.29
649.41	365.62
649.75	364.67
650.09	364.10
650.43	362.52
650.78	360.38
651.12	359.24
651.46	358.62
651.80	357.10
652.14	355.76
652.49	354.67
652.83	352.95
653.17	352.00
653.51	350.24
653.85	349.33
654.20	348.95
654.54	347.10
654.88	345.38
655.22	343.90
655.56	342.38
655.90	341.33
656.25	340.71
656.59	339.76
656.93	338.95
657.27	338.52
657.61	337.90
657.95	337.81
658.29	336.62
658.64	336.14
658.98	335.33
659.32	334.86
659.66	333.76
660.00	333.48
660.34	333.19
660.68	332.67
661.02	332.14
661.36	331.10
661.70	330.62
662.05	330.10
662.39	330.48
662.73	330.62
663.07	331.10
663.41	330.57
663.75	329.71
664.09	329.14
664.43	327.62
664.77	326.86
665.11	325.62
665.45	324.81
665.79	324.33
666.13	323.81
666.47	323.10
666.81	322.62
667.15	321.67
667.49	321.00
667.83	321.24
668.17	319.76
668.51	318.90
668.85	318.43
669.19	319.10
669.53	317.43
669.87	316.19
670.21	314.52
670.55	313.90
670.89	314.71
671.23	314.00
671.57	313.38
671.91	312.90
672.25	312.57
672.58	313.38
672.92	311.62
673.26	310.86
673.60	310.43
673.94	310.14
674.28	309.71
674.62	309.29
674.96	307.95
675.30	308.00
675.64	308.14
675.97	307.43
676.31	306.00
676.65	305.81
676.99	305.76
677.33	305.00
677.67	304.76
678.01	302.95
678.34	302.62
678.68	302.52
679.02	301.76
679.36	301.14
679.70	300.00
680.04	299.71
680.37	299.10
680.71	298.62
681.05	297.90
681.39	297.38
681.73	296.57
682.06	295.95
682.40	295.14
682.74	294.76
683.08	295.33
683.42	294.81
683.75	294.86
684.09	294.05
684.43	294.05
684.77	293.10
685.10	292.90
685.44	292.38
685.78	292.24
686.12	291.57
686.45	291.05
686.79	290.38
687.13	290.62
687.46	290.81
687.80	291.19
688.14	291.05
688.48	291.00
688.81	290.67
689.15	291.00
689.49	290.71
689.82	290.38
690.16	289.05
690.50	288.76
690.83	287.86
691.17	287.05
691.51	286.57
691.84	286.95
692.18	286.19
692.52	285.81
692.85	285.24
693.19	286.10
693.52	286.10
693.86	285.62
694.20	285.14
694.53	284.24
694.87	283.05
695.21	282.33
695.54	281.90
695.88	281.33
696.21	280.05
696.55	279.71
696.88	279.14
697.22	278.48
697.56	278.24
697.89	277.62
698.23	277.81
698.56	277.43
698.90	277.19
699.23	277.10
699.57	276.62
699.90	276.05
700.24	274.95
700.58	275.05
700.91	275.24
701.25	276.90
701.58	277.48
701.92	278.76
702.25	279.52
702.59	280.14
702.92	280.86
703.26	282.14
703.59	282.81
703.93	285.33
704.26	286.33
704.60	287.10
704.93	287.90
705.26	288.19
705.60	288.81
705.93	288.38
706.27	289.38
706.60	290.57
706.94	291.95
707.27	292.38
707.61	292.29
707.94	293.00
708.27	291.76
708.61	291.71
708.94	291.14
709.28	290.90
709.61	290.05
709.94	289.24
710.28	288.05
710.61	287.29
710.95	284.29
711.28	284.86
711.61	283.67
711.95	283.29
712.28	282.29
712.61	281.52
712.95	281.71
713.28	282.00
713.61	280.38
713.95	278.76
714.28	277.90
714.61	276.90
714.95	275.05
715.28	273.62
715.61	272.52
715.95	271.52
716.28	269.95
716.61	269.67
716.95	268.90
717.28	268.29
717.61	267.81
717.94	267.62
718.28	265.76
718.61	265.05
718.94	264.24
719.27	264.24
719.61	263.67
719.94	262.95
720.27	261.38
720.60	261.43
720.94	261.14
721.27	260.95
721.60	261.00
721.93	261.14
722.27	261.52
722.60	261.67
722.93	261.33
723.26	261.38
723.59	260.43
723.93	260.71
724.26	260.90
724.59	260.71
724.92	260.71
725.25	261.00
725.59	260.81
725.92	260.90
726.25	260.38
726.58	260.33
726.91	259.86
727.24	259.76
727.57	259.14
727.91	258.52
728.24	258.48
728.57	258.10
728.90	258.14
729.23	257.52
729.56	258.05
729.89	257.86
730.22	257.95
730.55	258.05
730.89	258.00
731.22	257.57
731.55	257.19
731.88	256.67
732.21	256.05
732.54	256.05
732.87	255.48
733.20	255.48
733.53	255.52
733.86	255.76
734.19	255.57
734.52	256.05
734.85	257.67
735.18	257.24
735.51	257.95
735.84	258.05
736.17	258.24
736.50	257.10
736.83	260.00
737.16	259.71
737.49	259.81
737.82	259.38
738.15	259.86
738.48	260.05
738.81	259.81
739.14	259.62
739.47	259.57
739.80	259.90
740.13	260.05
740.46	259.48
740.79	259.05
741.12	258.57
741.45	257.90
741.78	256.52
742.11	257.10
742.44	256.33
742.77	256.33
743.10	255.95
743.43	255.95
743.75	253.62
744.08	256.67
744.41	256.29
744.74	256.38
745.07	255.62
745.40	255.86
745.73	257.29
746.06	257.14
746.39	257.43
746.71	257.19
747.04	256.52
747.37	256.52
747.70	256.95
748.03	257.10
748.36	257.48
748.68	257.86
749.01	257.00
749.34	256.76
749.67	256.62
750.00	256.95
750.33	258.48
750.65	258.05
750.98	254.95
751.31	254.95
751.64	254.81
751.97	256.48
752.29	255.95
752.62	254.29
752.95	254.19
753.28	253.48
753.60	253.14
753.93	254.05
754.26	254.10
754.59	253.33
754.91	253.00
755.24	252.71
755.57	252.19
755.90	252.10
756.22	252.19
756.55	251.71
756.88	250.95
757.20	249.48
757.53	248.76
757.86	248.90
758.19	249.29
758.51	249.19
758.84	247.33
759.17	247.14
759.49	247.86
759.82	249.29
760.15	249.62
760.47	249.62
760.80	249.05
761.13	249.38
761.45	249.24
761.78	249.43
762.11	249.62
762.43	249.52
762.76	249.90
763.08	250.10
763.41	250.52
763.74	250.86
764.06	250.57
764.39	250.48
764.71	250.29
765.04	249.57
765.37	249.05
765.69	249.19
766.02	249.19
766.34	248.67
766.67	247.24
767.00	247.38
767.32	248.81
767.65	249.90
767.97	249.81
768.30	249.71
768.62	249.43
768.95	249.33
769.27	249.10
769.60	248.95
769.92	248.48
770.25	247.57
770.57	246.95
770.90	246.95
771.22	246.95
771.55	246.95
771.87	247.24
772.20	247.24
772.52	249.24
772.85	252.14
773.17	252.24
773.50	252.05
773.82	251.62
774.15	250.29
774.47	248.86
774.80	248.81
775.12	249.05
775.45	249.10
775.77	248.67
776.09	248.86
776.42	248.71
776.74	249.48
777.07	249.52
777.39	249.86
777.72	249.57
778.04	249.95
778.36	249.57
778.69	249.52
779.01	249.71
779.33	248.05
779.66	245.05
779.98	244.62
780.31	244.76
780.63	246.14
780.95	246.67
781.28	246.38
781.60	245.71
781.92	245.62
782.25	245.43
782.57	245.43
782.89	245.05
783.22	245.14
783.54	244.57
783.86	244.57
784.19	244.48
784.51	245.29
784.83	244.62
785.16	244.81
785.48	244.95
785.80	245.00
786.12	244.81
786.45	245.05
786.77	245.33
787.09	245.38
787.42	244.29
787.74	244.00
788.06	244.43
788.38	244.43
788.71	244.00
789.03	244.33
789.35	244.81
789.67	244.76
789.99	244.76
790.32	244.52
790.64	245.33
790.96	247.14
791.28	246.14
791.61	246.05
791.93	245.95
792.25	245.86
792.57	247.38
792.89	246.57
793.21	246.57
