SpectraSuite Data File
++++++++++++++++++++++++++++++++++++
Date: Wed Nov 07 18:33:25 EST 2012
User: group
Dark Spectrum Present: No
Reference Spectrum Present: No
Number of Sampled Component Spectra: 1
Spectrometers: USB2E7196
Integration Time (usec): 1000000 (USB2E7196)
Spectra Averaged: 1 (USB2E7196)
Boxcar Smoothing: 10 (USB2E7196)
Correct for Electrical Dark: No (USB2E7196)
Strobe/Lamp Enabled: No (USB2E7196)
Correct for Detector Non-linearity: No (USB2E7196)
Correct for Stray Light: No (USB2E7196)
Number of Pixels in Processed Spectrum: 2048
>>>>>Begin Processed Spectral Data<<<<<
339.09	0.00
339.48	224.00
339.86	226.00
340.24	223.00
340.63	224.00
341.01	265.00
341.39	230.00
341.78	239.00
342.16	240.00
342.54	239.00
342.93	225.81
343.31	236.86
343.69	237.29
344.07	237.43
344.46	238.62
344.84	239.43
345.22	238.05
345.60	238.62
345.99	238.52
346.37	238.29
346.75	238.00
347.13	237.90
347.52	237.86
347.90	238.52
348.28	238.19
348.66	238.67
349.05	237.71
349.43	237.71
349.81	237.86
350.19	237.90
350.57	237.95
350.96	238.19
351.34	238.81
351.72	239.05
352.10	239.14
352.48	238.33
352.87	237.90
353.25	237.81
353.63	237.48
354.01	237.52
354.39	237.86
354.77	237.86
355.15	238.76
355.54	238.71
355.92	237.95
356.30	238.10
356.68	239.48
357.06	239.43
357.44	238.81
357.82	238.57
358.20	238.86
358.58	238.90
358.97	238.90
359.35	239.14
359.73	239.38
360.11	239.43
360.49	239.48
360.87	239.48
361.25	239.90
361.63	240.76
362.01	240.90
362.39	240.43
362.77	240.43
363.15	239.81
363.53	239.67
363.91	239.81
364.29	239.62
364.67	237.24
365.05	237.33
365.43	238.00
365.81	238.62
366.19	239.14
366.57	240.00
366.95	239.52
367.33	238.62
367.71	238.48
368.09	239.00
368.47	239.33
368.85	239.19
369.23	239.38
369.61	238.10
369.99	238.52
370.37	238.86
370.75	240.57
371.13	240.29
371.51	240.10
371.89	240.24
372.27	240.57
372.65	240.95
373.03	240.86
373.41	240.29
373.78	240.33
374.16	239.43
374.54	239.14
374.92	239.19
375.30	239.62
375.68	239.29
376.06	239.19
376.44	238.62
376.82	239.00
377.19	238.90
377.57	239.43
377.95	238.71
378.33	238.62
378.71	236.86
379.09	237.19
379.47	237.52
379.84	237.38
380.22	237.00
380.60	236.52
380.98	236.76
381.36	237.33
381.73	237.05
382.11	237.48
382.49	237.57
382.87	237.67
383.25	237.48
383.62	240.24
384.00	240.10
384.38	240.33
384.76	240.71
385.13	241.48
385.51	241.33
385.89	241.38
386.27	241.48
386.64	242.00
387.02	241.95
387.40	241.95
387.78	242.10
388.15	242.52
388.53	242.67
388.91	242.86
389.29	242.52
389.66	242.62
390.04	242.14
390.42	242.05
390.79	242.10
391.17	242.00
391.55	239.62
391.92	239.43
392.30	239.95
392.68	239.29
393.05	239.43
393.43	239.38
393.81	239.62
394.18	239.43
394.56	239.38
394.94	240.00
395.31	239.57
395.69	240.24
396.06	240.38
396.44	240.62
396.82	240.05
397.19	241.29
397.57	240.90
397.95	241.24
398.32	240.48
398.70	240.81
399.07	241.57
399.45	241.14
399.82	241.38
400.20	241.24
400.58	241.76
400.95	240.67
401.33	241.38
401.70	243.24
402.08	243.52
402.45	243.52
402.83	243.62
403.20	244.05
403.58	244.14
403.95	244.57
404.33	244.81
404.71	245.57
405.08	246.81
405.46	247.52
405.83	248.24
406.21	248.86
406.58	249.24
406.96	249.38
407.33	250.57
407.70	251.10
408.08	253.33
408.45	254.33
408.83	255.86
409.20	256.05
409.58	255.14
409.95	256.33
410.33	257.33
410.70	257.71
411.08	259.05
411.45	260.10
411.82	261.05
412.20	262.86
412.57	265.33
412.95	264.95
413.32	266.76
413.69	267.81
414.07	269.71
414.44	271.76
414.82	273.90
415.19	276.05
415.56	278.62
415.94	279.62
416.31	282.48
416.68	285.05
417.06	288.86
417.43	292.62
417.81	296.29
418.18	300.29
418.55	304.57
418.93	308.76
419.30	312.86
419.67	317.71
420.04	322.10
420.42	326.05
420.79	333.43
421.16	339.10
421.54	346.71
421.91	352.86
422.28	359.29
422.66	366.48
423.03	374.43
423.40	381.67
423.77	389.14
424.15	396.19
424.52	403.67
424.89	412.19
425.26	419.95
425.64	427.33
426.01	435.57
426.38	444.38
426.75	453.57
427.13	462.29
427.50	471.33
427.87	481.19
428.24	491.57
428.61	499.33
428.99	510.90
429.36	520.90
429.73	532.14
430.10	542.81
430.47	554.33
430.85	565.48
431.22	578.00
431.59	594.10
431.96	607.71
432.33	621.95
432.70	635.76
433.08	651.95
433.45	667.38
433.82	682.57
434.19	699.24
434.56	716.10
434.93	732.10
435.30	747.90
435.68	765.10
436.05	781.76
436.42	798.48
436.79	813.67
437.16	830.14
437.53	847.90
437.90	865.38
438.27	882.76
438.64	899.29
439.01	915.67
439.38	927.62
439.75	940.86
440.13	955.76
440.50	969.95
440.87	981.95
441.24	994.19
441.61	1007.67
441.98	1017.52
442.35	1026.76
442.72	1038.14
443.09	1050.19
443.46	1056.38
443.83	1060.71
444.20	1064.71
444.57	1067.95
444.94	1069.10
445.31	1070.90
445.68	1075.57
446.05	1074.62
446.42	1071.71
446.79	1068.43
447.16	1064.05
447.53	1060.81
447.90	1054.19
448.27	1046.05
448.64	1034.95
449.01	1027.10
449.37	1014.19
449.74	1002.10
450.11	991.71
450.48	975.86
450.85	958.81
451.22	945.86
451.59	933.14
451.96	920.43
452.33	904.86
452.70	891.33
453.07	874.57
453.43	854.05
453.80	837.24
454.17	821.19
454.54	805.90
454.91	791.05
455.28	775.57
455.65	760.33
456.02	751.14
456.38	739.67
456.75	724.57
457.12	712.24
457.49	699.67
457.86	685.19
458.23	675.81
458.59	664.57
458.96	653.05
459.33	641.90
459.70	632.14
460.07	624.86
460.43	615.33
460.80	606.48
461.17	599.24
461.54	592.14
461.91	585.14
462.27	577.52
462.64	570.76
463.01	564.00
463.38	559.05
463.74	547.29
464.11	540.76
464.48	535.48
464.85	529.57
465.21	525.95
465.58	521.67
465.95	516.29
466.32	512.62
466.68	507.52
467.05	503.38
467.42	498.19
467.78	493.19
468.15	489.10
468.52	486.14
468.88	481.76
469.25	477.33
469.62	474.29
469.98	471.05
470.35	467.33
470.72	464.24
471.08	459.19
471.45	456.81
471.82	454.43
472.18	451.05
472.55	448.86
472.92	444.48
473.28	441.67
473.65	438.57
474.02	435.76
474.38	434.38
474.75	433.24
475.11	431.43
475.48	429.90
475.85	428.52
476.21	426.24
476.58	425.29
476.94	424.33
477.31	423.52
477.67	422.10
478.04	421.05
478.41	420.43
478.77	422.48
479.14	421.95
479.50	421.33
479.87	421.62
480.23	421.57
480.60	421.81
480.96	421.71
481.33	423.19
481.69	423.24
482.06	424.05
482.42	424.86
482.79	426.14
483.15	427.14
483.52	428.43
483.88	429.33
484.25	430.00
484.61	431.10
484.98	432.05
485.34	433.86
485.71	436.38
486.07	437.29
486.44	436.24
486.80	437.05
487.17	438.29
487.53	440.00
487.90	442.05
488.26	445.05
488.62	447.62
488.99	448.29
489.35	450.71
489.72	451.86
490.08	453.10
490.44	454.57
490.81	456.24
491.17	457.48
491.54	459.76
491.90	462.43
492.26	464.43
492.63	466.81
492.99	469.05
493.36	471.52
493.72	475.00
494.08	477.86
494.45	480.76
494.81	484.67
495.17	487.62
495.54	491.33
495.90	493.43
496.26	496.43
496.63	500.48
496.99	503.71
497.35	507.86
497.72	511.71
498.08	515.33
498.44	520.38
498.80	525.19
499.17	529.76
499.53	534.48
499.89	538.86
500.26	543.38
500.62	548.24
500.98	552.67
501.34	557.00
501.71	562.81
502.07	568.10
502.43	572.67
502.79	577.90
503.16	582.43
503.52	587.48
503.88	592.00
504.24	597.57
504.60	603.29
504.97	609.24
505.33	614.48
505.69	621.38
506.05	625.81
506.41	631.33
506.78	636.48
507.14	640.52
507.50	646.38
507.86	651.43
508.22	656.90
508.59	661.86
508.95	668.05
509.31	674.62
509.67	680.00
510.03	684.76
510.39	689.48
510.75	694.67
511.12	700.14
511.48	705.33
511.84	710.48
512.20	715.62
512.56	719.86
512.92	725.38
513.28	729.38
513.64	734.71
514.00	738.95
514.37	744.00
514.73	749.67
515.09	753.67
515.45	758.14
515.81	762.14
516.17	766.62
516.53	770.24
516.89	772.52
517.25	776.86
517.61	782.00
517.97	786.05
518.33	789.57
518.69	793.76
519.05	798.43
519.41	801.48
519.77	806.38
520.13	810.33
520.49	812.81
520.85	816.05
521.21	820.43
521.57	824.05
521.93	826.52
522.29	829.57
522.65	833.10
523.01	836.57
523.37	838.95
523.73	841.10
524.09	843.24
524.45	845.57
524.81	847.48
525.17	849.76
525.53	852.71
525.89	854.14
526.25	856.29
526.61	857.24
526.97	859.24
527.33	859.81
527.68	863.33
528.04	865.95
528.40	866.67
528.76	868.10
529.12	868.57
529.48	870.43
529.84	871.67
530.20	872.76
530.56	874.24
530.91	876.52
531.27	878.29
531.63	880.43
531.99	881.62
532.35	883.05
532.71	883.24
533.07	883.76
533.42	888.62
533.78	889.00
534.14	890.71
534.50	892.19
534.86	893.38
535.21	892.33
535.57	893.86
535.93	895.19
536.29	896.24
536.65	898.81
537.00	900.43
537.36	902.19
537.72	904.48
538.08	906.76
538.44	907.67
538.79	910.19
539.15	911.52
539.51	913.95
539.87	916.14
540.22	918.14
540.58	920.67
540.94	920.48
541.29	923.90
541.65	925.71
542.01	928.43
542.37	930.48
542.72	932.05
543.08	931.10
543.44	933.00
543.79	931.67
544.15	931.81
544.51	932.19
544.87	931.05
545.22	929.67
545.58	927.67
545.94	926.71
546.29	924.10
546.65	922.19
547.01	919.48
547.36	917.05
547.72	914.81
548.07	912.52
548.43	908.52
548.79	904.38
549.14	901.14
549.50	897.05
549.86	893.29
550.21	890.33
550.57	888.90
550.92	885.57
551.28	884.19
551.64	882.00
551.99	878.95
552.35	877.00
552.70	874.90
553.06	872.62
553.41	870.38
553.77	869.95
554.13	868.33
554.48	867.05
554.84	865.57
555.19	864.90
555.55	865.00
555.90	863.76
556.26	862.24
556.61	860.57
556.97	857.33
557.32	854.90
557.68	853.19
558.03	851.29
558.39	849.71
558.74	847.24
559.10	844.90
559.45	842.95
559.81	840.95
560.16	838.43
560.52	837.29
560.87	835.76
561.23	833.14
561.58	833.24
561.94	831.10
562.29	828.95
562.64	826.29
563.00	821.71
563.35	820.14
563.71	818.71
564.06	817.33
564.42	817.10
564.77	815.86
565.12	814.38
565.48	815.29
565.83	814.19
566.19	813.29
566.54	811.24
566.89	809.76
567.25	808.90
567.60	809.48
567.96	810.14
568.31	808.90
568.66	809.14
569.02	805.33
569.37	803.33
569.72	802.57
570.08	801.33
570.43	800.05
570.78	798.14
571.14	795.48
571.49	794.43
571.84	793.19
572.20	792.52
572.55	790.48
572.90	786.95
573.26	784.76
573.61	782.95
573.96	781.67
574.31	780.05
574.67	778.90
575.02	775.90
575.37	771.76
575.72	769.76
576.08	766.95
576.43	765.52
576.78	764.57
577.13	762.38
577.49	760.57
577.84	759.76
578.19	758.62
578.54	758.38
578.90	756.67
579.25	755.24
579.60	753.14
579.95	751.90
580.30	750.14
580.66	749.76
581.01	747.71
581.36	746.29
581.71	745.67
582.06	745.52
582.42	744.67
582.77	743.62
583.12	742.19
583.47	740.14
583.82	739.19
584.17	738.10
584.53	737.86
584.88	736.05
585.23	735.14
585.58	733.14
585.93	730.57
586.28	728.33
586.63	725.62
586.98	724.29
587.34	723.24
587.69	720.95
588.04	718.10
588.39	716.95
588.74	715.24
589.09	712.76
589.44	707.90
589.79	704.81
590.14	701.67
590.49	698.05
590.84	694.67
591.19	691.10
591.54	687.52
591.89	683.14
592.25	682.90
592.60	678.14
592.95	675.90
593.30	674.00
593.65	671.10
594.00	668.29
594.35	671.57
594.70	667.76
595.05	664.86
595.40	661.81
595.75	658.48
596.10	655.52
596.45	652.10
596.80	648.90
597.15	645.95
597.50	642.81
597.85	641.95
598.19	639.76
598.54	637.57
598.89	634.90
599.24	632.29
599.59	627.57
599.94	625.57
600.29	622.81
600.64	620.19
600.99	618.14
601.34	616.48
601.69	607.67
602.04	605.29
602.39	602.67
602.74	601.24
603.08	598.71
603.43	597.24
603.78	595.33
604.13	594.05
604.48	592.52
604.83	591.38
605.18	590.52
605.53	591.10
605.87	592.33
606.22	595.48
606.57	600.38
606.92	605.19
607.27	610.95
607.62	616.38
607.96	621.29
608.31	625.52
608.66	628.90
609.01	632.00
609.36	635.48
609.70	639.10
610.05	641.62
610.40	644.81
610.75	646.10
611.10	647.90
611.44	649.33
611.79	649.81
612.14	650.10
612.49	648.14
612.83	645.43
613.18	641.52
613.53	635.86
613.88	628.52
614.22	620.48
614.57	611.76
614.92	602.67
615.27	595.00
615.61	587.43
615.96	580.95
616.31	574.24
616.65	568.10
617.00	561.57
617.35	555.38
617.70	549.76
618.04	543.52
618.39	538.05
618.74	533.48
619.08	529.43
619.43	525.52
619.78	522.24
620.12	519.10
620.47	516.24
620.82	513.48
621.16	510.29
621.51	509.43
621.85	506.67
622.20	505.29
622.55	501.90
622.89	499.43
623.24	496.71
623.59	494.67
623.93	492.43
624.28	491.05
624.62	491.00
624.97	489.33
625.32	487.57
625.66	486.33
626.01	484.52
626.35	482.62
626.70	481.14
627.04	480.05
627.39	478.00
627.73	477.19
628.08	475.71
628.43	474.10
628.77	470.62
629.12	468.71
629.46	466.52
629.81	465.29
630.15	463.10
630.50	460.95
630.84	458.43
631.19	455.81
631.53	452.86
631.88	448.10
632.22	444.33
632.57	442.95
632.91	439.48
633.26	436.86
633.60	434.33
633.95	431.86
634.29	428.38
634.64	426.33
634.98	422.86
635.32	420.67
635.67	418.67
636.01	416.52
636.36	414.67
636.70	413.00
637.05	410.43
637.39	408.81
637.73	407.10
638.08	406.52
638.42	404.71
638.77	403.57
639.11	401.95
639.45	400.90
639.80	399.00
640.14	398.57
640.49	397.05
640.83	395.57
641.17	394.05
641.52	392.38
641.86	391.14
642.20	390.76
642.55	388.62
642.89	387.19
643.23	386.24
643.58	385.95
643.92	384.05
644.26	383.00
644.61	382.24
644.95	381.14
645.29	378.62
645.64	378.43
645.98	377.05
646.32	377.24
646.66	376.29
647.01	374.86
647.35	373.95
647.69	373.81
648.04	372.71
648.38	371.71
648.72	371.14
649.06	369.76
649.41	368.00
649.75	367.38
650.09	367.05
650.43	365.71
650.78	364.14
651.12	363.05
651.46	362.38
651.80	360.52
652.14	358.95
652.49	359.19
652.83	357.38
653.17	355.95
653.51	353.52
653.85	352.43
654.20	351.24
654.54	349.52
654.88	347.57
655.22	346.81
655.56	345.43
655.90	344.38
656.25	343.57
656.59	342.57
656.93	342.19
657.27	341.48
657.61	340.10
657.95	339.43
658.29	339.10
658.64	338.86
658.98	338.38
659.32	338.05
659.66	336.71
660.00	336.24
660.34	335.62
660.68	335.57
661.02	335.24
661.36	334.71
661.70	334.05
662.05	333.19
662.39	333.33
662.73	333.76
663.07	334.81
663.41	334.05
663.75	333.10
664.09	332.33
664.43	331.33
664.77	331.14
665.11	329.71
665.45	329.00
665.79	328.43
666.13	327.62
666.47	326.43
666.81	325.90
667.15	324.67
667.49	324.29
667.83	323.76
668.17	322.48
668.51	321.90
668.85	321.52
669.19	322.10
669.53	320.62
669.87	319.48
670.21	317.52
670.55	317.00
670.89	317.86
671.23	316.71
671.57	315.67
671.91	315.10
672.25	315.05
672.58	315.00
672.92	313.29
673.26	312.57
673.60	312.43
673.94	311.71
674.28	311.38
674.62	311.48
674.96	310.76
675.30	310.29
675.64	309.81
675.97	309.14
676.31	307.76
676.65	306.86
676.99	306.62
677.33	305.62
677.67	305.38
678.01	303.71
678.34	303.67
678.68	303.76
679.02	303.43
679.36	302.76
679.70	301.24
680.04	301.38
680.37	300.86
680.71	300.33
681.05	300.00
681.39	299.62
681.73	298.29
682.06	297.43
682.40	297.05
682.74	297.38
683.08	297.57
683.42	296.90
683.75	297.48
684.09	296.62
684.43	296.62
684.77	295.67
685.10	295.33
685.44	294.90
685.78	294.05
686.12	293.14
686.45	292.38
686.79	292.05
687.13	291.86
687.46	291.67
687.80	292.10
688.14	291.19
688.48	291.24
688.81	291.33
689.15	291.71
689.49	291.43
689.82	290.81
690.16	289.71
690.50	289.24
690.83	288.19
691.17	287.43
691.51	287.14
691.84	286.95
692.18	286.48
692.52	285.81
692.85	285.57
693.19	286.48
693.52	286.38
693.86	286.14
694.20	285.57
694.53	285.19
694.87	284.10
695.21	284.00
695.54	283.33
695.88	282.24
696.21	281.33
696.55	280.95
696.88	279.95
697.22	279.43
697.56	279.19
697.89	278.67
698.23	278.67
698.56	277.62
698.90	277.57
699.23	277.24
699.57	276.86
699.90	276.57
700.24	275.52
700.58	275.62
700.91	275.67
701.25	277.67
701.58	278.81
701.92	279.86
702.25	280.38
702.59	280.48
702.92	281.57
703.26	281.81
703.59	282.14
703.93	284.76
704.26	285.81
704.60	286.76
704.93	286.95
705.26	287.10
705.60	288.48
705.93	288.24
706.27	289.14
706.60	289.95
706.94	291.00
707.27	291.00
707.61	291.14
707.94	291.43
708.27	289.71
708.61	288.52
708.94	287.57
709.28	287.14
709.61	286.24
709.94	285.48
710.28	284.95
710.61	284.33
710.95	281.43
711.28	281.90
711.61	280.76
711.95	280.76
712.28	279.81
712.61	278.38
712.95	278.90
713.28	279.14
713.61	278.14
713.95	276.52
714.28	275.95
714.61	274.71
714.95	273.38
715.28	271.95
715.61	271.24
715.95	270.71
716.28	269.57
716.61	270.00
716.95	269.10
717.28	268.52
717.61	268.05
717.94	267.57
718.28	265.38
718.61	265.05
718.94	264.19
719.27	263.62
719.61	263.43
719.94	262.38
720.27	260.71
720.60	260.33
720.94	259.95
721.27	259.81
721.60	260.19
721.93	260.24
722.27	260.71
722.60	260.95
722.93	260.43
723.26	260.67
723.59	260.19
723.93	260.71
724.26	260.81
724.59	260.71
724.92	261.10
725.25	261.67
725.59	261.43
725.92	261.95
726.25	262.00
726.58	261.90
726.91	261.86
727.24	262.14
727.57	262.05
727.91	261.52
728.24	261.48
728.57	260.86
728.90	260.86
729.23	260.19
729.56	261.43
729.89	261.71
730.22	261.14
730.55	260.57
730.89	260.29
731.22	260.29
731.55	259.76
731.88	259.48
732.21	259.29
732.54	259.29
732.87	258.81
733.20	259.00
733.53	259.29
733.86	259.57
734.19	258.90
734.52	259.33
734.85	261.43
735.18	260.81
735.51	261.90
735.84	262.29
736.17	262.95
736.50	261.52
736.83	264.48
737.16	264.86
737.49	265.05
737.82	264.67
738.15	264.90
738.48	265.24
738.81	265.00
739.14	264.76
739.47	264.24
739.80	264.33
740.13	264.62
740.46	264.10
740.79	263.57
741.12	263.67
741.45	263.14
741.78	261.57
742.11	262.33
742.44	261.57
742.77	261.76
743.10	261.10
743.43	260.62
743.75	257.81
744.08	260.38
744.41	260.24
744.74	260.10
745.07	259.24
745.40	259.48
745.73	260.38
746.06	260.05
746.39	260.29
746.71	260.05
747.04	259.52
747.37	259.19
747.70	259.33
748.03	259.29
748.36	259.38
748.68	259.24
749.01	258.29
749.34	258.05
749.67	257.62
750.00	257.86
750.33	259.52
750.65	259.52
750.98	256.67
751.31	256.81
751.64	256.90
751.97	258.71
752.29	257.95
752.62	256.52
752.95	256.33
753.28	255.86
753.60	255.52
753.93	256.10
754.26	256.24
754.59	255.38
754.91	255.00
755.24	254.81
755.57	254.52
755.90	254.48
756.22	254.29
756.55	253.67
756.88	253.19
757.20	251.62
757.53	250.76
757.86	250.38
758.19	250.38
758.51	250.14
758.84	248.48
759.17	248.29
759.49	248.52
759.82	249.57
760.15	250.00
760.47	249.57
760.80	248.71
761.13	249.14
761.45	249.14
761.78	249.29
762.11	248.76
762.43	248.71
762.76	248.67
763.08	248.57
763.41	248.81
763.74	248.81
764.06	248.57
764.39	248.38
764.71	248.33
765.04	247.76
765.37	247.52
765.69	247.29
766.02	247.62
766.34	247.62
766.67	246.38
767.00	246.90
767.32	248.48
767.65	249.95
767.97	249.62
768.30	249.76
768.62	249.48
768.95	249.33
769.27	249.10
769.60	249.19
769.92	248.81
770.25	248.33
770.57	247.90
770.90	247.67
771.22	247.52
771.55	247.95
771.87	248.33
772.20	248.29
772.52	250.52
772.85	253.52
773.17	253.14
773.50	253.19
773.82	252.29
774.15	251.19
774.47	249.24
774.80	248.90
775.12	248.86
775.45	248.95
775.77	249.19
776.09	249.57
776.42	249.71
776.74	250.43
777.07	250.14
777.39	250.38
777.72	250.05
778.04	250.48
778.36	250.00
778.69	250.00
779.01	250.05
779.33	247.76
779.66	244.67
779.98	244.52
780.31	244.67
780.63	245.81
780.95	246.00
781.28	246.38
781.60	246.38
781.92	246.10
782.25	246.24
782.57	246.24
782.89	245.71
783.22	245.52
783.54	244.95
783.86	245.19
784.19	244.57
784.51	245.57
784.83	245.05
785.16	245.05
785.48	244.95
785.80	244.81
786.12	244.90
786.45	244.81
786.77	245.00
787.09	244.86
787.42	243.67
787.74	243.52
788.06	243.62
788.38	243.48
788.71	243.57
789.03	243.14
789.35	243.57
789.67	243.10
789.99	243.00
790.32	242.48
790.64	242.76
790.96	244.95
791.28	243.90
791.61	243.95
791.93	244.00
792.25	243.71
792.57	245.48
792.89	244.86
793.21	245.14
793.54	245.05
793.86	244.62
