SpectraSuite Data File
++++++++++++++++++++++++++++++++++++
Date: Wed Nov 07 18:32:47 EST 2012
User: group
Dark Spectrum Present: No
Reference Spectrum Present: No
Number of Sampled Component Spectra: 1
Spectrometers: USB2E7196
Integration Time (usec): 1000000 (USB2E7196)
Spectra Averaged: 1 (USB2E7196)
Boxcar Smoothing: 10 (USB2E7196)
Correct for Electrical Dark: No (USB2E7196)
Strobe/Lamp Enabled: No (USB2E7196)
Correct for Detector Non-linearity: No (USB2E7196)
Correct for Stray Light: No (USB2E7196)
Number of Pixels in Processed Spectrum: 2048
>>>>>Begin Processed Spectral Data<<<<<
339.09	0.00
339.48	220.00
339.86	220.00
340.24	222.00
340.63	221.00
341.01	262.00
341.39	231.00
341.78	235.00
342.16	236.00
342.54	230.00
342.93	223.24
343.31	234.24
343.69	235.29
344.07	236.19
344.46	237.29
344.84	238.10
345.22	236.62
345.60	237.05
345.99	237.10
346.37	237.00
346.75	237.14
347.13	237.19
347.52	237.00
347.90	238.00
348.28	238.24
348.66	239.05
349.05	238.19
349.43	238.81
349.81	239.24
350.19	238.90
350.57	238.71
350.96	239.43
351.34	239.71
351.72	239.38
352.10	239.48
352.48	239.00
352.87	238.95
353.25	239.05
353.63	238.76
354.01	238.81
354.39	239.29
354.77	239.57
355.15	240.33
355.54	240.57
355.92	239.67
356.30	239.62
356.68	241.29
357.06	242.00
357.44	241.48
357.82	241.57
358.20	241.95
358.58	242.24
358.97	241.57
359.35	241.95
359.73	242.48
360.11	242.29
360.49	242.38
360.87	242.43
361.25	242.95
361.63	244.10
362.01	244.19
362.39	243.81
362.77	243.81
363.15	243.57
363.53	243.38
363.91	243.52
364.29	243.52
364.67	241.10
365.05	240.67
365.43	240.90
365.81	240.81
366.19	241.86
366.57	242.57
366.95	242.52
367.33	241.71
367.71	241.67
368.09	242.00
368.47	241.76
368.85	241.71
369.23	242.05
369.61	240.86
369.99	241.57
370.37	242.05
370.75	243.38
371.13	242.52
371.51	242.33
371.89	242.67
372.27	242.52
372.65	242.57
373.03	242.43
373.41	242.29
373.78	241.95
374.16	240.67
374.54	239.67
374.92	239.57
375.30	239.86
375.68	239.24
376.06	239.57
376.44	239.57
376.82	239.71
377.19	239.57
377.57	239.43
377.95	238.57
378.33	238.14
378.71	236.62
379.09	237.48
379.47	237.86
379.84	237.43
380.22	237.29
380.60	237.10
380.98	237.38
381.36	237.29
381.73	237.14
382.11	237.67
382.49	238.00
382.87	238.29
383.25	238.33
383.62	241.10
384.00	240.10
384.38	240.33
384.76	240.86
385.13	241.71
385.51	242.00
385.89	242.00
386.27	241.90
386.64	242.19
387.02	241.81
387.40	241.43
387.78	242.10
388.15	242.14
388.53	241.81
388.91	241.67
389.29	241.76
389.66	242.52
390.04	242.24
390.42	242.52
390.79	242.29
391.17	242.43
391.55	239.95
391.92	240.29
392.30	240.62
392.68	239.86
393.05	239.62
393.43	239.76
393.81	239.76
394.18	239.81
394.56	240.00
394.94	240.62
395.31	240.48
395.69	240.95
396.06	241.52
396.44	242.00
396.82	241.95
397.19	243.24
397.57	242.81
397.95	243.10
398.32	242.10
398.70	242.29
399.07	242.76
399.45	242.71
399.82	242.52
400.20	242.24
400.58	242.57
400.95	241.90
401.33	241.95
401.70	243.86
402.08	244.14
402.45	244.10
402.83	244.71
403.20	244.90
403.58	244.67
403.95	245.33
404.33	245.52
404.71	245.81
405.08	247.24
405.46	247.52
405.83	247.90
406.21	248.76
406.58	249.24
406.96	249.24
407.33	250.05
407.70	251.10
408.08	253.57
408.45	254.57
408.83	255.71
409.20	256.24
409.58	255.29
409.95	256.57
410.33	257.62
410.70	257.71
411.08	259.19
411.45	260.29
411.82	260.90
412.20	262.81
412.57	265.29
412.95	264.76
413.32	266.43
413.69	267.81
414.07	269.71
414.44	271.62
414.82	274.48
415.19	277.24
415.56	279.62
415.94	280.67
416.31	283.52
416.68	286.19
417.06	289.71
417.43	293.52
417.81	296.76
418.18	300.62
418.55	304.71
418.93	308.33
419.30	312.48
419.67	316.95
420.04	321.24
420.42	325.86
420.79	333.29
421.16	339.38
421.54	346.71
421.91	352.81
422.28	359.00
422.66	365.10
423.03	373.05
423.40	379.95
423.77	387.33
424.15	394.57
424.52	402.24
424.89	411.48
425.26	418.86
425.64	426.48
426.01	434.52
426.38	443.00
426.75	452.67
427.13	462.05
427.50	472.38
427.87	482.38
428.24	491.81
428.61	500.14
428.99	511.95
429.36	522.52
429.73	533.43
430.10	545.19
430.47	557.57
430.85	568.00
431.22	581.29
431.59	597.48
431.96	610.52
432.33	625.00
432.70	638.71
433.08	655.00
433.45	669.95
433.82	685.67
434.19	702.81
434.56	718.52
434.93	733.90
435.30	748.67
435.68	766.38
436.05	782.48
436.42	798.62
436.79	814.10
437.16	830.62
437.53	848.29
437.90	865.33
438.27	881.71
438.64	898.86
439.01	913.71
439.38	924.81
439.75	938.43
440.13	952.43
440.50	965.90
440.87	977.52
441.24	989.81
441.61	1002.71
441.98	1012.29
442.35	1023.29
442.72	1034.76
443.09	1046.67
443.46	1052.33
443.83	1057.00
444.20	1060.90
444.57	1064.00
444.94	1065.52
445.31	1067.57
445.68	1072.33
446.05	1072.57
446.42	1069.48
446.79	1067.71
447.16	1063.95
447.53	1060.38
447.90	1053.38
448.27	1046.38
448.64	1037.24
449.01	1030.14
449.37	1016.86
449.74	1004.71
450.11	993.86
450.48	977.57
450.85	961.67
451.22	948.24
451.59	935.86
451.96	923.48
452.33	907.48
452.70	892.48
453.07	875.00
453.43	854.43
453.80	837.38
454.17	822.00
454.54	806.38
454.91	791.05
455.28	775.71
455.65	761.24
456.02	751.33
456.38	738.86
456.75	723.29
457.12	711.57
457.49	699.19
457.86	684.86
458.23	676.52
458.59	664.86
458.96	653.52
459.33	642.90
459.70	632.24
460.07	625.05
460.43	616.00
460.80	608.14
461.17	600.43
461.54	592.57
461.91	584.86
462.27	576.95
462.64	570.19
463.01	563.33
463.38	557.76
463.74	545.95
464.11	539.00
464.48	534.14
464.85	528.52
465.21	524.71
465.58	519.76
465.95	513.33
466.32	508.76
466.68	504.10
467.05	500.05
467.42	495.95
467.78	491.00
468.15	487.10
468.52	483.90
468.88	479.62
469.25	475.67
469.62	473.00
469.98	469.71
470.35	466.19
470.72	463.10
471.08	458.19
471.45	455.76
471.82	453.52
472.18	450.19
472.55	448.10
472.92	444.19
473.28	441.43
473.65	438.62
474.02	435.81
474.38	434.24
474.75	432.38
475.11	429.71
475.48	428.24
475.85	426.43
476.21	424.00
476.58	423.24
476.94	421.67
477.31	419.86
477.67	418.67
478.04	418.38
478.41	417.86
478.77	420.33
479.14	419.43
479.50	419.24
479.87	419.52
480.23	418.67
480.60	418.67
480.96	419.24
481.33	420.86
481.69	422.05
482.06	422.76
482.42	423.67
482.79	425.10
483.15	425.95
483.52	427.76
483.88	428.95
484.25	429.81
484.61	431.29
484.98	432.52
485.34	434.05
485.71	435.57
486.07	436.90
486.44	436.00
486.80	437.38
487.17	438.57
487.53	440.33
487.90	442.14
488.26	444.62
488.62	446.52
488.99	447.38
489.35	449.05
489.72	450.67
490.08	452.00
490.44	453.95
490.81	456.19
491.17	457.57
491.54	460.33
491.90	462.33
492.26	464.76
492.63	467.62
492.99	470.00
493.36	472.33
493.72	474.95
494.08	477.86
494.45	481.24
494.81	484.33
495.17	487.10
495.54	490.71
495.90	494.38
496.26	498.43
496.63	501.95
496.99	505.90
497.35	509.05
497.72	513.57
498.08	517.43
498.44	520.90
498.80	525.33
499.17	529.00
499.53	533.33
499.89	538.48
500.26	542.38
500.62	547.38
500.98	553.10
501.34	558.95
501.71	564.57
502.07	569.00
502.43	573.95
502.79	578.71
503.16	584.10
503.52	588.67
503.88	592.95
504.24	598.43
504.60	603.67
504.97	609.62
505.33	614.81
505.69	620.86
506.05	625.86
506.41	631.33
506.78	636.14
507.14	641.05
507.50	645.90
507.86	651.52
508.22	657.33
508.59	661.43
508.95	666.19
509.31	672.38
509.67	677.43
510.03	682.43
510.39	687.86
510.75	692.62
511.12	696.76
511.48	702.19
511.84	707.10
512.20	711.19
512.56	716.38
512.92	720.57
513.28	725.05
513.64	730.10
514.00	734.05
514.37	739.10
514.73	744.00
515.09	748.76
515.45	753.00
515.81	756.67
516.17	760.95
516.53	764.86
516.89	768.00
517.25	772.14
517.61	776.95
517.97	780.62
518.33	784.86
518.69	789.71
519.05	793.19
519.41	797.29
519.77	802.71
520.13	805.76
520.49	809.62
520.85	812.71
521.21	817.67
521.57	821.90
521.93	824.48
522.29	827.81
522.65	830.00
523.01	832.43
523.37	834.67
523.73	836.95
524.09	839.52
524.45	841.10
524.81	843.62
525.17	845.86
525.53	848.38
525.89	849.38
526.25	851.52
526.61	853.38
526.97	854.29
527.33	855.29
527.68	859.33
528.04	860.95
528.40	862.38
528.76	862.71
529.12	863.10
529.48	865.00
529.84	865.81
530.20	867.57
530.56	869.67
530.91	871.71
531.27	873.81
531.63	875.33
531.99	875.90
532.35	877.19
532.71	877.81
533.07	878.38
533.42	882.81
533.78	883.90
534.14	884.86
534.50	886.05
534.86	888.10
535.21	887.05
535.57	888.52
535.93	889.14
536.29	891.76
536.65	893.81
537.00	895.14
537.36	896.67
537.72	898.33
538.08	900.48
538.44	902.29
538.79	904.62
539.15	906.05
539.51	909.62
539.87	912.43
540.22	914.05
540.58	916.52
540.94	917.14
541.29	918.62
541.65	920.86
542.01	923.71
542.37	924.00
542.72	924.62
543.08	924.43
543.44	925.19
543.79	923.38
544.15	923.67
544.51	924.48
544.87	924.71
545.22	923.43
545.58	921.90
545.94	919.95
546.29	917.81
546.65	915.71
547.01	912.14
547.36	908.52
547.72	905.29
548.07	902.48
548.43	898.43
548.79	895.57
549.14	891.48
549.50	888.52
549.86	884.71
550.21	882.67
550.57	880.29
550.92	876.86
551.28	875.57
551.64	872.86
551.99	869.90
552.35	866.33
552.70	864.05
553.06	861.57
553.41	858.62
553.77	856.95
554.13	854.90
554.48	854.48
554.84	853.43
555.19	852.43
555.55	852.62
555.90	850.76
556.26	848.10
556.61	846.05
556.97	843.24
557.32	842.14
557.68	840.00
558.03	839.00
558.39	838.38
558.74	835.86
559.10	833.86
559.45	831.57
559.81	830.95
560.16	829.48
560.52	828.14
560.87	827.43
561.23	825.38
561.58	826.71
561.94	824.95
562.29	822.67
562.64	821.48
563.00	817.86
563.35	816.29
563.71	815.57
564.06	814.81
564.42	813.19
564.77	811.67
565.12	809.95
565.48	810.52
565.83	809.52
566.19	808.00
566.54	806.00
566.89	804.67
567.25	804.00
567.60	803.81
567.96	804.95
568.31	804.86
568.66	804.43
569.02	800.71
569.37	799.48
569.72	798.67
570.08	797.10
570.43	796.00
570.78	794.38
571.14	792.19
571.49	790.76
571.84	789.81
572.20	788.71
572.55	787.52
572.90	783.86
573.26	781.38
573.61	780.05
573.96	779.33
574.31	778.76
574.67	776.29
575.02	774.19
575.37	770.33
575.72	768.10
576.08	766.10
576.43	764.90
576.78	762.19
577.13	760.57
577.49	759.43
577.84	758.29
578.19	757.05
578.54	757.10
578.90	756.10
579.25	754.29
579.60	753.10
579.95	751.86
580.30	750.57
580.66	750.14
581.01	749.33
581.36	747.14
581.71	744.90
582.06	744.86
582.42	743.19
582.77	741.67
583.12	740.38
583.47	738.67
583.82	736.86
584.17	736.38
584.53	736.29
584.88	734.33
585.23	733.33
585.58	730.67
585.93	727.33
586.28	725.10
586.63	723.67
586.98	721.33
587.34	719.67
587.69	717.71
588.04	714.67
588.39	711.67
588.74	709.43
589.09	708.05
589.44	704.10
589.79	701.19
590.14	698.00
590.49	694.10
590.84	690.48
591.19	686.95
591.54	683.43
591.89	678.62
592.25	677.67
592.60	673.29
592.95	671.57
593.30	669.90
593.65	667.29
594.00	663.67
594.35	667.71
594.70	663.90
595.05	660.86
595.40	658.52
595.75	655.71
596.10	653.10
596.45	649.90
596.80	647.38
597.15	645.05
597.50	642.43
597.85	640.52
598.19	638.24
598.54	635.62
598.89	632.62
599.24	630.76
599.59	626.33
599.94	623.67
600.29	621.10
600.64	618.33
600.99	616.00
601.34	613.86
601.69	603.57
602.04	601.38
602.39	597.86
602.74	595.86
603.08	593.57
603.43	592.24
603.78	589.86
604.13	587.48
604.48	585.76
604.83	585.00
605.18	584.24
605.53	584.43
605.87	586.43
606.22	589.95
606.57	593.95
606.92	598.71
607.27	604.62
607.62	609.86
607.96	615.14
608.31	619.76
608.66	623.95
609.01	628.43
609.36	631.57
609.70	634.81
610.05	637.19
610.40	639.29
610.75	641.05
611.10	642.76
611.44	644.14
611.79	644.00
612.14	643.43
612.49	641.90
612.83	639.86
613.18	635.81
613.53	630.00
613.88	623.33
614.22	615.38
614.57	606.81
614.92	598.00
615.27	590.67
615.61	582.76
615.96	575.67
616.31	569.10
616.65	563.24
617.00	558.19
617.35	552.19
617.70	547.67
618.04	542.19
618.39	537.19
618.74	533.00
619.08	528.81
619.43	525.33
619.78	521.33
620.12	517.71
620.47	514.48
620.82	511.52
621.16	508.67
621.51	508.14
621.85	506.10
622.20	504.10
622.55	500.43
622.89	498.05
623.24	495.90
623.59	493.10
623.93	490.67
624.28	488.00
624.62	488.67
624.97	487.00
625.32	484.86
625.66	482.71
626.01	480.43
626.35	479.05
626.70	477.10
627.04	476.33
627.39	474.86
627.73	474.14
628.08	472.57
628.43	470.00
628.77	466.71
629.12	464.33
629.46	462.29
629.81	460.52
630.15	458.81
630.50	456.43
630.84	454.29
631.19	452.29
631.53	450.05
631.88	444.29
632.22	441.33
632.57	439.76
632.91	437.33
633.26	435.48
633.60	433.10
633.95	430.14
634.29	427.05
634.64	424.38
634.98	421.14
635.32	419.43
635.67	417.52
636.01	415.29
636.36	412.76
636.70	411.29
637.05	409.52
637.39	407.57
637.73	406.00
638.08	404.81
638.42	402.67
638.77	401.62
639.11	400.71
639.45	398.67
639.80	396.52
640.14	395.14
640.49	393.00
640.83	390.90
641.17	390.19
641.52	388.76
641.86	387.86
642.20	388.00
642.55	385.57
642.89	384.24
643.23	383.00
643.58	383.05
643.92	381.38
644.26	380.14
644.61	379.43
644.95	378.29
645.29	376.67
645.64	376.76
645.98	375.48
646.32	375.38
646.66	374.19
647.01	372.81
647.35	372.24
647.69	372.14
648.04	371.95
648.38	371.00
648.72	370.00
649.06	368.81
649.41	367.19
649.75	366.57
650.09	366.33
650.43	365.00
650.78	363.29
651.12	362.57
651.46	361.33
651.80	359.90
652.14	358.81
652.49	358.48
652.83	356.52
653.17	355.19
653.51	352.76
653.85	352.19
654.20	351.43
654.54	349.90
654.88	347.95
655.22	346.38
655.56	344.52
655.90	343.71
656.25	343.05
656.59	341.67
656.93	340.67
657.27	340.43
657.61	339.38
657.95	339.05
658.29	338.14
658.64	338.00
658.98	336.81
659.32	335.86
659.66	334.76
660.00	334.62
660.34	333.57
660.68	333.24
661.02	332.62
661.36	331.76
661.70	331.33
662.05	331.14
662.39	331.24
662.73	331.76
663.07	332.57
663.41	331.95
663.75	330.90
664.09	330.90
664.43	329.67
664.77	329.05
665.11	327.71
665.45	326.67
665.79	326.43
666.13	325.57
666.47	324.90
666.81	324.52
667.15	322.76
667.49	322.76
667.83	323.19
668.17	321.90
668.51	321.24
668.85	320.62
669.19	321.00
669.53	319.52
669.87	318.00
670.21	316.19
670.55	315.10
670.89	315.90
671.23	314.81
671.57	313.48
671.91	313.10
672.25	313.00
672.58	313.52
672.92	312.00
673.26	311.90
673.60	311.38
673.94	311.00
674.28	311.43
674.62	311.14
674.96	309.76
675.30	310.00
675.64	310.00
675.97	309.48
676.31	307.81
676.65	307.52
676.99	307.81
677.33	307.10
677.67	307.24
678.01	305.19
678.34	304.57
678.68	305.10
679.02	304.43
679.36	303.57
679.70	302.19
680.04	301.86
680.37	301.52
680.71	300.95
681.05	300.19
681.39	299.52
681.73	298.86
682.06	298.14
682.40	297.05
682.74	296.67
683.08	297.24
683.42	296.90
683.75	297.38
684.09	296.76
684.43	296.38
684.77	295.29
685.10	295.29
685.44	295.19
685.78	294.10
686.12	293.81
686.45	293.71
686.79	293.38
687.13	293.29
687.46	292.57
687.80	292.76
688.14	292.38
688.48	292.19
688.81	291.71
689.15	292.43
689.49	292.19
689.82	291.76
690.16	290.43
690.50	289.81
690.83	288.81
691.17	287.67
691.51	287.52
691.84	287.71
692.18	286.90
692.52	286.43
692.85	286.57
693.19	287.24
693.52	286.48
693.86	286.29
694.20	285.90
694.53	285.71
694.87	284.86
695.21	284.43
695.54	283.76
695.88	283.10
696.21	282.00
696.55	281.67
696.88	281.33
697.22	280.33
697.56	280.57
697.89	280.10
698.23	280.52
698.56	279.90
698.90	279.90
699.23	279.95
699.57	279.86
699.90	279.19
700.24	278.38
700.58	278.76
700.91	278.86
701.25	281.00
701.58	282.05
701.92	283.10
702.25	283.57
702.59	283.86
702.92	284.19
703.26	285.14
703.59	285.57
703.93	287.95
704.26	289.14
704.60	289.71
704.93	290.14
705.26	290.24
705.60	291.29
705.93	290.95
706.27	292.00
706.60	292.95
706.94	294.43
707.27	294.48
707.61	294.33
707.94	294.43
708.27	292.38
708.61	291.48
708.94	290.95
709.28	290.29
709.61	289.67
709.94	289.62
710.28	288.71
710.61	288.19
710.95	285.00
711.28	285.57
711.61	284.29
711.95	283.86
712.28	282.71
712.61	281.48
712.95	282.00
713.28	281.86
713.61	280.52
713.95	279.00
714.28	277.95
714.61	277.24
714.95	276.19
715.28	275.00
715.61	273.86
715.95	273.05
716.28	272.38
716.61	272.10
716.95	271.10
717.28	270.52
717.61	269.95
717.94	269.71
718.28	267.62
718.61	267.29
718.94	266.71
719.27	266.33
719.61	266.19
719.94	265.10
720.27	263.81
720.60	263.57
720.94	263.19
721.27	263.48
721.60	263.38
721.93	263.14
722.27	263.86
722.60	264.14
722.93	263.62
723.26	263.43
723.59	263.14
723.93	263.24
724.26	263.14
724.59	262.67
724.92	262.48
725.25	263.19
725.59	262.95
725.92	262.95
726.25	262.95
726.58	262.71
726.91	262.14
727.24	262.00
727.57	261.29
727.91	260.62
728.24	260.48
728.57	260.10
728.90	259.90
729.23	258.71
729.56	259.38
729.89	259.43
730.22	259.14
730.55	258.52
730.89	258.57
731.22	257.95
731.55	258.00
731.88	258.14
732.21	257.52
732.54	257.14
732.87	257.14
733.20	256.90
733.53	256.81
733.86	256.86
734.19	256.90
734.52	257.43
734.85	259.14
735.18	258.48
735.51	259.33
735.84	259.48
736.17	260.05
736.50	258.76
736.83	261.38
737.16	261.57
737.49	261.43
737.82	261.19
738.15	261.81
738.48	261.71
738.81	261.43
739.14	261.10
739.47	260.95
739.80	260.48
740.13	260.86
740.46	260.62
740.79	260.10
741.12	259.71
741.45	259.10
741.78	257.38
742.11	258.00
742.44	257.10
742.77	257.48
743.10	256.95
743.43	257.00
743.75	254.29
744.08	257.33
744.41	257.05
744.74	256.52
745.07	255.57
745.40	256.05
745.73	256.71
746.06	256.62
746.39	256.86
746.71	256.62
747.04	256.00
747.37	255.57
747.70	256.05
748.03	255.86
748.36	256.05
748.68	256.05
749.01	255.33
749.34	255.14
749.67	254.71
750.00	255.29
750.33	257.05
750.65	257.33
750.98	254.00
751.31	254.24
751.64	254.48
751.97	256.05
752.29	255.48
752.62	254.62
752.95	254.43
753.28	254.24
753.60	254.33
753.93	255.24
754.26	255.29
754.59	254.86
754.91	254.76
755.24	254.67
755.57	254.62
755.90	254.19
756.22	254.24
756.55	253.71
756.88	253.00
757.20	251.33
757.53	250.67
757.86	250.48
758.19	251.00
758.51	250.90
758.84	249.67
759.17	249.62
759.49	249.62
759.82	250.81
760.15	250.95
760.47	250.95
760.80	250.00
761.13	250.76
761.45	250.57
761.78	250.52
762.11	250.43
762.43	250.05
762.76	250.33
763.08	250.81
763.41	251.33
763.74	251.52
764.06	251.43
764.39	251.57
764.71	251.67
765.04	251.19
765.37	250.90
765.69	250.43
766.02	250.52
766.34	250.29
766.67	249.24
767.00	249.38
767.32	250.76
767.65	252.48
767.97	251.76
768.30	251.95
768.62	252.10
768.95	251.71
769.27	251.81
769.60	252.29
769.92	251.57
770.25	251.05
770.57	250.43
770.90	250.52
771.22	250.00
771.55	250.10
771.87	250.38
772.20	250.33
772.52	252.67
772.85	255.38
773.17	255.33
773.50	255.24
773.82	255.33
774.15	254.00
774.47	252.33
774.80	252.29
775.12	252.19
775.45	251.86
775.77	252.10
776.09	252.33
776.42	252.10
776.74	252.95
777.07	252.76
777.39	252.90
777.72	252.81
778.04	253.29
778.36	252.86
778.69	252.81
779.01	253.24
779.33	251.14
779.66	248.24
779.98	248.00
780.31	248.14
780.63	248.90
780.95	248.95
781.28	248.90
781.60	248.95
781.92	248.86
782.25	248.67
782.57	248.71
782.89	248.24
783.22	248.00
783.54	247.38
783.86	247.71
784.19	247.62
784.51	248.05
784.83	247.57
785.16	247.62
785.48	247.57
785.80	247.05
786.12	247.33
786.45	247.33
786.77	247.62
787.09	247.33
787.42	246.10
787.74	246.19
788.06	246.24
788.38	245.71
788.71	245.67
789.03	245.67
789.35	245.86
789.67	245.76
789.99	245.90
790.32	245.57
790.64	245.76
790.96	247.71
791.28	247.00
791.61	246.76
791.93	246.90
792.25	246.81
792.57	248.90
792.89	248.19
793.21	248.29
793.54	248.10
793.86	248.00
