SpectraSuite Data File
++++++++++++++++++++++++++++++++++++
Date: Wed Nov 07 18:32:17 EST 2012
User: group
Dark Spectrum Present: No
Reference Spectrum Present: No
Number of Sampled Component Spectra: 1
Spectrometers: USB2E7196
Integration Time (usec): 1000000 (USB2E7196)
Spectra Averaged: 1 (USB2E7196)
Boxcar Smoothing: 10 (USB2E7196)
Correct for Electrical Dark: No (USB2E7196)
Strobe/Lamp Enabled: No (USB2E7196)
Correct for Detector Non-linearity: No (USB2E7196)
Correct for Stray Light: No (USB2E7196)
Number of Pixels in Processed Spectrum: 2048
>>>>>Begin Processed Spectral Data<<<<<
339.09	0.00
339.48	224.00
339.86	225.00
340.24	228.00
340.63	225.00
341.01	268.00
341.39	227.00
341.78	237.00
342.16	236.00
342.54	233.00
342.93	224.62
343.31	235.71
343.69	236.29
344.07	236.62
344.46	237.48
344.84	238.05
345.22	236.76
345.60	237.19
345.99	237.43
346.37	237.24
346.75	237.38
347.13	237.24
347.52	237.62
347.90	238.14
348.28	237.95
348.66	238.62
349.05	237.67
349.43	238.00
349.81	237.90
350.19	238.05
350.57	238.57
350.96	238.71
351.34	238.95
351.72	238.62
352.10	238.90
352.48	238.43
352.87	238.48
353.25	238.10
353.63	238.00
354.01	237.33
354.39	237.57
354.77	237.48
355.15	238.24
355.54	237.81
355.92	237.29
356.30	237.57
356.68	239.10
357.06	239.33
357.44	238.76
357.82	238.71
358.20	238.90
358.58	238.71
358.97	238.71
359.35	239.05
359.73	239.52
360.11	239.14
360.49	238.95
360.87	238.76
361.25	238.90
361.63	239.95
362.01	240.48
362.39	240.29
362.77	240.38
363.15	240.00
363.53	240.10
363.91	240.19
364.29	240.00
364.67	237.67
365.05	237.62
365.43	238.00
365.81	238.33
366.19	239.43
366.57	240.24
366.95	239.95
367.33	239.48
367.71	239.33
368.09	239.76
368.47	239.90
368.85	239.86
369.23	240.29
369.61	239.29
369.99	240.05
370.37	240.48
370.75	241.76
371.13	241.05
371.51	240.71
371.89	240.95
372.27	241.24
372.65	241.48
373.03	241.57
373.41	241.52
373.78	241.48
374.16	239.86
374.54	239.24
374.92	239.29
375.30	238.90
375.68	238.86
376.06	239.19
376.44	239.10
376.82	239.19
377.19	239.24
377.57	239.33
377.95	238.52
378.33	238.29
378.71	236.71
379.09	237.33
379.47	237.86
379.84	237.57
380.22	237.05
380.60	236.81
380.98	236.67
381.36	236.43
381.73	236.33
382.11	237.29
382.49	237.33
382.87	237.24
383.25	237.38
383.62	240.10
384.00	239.33
384.38	239.48
384.76	240.10
385.13	241.10
385.51	241.10
385.89	240.86
386.27	241.19
386.64	241.81
387.02	241.76
387.40	241.38
387.78	241.38
388.15	241.57
388.53	241.10
388.91	241.19
389.29	241.19
389.66	241.24
390.04	240.57
390.42	240.90
390.79	240.95
391.17	241.38
391.55	239.14
391.92	239.52
392.30	240.05
392.68	239.43
393.05	239.29
393.43	239.43
393.81	239.71
394.18	239.19
394.56	239.29
394.94	239.52
395.31	239.24
395.69	240.10
396.06	240.57
396.44	241.14
396.82	241.10
397.19	242.52
397.57	242.62
397.95	243.05
398.32	242.24
398.70	242.38
399.07	242.76
399.45	242.24
399.82	242.29
400.20	241.81
400.58	242.00
400.95	240.95
401.33	241.43
401.70	243.14
402.08	243.57
402.45	243.90
402.83	244.86
403.20	245.52
403.58	245.48
403.95	246.33
404.33	246.90
404.71	247.29
405.08	248.71
405.46	249.10
405.83	249.81
406.21	250.62
406.58	251.38
406.96	251.71
407.33	252.48
407.70	253.52
408.08	256.24
408.45	257.24
408.83	258.81
409.20	259.33
409.58	258.38
409.95	259.38
410.33	260.00
410.70	260.24
411.08	261.52
411.45	262.48
411.82	262.90
412.20	264.52
412.57	267.71
412.95	266.86
413.32	268.67
413.69	270.00
414.07	271.90
414.44	273.76
414.82	276.38
415.19	279.00
415.56	281.00
415.94	281.90
416.31	284.90
416.68	287.57
417.06	291.00
417.43	295.10
417.81	299.05
418.18	303.19
418.55	306.62
418.93	310.71
419.30	315.29
419.67	320.14
420.04	324.48
420.42	327.67
420.79	335.19
421.16	340.52
421.54	347.86
421.91	354.10
422.28	359.86
422.66	366.10
423.03	374.76
423.40	381.95
423.77	389.00
424.15	396.05
424.52	403.48
424.89	412.43
425.26	420.10
425.64	427.86
426.01	435.67
426.38	444.57
426.75	454.29
427.13	463.29
427.50	472.86
427.87	482.57
428.24	493.19
428.61	501.14
428.99	513.52
429.36	523.43
429.73	534.48
430.10	546.76
430.47	559.10
430.85	569.14
431.22	582.52
431.59	598.38
431.96	611.95
432.33	626.76
432.70	640.19
433.08	656.95
433.45	672.62
433.82	687.52
434.19	704.76
434.56	721.14
434.93	736.57
435.30	751.76
435.68	768.95
436.05	785.95
436.42	803.52
436.79	817.71
437.16	834.38
437.53	850.71
437.90	867.19
438.27	882.95
438.64	899.67
439.01	914.71
439.38	926.57
439.75	939.81
440.13	955.24
440.50	968.52
440.87	979.24
441.24	990.33
441.61	1002.86
441.98	1012.00
442.35	1021.90
442.72	1032.95
443.09	1045.76
443.46	1051.29
443.83	1054.76
444.20	1056.71
444.57	1060.81
444.94	1061.62
445.31	1064.48
445.68	1068.76
446.05	1068.29
446.42	1065.48
446.79	1062.52
447.16	1058.95
447.53	1055.57
447.90	1047.43
448.27	1039.62
448.64	1029.48
449.01	1022.57
449.37	1011.38
449.74	999.19
450.11	987.86
450.48	972.76
450.85	955.14
451.22	941.86
451.59	929.52
451.96	917.67
452.33	902.81
452.70	889.52
453.07	871.48
453.43	850.95
453.80	835.14
454.17	819.33
454.54	804.05
454.91	788.29
455.28	772.81
455.65	757.86
456.02	748.67
456.38	736.86
456.75	721.19
457.12	708.48
457.49	696.86
457.86	682.67
458.23	672.86
458.59	662.05
458.96	651.95
459.33	641.33
459.70	631.62
460.07	623.33
460.43	614.10
460.80	606.48
461.17	599.10
461.54	591.14
461.91	584.33
462.27	576.95
462.64	570.14
463.01	563.76
463.38	558.43
463.74	546.95
464.11	540.19
464.48	534.95
464.85	528.81
465.21	524.33
465.58	519.86
465.95	513.76
466.32	509.38
466.68	504.10
467.05	499.76
467.42	495.10
467.78	489.81
468.15	485.00
468.52	481.86
468.88	478.10
469.25	474.19
469.62	470.90
469.98	467.52
470.35	464.33
470.72	460.90
471.08	456.24
471.45	453.52
471.82	451.24
472.18	447.48
472.55	445.90
472.92	442.67
473.28	439.90
473.65	437.95
474.02	435.57
474.38	434.05
474.75	432.00
475.11	429.62
475.48	428.86
475.85	427.67
476.21	426.00
476.58	424.86
476.94	423.90
477.31	422.62
477.67	421.33
478.04	420.90
478.41	419.81
478.77	421.05
479.14	420.52
479.50	420.33
479.87	421.05
480.23	420.62
480.60	420.38
480.96	420.38
481.33	421.05
481.69	421.19
482.06	421.67
482.42	423.14
482.79	424.19
483.15	424.57
483.52	425.81
483.88	426.52
484.25	427.48
484.61	428.52
484.98	429.62
485.34	431.76
485.71	433.00
486.07	435.00
486.44	435.05
486.80	436.38
487.17	437.62
487.53	439.86
487.90	441.57
488.26	444.52
488.62	446.76
488.99	447.71
489.35	449.71
489.72	450.95
490.08	451.86
490.44	453.71
490.81	456.05
491.17	458.00
491.54	460.95
491.90	463.29
492.26	466.00
492.63	468.05
492.99	469.29
493.36	472.00
493.72	474.81
494.08	477.57
494.45	481.00
494.81	484.48
495.17	486.71
495.54	490.24
495.90	492.62
496.26	496.00
496.63	499.95
496.99	503.76
497.35	507.52
497.72	511.62
498.08	515.10
498.44	518.90
498.80	523.67
499.17	527.24
499.53	531.38
499.89	535.71
500.26	540.43
500.62	545.52
500.98	550.71
501.34	555.38
501.71	560.81
502.07	565.67
502.43	570.52
502.79	575.67
503.16	580.43
503.52	585.67
503.88	590.76
504.24	595.90
504.60	600.62
504.97	606.57
505.33	612.10
505.69	619.10
506.05	624.33
506.41	628.86
506.78	633.95
507.14	639.52
507.50	644.43
507.86	650.52
508.22	655.95
508.59	660.19
508.95	666.14
509.31	671.62
509.67	676.90
510.03	681.67
510.39	686.71
510.75	691.29
511.12	696.14
511.48	701.29
511.84	706.57
512.20	712.24
512.56	717.29
512.92	721.90
513.28	725.95
513.64	730.48
514.00	735.29
514.37	740.67
514.73	745.14
515.09	750.29
515.45	754.29
515.81	759.19
516.17	764.24
516.53	767.24
516.89	770.38
517.25	774.24
517.61	778.90
517.97	782.62
518.33	787.10
518.69	791.14
519.05	795.05
519.41	798.81
519.77	803.19
520.13	805.76
520.49	809.05
520.85	812.33
521.21	817.29
521.57	820.48
521.93	822.52
522.29	825.33
522.65	827.24
523.01	829.90
523.37	831.67
523.73	834.05
524.09	837.14
524.45	839.33
524.81	841.10
525.17	842.95
525.53	845.10
525.89	847.10
526.25	849.62
526.61	850.90
526.97	851.86
527.33	852.29
527.68	856.86
528.04	857.95
528.40	858.43
528.76	858.48
529.12	859.81
529.48	862.57
529.84	863.24
530.20	865.05
530.56	866.57
530.91	868.95
531.27	870.38
531.63	872.24
531.99	873.43
532.35	875.19
532.71	876.10
533.07	878.14
533.42	881.43
533.78	881.38
534.14	882.71
534.50	884.00
534.86	885.67
535.21	884.76
535.57	886.05
535.93	887.67
536.29	890.62
536.65	892.24
537.00	892.24
537.36	894.33
537.72	895.52
538.08	897.05
538.44	898.43
538.79	900.29
539.15	900.95
539.51	902.67
539.87	904.00
540.22	905.76
540.58	907.62
540.94	908.76
541.29	911.62
541.65	913.38
542.01	916.33
542.37	917.57
542.72	916.95
543.08	918.19
543.44	918.86
543.79	917.29
544.15	917.43
544.51	917.43
544.87	917.00
545.22	915.86
545.58	914.10
545.94	912.05
546.29	910.90
546.65	908.95
547.01	906.90
547.36	905.05
547.72	902.57
548.07	899.57
548.43	894.62
548.79	891.29
549.14	887.81
549.50	883.67
549.86	880.10
550.21	878.71
550.57	876.62
550.92	873.57
551.28	872.29
551.64	870.00
551.99	867.90
552.35	864.81
552.70	862.90
553.06	861.00
553.41	858.86
553.77	856.76
554.13	854.76
554.48	854.00
554.84	852.52
555.19	850.14
555.55	850.33
555.90	849.33
556.26	847.62
556.61	845.86
556.97	843.52
557.32	841.57
557.68	839.48
558.03	837.81
558.39	835.62
558.74	832.57
559.10	830.05
559.45	828.57
559.81	827.52
560.16	825.62
560.52	824.52
560.87	822.81
561.23	820.48
561.58	821.33
561.94	817.95
562.29	815.00
562.64	814.52
563.00	810.24
563.35	808.48
563.71	806.33
564.06	804.48
564.42	803.19
564.77	802.14
565.12	800.62
565.48	800.62
565.83	800.19
566.19	798.67
566.54	797.14
566.89	796.24
567.25	795.19
567.60	795.24
567.96	795.48
568.31	795.76
568.66	795.24
569.02	791.62
569.37	791.67
569.72	790.90
570.08	789.14
570.43	787.57
570.78	786.38
571.14	784.71
571.49	783.14
571.84	781.71
572.20	780.29
572.55	779.43
572.90	775.90
573.26	774.48
573.61	773.14
573.96	772.00
574.31	769.76
574.67	768.48
575.02	765.76
575.37	762.67
575.72	759.67
576.08	757.90
576.43	756.76
576.78	754.95
577.13	753.86
577.49	752.14
577.84	751.62
578.19	750.62
578.54	750.24
578.90	749.14
579.25	748.19
579.60	747.57
579.95	745.52
580.30	744.43
580.66	743.67
581.01	742.90
581.36	741.48
581.71	740.33
582.06	740.05
582.42	739.81
582.77	737.90
583.12	737.62
583.47	735.67
583.82	733.95
584.17	732.19
584.53	731.67
584.88	730.33
585.23	730.00
585.58	727.19
585.93	724.71
586.28	723.14
586.63	721.38
586.98	718.57
587.34	717.29
587.69	714.90
588.04	712.24
588.39	709.05
588.74	706.38
589.09	704.48
589.44	700.86
589.79	697.33
590.14	694.14
590.49	689.86
590.84	686.81
591.19	683.71
591.54	680.86
591.89	676.48
592.25	675.14
592.60	670.38
592.95	667.76
593.30	665.86
593.65	662.90
594.00	658.38
594.35	661.90
594.70	657.52
595.05	655.38
595.40	653.05
595.75	650.38
596.10	648.19
596.45	645.19
596.80	641.81
597.15	639.29
597.50	637.05
597.85	636.05
598.19	633.29
598.54	630.57
598.89	627.81
599.24	625.86
599.59	621.76
599.94	619.05
600.29	616.71
600.64	613.52
600.99	611.52
601.34	610.43
601.69	602.00
602.04	600.62
602.39	597.29
602.74	594.71
603.08	592.67
603.43	591.14
603.78	589.00
604.13	587.05
604.48	585.57
604.83	584.24
605.18	582.71
605.53	583.43
605.87	585.57
606.22	589.00
606.57	593.33
606.92	597.86
607.27	604.10
607.62	610.19
607.96	615.57
608.31	619.76
608.66	623.90
609.01	627.00
609.36	630.76
609.70	634.29
610.05	636.67
610.40	639.71
610.75	640.76
611.10	642.33
611.44	643.57
611.79	643.10
612.14	643.86
612.49	642.62
612.83	639.76
613.18	635.38
613.53	629.62
613.88	622.33
614.22	614.95
614.57	606.19
614.92	596.62
615.27	588.90
615.61	581.86
615.96	575.10
616.31	568.81
616.65	562.86
617.00	556.33
617.35	550.81
617.70	544.57
618.04	539.76
618.39	534.57
618.74	530.19
619.08	527.00
619.43	522.81
619.78	519.00
620.12	516.10
620.47	513.38
620.82	509.81
621.16	507.33
621.51	506.10
621.85	503.57
622.20	502.05
622.55	498.71
622.89	495.52
623.24	492.81
623.59	490.10
623.93	487.67
624.28	485.62
624.62	485.71
624.97	485.33
625.32	482.67
625.66	480.62
626.01	478.71
626.35	476.86
626.70	474.86
627.04	473.62
627.39	471.62
627.73	470.62
628.08	469.38
628.43	467.14
628.77	464.05
629.12	461.48
629.46	459.05
629.81	457.05
630.15	455.57
630.50	453.62
630.84	451.81
631.19	449.43
631.53	447.24
631.88	441.95
632.22	438.05
632.57	436.76
632.91	434.05
633.26	432.19
633.60	429.62
633.95	426.52
634.29	422.86
634.64	420.57
634.98	417.24
635.32	415.67
635.67	413.95
636.01	411.76
636.36	409.81
636.70	408.62
637.05	407.33
637.39	405.00
637.73	403.10
638.08	401.71
638.42	399.67
638.77	398.81
639.11	397.86
639.45	395.81
639.80	393.90
640.14	393.10
640.49	391.29
640.83	389.71
641.17	389.19
641.52	388.14
641.86	387.29
642.20	387.29
642.55	385.48
642.89	383.95
643.23	383.19
643.58	383.48
643.92	381.71
644.26	380.48
644.61	380.43
644.95	379.76
645.29	378.52
645.64	378.71
645.98	376.95
646.32	376.62
646.66	376.29
647.01	375.29
647.35	374.67
647.69	374.33
648.04	373.38
648.38	372.43
648.72	371.90
649.06	370.95
649.41	368.76
649.75	367.48
650.09	366.90
650.43	365.81
650.78	364.10
651.12	363.14
651.46	361.81
651.80	359.95
652.14	358.57
652.49	357.86
652.83	355.62
653.17	354.81
653.51	352.86
653.85	351.48
654.20	350.81
654.54	348.71
654.88	346.48
655.22	345.43
655.56	343.76
655.90	342.95
656.25	341.76
656.59	340.81
656.93	340.38
657.27	339.81
657.61	338.81
657.95	338.33
658.29	337.71
658.64	337.90
658.98	337.14
659.32	336.19
659.66	335.43
660.00	335.05
660.34	334.29
660.68	333.57
661.02	333.52
661.36	332.19
661.70	331.71
662.05	331.33
662.39	331.48
662.73	332.10
663.07	332.95
663.41	332.10
663.75	331.33
664.09	330.71
664.43	329.62
664.77	328.71
665.11	327.67
665.45	326.76
665.79	325.95
666.13	325.38
666.47	324.52
666.81	323.76
667.15	322.71
667.49	322.43
667.83	322.57
668.17	321.33
668.51	320.48
668.85	320.10
669.19	320.43
669.53	318.76
669.87	317.00
670.21	314.81
670.55	314.10
670.89	315.19
671.23	314.14
671.57	313.57
671.91	313.29
672.25	312.52
672.58	312.86
672.92	311.76
673.26	311.10
673.60	310.90
673.94	310.10
674.28	310.19
674.62	309.38
674.96	308.38
675.30	308.14
675.64	307.90
675.97	307.57
676.31	306.52
676.65	306.00
676.99	306.52
677.33	305.62
677.67	305.38
678.01	303.52
678.34	303.14
678.68	302.90
679.02	302.24
679.36	301.90
679.70	300.86
680.04	300.29
680.37	299.76
680.71	298.95
681.05	298.76
681.39	297.95
681.73	297.38
682.06	296.95
682.40	296.48
682.74	296.52
683.08	296.95
683.42	296.33
683.75	296.67
684.09	295.38
684.43	295.29
684.77	294.86
685.10	293.90
685.44	294.05
685.78	293.71
686.12	293.05
686.45	292.57
686.79	291.90
687.13	291.90
687.46	291.43
687.80	291.57
688.14	290.90
688.48	290.90
688.81	290.67
689.15	290.90
689.49	290.38
689.82	289.76
690.16	288.10
690.50	287.81
690.83	287.14
691.17	286.57
691.51	286.10
691.84	285.67
692.18	285.71
692.52	284.81
692.85	284.48
693.19	285.29
693.52	284.86
693.86	284.57
694.20	283.95
694.53	283.71
694.87	283.05
695.21	282.19
695.54	281.71
695.88	280.67
696.21	279.29
696.55	278.62
696.88	278.05
697.22	278.05
697.56	277.81
697.89	277.33
698.23	277.43
698.56	277.00
698.90	277.10
699.23	276.81
699.57	276.95
699.90	276.43
700.24	275.43
700.58	275.43
700.91	275.62
701.25	277.62
701.58	278.62
701.92	279.57
702.25	280.62
702.59	280.76
702.92	281.57
703.26	282.48
703.59	283.38
703.93	285.90
704.26	286.62
704.60	287.14
704.93	287.43
705.26	287.67
705.60	288.71
705.93	288.43
706.27	289.62
706.60	290.24
706.94	291.95
707.27	292.33
707.61	292.95
707.94	292.86
708.27	291.14
708.61	290.33
708.94	289.95
709.28	289.76
709.61	288.90
709.94	288.67
710.28	288.05
710.61	287.19
710.95	284.14
711.28	284.76
711.61	283.95
711.95	283.43
712.28	282.43
712.61	281.57
712.95	282.24
713.28	281.90
713.61	280.48
713.95	278.38
714.28	277.24
714.61	275.76
714.95	275.05
715.28	273.90
715.61	273.14
715.95	272.14
716.28	270.95
716.61	271.00
716.95	270.24
717.28	269.62
717.61	269.10
717.94	268.71
718.28	266.43
718.61	265.90
718.94	265.43
719.27	265.10
719.61	264.81
719.94	263.76
720.27	262.24
720.60	261.76
720.94	261.48
721.27	261.57
721.60	262.00
721.93	261.62
722.27	262.19
722.60	262.33
722.93	262.10
723.26	262.00
723.59	261.24
723.93	261.29
724.26	261.43
724.59	261.24
724.92	261.29
725.25	261.95
725.59	261.57
725.92	261.33
726.25	261.29
726.58	260.86
726.91	260.52
727.24	260.76
727.57	260.81
727.91	260.29
728.24	260.43
728.57	260.05
728.90	260.19
729.23	259.05
729.56	259.86
729.89	259.62
730.22	259.29
730.55	258.86
730.89	258.67
731.22	258.38
731.55	257.95
731.88	257.62
732.21	256.76
732.54	256.43
732.87	256.38
733.20	255.95
733.53	256.29
733.86	256.38
734.19	255.67
734.52	255.86
734.85	257.43
735.18	256.29
735.51	256.67
735.84	256.86
736.17	257.81
736.50	256.19
736.83	258.90
737.16	259.00
737.49	259.43
737.82	259.29
738.15	259.52
738.48	259.76
738.81	259.81
739.14	259.48
739.47	259.76
739.80	259.71
740.13	260.24
740.46	259.76
740.79	259.57
741.12	259.81
741.45	259.48
741.78	258.19
742.11	259.43
742.44	258.76
742.77	258.71
743.10	258.19
743.43	258.19
743.75	255.81
744.08	258.71
744.41	258.33
744.74	258.38
745.07	257.33
745.40	257.86
745.73	258.71
746.06	259.14
746.39	259.24
746.71	258.95
747.04	258.48
747.37	258.05
747.70	258.14
748.03	258.38
748.36	258.67
748.68	258.43
749.01	257.10
749.34	257.19
749.67	257.00
750.00	256.76
750.33	258.81
750.65	259.24
750.98	256.19
751.31	256.38
751.64	256.05
751.97	257.76
752.29	257.24
752.62	256.05
752.95	255.71
753.28	254.86
753.60	254.38
753.93	255.29
754.26	255.48
754.59	254.48
754.91	254.05
755.24	253.57
755.57	253.57
755.90	254.00
756.22	253.52
756.55	253.33
756.88	253.10
757.20	250.86
757.53	249.43
757.86	249.43
758.19	249.52
758.51	249.52
758.84	247.90
759.17	247.76
759.49	247.90
759.82	249.19
760.15	249.71
760.47	249.90
760.80	248.62
761.13	248.67
761.45	248.67
761.78	248.38
762.11	248.33
762.43	247.95
762.76	248.05
763.08	248.19
763.41	247.81
763.74	247.86
764.06	247.86
764.39	248.24
764.71	247.95
765.04	247.76
765.37	247.24
765.69	247.43
766.02	246.95
766.34	246.86
766.67	245.76
767.00	246.10
767.32	247.38
767.65	249.19
767.97	249.05
768.30	249.24
768.62	249.38
768.95	249.19
769.27	248.95
769.60	248.90
769.92	248.62
770.25	248.29
770.57	247.71
770.90	247.95
771.22	247.57
771.55	247.81
771.87	247.81
772.20	248.00
772.52	249.62
772.85	252.76
773.17	252.76
773.50	252.57
773.82	252.24
774.15	250.86
774.47	249.10
774.80	248.67
775.12	248.57
775.45	248.43
775.77	248.19
776.09	248.76
776.42	248.67
776.74	249.71
777.07	249.62
777.39	250.05
777.72	249.67
778.04	249.90
778.36	249.33
778.69	249.24
779.01	249.33
779.33	247.14
779.66	244.05
779.98	244.00
780.31	244.05
780.63	244.67
780.95	245.29
781.28	245.52
781.60	245.76
781.92	245.62
782.25	245.62
782.57	245.95
782.89	245.67
783.22	245.57
783.54	244.76
783.86	245.29
784.19	245.00
784.51	245.81
784.83	245.52
785.16	245.71
785.48	245.62
785.80	245.48
786.12	245.62
786.45	245.81
786.77	245.57
787.09	245.24
787.42	244.43
787.74	244.33
788.06	243.95
788.38	243.33
788.71	243.24
789.03	243.00
789.35	243.29
789.67	242.86
789.99	243.14
790.32	242.76
790.64	243.00
790.96	244.76
791.28	243.90
791.61	243.86
791.93	243.71
792.25	243.76
792.57	245.24
792.89	245.24
793.21	245.33
793.54	245.57
793.86	245.48
