SpectraSuite Data File
++++++++++++++++++++++++++++++++++++
Date: Wed Nov 07 18:32:01 EST 2012
User: group
Dark Spectrum Present: No
Reference Spectrum Present: No
Number of Sampled Component Spectra: 1
Spectrometers: USB2E7196
Integration Time (usec): 1000000 (USB2E7196)
Spectra Averaged: 1 (USB2E7196)
Boxcar Smoothing: 10 (USB2E7196)
Correct for Electrical Dark: No (USB2E7196)
Strobe/Lamp Enabled: No (USB2E7196)
Correct for Detector Non-linearity: No (USB2E7196)
Correct for Stray Light: No (USB2E7196)
Number of Pixels in Processed Spectrum: 2048
>>>>>Begin Processed Spectral Data<<<<<
339.09	0.00
339.48	225.00
339.86	219.00
340.24	219.00
340.63	222.00
341.01	258.00
341.39	224.00
341.78	237.00
342.16	240.00
342.54	231.00
342.93	221.29
343.31	232.05
343.69	232.29
344.07	232.86
344.46	233.67
344.84	234.24
345.22	232.95
345.60	233.62
345.99	233.57
346.37	233.24
346.75	233.43
347.13	233.62
347.52	233.86
347.90	234.57
348.28	234.76
348.66	235.48
349.05	234.95
349.43	235.29
349.81	235.62
350.19	235.76
350.57	235.86
350.96	236.19
351.34	236.76
351.72	236.86
352.10	236.86
352.48	236.57
352.87	236.48
353.25	236.38
353.63	236.38
354.01	236.57
354.39	236.81
354.77	236.62
355.15	237.05
355.54	237.00
355.92	236.62
356.30	236.67
356.68	238.24
357.06	238.24
357.44	237.90
357.82	238.14
358.20	238.48
358.58	238.71
358.97	238.76
359.35	239.33
359.73	240.14
360.11	240.29
360.49	240.95
360.87	241.24
361.25	242.14
361.63	242.95
362.01	242.95
362.39	242.90
362.77	243.52
363.15	243.62
363.53	243.71
363.91	244.05
364.29	244.43
364.67	241.86
365.05	242.24
365.43	242.62
365.81	242.90
366.19	243.81
366.57	245.00
366.95	245.10
367.33	244.48
367.71	244.33
368.09	244.86
368.47	244.81
368.85	244.86
369.23	245.10
369.61	244.24
369.99	244.95
370.37	245.38
370.75	246.43
371.13	246.05
371.51	245.67
371.89	245.62
372.27	245.81
372.65	246.24
373.03	246.14
373.41	246.14
373.78	246.05
374.16	245.05
374.54	243.86
374.92	243.71
375.30	243.71
375.68	243.38
376.06	243.48
376.44	243.10
376.82	243.19
377.19	242.95
377.57	242.81
377.95	242.05
378.33	241.52
378.71	240.19
379.09	240.43
379.47	240.95
379.84	240.71
380.22	240.14
380.60	239.67
380.98	239.67
381.36	239.62
381.73	239.05
382.11	239.33
382.49	239.62
382.87	239.57
383.25	239.48
383.62	242.29
384.00	242.05
384.38	242.10
384.76	242.57
385.13	243.62
385.51	243.71
385.89	243.33
386.27	243.62
386.64	243.76
387.02	243.57
387.40	243.29
387.78	243.29
388.15	243.57
388.53	243.48
388.91	243.76
389.29	243.24
389.66	243.81
390.04	243.62
390.42	243.86
390.79	243.86
391.17	243.90
391.55	240.95
391.92	240.76
392.30	240.90
392.68	240.10
393.05	239.52
393.43	239.71
393.81	240.10
394.18	239.48
394.56	239.38
394.94	239.86
395.31	239.43
395.69	240.48
396.06	240.81
396.44	240.90
396.82	240.33
397.19	241.86
397.57	241.71
397.95	242.00
398.32	241.29
398.70	241.90
399.07	242.71
399.45	242.52
399.82	242.67
400.20	242.67
400.58	243.05
400.95	242.38
401.33	243.00
401.70	244.43
402.08	245.14
402.45	245.71
402.83	245.90
403.20	246.48
403.58	246.19
403.95	246.76
404.33	247.62
404.71	248.24
405.08	249.90
405.46	250.29
405.83	250.86
406.21	251.57
406.58	251.57
406.96	251.81
407.33	253.05
407.70	253.76
408.08	256.33
408.45	257.29
408.83	258.57
409.20	258.81
409.58	258.38
409.95	259.43
410.33	260.48
410.70	260.90
411.08	262.24
411.45	263.29
411.82	263.76
412.20	265.43
412.57	268.05
412.95	267.29
413.32	269.14
413.69	270.24
414.07	272.00
414.44	274.10
414.82	276.10
415.19	278.43
415.56	280.43
415.94	281.05
416.31	283.76
416.68	286.33
417.06	289.81
417.43	293.52
417.81	297.05
418.18	300.67
418.55	304.95
418.93	309.10
419.30	313.29
419.67	318.52
420.04	323.00
420.42	327.14
420.79	334.90
421.16	340.67
421.54	348.24
421.91	354.57
422.28	360.76
422.66	367.19
423.03	375.19
423.40	382.38
423.77	390.05
424.15	397.43
424.52	405.62
424.89	413.90
425.26	421.52
425.64	428.81
426.01	436.43
426.38	445.19
426.75	454.95
427.13	464.05
427.50	472.86
427.87	482.71
428.24	492.24
428.61	500.10
428.99	511.10
429.36	521.48
429.73	532.43
430.10	544.14
430.47	556.71
430.85	567.33
431.22	580.24
431.59	596.14
431.96	609.90
432.33	623.71
432.70	638.29
433.08	654.71
433.45	670.52
433.82	686.14
434.19	702.62
434.56	718.10
434.93	733.52
435.30	750.00
435.68	766.62
436.05	783.48
436.42	799.57
436.79	815.38
437.16	831.95
437.53	849.38
437.90	866.57
438.27	882.95
438.64	899.00
439.01	914.95
439.38	926.67
439.75	939.00
440.13	953.76
440.50	967.38
440.87	978.48
441.24	989.90
441.61	1003.38
441.98	1012.57
442.35	1023.81
442.72	1035.67
443.09	1046.71
443.46	1053.52
443.83	1057.19
444.20	1060.52
444.57	1063.76
444.94	1063.95
445.31	1065.48
445.68	1070.05
446.05	1068.33
446.42	1066.62
446.79	1064.10
447.16	1061.14
447.53	1058.90
447.90	1051.95
448.27	1043.10
448.64	1033.52
449.01	1025.52
449.37	1012.76
449.74	1001.14
450.11	989.81
450.48	973.52
450.85	957.29
451.22	943.71
451.59	931.52
451.96	919.81
452.33	903.95
452.70	890.33
453.07	873.38
453.43	852.33
453.80	837.14
454.17	821.29
454.54	804.86
454.91	788.52
455.28	772.43
455.65	757.48
456.02	748.33
456.38	735.67
456.75	721.43
457.12	709.10
457.49	696.52
457.86	681.43
458.23	672.24
458.59	661.14
458.96	649.81
459.33	638.86
459.70	628.67
460.07	621.67
460.43	612.52
460.80	604.48
461.17	597.43
461.54	589.67
461.91	582.00
462.27	574.71
462.64	568.05
463.01	561.48
463.38	555.86
463.74	544.95
464.11	538.76
464.48	533.52
464.85	528.05
465.21	524.05
465.58	519.81
465.95	513.76
466.32	508.76
466.68	503.81
467.05	500.10
467.42	495.48
467.78	490.38
468.15	486.81
468.52	483.52
468.88	478.57
469.25	474.62
469.62	471.76
469.98	468.81
470.35	465.38
470.72	462.14
471.08	457.86
471.45	455.29
471.82	452.90
472.18	449.81
472.55	447.52
472.92	444.48
473.28	442.00
473.65	439.57
474.02	437.24
474.38	435.86
474.75	433.90
475.11	431.71
475.48	429.95
475.85	428.00
476.21	426.10
476.58	425.29
476.94	424.81
477.31	423.19
477.67	421.81
478.04	420.86
478.41	420.29
478.77	422.00
479.14	420.81
479.50	420.48
479.87	420.33
480.23	419.43
480.60	419.48
480.96	419.81
481.33	421.00
481.69	421.43
482.06	421.81
482.42	423.19
482.79	424.71
483.15	425.86
483.52	426.95
483.88	427.76
484.25	428.76
484.61	428.81
484.98	429.76
485.34	432.00
485.71	433.81
486.07	435.24
486.44	434.48
486.80	436.19
487.17	437.14
487.53	439.38
487.90	441.43
488.26	444.19
488.62	446.33
488.99	447.48
489.35	448.95
489.72	450.52
490.08	451.90
490.44	452.86
490.81	454.67
491.17	456.71
491.54	458.81
491.90	461.52
492.26	464.24
492.63	466.52
492.99	468.10
493.36	470.57
493.72	473.19
494.08	475.95
494.45	479.24
494.81	483.00
495.17	485.62
495.54	489.00
495.90	491.19
496.26	494.38
496.63	497.67
496.99	501.62
497.35	505.90
497.72	509.95
498.08	514.52
498.44	519.43
498.80	523.62
499.17	527.86
499.53	531.81
499.89	536.24
500.26	541.43
500.62	546.76
500.98	551.48
501.34	555.86
501.71	561.05
502.07	565.48
502.43	570.10
502.79	574.86
503.16	579.43
503.52	584.62
503.88	588.95
504.24	594.71
504.60	600.19
504.97	605.24
505.33	610.38
505.69	616.29
506.05	621.81
506.41	627.24
506.78	633.19
507.14	638.95
507.50	644.48
507.86	649.71
508.22	655.24
508.59	660.67
508.95	666.29
509.31	673.19
509.67	678.95
510.03	683.76
510.39	688.81
510.75	695.00
511.12	700.14
511.48	705.57
511.84	710.33
512.20	714.67
512.56	719.81
512.92	725.00
513.28	729.24
513.64	733.29
514.00	737.62
514.37	741.81
514.73	745.90
515.09	750.71
515.45	754.62
515.81	758.19
516.17	762.29
516.53	765.90
516.89	768.10
517.25	772.05
517.61	776.95
517.97	781.05
518.33	784.67
518.69	788.81
519.05	792.81
519.41	796.62
519.77	802.67
520.13	806.05
520.49	808.71
520.85	811.86
521.21	816.00
521.57	819.00
521.93	821.57
522.29	824.81
522.65	827.10
523.01	830.19
523.37	831.62
523.73	834.14
524.09	836.81
524.45	839.10
524.81	840.81
525.17	842.43
525.53	844.86
525.89	846.43
526.25	848.76
526.61	849.95
526.97	851.05
527.33	851.14
527.68	854.86
528.04	855.52
528.40	857.19
528.76	857.33
529.12	859.19
529.48	860.29
529.84	861.24
530.20	863.33
530.56	864.86
530.91	867.38
531.27	868.81
531.63	870.29
531.99	871.48
532.35	872.76
532.71	873.57
533.07	874.52
533.42	878.52
533.78	879.14
534.14	880.19
534.50	881.57
534.86	882.57
535.21	881.48
535.57	883.81
535.93	884.05
536.29	886.71
536.65	888.14
537.00	890.48
537.36	892.43
537.72	893.43
538.08	896.71
538.44	898.52
538.79	900.29
539.15	901.71
539.51	904.24
539.87	906.14
540.22	907.81
540.58	910.00
540.94	910.19
541.29	911.86
541.65	913.52
542.01	915.86
542.37	918.10
542.72	918.57
543.08	919.29
543.44	920.10
543.79	918.62
544.15	918.38
544.51	918.29
544.87	916.95
545.22	915.76
545.58	913.38
545.94	912.00
546.29	909.95
546.65	908.62
547.01	905.33
547.36	903.43
547.72	901.29
548.07	898.76
548.43	894.14
548.79	890.86
549.14	887.76
549.50	884.71
549.86	880.05
550.21	877.86
550.57	874.95
550.92	872.38
551.28	870.95
551.64	868.19
551.99	865.52
552.35	863.29
552.70	860.62
553.06	858.24
553.41	855.05
553.77	853.90
554.13	851.52
554.48	850.05
554.84	848.00
555.19	846.00
555.55	845.57
555.90	844.57
556.26	842.24
556.61	840.19
556.97	837.29
557.32	835.81
557.68	833.76
558.03	831.62
558.39	829.38
558.74	827.00
559.10	824.95
559.45	823.33
559.81	821.71
560.16	820.00
560.52	818.14
560.87	817.33
561.23	814.86
561.58	814.81
561.94	812.86
562.29	811.00
562.64	810.19
563.00	806.43
563.35	805.52
563.71	804.43
564.06	803.10
564.42	802.05
564.77	800.57
565.12	799.48
565.48	800.71
565.83	800.24
566.19	798.10
566.54	797.19
566.89	795.10
567.25	794.29
567.60	794.38
567.96	794.33
568.31	794.10
568.66	793.76
569.02	791.43
569.37	789.95
569.72	788.57
570.08	786.67
570.43	785.24
570.78	782.19
571.14	780.19
571.49	779.38
571.84	777.90
572.20	776.57
572.55	774.71
572.90	771.81
573.26	770.33
573.61	769.19
573.96	768.10
574.31	767.29
574.67	765.90
575.02	763.76
575.37	761.19
575.72	758.57
576.08	756.43
576.43	754.67
576.78	753.76
577.13	752.00
577.49	750.86
577.84	749.57
578.19	749.48
578.54	749.10
578.90	747.76
579.25	746.86
579.60	745.81
579.95	744.29
580.30	742.67
580.66	740.95
581.01	739.86
581.36	737.95
581.71	735.90
582.06	734.86
582.42	733.33
582.77	731.62
583.12	729.81
583.47	728.52
583.82	726.62
584.17	725.62
584.53	725.48
584.88	722.86
585.23	722.48
585.58	719.71
585.93	717.14
586.28	714.76
586.63	712.48
586.98	710.76
587.34	709.10
587.69	706.29
588.04	704.29
588.39	702.24
588.74	699.48
589.09	698.33
589.44	694.52
589.79	691.62
590.14	688.86
590.49	685.43
590.84	682.00
591.19	679.71
591.54	676.62
591.89	672.29
592.25	671.81
592.60	667.10
592.95	664.38
593.30	663.00
593.65	660.10
594.00	656.76
594.35	660.67
594.70	657.76
595.05	654.76
595.40	651.71
595.75	648.43
596.10	645.95
596.45	642.38
596.80	639.86
597.15	637.29
597.50	634.10
597.85	633.43
598.19	630.95
598.54	628.10
598.89	624.62
599.24	622.71
599.59	618.10
599.94	616.00
600.29	613.76
600.64	610.43
600.99	608.95
601.34	607.00
601.69	597.76
602.04	594.67
602.39	592.57
602.74	590.76
603.08	588.29
603.43	587.29
603.78	585.57
604.13	583.67
604.48	582.38
604.83	582.10
605.18	581.00
605.53	581.90
605.87	584.05
606.22	587.52
606.57	591.67
606.92	597.14
607.27	603.19
607.62	608.05
607.96	612.76
608.31	616.95
608.66	620.71
609.01	624.10
609.36	628.29
609.70	631.29
610.05	633.90
610.40	636.81
610.75	637.86
611.10	638.90
611.44	640.38
611.79	640.81
612.14	640.57
612.49	638.33
612.83	634.95
613.18	630.33
613.53	625.00
613.88	618.00
614.22	610.14
614.57	601.24
614.92	593.29
615.27	586.52
615.61	578.38
615.96	571.67
616.31	564.76
616.65	558.38
617.00	551.95
617.35	545.52
617.70	539.76
618.04	534.76
618.39	529.95
618.74	525.48
619.08	520.38
619.43	516.43
619.78	513.57
620.12	511.29
620.47	508.29
620.82	504.71
621.16	501.67
621.51	500.57
621.85	498.24
622.20	496.57
622.55	492.86
622.89	490.90
623.24	489.00
623.59	486.62
623.93	484.62
624.28	483.29
624.62	484.52
624.97	484.57
625.32	482.10
625.66	480.76
626.01	478.48
626.35	477.57
626.70	475.76
627.04	474.57
627.39	472.67
627.73	471.71
628.08	470.71
628.43	469.24
628.77	465.76
629.12	463.95
629.46	461.57
629.81	459.76
630.15	457.81
630.50	455.67
630.84	453.71
631.19	451.19
631.53	448.43
631.88	443.05
632.22	439.00
632.57	437.57
632.91	434.76
633.26	433.57
633.60	430.95
633.95	428.57
634.29	425.43
634.64	422.76
634.98	419.86
635.32	418.14
635.67	416.33
636.01	414.43
636.36	411.81
636.70	410.57
637.05	409.05
637.39	406.81
637.73	404.76
638.08	403.86
638.42	402.10
638.77	401.14
639.11	399.67
639.45	397.86
639.80	396.19
640.14	394.81
640.49	391.90
640.83	390.57
641.17	389.62
641.52	388.38
641.86	387.43
642.20	387.19
642.55	384.81
642.89	383.14
643.23	382.00
643.58	382.52
643.92	380.81
644.26	379.71
644.61	379.43
644.95	378.67
645.29	376.86
645.64	377.19
645.98	376.00
646.32	375.76
646.66	374.71
647.01	373.19
647.35	372.62
647.69	372.62
648.04	372.05
648.38	370.62
648.72	369.67
649.06	368.57
649.41	366.86
649.75	366.62
650.09	366.14
650.43	364.86
650.78	362.67
651.12	361.24
651.46	360.29
651.80	358.67
652.14	357.19
652.49	357.05
652.83	355.05
653.17	353.71
653.51	351.95
653.85	351.29
654.20	350.38
654.54	348.76
654.88	347.10
655.22	345.67
655.56	344.43
655.90	343.52
656.25	342.57
656.59	341.81
656.93	340.43
657.27	339.95
657.61	339.33
657.95	338.86
658.29	338.43
658.64	338.19
658.98	337.52
659.32	336.62
659.66	335.57
660.00	335.19
660.34	334.76
660.68	334.48
661.02	333.76
661.36	332.86
661.70	332.05
662.05	331.62
662.39	331.71
662.73	331.95
663.07	332.81
663.41	332.38
663.75	331.10
664.09	330.71
664.43	329.29
664.77	328.86
665.11	327.67
665.45	327.10
665.79	326.62
666.13	325.90
666.47	325.24
666.81	324.19
667.15	322.90
667.49	322.24
667.83	322.33
668.17	321.57
668.51	321.10
668.85	321.10
669.19	321.52
669.53	319.43
669.87	318.14
670.21	316.19
670.55	315.00
670.89	315.71
671.23	315.29
671.57	315.14
671.91	314.38
672.25	314.33
672.58	314.38
672.92	312.43
673.26	311.86
673.60	311.57
673.94	311.10
674.28	310.48
674.62	310.48
674.96	309.14
675.30	308.57
675.64	308.10
675.97	307.14
676.31	305.81
676.65	305.90
676.99	306.19
677.33	305.48
677.67	305.38
678.01	303.43
678.34	302.48
678.68	302.14
679.02	301.48
679.36	300.48
679.70	299.05
680.04	299.10
680.37	298.52
680.71	298.00
681.05	297.33
681.39	297.05
681.73	295.48
682.06	295.05
682.40	294.76
682.74	294.52
683.08	295.33
683.42	294.81
683.75	294.43
684.09	293.19
684.43	292.86
684.77	292.19
685.10	292.29
685.44	292.14
685.78	291.33
686.12	291.29
686.45	291.05
686.79	290.57
687.13	290.71
687.46	290.43
687.80	290.48
688.14	290.52
688.48	290.52
688.81	291.00
689.15	291.29
689.49	291.10
689.82	291.05
690.16	289.62
690.50	289.10
690.83	289.00
691.17	288.33
691.51	287.81
691.84	287.71
692.18	287.00
692.52	286.43
692.85	286.52
693.19	286.76
693.52	286.62
693.86	286.14
694.20	285.29
694.53	285.05
694.87	284.48
695.21	283.62
695.54	282.95
695.88	281.95
696.21	280.76
696.55	279.81
696.88	278.95
697.22	278.43
697.56	278.14
697.89	277.05
698.23	277.00
698.56	276.90
698.90	276.86
699.23	276.76
699.57	276.48
699.90	276.00
700.24	275.19
700.58	274.86
700.91	275.29
701.25	277.33
701.58	278.00
701.92	278.52
702.25	279.05
702.59	278.90
702.92	279.48
703.26	280.10
703.59	281.10
703.93	283.71
704.26	284.57
704.60	285.33
704.93	286.05
705.26	286.57
705.60	287.14
705.93	286.62
706.27	287.52
706.60	288.38
706.94	289.62
707.27	289.43
707.61	290.05
707.94	290.33
708.27	288.57
708.61	287.90
708.94	287.52
709.28	287.43
709.61	286.86
709.94	286.81
710.28	286.48
710.61	285.71
710.95	282.48
711.28	282.90
711.61	282.19
711.95	282.00
712.28	281.10
712.61	280.00
712.95	280.76
713.28	280.86
713.61	279.43
713.95	277.62
714.28	277.29
714.61	275.86
714.95	274.57
715.28	273.24
715.61	272.24
715.95	271.38
716.28	270.52
716.61	270.33
716.95	269.33
717.28	268.24
717.61	267.76
717.94	267.67
718.28	265.81
718.61	265.00
718.94	264.10
719.27	263.62
719.61	263.52
719.94	262.43
720.27	261.38
720.60	261.33
720.94	260.90
721.27	260.62
721.60	261.05
721.93	260.76
722.27	261.38
722.60	261.48
722.93	261.05
723.26	261.19
723.59	261.00
723.93	261.10
724.26	261.43
724.59	261.05
724.92	261.05
725.25	261.81
725.59	261.48
725.92	261.90
726.25	261.90
726.58	261.76
726.91	261.57
727.24	261.14
727.57	260.90
727.91	260.71
728.24	260.95
728.57	260.67
728.90	261.00
729.23	260.33
729.56	261.33
729.89	261.43
730.22	260.81
730.55	260.76
730.89	260.52
731.22	260.10
731.55	259.76
731.88	259.62
732.21	258.67
732.54	258.48
732.87	258.19
733.20	258.05
733.53	258.00
733.86	258.29
734.19	257.76
734.52	258.19
734.85	259.71
735.18	259.05
735.51	259.67
735.84	259.57
736.17	260.00
736.50	259.05
736.83	262.05
737.16	262.29
737.49	262.19
737.82	262.14
738.15	262.19
738.48	262.00
738.81	261.67
739.14	261.19
739.47	261.33
739.80	261.24
740.13	261.24
740.46	260.90
740.79	260.29
741.12	260.24
741.45	259.57
741.78	258.10
742.11	258.95
742.44	257.95
742.77	257.95
743.10	257.62
743.43	257.05
743.75	254.14
744.08	256.71
744.41	256.43
744.74	255.95
745.07	255.62
745.40	256.14
745.73	257.14
746.06	257.38
746.39	257.76
746.71	257.57
747.04	257.33
747.37	257.24
747.70	257.38
748.03	257.57
748.36	258.48
748.68	258.24
749.01	257.24
749.34	257.57
749.67	257.57
750.00	258.00
750.33	259.57
750.65	259.71
750.98	256.48
751.31	256.57
751.64	256.90
751.97	258.19
752.29	258.10
752.62	257.14
752.95	256.86
753.28	256.33
753.60	256.19
753.93	256.57
754.26	256.52
754.59	255.57
754.91	255.05
755.24	253.86
755.57	254.00
755.90	253.95
756.22	253.38
756.55	253.05
756.88	252.38
757.20	250.81
757.53	249.90
757.86	250.19
758.19	250.38
758.51	249.90
758.84	248.43
759.17	247.86
759.49	247.90
759.82	249.14
760.15	249.29
760.47	249.19
760.80	248.33
761.13	248.86
761.45	249.19
761.78	249.33
762.11	249.52
762.43	249.19
762.76	249.10
763.08	249.29
763.41	249.52
763.74	249.33
764.06	249.38
764.39	249.43
764.71	249.24
765.04	248.62
765.37	248.62
765.69	248.48
766.02	248.48
766.34	247.86
766.67	246.29
767.00	246.67
767.32	247.81
767.65	249.86
767.97	249.38
768.30	249.52
768.62	249.29
768.95	249.14
769.27	249.19
769.60	249.71
769.92	249.19
770.25	248.48
770.57	248.19
770.90	248.05
771.22	247.86
771.55	247.62
771.87	247.76
772.20	247.38
772.52	249.67
772.85	252.81
773.17	253.33
773.50	253.57
773.82	252.95
774.15	251.62
774.47	249.48
774.80	249.29
775.12	249.14
775.45	249.24
775.77	249.33
776.09	249.24
776.42	248.81
776.74	249.57
777.07	249.67
777.39	249.76
777.72	249.67
778.04	249.95
778.36	249.81
778.69	249.95
779.01	250.24
779.33	248.05
779.66	244.90
779.98	244.57
780.31	244.86
780.63	246.00
780.95	246.24
781.28	246.52
781.60	246.19
781.92	246.19
782.25	246.33
782.57	246.57
782.89	246.48
783.22	246.19
783.54	245.43
783.86	245.57
784.19	245.43
784.51	245.95
784.83	245.57
785.16	245.86
785.48	245.48
785.80	245.67
786.12	245.76
786.45	245.86
786.77	246.19
787.09	245.48
787.42	244.29
787.74	244.38
788.06	244.24
788.38	243.95
788.71	243.48
789.03	243.48
789.35	243.38
789.67	243.14
789.99	243.48
790.32	243.43
790.64	243.52
790.96	245.33
791.28	244.48
791.61	244.38
791.93	244.29
792.25	244.29
792.57	245.90
792.89	245.33
793.21	245.38
793.54	245.14
793.86	245.38
