SpectraSuite Data File
++++++++++++++++++++++++++++++++++++
Date: Wed Nov 07 18:32:51 EST 2012
User: group
Dark Spectrum Present: No
Reference Spectrum Present: No
Number of Sampled Component Spectra: 1
Spectrometers: USB2E7196
Integration Time (usec): 1000000 (USB2E7196)
Spectra Averaged: 1 (USB2E7196)
Boxcar Smoothing: 10 (USB2E7196)
Correct for Electrical Dark: No (USB2E7196)
Strobe/Lamp Enabled: No (USB2E7196)
Correct for Detector Non-linearity: No (USB2E7196)
Correct for Stray Light: No (USB2E7196)
Number of Pixels in Processed Spectrum: 2048
>>>>>Begin Processed Spectral Data<<<<<
339.09	0.00
339.48	219.00
339.86	221.00
340.24	223.00
340.63	222.00
341.01	268.00
341.39	230.00
341.78	231.00
342.16	240.00
342.54	234.00
342.93	223.00
343.31	234.29
343.69	235.33
344.07	235.86
344.46	236.57
344.84	237.14
345.22	235.48
345.60	235.95
345.99	236.14
346.37	236.05
346.75	236.10
347.13	236.33
347.52	236.43
347.90	237.52
348.28	237.52
348.66	238.14
349.05	237.29
349.43	237.95
349.81	238.14
350.19	238.43
350.57	239.14
350.96	239.05
351.34	239.19
351.72	239.19
352.10	239.43
352.48	239.14
352.87	238.90
353.25	239.14
353.63	238.95
354.01	239.24
354.39	239.24
354.77	239.38
355.15	239.90
355.54	239.90
355.92	239.29
356.30	239.24
356.68	240.52
357.06	240.90
357.44	240.14
357.82	239.95
358.20	240.19
358.58	240.24
358.97	240.24
359.35	240.52
359.73	240.67
360.11	240.52
360.49	240.43
360.87	240.71
361.25	241.29
361.63	242.19
362.01	242.05
362.39	241.86
362.77	241.95
363.15	241.86
363.53	241.62
363.91	241.81
364.29	242.05
364.67	239.67
365.05	239.71
365.43	239.81
365.81	240.05
366.19	240.48
366.57	241.14
366.95	241.05
367.33	240.43
367.71	240.29
368.09	240.81
368.47	241.10
368.85	241.05
369.23	240.95
369.61	240.00
369.99	240.81
370.37	241.29
370.75	242.76
371.13	242.29
371.51	242.48
371.89	242.57
372.27	242.57
372.65	242.76
373.03	243.00
373.41	243.05
373.78	242.90
374.16	241.86
374.54	241.00
374.92	240.81
375.30	241.29
375.68	240.71
376.06	240.76
376.44	240.57
376.82	240.62
377.19	240.57
377.57	240.67
377.95	239.95
378.33	239.48
378.71	237.71
379.09	238.24
379.47	238.48
379.84	238.33
380.22	238.19
380.60	238.00
380.98	237.81
381.36	238.00
381.73	237.52
382.11	238.33
382.49	238.33
382.87	238.19
383.25	237.76
383.62	241.05
384.00	240.29
384.38	240.29
384.76	240.90
385.13	241.57
385.51	241.38
385.89	241.00
386.27	241.38
386.64	242.00
387.02	241.48
387.40	241.19
387.78	241.24
388.15	241.14
388.53	241.29
388.91	241.52
389.29	241.14
389.66	242.14
390.04	241.62
390.42	242.48
390.79	242.62
391.17	242.57
391.55	239.81
391.92	240.05
392.30	240.76
392.68	240.33
393.05	240.43
393.43	240.52
393.81	240.67
394.18	240.19
394.56	239.86
394.94	240.67
395.31	240.52
395.69	241.38
396.06	241.71
396.44	241.81
396.82	241.10
397.19	242.62
397.57	241.86
397.95	242.43
398.32	241.43
398.70	241.62
399.07	242.48
399.45	242.48
399.82	242.62
400.20	242.33
400.58	242.67
400.95	241.71
401.33	242.24
401.70	244.00
402.08	244.14
402.45	244.14
402.83	244.57
403.20	244.67
403.58	244.38
403.95	244.86
404.33	245.57
404.71	246.10
405.08	247.67
405.46	248.10
405.83	248.76
406.21	249.29
406.58	249.95
406.96	249.81
407.33	250.29
407.70	251.24
408.08	253.67
408.45	254.48
408.83	255.62
409.20	256.19
409.58	255.52
409.95	257.10
410.33	258.33
410.70	258.52
411.08	260.57
411.45	261.71
411.82	262.14
412.20	263.57
412.57	266.43
412.95	265.71
413.32	267.76
413.69	268.90
414.07	270.67
414.44	272.14
414.82	274.29
415.19	277.14
415.56	279.38
415.94	280.33
416.31	283.19
416.68	286.14
417.06	289.48
417.43	293.38
417.81	296.76
418.18	301.00
418.55	304.90
418.93	308.29
419.30	312.38
419.67	317.57
420.04	322.24
420.42	326.14
420.79	333.81
421.16	339.76
421.54	346.62
421.91	352.95
422.28	359.67
422.66	367.10
423.03	375.24
423.40	382.19
423.77	388.95
424.15	396.00
424.52	403.24
424.89	412.14
425.26	419.43
425.64	426.76
426.01	434.48
426.38	442.86
426.75	452.38
427.13	462.38
427.50	471.29
427.87	481.52
428.24	491.48
428.61	499.38
428.99	510.71
429.36	521.57
429.73	531.95
430.10	543.57
430.47	555.24
430.85	566.29
431.22	579.48
431.59	595.33
431.96	608.00
432.33	623.05
432.70	637.33
433.08	654.10
433.45	669.52
433.82	684.76
434.19	702.38
434.56	718.81
434.93	733.86
435.30	749.57
435.68	766.57
436.05	783.86
436.42	799.71
436.79	815.33
437.16	831.95
437.53	849.38
437.90	865.62
438.27	881.33
438.64	898.33
439.01	914.00
439.38	925.71
439.75	939.24
440.13	954.52
440.50	968.14
440.87	979.43
441.24	991.95
441.61	1004.71
441.98	1014.05
442.35	1024.86
442.72	1036.38
443.09	1048.90
443.46	1054.86
443.83	1058.43
444.20	1062.29
444.57	1065.86
444.94	1067.52
445.31	1069.90
445.68	1075.05
446.05	1075.62
446.42	1071.90
446.79	1068.57
447.16	1066.10
447.53	1064.48
447.90	1056.29
448.27	1048.29
448.64	1038.52
449.01	1030.62
449.37	1018.76
449.74	1005.71
450.11	994.24
450.48	978.19
450.85	961.29
451.22	947.67
451.59	934.76
451.96	922.81
452.33	906.48
452.70	891.24
453.07	874.14
453.43	853.71
453.80	837.86
454.17	822.76
454.54	807.90
454.91	791.62
455.28	775.14
455.65	760.86
456.02	750.43
456.38	737.71
456.75	722.43
457.12	709.24
457.49	698.10
457.86	683.24
458.23	674.00
458.59	662.81
458.96	651.57
459.33	642.10
459.70	631.76
460.07	623.76
460.43	614.67
460.80	606.52
461.17	598.90
461.54	590.67
461.91	582.81
462.27	574.95
462.64	568.86
463.01	561.71
463.38	555.81
463.74	545.10
464.11	539.33
464.48	534.52
464.85	529.48
465.21	526.05
465.58	522.10
465.95	516.10
466.32	511.52
466.68	506.81
467.05	502.24
467.42	498.00
467.78	493.57
468.15	489.38
468.52	486.19
468.88	481.95
469.25	477.57
469.62	474.38
469.98	471.05
470.35	467.10
470.72	464.05
471.08	459.38
471.45	457.14
471.82	454.29
472.18	451.24
472.55	449.05
472.92	444.62
473.28	441.43
473.65	438.19
474.02	435.67
474.38	434.10
474.75	432.10
475.11	429.57
475.48	428.10
475.85	426.52
476.21	424.48
476.58	423.57
476.94	422.52
477.31	421.38
477.67	419.67
478.04	419.10
478.41	418.76
478.77	421.10
479.14	420.00
479.50	419.76
479.87	419.76
480.23	419.19
480.60	419.14
480.96	419.52
481.33	421.43
481.69	422.19
482.06	422.81
482.42	423.67
482.79	424.81
483.15	425.95
483.52	427.19
483.88	427.86
484.25	428.43
484.61	429.57
484.98	430.05
485.34	432.52
485.71	433.76
486.07	435.14
486.44	433.95
486.80	435.33
487.17	436.71
487.53	438.86
487.90	440.81
488.26	443.86
488.62	446.19
488.99	447.10
489.35	448.95
489.72	450.48
490.08	452.05
490.44	453.62
490.81	455.43
491.17	457.62
491.54	460.76
491.90	463.71
492.26	466.24
492.63	469.52
492.99	471.14
493.36	473.48
493.72	476.14
494.08	479.24
494.45	482.33
494.81	485.76
495.17	488.33
495.54	492.24
495.90	493.76
496.26	497.19
496.63	501.48
496.99	504.76
497.35	508.71
497.72	513.10
498.08	517.10
498.44	521.33
498.80	525.71
499.17	529.76
499.53	533.48
499.89	538.19
500.26	542.24
500.62	547.48
500.98	553.43
501.34	558.67
501.71	564.24
502.07	568.76
502.43	573.67
502.79	578.14
503.16	582.76
503.52	588.90
503.88	593.29
504.24	598.48
504.60	604.10
504.97	609.62
505.33	614.29
505.69	619.95
506.05	625.52
506.41	630.52
506.78	635.05
507.14	640.43
507.50	645.24
507.86	651.33
508.22	656.62
508.59	661.48
508.95	666.14
509.31	671.90
509.67	677.90
510.03	683.05
510.39	687.95
510.75	692.71
511.12	697.62
511.48	703.38
511.84	707.81
512.20	713.43
512.56	717.81
512.92	722.48
513.28	727.67
513.64	731.90
514.00	737.38
514.37	742.19
514.73	746.81
515.09	751.67
515.45	755.81
515.81	760.19
516.17	764.00
516.53	768.38
516.89	771.14
517.25	775.19
517.61	779.71
517.97	784.24
518.33	788.52
518.69	792.57
519.05	796.62
519.41	801.38
519.77	805.90
520.13	809.95
520.49	812.95
520.85	815.24
521.21	819.81
521.57	823.14
521.93	826.81
522.29	830.10
522.65	831.67
523.01	834.29
523.37	835.76
523.73	838.19
524.09	840.76
524.45	842.52
524.81	844.14
525.17	846.76
525.53	849.43
525.89	850.86
526.25	853.10
526.61	853.95
526.97	854.10
527.33	853.76
527.68	857.00
528.04	860.10
528.40	862.76
528.76	863.57
529.12	864.33
529.48	866.05
529.84	867.14
530.20	870.24
530.56	872.14
530.91	874.33
531.27	876.43
531.63	877.57
531.99	879.00
532.35	880.43
532.71	880.52
533.07	880.71
533.42	884.81
533.78	885.29
534.14	886.52
534.50	887.24
534.86	889.43
535.21	888.67
535.57	889.43
535.93	889.67
536.29	892.10
536.65	893.57
537.00	894.95
537.36	896.90
537.72	898.00
538.08	900.95
538.44	902.86
538.79	905.71
539.15	907.86
539.51	911.00
539.87	913.71
540.22	916.29
540.58	918.90
540.94	918.62
541.29	921.43
541.65	923.52
542.01	926.24
542.37	927.71
542.72	927.71
543.08	928.38
543.44	928.67
543.79	925.90
544.15	926.48
544.51	926.24
544.87	925.43
545.22	923.52
545.58	920.62
545.94	918.19
546.29	915.81
546.65	914.05
547.01	911.10
547.36	908.00
547.72	904.67
548.07	901.95
548.43	898.76
548.79	894.71
549.14	891.48
549.50	888.90
549.86	885.10
550.21	883.43
550.57	880.29
550.92	877.81
551.28	877.05
551.64	873.67
551.99	871.14
552.35	868.33
552.70	866.52
553.06	864.00
553.41	862.38
553.77	861.14
554.13	858.86
554.48	857.33
554.84	856.14
555.19	854.38
555.55	854.24
555.90	852.86
556.26	851.62
556.61	849.67
556.97	847.14
557.32	846.19
557.68	844.43
558.03	842.90
558.39	841.86
558.74	840.00
559.10	838.71
559.45	837.38
559.81	836.33
560.16	834.90
560.52	833.33
560.87	832.00
561.23	829.24
561.58	828.29
561.94	825.33
562.29	823.38
562.64	822.05
563.00	818.10
563.35	816.71
563.71	815.19
564.06	814.10
564.42	811.95
564.77	809.62
565.12	808.48
565.48	808.95
565.83	807.76
566.19	805.71
566.54	803.67
566.89	801.00
567.25	800.38
567.60	800.57
567.96	801.81
568.31	802.67
568.66	802.10
569.02	799.81
569.37	799.00
569.72	797.29
570.08	795.90
570.43	795.19
570.78	793.10
571.14	791.81
571.49	789.48
571.84	789.10
572.20	788.43
572.55	786.95
572.90	782.90
573.26	780.71
573.61	780.19
573.96	779.86
574.31	779.43
574.67	777.24
575.02	774.71
575.37	771.19
575.72	767.24
576.08	765.43
576.43	764.19
576.78	763.38
577.13	761.86
577.49	760.38
577.84	759.43
578.19	758.10
578.54	756.67
578.90	755.67
579.25	753.95
579.60	752.14
579.95	750.10
580.30	750.19
580.66	749.14
581.01	747.62
581.36	745.95
581.71	743.57
582.06	743.14
582.42	742.19
582.77	740.86
583.12	740.38
583.47	738.33
583.82	736.76
584.17	735.43
584.53	735.81
584.88	734.14
585.23	732.38
585.58	729.86
585.93	727.52
586.28	725.62
586.63	723.81
586.98	721.90
587.34	720.14
587.69	717.33
588.04	715.52
588.39	712.57
588.74	708.90
589.09	707.43
589.44	703.19
589.79	700.48
590.14	697.38
590.49	693.19
590.84	689.48
591.19	686.33
591.54	682.62
591.89	677.62
592.25	676.76
592.60	672.81
592.95	671.24
593.30	668.90
593.65	666.00
594.00	662.57
594.35	666.29
594.70	662.76
595.05	659.76
595.40	656.67
595.75	653.86
596.10	651.38
596.45	648.19
596.80	645.33
597.15	641.48
597.50	638.52
597.85	637.38
598.19	635.10
598.54	632.29
598.89	629.33
599.24	627.24
599.59	622.57
599.94	620.14
600.29	617.38
600.64	614.62
600.99	612.90
601.34	610.81
601.69	601.76
602.04	599.19
602.39	596.62
602.74	594.52
603.08	592.14
603.43	591.24
603.78	589.33
604.13	587.95
604.48	586.76
604.83	585.90
605.18	584.71
605.53	585.10
605.87	587.57
606.22	591.00
606.57	594.95
606.92	599.43
607.27	605.10
607.62	610.10
607.96	615.43
608.31	619.86
608.66	623.86
609.01	627.33
609.36	631.48
609.70	634.95
610.05	637.86
610.40	641.52
610.75	642.90
611.10	645.10
611.44	646.43
611.79	646.76
612.14	646.48
612.49	644.95
612.83	642.38
613.18	637.52
613.53	632.29
613.88	625.43
614.22	617.90
614.57	610.00
614.92	601.76
615.27	593.76
615.61	585.62
615.96	578.48
616.31	571.95
616.65	566.00
617.00	559.29
617.35	552.52
617.70	546.43
618.04	541.14
618.39	535.52
618.74	531.33
619.08	527.48
619.43	523.67
619.78	520.48
620.12	517.62
620.47	515.24
620.82	512.33
621.16	509.33
621.51	508.38
621.85	504.90
622.20	503.29
622.55	500.29
622.89	498.33
623.24	496.19
623.59	493.33
623.93	490.76
624.28	489.00
624.62	490.05
624.97	488.90
625.32	486.81
625.66	484.76
626.01	482.62
626.35	481.43
626.70	478.76
627.04	478.24
627.39	476.67
627.73	475.67
628.08	473.86
628.43	471.86
628.77	468.00
629.12	466.62
629.46	464.19
629.81	462.38
630.15	460.48
630.50	458.52
630.84	456.71
631.19	454.81
631.53	452.19
631.88	446.86
632.22	443.38
632.57	441.29
632.91	438.86
633.26	436.43
633.60	432.76
633.95	430.71
634.29	426.57
634.64	423.71
634.98	420.33
635.32	418.81
635.67	416.90
636.01	415.05
636.36	413.33
636.70	411.62
637.05	409.38
637.39	406.86
637.73	405.33
638.08	403.95
638.42	401.62
638.77	400.57
639.11	399.00
639.45	397.14
639.80	395.48
640.14	394.00
640.49	392.00
640.83	390.76
641.17	390.05
641.52	388.86
641.86	387.81
642.20	387.38
642.55	385.33
642.89	383.95
643.23	383.10
643.58	382.19
643.92	380.29
644.26	379.62
644.61	379.29
644.95	377.90
645.29	376.48
645.64	376.71
645.98	375.81
646.32	375.81
646.66	375.19
647.01	374.19
647.35	373.62
647.69	373.52
648.04	373.24
648.38	372.00
648.72	371.00
649.06	369.86
649.41	367.90
649.75	366.86
650.09	366.62
650.43	365.48
650.78	363.67
651.12	362.71
651.46	361.86
651.80	360.33
652.14	359.24
652.49	358.86
652.83	357.00
653.17	355.62
653.51	353.48
653.85	352.62
654.20	351.48
654.54	350.14
654.88	348.48
655.22	346.81
655.56	345.52
655.90	344.67
656.25	343.90
656.59	343.43
656.93	342.71
657.27	342.29
657.61	341.48
657.95	341.24
658.29	340.71
658.64	340.43
658.98	339.71
659.32	338.67
659.66	337.86
660.00	337.33
660.34	336.81
660.68	336.67
661.02	335.86
661.36	335.19
661.70	334.33
662.05	333.43
662.39	333.67
662.73	334.10
663.07	334.81
663.41	334.33
663.75	333.38
664.09	333.24
664.43	331.71
664.77	331.05
665.11	330.00
665.45	329.05
665.79	328.14
666.13	327.19
666.47	326.52
666.81	325.57
667.15	324.48
667.49	323.76
667.83	323.24
668.17	322.19
668.51	321.38
668.85	320.86
669.19	321.62
669.53	319.76
669.87	318.14
670.21	316.48
670.55	315.76
670.89	316.24
671.23	315.10
671.57	314.71
671.91	314.14
672.25	313.76
672.58	314.62
672.92	313.33
673.26	313.24
673.60	312.90
673.94	312.38
674.28	311.81
674.62	311.14
674.96	310.62
675.30	310.33
675.64	309.67
675.97	309.29
676.31	307.90
676.65	307.57
676.99	307.81
677.33	307.05
677.67	306.57
678.01	304.76
678.34	304.48
678.68	304.24
679.02	303.52
679.36	302.81
679.70	301.14
680.04	301.10
680.37	300.29
680.71	299.81
681.05	299.57
681.39	299.43
681.73	299.19
682.06	298.57
682.40	297.90
682.74	297.71
683.08	298.24
683.42	297.24
683.75	297.52
684.09	296.67
684.43	296.52
684.77	295.76
685.10	295.62
685.44	295.14
685.78	294.71
686.12	294.29
686.45	293.95
686.79	293.57
687.13	293.43
687.46	293.10
687.80	292.90
688.14	291.95
688.48	291.57
688.81	291.43
689.15	291.76
689.49	291.48
689.82	291.48
690.16	290.14
690.50	289.57
690.83	289.05
691.17	288.57
691.51	288.33
691.84	288.38
692.18	287.71
692.52	287.29
692.85	286.81
693.19	287.62
693.52	287.24
693.86	286.48
694.20	285.76
694.53	285.14
694.87	284.76
695.21	284.05
695.54	283.57
695.88	282.48
696.21	281.24
696.55	281.00
696.88	280.19
697.22	279.57
697.56	280.14
697.89	279.43
698.23	279.24
698.56	278.57
698.90	278.38
699.23	278.19
699.57	278.00
699.90	277.43
700.24	276.48
700.58	276.38
700.91	276.86
701.25	279.10
701.58	280.29
701.92	280.90
702.25	281.90
702.59	282.33
702.92	283.24
703.26	284.19
703.59	284.38
703.93	287.10
704.26	288.14
704.60	288.76
704.93	289.33
705.26	289.57
705.60	290.48
705.93	290.33
706.27	291.43
706.60	292.43
706.94	293.95
707.27	293.90
707.61	294.67
707.94	294.76
708.27	293.00
708.61	291.90
708.94	291.43
709.28	290.95
709.61	289.90
709.94	289.48
710.28	288.33
710.61	288.05
710.95	285.00
711.28	285.38
711.61	284.14
711.95	283.76
712.28	282.76
712.61	281.62
712.95	282.29
713.28	282.29
713.61	280.62
713.95	278.52
714.28	278.00
714.61	275.95
714.95	274.57
715.28	273.10
715.61	272.67
715.95	272.24
716.28	271.19
716.61	271.14
716.95	270.05
717.28	269.71
717.61	269.33
717.94	268.81
718.28	266.43
718.61	266.05
718.94	265.00
719.27	264.62
719.61	264.52
719.94	263.29
720.27	261.67
720.60	261.19
720.94	261.43
721.27	261.29
721.60	261.76
721.93	261.71
722.27	262.48
722.60	262.24
722.93	261.38
723.26	261.57
723.59	260.95
723.93	261.19
724.26	261.33
724.59	260.67
724.92	260.71
725.25	261.86
725.59	261.90
725.92	262.19
726.25	261.90
726.58	261.76
726.91	261.48
727.24	261.90
727.57	261.81
727.91	261.00
728.24	260.95
728.57	260.43
728.90	260.43
729.23	259.14
729.56	260.29
729.89	260.29
730.22	260.24
730.55	260.29
730.89	260.19
731.22	259.67
731.55	259.38
731.88	259.29
732.21	258.43
732.54	257.76
732.87	257.57
733.20	257.76
733.53	257.33
733.86	256.95
734.19	256.10
734.52	256.43
734.85	257.86
735.18	257.33
735.51	258.38
735.84	258.57
736.17	259.33
736.50	257.90
736.83	260.52
737.16	260.38
737.49	260.19
737.82	259.81
738.15	260.05
738.48	259.90
738.81	259.57
739.14	259.05
739.47	259.05
739.80	258.81
740.13	258.86
740.46	258.71
740.79	258.38
741.12	258.62
741.45	258.29
741.78	257.38
742.11	257.90
742.44	257.00
742.77	257.10
743.10	256.67
743.43	256.52
743.75	254.14
744.08	257.19
744.41	256.81
744.74	256.67
745.07	255.57
745.40	256.05
745.73	257.00
746.06	257.24
746.39	257.10
746.71	256.95
747.04	256.71
747.37	256.29
747.70	256.86
748.03	257.00
748.36	257.19
748.68	257.05
749.01	256.38
749.34	256.29
749.67	256.14
750.00	256.14
750.33	257.57
750.65	257.38
750.98	253.86
751.31	254.10
751.64	254.29
751.97	256.19
752.29	255.95
752.62	254.67
752.95	254.19
753.28	254.05
753.60	254.10
753.93	254.67
754.26	254.95
754.59	253.95
754.91	253.38
755.24	253.00
755.57	252.81
755.90	252.62
756.22	252.19
756.55	251.52
756.88	250.90
757.20	249.10
757.53	248.38
757.86	248.43
758.19	248.57
758.51	248.14
758.84	246.62
759.17	246.05
759.49	246.48
759.82	247.67
760.15	247.81
760.47	247.33
760.80	246.19
761.13	246.24
761.45	246.14
761.78	246.57
762.11	246.67
762.43	246.24
762.76	246.43
763.08	247.05
763.41	247.52
763.74	248.10
764.06	248.29
764.39	248.62
764.71	248.57
765.04	248.24
765.37	247.95
765.69	247.90
766.02	247.95
766.34	247.52
766.67	246.67
767.00	246.81
767.32	248.19
767.65	250.14
767.97	250.00
768.30	250.52
768.62	250.14
768.95	249.57
769.27	249.71
769.60	249.67
769.92	249.24
770.25	248.86
770.57	248.29
770.90	248.33
771.22	248.00
771.55	247.90
771.87	247.76
772.20	247.71
772.52	249.67
772.85	252.95
773.17	253.24
773.50	252.95
773.82	252.71
774.15	251.38
774.47	249.57
774.80	249.48
775.12	249.38
775.45	249.33
775.77	249.67
776.09	249.95
776.42	250.00
776.74	250.86
777.07	250.67
777.39	250.38
777.72	249.86
778.04	250.14
778.36	250.14
778.69	250.52
779.01	251.10
779.33	248.95
779.66	246.05
779.98	245.71
780.31	245.86
780.63	246.62
780.95	247.33
781.28	247.48
781.60	247.24
781.92	247.38
782.25	247.29
782.57	247.29
782.89	246.86
783.22	246.43
783.54	245.48
783.86	245.81
784.19	246.10
784.51	247.14
784.83	246.71
785.16	246.38
785.48	246.10
785.80	245.81
786.12	246.14
786.45	246.10
786.77	246.14
787.09	246.05
787.42	245.05
787.74	244.95
788.06	244.81
788.38	244.76
788.71	244.19
789.03	244.24
789.35	244.52
789.67	243.95
789.99	244.52
790.32	244.33
790.64	244.52
790.96	246.33
791.28	245.29
791.61	245.14
791.93	245.24
792.25	245.00
792.57	246.67
792.89	245.86
793.21	246.00
793.54	245.71
793.86	245.33
