SpectraSuite Data File
++++++++++++++++++++++++++++++++++++
Date: Wed Nov 07 18:33:41 EST 2012
User: group
Dark Spectrum Present: No
Reference Spectrum Present: No
Number of Sampled Component Spectra: 1
Spectrometers: USB2E7196
Integration Time (usec): 1000000 (USB2E7196)
Spectra Averaged: 1 (USB2E7196)
Boxcar Smoothing: 10 (USB2E7196)
Correct for Electrical Dark: No (USB2E7196)
Strobe/Lamp Enabled: No (USB2E7196)
Correct for Detector Non-linearity: No (USB2E7196)
Correct for Stray Light: No (USB2E7196)
Number of Pixels in Processed Spectrum: 2048
>>>>>Begin Processed Spectral Data<<<<<
339.09	0.00
339.48	218.00
339.86	220.00
340.24	223.00
340.63	226.00
341.01	265.00
341.39	227.00
341.78	229.00
342.16	243.00
342.54	231.00
342.93	222.38
343.31	233.48
343.69	234.33
344.07	234.95
344.46	235.81
344.84	236.14
345.22	234.62
345.60	235.24
345.99	235.67
346.37	235.43
346.75	235.24
347.13	234.95
347.52	234.81
347.90	235.76
348.28	236.05
348.66	236.48
349.05	235.71
349.43	236.14
349.81	236.14
350.19	236.00
350.57	236.52
350.96	236.81
351.34	236.90
351.72	236.81
352.10	236.86
352.48	236.71
352.87	236.81
353.25	236.52
353.63	236.14
354.01	236.19
354.39	236.43
354.77	236.62
355.15	237.67
355.54	237.86
355.92	237.24
356.30	237.00
356.68	238.81
357.06	239.57
357.44	239.29
357.82	239.38
358.20	240.19
358.58	240.10
358.97	240.38
359.35	240.67
359.73	241.10
360.11	241.24
360.49	241.24
360.87	241.48
361.25	242.24
361.63	243.38
362.01	243.38
362.39	243.00
362.77	243.33
363.15	242.90
363.53	242.86
363.91	242.62
364.29	243.24
364.67	240.76
365.05	240.33
365.43	240.71
365.81	240.81
366.19	241.76
366.57	243.10
366.95	242.81
367.33	242.71
367.71	242.90
368.09	243.43
368.47	243.67
368.85	243.52
369.23	243.71
369.61	242.95
369.99	243.90
370.37	244.43
370.75	245.43
371.13	245.19
371.51	244.81
371.89	245.24
372.27	244.95
372.65	245.14
373.03	245.10
373.41	244.90
373.78	245.10
374.16	243.62
374.54	242.52
374.92	242.57
375.30	242.62
375.68	242.10
376.06	241.90
376.44	241.62
376.82	241.62
377.19	241.76
377.57	241.38
377.95	240.43
378.33	240.10
378.71	238.90
379.09	239.00
379.47	239.52
379.84	239.10
380.22	238.86
380.60	238.57
380.98	238.48
381.36	238.48
381.73	238.24
382.11	238.71
382.49	238.86
382.87	238.67
383.25	238.67
383.62	241.48
384.00	241.00
384.38	241.10
384.76	241.76
385.13	242.43
385.51	242.57
385.89	242.14
386.27	242.24
386.64	242.48
387.02	242.33
387.40	242.00
387.78	242.24
388.15	242.19
388.53	242.19
388.91	242.24
389.29	241.86
389.66	242.38
390.04	241.95
390.42	242.05
390.79	242.29
391.17	241.86
391.55	239.29
391.92	239.38
392.30	239.48
392.68	239.05
393.05	238.81
393.43	238.81
393.81	239.24
394.18	239.43
394.56	239.33
394.94	240.38
395.31	240.24
395.69	241.14
396.06	241.76
396.44	241.81
396.82	241.71
397.19	243.38
397.57	243.00
397.95	243.71
398.32	243.05
398.70	243.29
399.07	244.38
399.45	243.95
399.82	244.14
400.20	244.00
400.58	243.71
400.95	242.86
401.33	243.48
401.70	245.24
402.08	245.05
402.45	245.33
402.83	245.43
403.20	245.90
403.58	245.33
403.95	245.81
404.33	246.48
404.71	246.90
405.08	247.90
405.46	248.00
405.83	247.81
406.21	248.24
406.58	248.43
406.96	248.33
407.33	249.29
407.70	250.05
408.08	252.71
408.45	253.76
408.83	254.90
409.20	255.19
409.58	254.24
409.95	255.29
410.33	256.29
410.70	256.48
411.08	257.57
411.45	258.71
411.82	259.33
412.20	260.81
412.57	263.14
412.95	262.76
413.32	264.57
413.69	266.24
414.07	267.90
414.44	270.05
414.82	272.10
415.19	274.24
415.56	276.62
415.94	277.62
416.31	280.48
416.68	283.52
417.06	287.14
417.43	291.10
417.81	294.38
418.18	297.76
418.55	302.00
418.93	306.14
419.30	310.95
419.67	315.43
420.04	320.19
420.42	324.52
420.79	332.29
421.16	338.05
421.54	345.19
421.91	351.95
422.28	358.05
422.66	365.24
423.03	373.86
423.40	380.81
423.77	388.48
424.15	396.00
424.52	403.52
424.89	412.57
425.26	419.90
425.64	427.38
426.01	435.95
426.38	444.90
426.75	454.24
427.13	463.10
427.50	472.90
427.87	483.00
428.24	492.48
428.61	500.24
428.99	511.76
429.36	522.43
429.73	533.67
430.10	545.57
430.47	557.29
430.85	567.81
431.22	580.86
431.59	595.62
431.96	608.05
432.33	622.67
432.70	636.05
433.08	652.76
433.45	668.33
433.82	684.05
434.19	700.90
434.56	717.67
434.93	733.43
435.30	749.62
435.68	766.48
436.05	783.48
436.42	800.19
436.79	815.90
437.16	831.95
437.53	849.19
437.90	865.29
438.27	882.29
438.64	898.71
439.01	914.81
439.38	927.05
439.75	940.62
440.13	955.38
440.50	969.81
440.87	980.90
441.24	993.05
441.61	1004.95
441.98	1013.48
442.35	1023.48
442.72	1034.52
443.09	1045.76
443.46	1051.67
443.83	1055.48
444.20	1057.14
444.57	1060.29
444.94	1061.19
445.31	1062.71
445.68	1068.76
446.05	1068.05
446.42	1066.19
446.79	1063.33
447.16	1060.00
447.53	1057.62
447.90	1050.19
448.27	1041.38
448.64	1031.48
449.01	1023.67
449.37	1012.71
449.74	1002.00
450.11	990.24
450.48	975.00
450.85	958.33
451.22	944.90
451.59	932.43
451.96	921.38
452.33	906.29
452.70	892.86
453.07	875.38
453.43	854.24
453.80	837.19
454.17	820.05
454.54	803.76
454.91	787.62
455.28	772.71
455.65	757.57
456.02	748.33
456.38	736.29
456.75	721.52
457.12	708.43
457.49	695.86
457.86	682.38
458.23	673.10
458.59	661.90
458.96	651.38
459.33	641.71
459.70	632.14
460.07	623.86
460.43	614.19
460.80	606.33
461.17	598.62
461.54	592.19
461.91	585.71
462.27	578.24
462.64	571.71
463.01	564.05
463.38	558.52
463.74	546.86
464.11	540.29
464.48	534.81
464.85	528.67
465.21	523.67
465.58	518.76
465.95	512.38
466.32	507.81
466.68	502.62
467.05	497.86
467.42	493.62
467.78	489.05
468.15	484.86
468.52	481.86
468.88	477.62
469.25	472.52
469.62	469.86
469.98	466.81
470.35	463.76
470.72	460.52
471.08	456.33
471.45	454.71
471.82	452.76
472.18	449.71
472.55	448.05
472.92	445.24
473.28	443.10
473.65	440.52
474.02	438.24
474.38	436.33
474.75	434.14
475.11	431.38
475.48	429.76
475.85	428.14
476.21	426.33
476.58	425.67
476.94	425.14
477.31	423.62
477.67	422.24
478.04	421.38
478.41	420.67
478.77	422.52
479.14	421.10
479.50	420.05
479.87	420.38
480.23	420.10
480.60	420.10
480.96	419.67
481.33	420.52
481.69	420.90
482.06	421.48
482.42	423.05
482.79	424.38
483.15	424.81
483.52	426.14
483.88	427.38
484.25	428.33
484.61	429.33
484.98	430.19
485.34	431.76
485.71	433.10
486.07	434.57
486.44	434.00
486.80	435.48
487.17	437.10
487.53	439.24
487.90	440.90
488.26	443.71
488.62	446.38
488.99	447.76
489.35	449.71
489.72	451.29
490.08	452.52
490.44	454.05
490.81	456.38
491.17	458.38
491.54	459.90
491.90	461.90
492.26	463.81
492.63	466.14
492.99	468.52
493.36	471.19
493.72	474.43
494.08	476.86
494.45	480.33
494.81	483.81
495.17	486.48
495.54	490.10
495.90	493.00
496.26	495.67
496.63	499.57
496.99	503.43
497.35	507.48
497.72	511.33
498.08	515.38
498.44	519.71
498.80	523.86
499.17	528.10
499.53	532.52
499.89	537.76
500.26	542.67
500.62	547.43
500.98	552.71
501.34	556.67
501.71	562.57
502.07	566.90
502.43	571.52
502.79	575.81
503.16	580.24
503.52	584.71
503.88	589.67
504.24	594.76
504.60	599.95
504.97	605.05
505.33	610.05
505.69	616.10
506.05	621.19
506.41	626.52
506.78	632.52
507.14	637.29
507.50	643.00
507.86	648.38
508.22	654.24
508.59	659.29
508.95	664.81
509.31	670.52
509.67	676.10
510.03	681.67
510.39	687.10
510.75	692.71
511.12	697.95
511.48	703.52
511.84	708.43
512.20	713.76
512.56	718.14
512.92	723.86
513.28	728.38
513.64	732.67
514.00	737.62
514.37	741.95
514.73	747.14
515.09	751.62
515.45	756.24
515.81	760.29
516.17	764.24
516.53	768.52
516.89	770.95
517.25	775.29
517.61	779.38
517.97	783.38
518.33	787.52
518.69	791.57
519.05	795.90
519.41	799.76
519.77	804.52
520.13	808.86
520.49	811.14
520.85	814.05
521.21	818.90
521.57	823.05
521.93	825.71
522.29	828.71
522.65	830.71
523.01	833.14
523.37	835.38
523.73	838.48
524.09	841.14
524.45	844.05
524.81	846.24
525.17	848.62
525.53	850.52
525.89	852.00
526.25	854.14
526.61	855.38
526.97	856.24
527.33	857.19
527.68	861.29
528.04	863.86
528.40	866.29
528.76	867.52
529.12	867.95
529.48	869.81
529.84	871.29
530.20	873.29
530.56	875.38
530.91	877.24
531.27	879.00
531.63	879.48
531.99	880.57
532.35	881.71
532.71	883.14
533.07	884.95
533.42	889.29
533.78	890.81
534.14	892.14
534.50	893.29
534.86	894.43
535.21	893.38
535.57	894.57
535.93	894.00
536.29	895.33
536.65	897.81
537.00	898.29
537.36	899.90
537.72	901.38
538.08	903.14
538.44	905.24
538.79	906.81
539.15	909.81
539.51	912.62
539.87	914.19
540.22	916.10
540.58	918.19
540.94	916.90
541.29	918.19
541.65	919.29
542.01	921.86
542.37	923.00
542.72	923.62
543.08	924.19
543.44	925.90
543.79	925.29
544.15	924.29
544.51	926.05
544.87	925.71
545.22	924.57
545.58	922.81
545.94	920.19
546.29	917.81
546.65	915.62
547.01	911.86
547.36	909.76
547.72	907.05
548.07	904.57
548.43	902.05
548.79	899.29
549.14	897.10
549.50	894.62
549.86	891.62
550.21	888.86
550.57	886.33
550.92	883.38
551.28	881.67
551.64	879.43
551.99	876.19
552.35	873.29
552.70	871.05
553.06	869.76
553.41	868.33
553.77	867.48
554.13	865.33
554.48	864.67
554.84	863.76
555.19	861.43
555.55	861.43
555.90	859.10
556.26	857.19
556.61	854.48
556.97	851.57
557.32	849.05
557.68	847.38
558.03	845.24
558.39	843.62
558.74	841.38
559.10	839.43
559.45	837.43
559.81	836.48
560.16	834.29
560.52	832.19
560.87	830.14
561.23	829.00
561.58	829.71
561.94	827.10
562.29	824.86
562.64	823.24
563.00	819.52
563.35	818.76
563.71	816.81
564.06	815.71
564.42	814.10
564.77	813.24
565.12	811.76
565.48	812.90
565.83	812.52
566.19	810.81
566.54	809.67
566.89	807.81
567.25	807.00
567.60	807.00
567.96	807.86
568.31	808.43
568.66	806.48
569.02	803.24
569.37	802.95
569.72	801.48
570.08	800.67
570.43	799.52
570.78	797.86
571.14	797.05
571.49	795.86
571.84	796.14
572.20	794.62
572.55	793.43
572.90	789.33
573.26	787.24
573.61	786.38
573.96	785.29
574.31	784.48
574.67	781.48
575.02	779.10
575.37	774.81
575.72	771.86
576.08	770.10
576.43	768.67
576.78	766.19
577.13	764.43
577.49	763.52
577.84	762.52
578.19	761.10
578.54	760.00
578.90	758.86
579.25	756.19
579.60	755.67
579.95	754.62
580.30	754.29
580.66	753.48
581.01	752.00
581.36	750.24
581.71	748.33
582.06	748.95
582.42	747.43
582.77	746.19
583.12	744.62
583.47	742.71
583.82	741.14
584.17	740.57
584.53	740.00
584.88	737.19
585.23	735.33
585.58	733.00
585.93	730.57
586.28	727.95
586.63	727.00
586.98	724.05
587.34	721.71
587.69	719.05
588.04	715.90
588.39	713.43
588.74	710.86
589.09	709.33
589.44	704.24
589.79	702.19
590.14	699.24
590.49	697.10
590.84	693.86
591.19	690.14
591.54	687.38
591.89	683.81
592.25	682.90
592.60	679.24
592.95	676.86
593.30	674.00
593.65	671.38
594.00	667.24
594.35	671.57
594.70	668.52
595.05	665.48
595.40	663.14
595.75	659.71
596.10	656.95
596.45	653.52
596.80	651.76
597.15	648.14
597.50	645.81
597.85	643.52
598.19	641.38
598.54	639.43
598.89	635.95
599.24	632.90
599.59	628.43
599.94	625.48
600.29	623.33
600.64	620.86
600.99	619.71
601.34	617.81
601.69	608.19
602.04	605.14
602.39	602.24
602.74	600.14
603.08	598.29
603.43	597.10
603.78	595.52
604.13	592.86
604.48	591.43
604.83	590.48
605.18	589.48
605.53	589.38
605.87	590.62
606.22	594.29
606.57	598.86
606.92	604.10
607.27	610.43
607.62	615.48
607.96	620.29
608.31	623.48
608.66	627.10
609.01	630.33
609.36	634.10
609.70	637.76
610.05	639.86
610.40	642.95
610.75	644.00
611.10	645.86
611.44	647.62
611.79	648.24
612.14	647.48
612.49	645.24
612.83	642.81
613.18	638.95
613.53	633.14
613.88	625.48
614.22	617.10
614.57	608.05
614.92	599.71
615.27	592.05
615.61	584.24
615.96	577.48
616.31	571.14
616.65	565.14
617.00	559.10
617.35	553.43
617.70	546.86
618.04	541.71
618.39	535.71
618.74	531.19
619.08	527.38
619.43	523.71
619.78	520.48
620.12	517.52
620.47	514.67
620.82	511.71
621.16	509.19
621.51	508.33
621.85	506.19
622.20	504.19
622.55	501.52
622.89	499.29
623.24	497.43
623.59	494.71
623.93	492.33
624.28	490.48
624.62	490.62
624.97	490.24
625.32	487.52
625.66	486.38
626.01	484.43
626.35	482.24
626.70	479.57
627.04	478.76
627.39	476.90
627.73	475.90
628.08	473.76
628.43	471.76
628.77	467.95
629.12	465.86
629.46	463.86
629.81	461.90
630.15	460.00
630.50	457.29
630.84	455.67
631.19	454.05
631.53	451.33
631.88	446.62
632.22	443.00
632.57	441.43
632.91	438.57
633.26	436.76
633.60	434.10
633.95	432.00
634.29	428.52
634.64	426.29
634.98	423.38
635.32	421.33
635.67	419.62
636.01	418.19
636.36	416.14
636.70	414.19
637.05	412.05
637.39	410.00
637.73	408.19
638.08	406.71
638.42	404.19
638.77	403.19
639.11	401.71
639.45	399.81
639.80	398.24
640.14	396.76
640.49	394.76
640.83	393.48
641.17	392.52
641.52	391.48
641.86	390.33
642.20	389.71
642.55	388.62
642.89	387.62
643.23	386.76
643.58	386.19
643.92	384.43
644.26	383.52
644.61	382.95
644.95	381.90
645.29	380.43
645.64	380.14
645.98	378.38
646.32	377.62
646.66	376.81
647.01	375.86
647.35	375.10
647.69	374.81
648.04	374.14
648.38	373.48
648.72	372.29
649.06	371.24
649.41	369.10
649.75	367.90
650.09	367.14
650.43	365.86
650.78	363.95
651.12	363.10
651.46	361.90
651.80	360.48
652.14	359.33
652.49	359.43
652.83	357.67
653.17	356.57
653.51	354.71
653.85	354.05
654.20	352.90
654.54	351.62
654.88	349.38
655.22	347.71
655.56	346.14
655.90	344.90
656.25	343.62
656.59	343.00
656.93	342.19
657.27	341.90
657.61	340.76
657.95	340.81
658.29	339.86
658.64	339.76
658.98	338.86
659.32	338.10
659.66	336.38
660.00	336.10
660.34	335.71
660.68	335.52
661.02	335.10
661.36	333.95
661.70	333.43
662.05	333.05
662.39	333.19
662.73	333.24
663.07	334.29
663.41	333.86
663.75	332.86
664.09	332.19
664.43	330.38
664.77	329.62
665.11	328.43
665.45	327.95
665.79	327.29
666.13	326.52
666.47	325.86
666.81	324.95
667.15	323.86
667.49	323.29
667.83	323.52
668.17	322.00
668.51	321.67
668.85	321.33
669.19	321.81
669.53	320.48
669.87	319.19
670.21	317.10
670.55	316.05
670.89	316.57
671.23	316.00
671.57	315.76
671.91	315.62
672.25	315.10
672.58	315.38
672.92	314.14
673.26	313.52
673.60	313.24
673.94	313.05
674.28	313.05
674.62	312.86
674.96	311.52
675.30	311.29
675.64	310.90
675.97	310.33
676.31	309.29
676.65	308.86
676.99	309.67
677.33	309.05
677.67	309.00
678.01	307.62
678.34	307.10
678.68	307.10
679.02	306.24
679.36	305.62
679.70	304.43
680.04	304.10
680.37	304.05
680.71	303.33
681.05	302.71
681.39	302.24
681.73	301.10
682.06	300.33
682.40	299.67
682.74	299.24
683.08	299.38
683.42	298.62
683.75	298.81
684.09	297.19
684.43	297.14
684.77	296.19
685.10	295.48
685.44	295.24
685.78	294.67
686.12	294.19
686.45	293.81
686.79	293.00
687.13	292.86
687.46	291.90
687.80	291.76
688.14	291.57
688.48	290.90
688.81	290.52
689.15	291.05
689.49	290.81
689.82	290.62
690.16	289.52
690.50	288.95
690.83	288.10
691.17	287.48
691.51	286.95
691.84	287.24
692.18	287.05
692.52	286.62
692.85	286.24
693.19	286.90
693.52	286.38
693.86	286.00
694.20	285.67
694.53	285.71
694.87	285.29
695.21	284.10
695.54	283.71
695.88	282.95
696.21	281.86
696.55	281.29
696.88	280.48
697.22	279.90
697.56	279.81
697.89	279.19
698.23	279.10
698.56	278.62
698.90	277.95
699.23	277.52
699.57	277.24
699.90	276.67
700.24	275.57
700.58	275.86
700.91	276.05
701.25	277.71
701.58	278.38
701.92	279.19
702.25	280.14
702.59	280.33
702.92	281.33
703.26	281.76
703.59	282.33
703.93	285.05
704.26	286.05
704.60	286.52
704.93	287.19
705.26	287.52
705.60	288.52
705.93	288.81
706.27	290.29
706.60	291.29
706.94	292.76
707.27	293.10
707.61	292.86
707.94	293.05
708.27	291.33
708.61	290.67
708.94	290.10
709.28	289.57
709.61	289.33
709.94	288.81
710.28	288.00
710.61	287.19
710.95	284.05
711.28	284.38
711.61	283.52
711.95	283.24
712.28	282.10
712.61	280.90
712.95	281.00
713.28	280.71
713.61	278.95
713.95	277.00
714.28	276.38
714.61	275.57
714.95	274.33
715.28	273.00
715.61	272.10
715.95	271.76
716.28	271.14
716.61	270.62
716.95	269.76
717.28	269.43
717.61	269.00
717.94	268.57
718.28	266.33
718.61	265.71
718.94	264.86
719.27	264.67
719.61	264.29
719.94	263.33
720.27	261.76
720.60	261.95
720.94	261.81
721.27	261.05
721.60	261.24
721.93	261.19
722.27	262.10
722.60	261.95
722.93	260.86
723.26	260.81
723.59	260.05
723.93	260.29
724.26	260.24
724.59	260.00
724.92	260.38
725.25	261.24
725.59	261.10
725.92	261.00
726.25	260.62
726.58	260.57
726.91	260.43
727.24	260.57
727.57	259.90
727.91	259.62
728.24	260.19
728.57	259.81
728.90	260.19
729.23	258.90
729.56	259.76
729.89	259.86
730.22	259.67
730.55	259.81
730.89	259.43
731.22	259.05
731.55	259.10
731.88	258.43
732.21	257.67
732.54	257.24
732.87	257.29
733.20	257.57
733.53	257.14
733.86	257.38
734.19	256.62
734.52	256.86
734.85	258.24
735.18	257.76
735.51	258.43
735.84	258.33
736.17	259.38
736.50	258.24
736.83	261.05
737.16	260.86
737.49	260.86
737.82	260.76
738.15	261.14
738.48	260.81
738.81	260.86
739.14	260.52
739.47	260.52
739.80	260.38
740.13	260.62
740.46	260.71
740.79	259.95
741.12	260.10
741.45	259.57
741.78	257.90
742.11	258.81
742.44	258.10
742.77	258.38
743.10	257.62
743.43	257.71
743.75	255.10
744.08	258.33
744.41	258.00
744.74	257.81
745.07	257.14
745.40	257.90
745.73	258.95
746.06	259.05
746.39	259.14
746.71	258.71
747.04	258.14
747.37	257.95
747.70	258.57
748.03	258.67
748.36	259.19
748.68	259.43
749.01	257.95
749.34	257.71
749.67	257.43
750.00	257.76
750.33	259.24
750.65	259.33
750.98	255.86
751.31	255.81
751.64	255.76
751.97	257.05
752.29	256.33
752.62	254.95
752.95	254.71
753.28	254.57
753.60	254.90
753.93	255.38
754.26	255.52
754.59	255.00
754.91	254.48
755.24	253.95
755.57	253.67
755.90	253.43
756.22	253.33
756.55	252.67
756.88	252.05
757.20	250.33
757.53	249.76
757.86	250.00
758.19	250.19
758.51	250.00
758.84	248.48
759.17	248.38
759.49	248.57
759.82	249.71
760.15	249.90
760.47	249.38
760.80	248.86
761.13	249.05
761.45	248.67
761.78	248.76
762.11	248.76
762.43	248.52
762.76	248.86
763.08	249.00
763.41	249.52
763.74	249.43
764.06	249.19
764.39	249.00
764.71	248.81
765.04	248.52
765.37	248.57
765.69	248.76
766.02	248.52
766.34	248.33
766.67	246.95
767.00	247.19
767.32	248.57
767.65	249.90
767.97	249.57
768.30	249.62
768.62	249.57
768.95	249.29
769.27	249.05
769.60	249.71
769.92	249.29
770.25	248.52
770.57	248.29
770.90	248.29
771.22	247.95
771.55	248.10
771.87	248.14
772.20	247.95
772.52	249.67
772.85	253.00
773.17	253.14
773.50	253.19
773.82	252.76
774.15	251.38
774.47	249.57
774.80	249.43
775.12	249.33
775.45	249.52
775.77	250.00
776.09	250.43
776.42	250.05
776.74	250.71
777.07	250.67
777.39	250.67
777.72	250.48
778.04	250.81
778.36	250.48
778.69	250.38
779.01	250.33
779.33	248.48
779.66	245.05
779.98	244.52
780.31	244.43
780.63	245.52
780.95	245.81
781.28	245.67
781.60	245.19
781.92	245.05
782.25	244.62
782.57	244.29
782.89	243.76
783.22	243.52
783.54	243.00
783.86	242.90
784.19	242.71
784.51	243.38
784.83	243.14
785.16	242.76
785.48	242.71
785.80	242.67
786.12	242.71
786.45	242.71
786.77	243.24
787.09	243.52
787.42	242.71
787.74	243.14
788.06	243.43
788.38	243.67
788.71	243.57
789.03	243.67
789.35	244.05
789.67	243.81
789.99	243.71
790.32	243.19
790.64	243.48
790.96	245.33
791.28	244.90
791.61	244.52
791.93	245.14
792.25	245.19
792.57	247.29
792.89	246.95
793.21	247.29
793.54	246.86
793.86	246.19
