SpectraSuite Data File
++++++++++++++++++++++++++++++++++++
Date: Wed Nov 07 18:33:24 EST 2012
User: group
Dark Spectrum Present: No
Reference Spectrum Present: No
Number of Sampled Component Spectra: 1
Spectrometers: USB2E7196
Integration Time (usec): 1000000 (USB2E7196)
Spectra Averaged: 1 (USB2E7196)
Boxcar Smoothing: 10 (USB2E7196)
Correct for Electrical Dark: No (USB2E7196)
Strobe/Lamp Enabled: No (USB2E7196)
Correct for Detector Non-linearity: No (USB2E7196)
Correct for Stray Light: No (USB2E7196)
Number of Pixels in Processed Spectrum: 2048
>>>>>Begin Processed Spectral Data<<<<<
339.09	0.00
339.48	214.00
339.86	215.00
340.24	219.00
340.63	223.00
341.01	260.00
341.39	225.00
341.78	230.00
342.16	235.00
342.54	235.00
342.93	222.71
343.31	233.86
343.69	234.62
344.07	235.52
344.46	236.57
344.84	237.29
345.22	235.95
345.60	236.76
345.99	237.19
346.37	237.24
346.75	237.29
347.13	237.48
347.52	237.62
347.90	238.29
348.28	238.05
348.66	238.57
349.05	238.38
349.43	238.90
349.81	239.33
350.19	239.71
350.57	239.86
350.96	240.10
351.34	240.19
351.72	240.52
352.10	240.71
352.48	240.33
352.87	240.33
353.25	240.67
353.63	240.43
354.01	240.14
354.39	240.52
354.77	240.43
355.15	240.48
355.54	239.90
355.92	239.19
356.30	239.38
356.68	241.05
357.06	241.19
357.44	240.38
357.82	240.10
358.20	240.33
358.58	240.29
358.97	240.43
359.35	241.43
359.73	241.95
360.11	241.62
360.49	241.90
360.87	241.86
361.25	242.14
361.63	242.95
362.01	243.14
362.39	242.81
362.77	243.24
363.15	243.57
363.53	243.62
363.91	243.67
364.29	243.62
364.67	241.24
365.05	241.33
365.43	242.05
365.81	242.43
366.19	243.00
366.57	243.71
366.95	243.71
367.33	242.62
367.71	242.52
368.09	243.38
368.47	243.33
368.85	243.19
369.23	243.81
369.61	243.00
369.99	243.86
370.37	244.05
370.75	244.81
371.13	244.14
371.51	243.90
371.89	244.29
372.27	244.38
372.65	244.52
373.03	244.38
373.41	244.19
373.78	243.95
374.16	242.62
374.54	241.71
374.92	241.48
375.30	241.76
375.68	241.14
376.06	241.10
376.44	240.86
376.82	241.05
377.19	240.62
377.57	240.52
377.95	239.52
378.33	239.57
378.71	238.48
379.09	238.90
379.47	239.10
379.84	238.48
380.22	238.43
380.60	237.86
380.98	237.81
381.36	237.43
381.73	237.19
382.11	238.00
382.49	238.24
382.87	237.62
383.25	237.33
383.62	240.14
384.00	239.48
384.38	239.48
384.76	240.10
385.13	240.95
385.51	241.00
385.89	241.29
386.27	241.19
386.64	241.48
387.02	241.10
387.40	241.29
387.78	241.62
388.15	241.67
388.53	241.90
388.91	241.95
389.29	242.00
389.66	242.33
390.04	241.90
390.42	242.62
390.79	243.24
391.17	243.48
391.55	240.76
391.92	241.24
392.30	241.62
392.68	240.90
393.05	240.48
393.43	240.29
393.81	240.24
394.18	240.00
394.56	239.86
394.94	240.38
395.31	240.00
395.69	241.05
396.06	241.48
396.44	241.48
396.82	241.14
397.19	242.76
397.57	242.62
397.95	243.05
398.32	242.05
398.70	242.38
399.07	242.71
399.45	242.95
399.82	242.71
400.20	242.57
400.58	242.86
400.95	241.86
401.33	242.76
401.70	244.48
402.08	244.71
402.45	244.90
402.83	245.48
403.20	245.52
403.58	244.95
403.95	245.10
404.33	245.57
404.71	245.95
405.08	247.38
405.46	247.71
405.83	248.14
406.21	248.67
406.58	248.95
406.96	249.24
407.33	249.48
407.70	250.38
408.08	252.71
408.45	253.48
408.83	255.14
409.20	255.38
409.58	254.71
409.95	255.95
410.33	256.95
410.70	257.10
411.08	258.67
411.45	260.14
411.82	261.05
412.20	263.14
412.57	265.90
412.95	264.81
413.32	266.67
413.69	268.14
414.07	269.86
414.44	271.57
414.82	274.05
415.19	276.90
415.56	278.86
415.94	280.29
416.31	283.29
416.68	285.95
417.06	289.67
417.43	293.52
417.81	296.90
418.18	300.71
418.55	304.81
418.93	308.86
419.30	312.90
419.67	317.67
420.04	321.95
420.42	326.33
420.79	334.00
421.16	339.71
421.54	347.00
421.91	353.38
422.28	359.67
422.66	365.57
423.03	373.90
423.40	380.81
423.77	387.48
424.15	394.33
424.52	402.33
424.89	410.71
425.26	418.33
425.64	426.33
426.01	434.81
426.38	443.67
426.75	453.57
427.13	462.81
427.50	472.33
427.87	482.52
428.24	492.05
428.61	500.10
428.99	511.81
429.36	521.48
429.73	532.86
430.10	544.29
430.47	556.52
430.85	567.57
431.22	579.71
431.59	596.05
431.96	609.57
432.33	623.38
432.70	637.14
433.08	653.95
433.45	669.10
433.82	684.38
434.19	701.76
434.56	717.24
434.93	733.10
435.30	748.57
435.68	765.76
436.05	783.10
436.42	800.05
436.79	814.95
437.16	832.81
437.53	849.95
437.90	867.81
438.27	885.71
438.64	902.00
439.01	918.52
439.38	930.52
439.75	943.57
440.13	960.48
440.50	974.38
440.87	985.29
441.24	996.90
441.61	1009.76
441.98	1017.95
442.35	1028.67
442.72	1039.24
443.09	1051.29
443.46	1057.05
443.83	1060.38
444.20	1063.33
444.57	1067.33
444.94	1067.76
445.31	1069.90
445.68	1074.38
446.05	1073.24
446.42	1070.33
446.79	1067.76
447.16	1064.00
447.53	1061.67
447.90	1052.14
448.27	1044.19
448.64	1034.38
449.01	1027.43
449.37	1015.05
449.74	1003.00
450.11	992.19
450.48	977.10
450.85	959.67
451.22	946.57
451.59	934.19
451.96	921.14
452.33	905.52
452.70	891.19
453.07	872.86
453.43	852.29
453.80	836.00
454.17	820.62
454.54	805.24
454.91	788.95
455.28	772.90
455.65	758.76
456.02	749.38
456.38	737.19
456.75	721.95
457.12	708.81
457.49	697.29
457.86	682.57
458.23	673.14
458.59	662.62
458.96	651.29
459.33	640.67
459.70	631.48
460.07	623.71
460.43	614.29
460.80	607.33
461.17	599.67
461.54	591.43
461.91	583.81
462.27	576.29
462.64	569.67
463.01	562.62
463.38	556.81
463.74	545.10
464.11	538.52
464.48	533.05
464.85	527.86
465.21	523.86
465.58	518.95
465.95	512.81
466.32	508.76
466.68	503.24
467.05	499.29
467.42	494.86
467.78	490.14
468.15	486.24
468.52	482.48
468.88	478.10
469.25	474.24
469.62	471.24
469.98	467.38
470.35	464.52
470.72	461.76
471.08	457.00
471.45	455.05
471.82	452.95
472.18	450.00
472.55	447.81
472.92	444.71
473.28	442.29
473.65	439.43
474.02	436.90
474.38	435.43
474.75	433.52
475.11	431.14
475.48	429.62
475.85	428.19
476.21	426.29
476.58	425.38
476.94	424.52
477.31	423.14
477.67	422.00
478.04	420.48
478.41	420.33
478.77	422.38
479.14	420.71
479.50	419.81
479.87	420.00
480.23	419.67
480.60	418.67
480.96	419.33
481.33	420.76
481.69	420.67
482.06	421.38
482.42	422.10
482.79	423.29
483.15	423.43
483.52	424.52
483.88	425.76
484.25	426.52
484.61	427.05
484.98	428.71
485.34	431.38
485.71	433.52
486.07	433.86
486.44	432.95
486.80	434.95
487.17	436.10
487.53	438.10
487.90	440.05
488.26	443.43
488.62	445.52
488.99	446.29
489.35	448.52
489.72	450.29
490.08	451.95
490.44	453.24
490.81	455.95
491.17	457.48
491.54	459.33
491.90	462.33
492.26	465.10
492.63	466.67
492.99	468.33
493.36	470.90
493.72	474.90
494.08	477.71
494.45	480.67
494.81	484.29
495.17	487.14
495.54	490.67
495.90	492.86
496.26	495.76
496.63	500.19
496.99	504.05
497.35	507.95
497.72	512.38
498.08	517.00
498.44	521.62
498.80	526.62
499.17	531.29
499.53	534.81
499.89	539.95
500.26	544.48
500.62	549.24
500.98	554.14
501.34	558.24
501.71	564.10
502.07	569.14
502.43	574.05
502.79	577.86
503.16	583.10
503.52	588.90
503.88	594.05
504.24	599.43
504.60	604.48
504.97	609.67
505.33	614.19
505.69	620.10
506.05	625.10
506.41	630.19
506.78	635.52
507.14	641.57
507.50	646.67
507.86	653.48
508.22	659.62
508.59	665.00
508.95	670.90
509.31	677.19
509.67	682.43
510.03	687.00
510.39	693.24
510.75	698.19
511.12	703.52
511.48	708.71
511.84	713.67
512.20	718.81
512.56	724.24
512.92	730.48
513.28	734.86
513.64	739.24
514.00	743.90
514.37	748.52
514.73	752.90
515.09	757.24
515.45	760.33
515.81	764.10
516.17	767.81
516.53	771.81
516.89	774.57
517.25	778.67
517.61	783.90
517.97	787.38
518.33	791.81
518.69	795.76
519.05	799.81
519.41	803.29
519.77	808.33
520.13	811.90
520.49	814.05
520.85	817.38
521.21	821.57
521.57	825.10
521.93	828.05
522.29	831.05
522.65	832.86
523.01	836.19
523.37	838.67
523.73	841.95
524.09	844.67
524.45	846.67
524.81	848.90
525.17	851.14
525.53	853.90
525.89	855.81
526.25	857.76
526.61	859.48
526.97	860.95
527.33	861.48
527.68	865.67
528.04	867.10
528.40	868.19
528.76	869.57
529.12	870.10
529.48	872.62
529.84	873.48
530.20	875.38
530.56	876.67
530.91	878.24
531.27	878.33
531.63	879.52
531.99	881.29
532.35	882.29
532.71	883.00
533.07	883.86
533.42	887.19
533.78	887.29
534.14	889.52
534.50	890.43
534.86	892.05
535.21	890.05
535.57	891.86
535.93	893.05
536.29	895.24
536.65	897.71
537.00	898.29
537.36	899.57
537.72	901.71
538.08	904.76
538.44	905.43
538.79	909.19
539.15	910.81
539.51	912.19
539.87	915.95
540.22	918.19
540.58	920.48
540.94	920.57
541.29	922.14
541.65	922.52
542.01	925.48
542.37	926.90
542.72	927.48
543.08	928.29
543.44	929.00
543.79	926.33
544.15	926.62
544.51	927.19
544.87	926.90
545.22	926.10
545.58	923.52
545.94	923.00
546.29	920.86
546.65	918.86
547.01	916.52
547.36	912.86
547.72	909.95
548.07	907.14
548.43	903.81
548.79	901.71
549.14	898.43
549.50	895.52
549.86	891.71
550.21	889.86
550.57	887.14
550.92	884.48
551.28	883.43
551.64	880.90
551.99	877.67
552.35	875.67
552.70	872.10
553.06	870.24
553.41	867.62
553.77	866.57
554.13	864.76
554.48	862.95
554.84	861.71
555.19	860.24
555.55	860.86
555.90	859.05
556.26	857.48
556.61	855.05
556.97	851.71
557.32	850.19
557.68	848.57
558.03	846.52
558.39	844.48
558.74	843.14
559.10	840.67
559.45	838.90
559.81	837.00
560.16	836.00
560.52	833.67
560.87	832.14
561.23	828.95
561.58	829.14
561.94	827.14
562.29	823.90
562.64	822.81
563.00	818.43
563.35	817.05
563.71	815.00
564.06	814.00
564.42	813.43
564.77	811.57
565.12	809.48
565.48	811.33
565.83	810.90
566.19	809.43
566.54	808.48
566.89	806.90
567.25	806.29
567.60	806.05
567.96	807.48
568.31	807.86
568.66	808.05
569.02	804.76
569.37	803.76
569.72	803.90
570.08	802.05
570.43	801.05
570.78	799.48
571.14	798.67
571.49	798.38
571.84	796.48
572.20	795.14
572.55	793.90
572.90	789.90
573.26	787.76
573.61	785.14
573.96	784.00
574.31	782.81
574.67	780.86
575.02	779.05
575.37	774.67
575.72	771.95
576.08	770.19
576.43	768.76
576.78	767.43
577.13	765.00
577.49	763.38
577.84	761.86
578.19	760.05
578.54	758.48
578.90	755.86
579.25	754.76
579.60	753.86
579.95	752.86
580.30	751.29
580.66	750.48
581.01	750.10
581.36	748.00
581.71	746.38
582.06	745.90
582.42	744.48
582.77	743.10
583.12	741.67
583.47	739.05
583.82	737.81
584.17	737.38
584.53	737.19
584.88	735.62
585.23	735.10
585.58	732.90
585.93	730.14
586.28	729.00
586.63	726.67
586.98	724.19
587.34	722.10
587.69	719.76
588.04	717.14
588.39	713.71
588.74	711.10
589.09	708.76
589.44	704.57
589.79	701.14
590.14	698.71
590.49	695.05
590.84	691.67
591.19	688.29
591.54	684.29
591.89	679.86
592.25	678.24
592.60	673.62
592.95	671.29
593.30	669.43
593.65	666.52
594.00	662.90
594.35	667.10
594.70	663.29
595.05	659.57
595.40	656.33
595.75	653.67
596.10	651.29
596.45	648.90
596.80	646.38
597.15	643.57
597.50	641.10
597.85	640.10
598.19	638.29
598.54	635.52
598.89	632.24
599.24	630.48
599.59	626.14
599.94	623.67
600.29	621.33
600.64	618.38
600.99	616.71
601.34	615.24
601.69	605.33
602.04	602.76
602.39	600.76
602.74	599.05
603.08	597.00
603.43	595.52
603.78	593.00
604.13	591.10
604.48	589.71
604.83	588.67
605.18	586.95
605.53	587.00
605.87	588.90
606.22	592.14
606.57	595.10
606.92	599.76
607.27	605.19
607.62	610.00
607.96	614.71
608.31	617.86
608.66	621.05
609.01	624.29
609.36	628.38
609.70	632.05
610.05	634.19
610.40	637.14
610.75	638.29
611.10	639.67
611.44	640.38
611.79	640.57
612.14	640.29
612.49	638.52
612.83	635.33
613.18	631.19
613.53	626.29
613.88	620.48
614.22	612.57
614.57	604.71
614.92	596.48
615.27	589.29
615.61	581.71
615.96	575.33
616.31	569.57
616.65	563.19
617.00	556.52
617.35	550.67
617.70	544.57
618.04	539.43
618.39	534.29
618.74	530.10
619.08	526.62
619.43	522.10
619.78	518.62
620.12	515.90
620.47	513.14
620.82	509.52
621.16	506.29
621.51	505.57
621.85	502.43
622.20	500.00
622.55	496.52
622.89	494.14
623.24	491.52
623.59	488.90
623.93	486.71
624.28	484.52
624.62	484.90
624.97	484.38
625.32	481.86
625.66	480.38
626.01	478.81
626.35	477.00
626.70	475.76
627.04	475.67
627.39	474.48
627.73	473.24
628.08	471.43
628.43	469.29
628.77	465.95
629.12	464.29
629.46	462.86
629.81	461.86
630.15	460.00
630.50	457.95
630.84	456.10
631.19	454.00
631.53	451.81
631.88	447.10
632.22	443.14
632.57	441.19
632.91	439.05
633.26	437.00
633.60	434.38
633.95	431.57
634.29	427.86
634.64	424.95
634.98	421.71
635.32	420.33
635.67	419.14
636.01	417.05
636.36	414.86
636.70	412.76
637.05	410.95
637.39	408.76
637.73	407.33
638.08	406.19
638.42	404.00
638.77	403.19
639.11	401.76
639.45	400.38
639.80	398.67
640.14	396.76
640.49	394.57
640.83	392.81
641.17	392.24
641.52	390.95
641.86	389.71
642.20	389.62
642.55	387.52
642.89	385.71
643.23	384.86
643.58	384.33
643.92	383.14
644.26	381.67
644.61	381.62
644.95	380.67
645.29	378.57
645.64	378.81
645.98	377.62
646.32	377.24
646.66	376.33
647.01	375.24
647.35	374.33
647.69	374.10
648.04	373.67
648.38	372.29
648.72	371.33
649.06	370.05
649.41	368.05
649.75	367.48
650.09	366.81
650.43	365.67
650.78	364.33
651.12	362.95
651.46	361.52
651.80	359.81
652.14	358.43
652.49	358.14
652.83	356.19
653.17	354.62
653.51	352.81
653.85	351.95
654.20	351.14
654.54	349.67
654.88	347.90
655.22	346.14
655.56	344.86
655.90	343.81
656.25	343.00
656.59	342.10
656.93	341.05
657.27	341.05
657.61	339.33
657.95	338.48
658.29	337.86
658.64	337.86
658.98	336.76
659.32	335.90
659.66	334.71
660.00	334.10
660.34	333.57
660.68	333.19
661.02	332.86
661.36	332.10
661.70	331.62
662.05	330.95
662.39	331.38
662.73	331.24
663.07	332.24
663.41	332.10
663.75	331.29
664.09	330.76
664.43	329.33
664.77	330.00
665.11	329.00
665.45	328.24
665.79	327.90
666.13	327.62
666.47	326.90
666.81	326.48
667.15	325.10
667.49	324.67
667.83	324.90
668.17	323.57
668.51	322.71
668.85	321.95
669.19	322.14
669.53	320.86
669.87	319.48
670.21	317.48
670.55	316.43
670.89	316.86
671.23	316.24
671.57	315.38
671.91	314.43
672.25	313.95
672.58	314.33
672.92	312.52
673.26	311.57
673.60	311.33
673.94	310.90
674.28	310.81
674.62	310.38
674.96	308.81
675.30	308.43
675.64	308.33
675.97	308.00
676.31	307.14
676.65	306.24
676.99	306.76
677.33	305.90
677.67	305.38
678.01	303.86
678.34	303.48
678.68	303.81
679.02	303.05
679.36	302.71
679.70	300.95
680.04	300.71
680.37	300.52
680.71	300.00
681.05	299.33
681.39	299.00
681.73	298.24
682.06	297.67
682.40	297.33
682.74	297.00
683.08	297.62
683.42	297.10
683.75	297.38
684.09	296.19
684.43	295.81
684.77	295.29
685.10	294.86
685.44	294.52
685.78	293.57
686.12	293.14
686.45	292.48
686.79	292.24
687.13	292.43
687.46	292.29
687.80	292.52
688.14	292.00
688.48	291.95
688.81	291.62
689.15	292.29
689.49	291.86
689.82	291.10
690.16	289.76
690.50	289.14
690.83	288.43
691.17	287.67
691.51	287.57
691.84	287.67
692.18	287.24
692.52	286.43
692.85	286.10
693.19	286.57
693.52	286.24
693.86	285.76
694.20	284.90
694.53	284.48
694.87	283.43
695.21	282.71
695.54	282.29
695.88	281.52
696.21	280.19
696.55	279.90
696.88	279.71
697.22	279.48
697.56	279.52
697.89	279.29
698.23	279.57
698.56	279.33
698.90	278.90
699.23	278.57
699.57	278.81
699.90	278.38
700.24	277.52
700.58	277.52
700.91	277.86
701.25	280.19
701.58	280.67
701.92	281.38
702.25	281.62
702.59	281.57
702.92	282.19
703.26	283.00
703.59	283.43
703.93	285.76
704.26	286.29
704.60	286.90
704.93	286.90
705.26	287.19
705.60	288.00
705.93	287.95
706.27	289.00
706.60	289.95
706.94	291.19
707.27	291.43
707.61	292.19
707.94	292.05
708.27	290.38
708.61	289.57
708.94	289.10
709.28	289.33
709.61	288.67
709.94	288.10
710.28	287.05
710.61	286.57
710.95	283.90
711.28	284.48
711.61	283.67
711.95	283.81
712.28	282.71
712.61	281.29
712.95	282.38
713.28	282.43
713.61	281.10
713.95	279.33
714.28	278.52
714.61	277.14
714.95	276.43
715.28	274.86
715.61	274.00
715.95	273.48
716.28	272.38
716.61	272.29
716.95	271.62
717.28	271.05
717.61	270.19
717.94	269.52
718.28	267.29
718.61	266.57
718.94	265.29
719.27	264.76
719.61	264.81
719.94	263.19
720.27	261.57
720.60	260.90
720.94	260.67
721.27	260.57
721.60	260.86
721.93	260.57
722.27	261.33
722.60	261.71
722.93	261.14
723.26	261.29
723.59	260.86
723.93	261.05
724.26	261.19
724.59	261.19
724.92	261.38
725.25	262.29
725.59	262.24
725.92	262.38
726.25	262.14
726.58	261.71
726.91	261.33
727.24	261.67
727.57	261.52
727.91	260.95
728.24	260.90
728.57	260.19
728.90	260.57
729.23	259.67
729.56	260.57
729.89	260.90
730.22	260.57
730.55	260.43
730.89	260.05
731.22	260.05
731.55	259.81
731.88	259.57
732.21	258.43
732.54	257.95
732.87	257.67
733.20	257.76
733.53	257.95
733.86	258.33
734.19	257.57
734.52	257.62
734.85	259.38
735.18	258.62
735.51	259.38
735.84	259.43
736.17	260.10
736.50	258.52
736.83	260.86
737.16	260.71
737.49	261.00
737.82	260.86
738.15	261.00
738.48	260.48
738.81	260.43
739.14	260.52
739.47	260.33
739.80	260.43
740.13	260.86
740.46	260.14
740.79	259.52
741.12	259.67
741.45	259.33
741.78	257.86
742.11	258.57
742.44	257.71
742.77	257.33
743.10	256.90
743.43	256.76
743.75	253.86
744.08	257.00
744.41	256.33
744.74	256.00
745.07	255.19
745.40	255.71
745.73	256.33
746.06	256.24
746.39	256.43
746.71	256.19
747.04	255.19
747.37	255.33
747.70	255.67
748.03	255.71
748.36	256.14
748.68	255.95
749.01	255.14
749.34	255.33
749.67	255.43
750.00	255.00
750.33	256.43
750.65	256.38
750.98	253.05
751.31	253.14
751.64	253.14
751.97	254.48
752.29	254.19
752.62	253.00
752.95	252.90
753.28	252.57
753.60	252.14
753.93	253.05
754.26	253.14
754.59	252.38
754.91	252.05
755.24	251.76
755.57	251.48
755.90	251.33
756.22	251.10
756.55	250.43
756.88	250.43
757.20	248.86
757.53	248.38
757.86	248.48
758.19	248.57
758.51	248.43
758.84	247.19
759.17	246.95
759.49	247.48
759.82	248.76
760.15	248.95
760.47	248.95
760.80	248.48
761.13	248.43
761.45	248.19
761.78	248.00
762.11	247.90
762.43	247.76
762.76	247.95
763.08	247.95
763.41	248.10
763.74	248.19
764.06	248.38
764.39	248.67
764.71	248.71
765.04	248.38
765.37	248.33
765.69	248.10
766.02	247.86
766.34	247.43
766.67	245.95
767.00	246.43
767.32	247.86
767.65	249.14
767.97	249.05
768.30	249.33
768.62	249.29
768.95	249.14
769.27	249.14
769.60	249.24
769.92	249.14
770.25	248.90
770.57	248.05
770.90	248.10
771.22	247.90
771.55	247.67
771.87	247.81
772.20	248.10
772.52	250.43
772.85	253.81
773.17	254.05
773.50	254.29
773.82	253.57
774.15	252.48
774.47	250.76
774.80	250.57
775.12	250.57
775.45	250.67
775.77	250.81
776.09	251.00
776.42	251.00
776.74	251.33
777.07	251.05
777.39	251.43
777.72	250.86
778.04	251.10
778.36	251.00
778.69	250.71
779.01	250.24
779.33	248.10
779.66	245.00
779.98	244.52
780.31	244.57
780.63	245.67
780.95	246.10
781.28	246.00
781.60	245.71
781.92	245.86
782.25	245.81
782.57	245.52
782.89	245.38
783.22	245.38
783.54	244.81
783.86	244.86
784.19	244.71
784.51	245.67
784.83	245.10
785.16	245.14
785.48	245.19
785.80	245.43
786.12	245.33
786.45	245.29
786.77	245.38
787.09	244.95
787.42	244.29
787.74	244.24
788.06	244.43
788.38	244.67
788.71	243.95
789.03	243.76
789.35	244.14
789.67	243.76
789.99	243.67
790.32	243.86
790.64	244.24
790.96	246.48
791.28	245.48
791.61	245.29
791.93	245.48
792.25	245.52
792.57	247.33
792.89	246.90
793.21	246.81
793.54	246.48
793.86	246.33
