SpectraSuite Data File
++++++++++++++++++++++++++++++++++++
Date: Wed Nov 07 18:33:35 EST 2012
User: group
Dark Spectrum Present: No
Reference Spectrum Present: No
Number of Sampled Component Spectra: 1
Spectrometers: USB2E7196
Integration Time (usec): 1000000 (USB2E7196)
Spectra Averaged: 1 (USB2E7196)
Boxcar Smoothing: 10 (USB2E7196)
Correct for Electrical Dark: No (USB2E7196)
Strobe/Lamp Enabled: No (USB2E7196)
Correct for Detector Non-linearity: No (USB2E7196)
Correct for Stray Light: No (USB2E7196)
Number of Pixels in Processed Spectrum: 2048
>>>>>Begin Processed Spectral Data<<<<<
339.09	0.00
339.48	219.00
339.86	223.00
340.24	223.00
340.63	222.00
341.01	267.00
341.39	228.00
341.78	236.00
342.16	235.00
342.54	232.00
342.93	224.19
343.31	235.52
343.69	236.48
344.07	236.81
344.46	237.43
344.84	238.19
345.22	236.81
345.60	237.33
345.99	237.43
346.37	237.38
346.75	237.38
347.13	237.33
347.52	237.38
347.90	238.19
348.28	238.24
348.66	238.95
349.05	238.33
349.43	238.33
349.81	238.62
350.19	238.62
350.57	238.52
350.96	238.71
351.34	238.71
351.72	238.48
352.10	238.67
352.48	238.62
352.87	238.48
353.25	238.24
353.63	238.00
354.01	237.81
354.39	238.19
354.77	238.33
355.15	239.05
355.54	239.05
355.92	238.71
356.30	238.76
356.68	240.00
357.06	240.00
357.44	239.71
357.82	239.48
358.20	239.48
358.58	239.52
358.97	239.33
359.35	239.52
359.73	239.95
360.11	239.90
360.49	239.81
360.87	239.67
361.25	240.10
361.63	240.90
362.01	241.10
362.39	240.67
362.77	240.76
363.15	240.57
363.53	240.62
363.91	240.71
364.29	240.52
364.67	238.38
365.05	238.33
365.43	238.43
365.81	238.90
366.19	240.10
366.57	240.86
366.95	240.86
367.33	240.81
367.71	240.71
368.09	240.95
368.47	240.90
368.85	240.86
369.23	241.05
369.61	239.90
369.99	240.71
370.37	241.14
370.75	242.24
371.13	241.48
371.51	240.81
371.89	240.86
372.27	241.00
372.65	240.86
373.03	241.00
373.41	240.95
373.78	240.52
374.16	238.95
374.54	238.19
374.92	238.00
375.30	237.57
375.68	237.33
376.06	237.43
376.44	237.19
376.82	237.52
377.19	237.29
377.57	237.76
377.95	237.10
378.33	236.76
378.71	235.33
379.09	235.90
379.47	236.29
379.84	235.86
380.22	235.81
380.60	235.57
380.98	235.33
381.36	235.24
381.73	234.95
382.11	235.57
382.49	235.62
382.87	235.43
383.25	235.81
383.62	238.71
384.00	238.48
384.38	239.10
384.76	239.76
385.13	240.67
385.51	240.48
385.89	240.24
386.27	240.52
386.64	241.10
387.02	241.10
387.40	240.90
387.78	241.14
388.15	241.29
388.53	241.29
388.91	241.52
389.29	241.57
389.66	241.95
390.04	241.95
390.42	242.52
390.79	242.71
391.17	242.86
391.55	240.48
391.92	240.48
392.30	240.62
392.68	240.29
393.05	240.38
393.43	240.52
393.81	240.52
394.18	240.29
394.56	240.43
394.94	241.10
395.31	241.00
395.69	241.90
396.06	242.24
396.44	242.90
396.82	242.90
397.19	244.38
397.57	244.10
397.95	244.43
398.32	243.86
398.70	244.10
399.07	244.38
399.45	244.10
399.82	244.14
400.20	243.71
400.58	243.29
400.95	242.38
401.33	242.81
401.70	244.86
402.08	244.90
402.45	244.81
402.83	244.95
403.20	245.38
403.58	244.95
403.95	245.38
404.33	245.57
404.71	245.86
405.08	247.05
405.46	247.29
405.83	247.33
406.21	247.81
406.58	248.71
406.96	248.86
407.33	249.38
407.70	250.19
408.08	252.81
408.45	253.90
408.83	255.00
409.20	255.62
409.58	254.62
409.95	255.86
410.33	256.90
410.70	257.38
411.08	259.05
411.45	260.33
411.82	261.19
412.20	263.00
412.57	265.52
412.95	264.81
413.32	267.05
413.69	268.90
414.07	270.86
414.44	272.52
414.82	274.95
415.19	277.38
415.56	279.90
415.94	281.00
416.31	284.10
416.68	287.00
417.06	290.19
417.43	294.14
417.81	297.76
418.18	301.33
418.55	305.14
418.93	308.90
419.30	312.86
419.67	317.81
420.04	322.14
420.42	326.62
420.79	334.76
421.16	340.29
421.54	347.67
421.91	353.81
422.28	360.38
422.66	367.33
423.03	375.67
423.40	382.57
423.77	389.90
424.15	396.62
424.52	404.19
424.89	413.00
425.26	420.14
425.64	428.29
426.01	437.33
426.38	446.81
426.75	456.43
427.13	465.62
427.50	474.52
427.87	484.43
428.24	493.86
428.61	501.57
428.99	513.43
429.36	523.95
429.73	535.38
430.10	546.86
430.47	558.48
430.85	569.71
431.22	583.00
431.59	598.95
431.96	613.19
432.33	627.95
432.70	642.19
433.08	658.62
433.45	673.57
433.82	688.62
434.19	704.57
434.56	720.48
434.93	736.24
435.30	751.95
435.68	768.95
436.05	786.10
436.42	802.81
436.79	818.29
437.16	834.29
437.53	850.86
437.90	868.14
438.27	884.62
438.64	900.52
439.01	915.33
439.38	926.81
439.75	939.48
440.13	954.19
440.50	968.29
440.87	979.81
441.24	991.43
441.61	1005.57
441.98	1014.48
442.35	1025.57
442.72	1036.67
443.09	1049.10
443.46	1054.95
443.83	1059.43
444.20	1062.62
444.57	1066.81
444.94	1067.86
445.31	1070.62
445.68	1074.71
446.05	1074.00
446.42	1071.29
446.79	1069.33
447.16	1065.24
447.53	1063.57
447.90	1055.48
448.27	1046.62
448.64	1036.95
449.01	1029.57
449.37	1015.52
449.74	1004.33
450.11	992.71
450.48	978.33
450.85	961.48
451.22	948.76
451.59	935.67
451.96	923.43
452.33	907.14
452.70	893.14
453.07	875.52
453.43	855.10
453.80	838.76
454.17	823.33
454.54	807.95
454.91	792.33
455.28	774.86
455.65	760.10
456.02	750.76
456.38	738.48
456.75	723.71
457.12	711.43
457.49	699.38
457.86	684.86
458.23	674.71
458.59	663.05
458.96	651.57
459.33	641.52
459.70	631.29
460.07	622.90
460.43	613.71
460.80	605.71
461.17	597.29
461.54	590.48
461.91	582.62
462.27	574.43
462.64	568.19
463.01	561.71
463.38	556.57
463.74	545.14
464.11	538.52
464.48	533.00
464.85	527.19
465.21	523.33
465.58	518.76
465.95	512.29
466.32	508.10
466.68	503.71
467.05	499.05
467.42	494.48
467.78	490.14
468.15	485.71
468.52	482.71
468.88	478.95
469.25	474.24
469.62	471.43
469.98	468.00
470.35	464.86
470.72	462.19
471.08	457.62
471.45	455.62
471.82	454.24
472.18	451.52
472.55	449.57
472.92	445.90
473.28	443.43
473.65	440.95
474.02	438.90
474.38	436.95
474.75	435.14
475.11	433.10
475.48	431.33
475.85	429.71
476.21	427.48
476.58	426.43
476.94	425.24
477.31	424.14
477.67	423.52
478.04	422.95
478.41	422.00
478.77	424.24
479.14	423.10
479.50	422.19
479.87	421.57
480.23	421.00
480.60	420.57
480.96	420.86
481.33	422.29
481.69	422.14
482.06	422.33
482.42	423.00
482.79	424.43
483.15	425.90
483.52	427.14
483.88	427.76
484.25	428.62
484.61	430.14
484.98	430.48
485.34	432.38
485.71	433.76
486.07	435.10
486.44	434.52
486.80	435.86
487.17	436.71
487.53	438.95
487.90	441.05
488.26	444.05
488.62	446.29
488.99	447.33
489.35	449.38
489.72	451.38
490.08	452.90
490.44	453.76
490.81	455.38
491.17	457.57
491.54	459.90
491.90	462.95
492.26	465.43
492.63	468.19
492.99	470.05
493.36	472.48
493.72	475.62
494.08	478.29
494.45	481.00
494.81	484.62
495.17	487.10
495.54	490.57
495.90	492.86
496.26	496.19
496.63	499.76
496.99	503.14
497.35	507.10
497.72	511.81
498.08	515.81
498.44	520.24
498.80	524.19
499.17	528.81
499.53	532.62
499.89	536.86
500.26	541.38
500.62	546.57
500.98	552.00
501.34	556.38
501.71	561.90
502.07	567.33
502.43	571.76
502.79	577.33
503.16	582.33
503.52	587.62
503.88	592.05
504.24	597.38
504.60	603.71
504.97	608.71
505.33	613.10
505.69	620.00
506.05	625.00
506.41	630.62
506.78	636.19
507.14	641.57
507.50	647.43
507.86	653.19
508.22	658.62
508.59	663.76
508.95	669.57
509.31	675.10
509.67	680.57
510.03	685.86
510.39	691.52
510.75	696.05
511.12	701.00
511.48	706.86
511.84	711.95
512.20	716.24
512.56	721.52
512.92	727.14
513.28	731.38
513.64	736.29
514.00	740.76
514.37	745.00
514.73	749.71
515.09	754.43
515.45	758.24
515.81	761.95
516.17	765.71
516.53	769.19
516.89	771.62
517.25	775.33
517.61	780.52
517.97	783.90
518.33	787.81
518.69	792.19
519.05	795.95
519.41	799.67
519.77	804.90
520.13	808.38
520.49	810.62
520.85	814.24
521.21	819.14
521.57	823.14
521.93	826.67
522.29	830.00
522.65	831.62
523.01	834.71
523.37	837.14
523.73	840.14
524.09	842.57
524.45	845.90
524.81	848.67
525.17	850.00
525.53	851.90
525.89	854.00
526.25	856.19
526.61	857.52
526.97	859.14
527.33	859.81
527.68	863.71
528.04	866.14
528.40	866.86
528.76	866.33
529.12	866.62
529.48	867.43
529.84	868.62
530.20	871.43
530.56	874.14
530.91	876.48
531.27	877.95
531.63	879.67
531.99	880.38
532.35	881.05
532.71	882.10
533.07	883.67
533.42	888.10
533.78	888.86
534.14	890.52
534.50	892.19
534.86	894.24
535.21	892.81
535.57	894.38
535.93	895.76
536.29	898.90
536.65	901.67
537.00	903.57
537.36	905.43
537.72	906.48
538.08	908.24
538.44	909.57
538.79	911.62
539.15	913.38
539.51	916.52
539.87	919.48
540.22	921.14
540.58	922.76
540.94	922.86
541.29	925.76
541.65	927.33
542.01	929.52
542.37	930.62
542.72	931.24
543.08	930.95
543.44	931.48
543.79	929.52
544.15	928.76
544.51	929.10
544.87	927.86
545.22	926.19
545.58	924.00
545.94	921.43
546.29	919.33
546.65	917.67
547.01	914.43
547.36	911.81
547.72	909.48
548.07	907.29
548.43	903.76
548.79	900.14
549.14	896.38
549.50	892.62
549.86	888.62
550.21	886.81
550.57	884.81
550.92	882.19
551.28	881.38
551.64	878.90
551.99	875.19
552.35	872.62
552.70	870.86
553.06	869.19
553.41	868.00
553.77	867.33
554.13	864.81
554.48	863.81
554.84	861.14
555.19	859.71
555.55	859.71
555.90	857.76
556.26	855.43
556.61	854.29
556.97	852.10
557.32	850.14
557.68	848.24
558.03	846.48
558.39	844.76
558.74	842.05
559.10	840.19
559.45	838.86
559.81	837.67
560.16	836.10
560.52	833.43
560.87	831.76
561.23	828.95
561.58	829.57
561.94	827.71
562.29	826.76
562.64	824.86
563.00	820.95
563.35	819.14
563.71	818.05
564.06	815.62
564.42	813.19
564.77	811.67
565.12	810.00
565.48	810.81
565.83	809.90
566.19	808.33
566.54	806.67
566.89	805.29
567.25	804.48
567.60	804.10
567.96	805.76
568.31	805.43
568.66	804.67
569.02	801.86
569.37	799.81
569.72	798.86
570.08	798.10
570.43	797.62
570.78	795.67
571.14	794.19
571.49	793.33
571.84	793.52
572.20	792.86
572.55	792.00
572.90	788.00
573.26	785.76
573.61	784.24
573.96	783.24
574.31	782.48
574.67	779.90
575.02	777.52
575.37	773.86
575.72	771.38
576.08	769.48
576.43	768.38
576.78	767.43
577.13	765.43
577.49	763.38
577.84	761.57
578.19	760.43
578.54	758.71
578.90	757.67
579.25	755.62
579.60	753.95
579.95	752.05
580.30	751.67
580.66	750.95
581.01	749.43
581.36	747.57
581.71	745.95
582.06	746.48
582.42	744.90
582.77	742.24
583.12	741.48
583.47	739.90
583.82	738.14
584.17	736.67
584.53	735.81
584.88	734.67
585.23	733.48
585.58	732.24
585.93	730.76
586.28	728.81
586.63	726.95
586.98	725.05
587.34	723.05
587.69	720.00
588.04	717.43
588.39	715.48
588.74	712.67
589.09	710.71
589.44	706.05
589.79	704.00
590.14	701.86
590.49	698.10
590.84	694.62
591.19	691.52
591.54	688.48
591.89	684.86
592.25	683.71
592.60	679.00
592.95	676.00
593.30	673.10
593.65	670.00
594.00	666.67
594.35	670.67
594.70	667.43
595.05	664.71
595.40	661.81
595.75	658.81
596.10	656.48
596.45	653.24
596.80	650.67
597.15	646.62
597.50	643.71
597.85	642.00
598.19	639.67
598.54	636.90
598.89	633.62
599.24	630.76
599.59	626.05
599.94	624.24
600.29	621.43
600.64	618.57
600.99	616.52
601.34	614.48
601.69	604.90
602.04	602.67
602.39	599.95
602.74	597.95
603.08	594.90
603.43	593.90
603.78	591.52
604.13	589.67
604.48	589.10
604.83	588.57
605.18	587.29
605.53	586.90
605.87	588.29
606.22	591.76
606.57	595.67
606.92	600.19
607.27	606.19
607.62	611.57
607.96	616.38
608.31	620.43
608.66	624.19
609.01	627.57
609.36	630.52
609.70	634.76
610.05	636.95
610.40	640.86
610.75	642.48
611.10	644.43
611.44	646.24
611.79	646.10
612.14	645.57
612.49	643.86
612.83	642.14
613.18	637.95
613.53	632.38
613.88	625.67
614.22	618.43
614.57	609.81
614.92	601.71
615.27	594.14
615.61	586.38
615.96	579.14
616.31	572.95
616.65	566.90
617.00	560.14
617.35	554.19
617.70	547.57
618.04	541.95
618.39	536.76
618.74	532.57
619.08	528.43
619.43	524.57
619.78	521.57
620.12	518.00
620.47	515.38
620.82	512.43
621.16	509.86
621.51	508.24
621.85	505.38
622.20	502.62
622.55	499.86
622.89	497.71
623.24	495.86
623.59	492.86
623.93	491.19
624.28	488.67
624.62	489.00
624.97	488.71
625.32	486.10
625.66	483.86
626.01	480.76
626.35	479.38
626.70	477.48
627.04	475.86
627.39	474.14
627.73	473.29
628.08	471.62
628.43	469.57
628.77	466.10
629.12	463.76
629.46	462.19
629.81	460.67
630.15	458.19
630.50	455.76
630.84	454.33
631.19	452.10
631.53	450.62
631.88	445.33
632.22	441.81
632.57	440.57
632.91	438.14
633.26	436.24
633.60	433.38
633.95	430.81
634.29	427.86
634.64	425.67
634.98	422.62
635.32	421.00
635.67	419.24
636.01	417.43
636.36	415.38
636.70	414.00
637.05	411.95
637.39	410.24
637.73	409.00
638.08	407.33
638.42	405.19
638.77	403.24
639.11	403.05
639.45	400.86
639.80	398.95
640.14	398.19
640.49	396.76
640.83	395.33
641.17	394.57
641.52	393.43
641.86	392.24
642.20	391.67
642.55	389.24
642.89	387.43
643.23	386.71
643.58	386.48
643.92	384.43
644.26	383.67
644.61	383.14
644.95	381.86
645.29	380.62
645.64	380.05
645.98	378.52
646.32	377.57
646.66	377.14
647.01	376.38
647.35	375.19
647.69	374.52
648.04	373.90
648.38	372.90
648.72	371.90
649.06	370.48
649.41	368.24
649.75	367.62
650.09	367.71
650.43	366.81
650.78	365.48
651.12	364.57
651.46	363.14
651.80	362.05
652.14	361.14
652.49	360.52
652.83	359.19
653.17	358.48
653.51	356.52
653.85	355.29
654.20	353.57
654.54	351.76
654.88	350.38
655.22	348.95
655.56	347.81
655.90	346.90
656.25	346.14
656.59	345.90
656.93	345.29
657.27	344.67
657.61	343.00
657.95	342.86
658.29	342.33
658.64	342.24
658.98	341.24
659.32	340.14
659.66	339.05
660.00	338.62
660.34	338.00
660.68	337.67
661.02	337.05
661.36	336.90
661.70	336.81
662.05	336.43
662.39	336.43
662.73	336.43
663.07	337.10
663.41	337.05
663.75	336.14
664.09	335.48
664.43	333.86
664.77	333.62
665.11	332.05
665.45	331.24
665.79	330.14
666.13	329.43
666.47	328.81
666.81	328.05
667.15	326.71
667.49	325.95
667.83	326.14
668.17	325.38
668.51	324.29
668.85	323.33
669.19	323.86
669.53	322.52
669.87	321.24
670.21	319.43
670.55	318.33
670.89	318.90
671.23	318.14
671.57	317.67
671.91	317.14
672.25	316.90
672.58	317.33
672.92	316.43
673.26	315.71
673.60	315.57
673.94	315.14
674.28	314.62
674.62	314.71
674.96	313.81
675.30	313.24
675.64	312.81
675.97	312.14
676.31	310.48
676.65	309.76
676.99	309.57
677.33	308.86
677.67	308.29
678.01	306.05
678.34	305.52
678.68	305.19
679.02	304.62
679.36	303.71
679.70	302.19
680.04	301.86
680.37	301.33
680.71	300.33
681.05	300.00
681.39	299.90
681.73	298.67
682.06	297.81
682.40	297.43
682.74	297.48
683.08	298.43
683.42	297.43
683.75	297.52
684.09	296.86
684.43	296.52
684.77	295.38
685.10	295.33
685.44	294.95
685.78	294.48
686.12	293.62
686.45	293.14
686.79	292.52
687.13	292.57
687.46	292.38
687.80	292.62
688.14	292.00
688.48	291.43
688.81	291.48
689.15	291.48
689.49	290.86
689.82	290.00
690.16	288.14
690.50	288.24
690.83	287.33
691.17	286.71
691.51	286.52
691.84	286.90
692.18	286.29
692.52	285.62
692.85	285.86
693.19	286.62
693.52	286.48
693.86	285.90
694.20	285.14
694.53	284.76
694.87	283.95
695.21	282.95
695.54	282.81
695.88	281.90
696.21	280.90
696.55	280.62
696.88	280.00
697.22	279.86
697.56	279.48
697.89	279.29
698.23	279.38
698.56	278.62
698.90	278.52
699.23	278.38
699.57	278.43
699.90	277.57
700.24	276.76
700.58	276.52
700.91	277.19
701.25	278.95
701.58	279.67
701.92	280.52
702.25	281.19
702.59	280.90
702.92	281.57
703.26	282.24
703.59	282.57
703.93	285.29
704.26	285.81
704.60	286.57
704.93	287.29
705.26	287.33
705.60	288.48
705.93	288.57
706.27	289.62
706.60	290.62
706.94	291.90
707.27	291.95
707.61	292.19
707.94	291.95
708.27	290.05
708.61	289.00
708.94	288.33
709.28	288.24
709.61	288.10
709.94	287.62
710.28	287.05
710.61	286.48
710.95	283.71
711.28	284.38
711.61	282.95
711.95	282.33
712.28	281.10
712.61	279.62
712.95	279.95
713.28	279.95
713.61	278.14
713.95	276.24
714.28	275.38
714.61	274.38
714.95	273.52
715.28	272.67
715.61	272.14
715.95	271.81
716.28	270.48
716.61	270.24
716.95	269.48
717.28	268.90
717.61	268.48
717.94	268.10
718.28	266.24
718.61	266.00
718.94	265.10
719.27	265.10
719.61	264.95
719.94	263.62
720.27	262.00
720.60	261.71
720.94	261.43
721.27	261.43
721.60	261.81
721.93	261.38
722.27	262.00
722.60	262.10
722.93	261.48
723.26	261.71
723.59	260.95
723.93	261.52
724.26	261.62
724.59	261.19
724.92	260.90
725.25	261.62
725.59	261.33
725.92	261.76
726.25	261.43
726.58	261.43
726.91	261.29
727.24	261.57
727.57	261.48
727.91	261.10
728.24	261.05
728.57	260.38
728.90	260.95
729.23	260.10
729.56	260.90
729.89	260.52
730.22	260.19
730.55	260.24
730.89	259.29
731.22	258.76
731.55	259.14
731.88	259.19
732.21	258.29
732.54	258.43
732.87	258.14
733.20	258.48
733.53	258.33
733.86	258.62
734.19	258.10
734.52	258.38
734.85	259.81
735.18	259.43
735.51	260.57
735.84	260.38
736.17	260.86
736.50	259.62
736.83	262.48
737.16	262.67
737.49	262.57
737.82	262.67
738.15	262.86
738.48	262.19
738.81	262.10
739.14	261.62
739.47	261.33
739.80	261.24
740.13	261.14
740.46	260.62
740.79	259.76
741.12	259.29
741.45	258.95
741.78	257.90
742.11	258.29
742.44	257.29
742.77	257.29
743.10	256.43
743.43	256.33
743.75	254.00
744.08	257.00
744.41	256.71
744.74	256.43
745.07	255.67
745.40	256.10
745.73	257.00
746.06	257.24
746.39	257.43
746.71	256.81
747.04	256.33
747.37	256.14
747.70	256.95
748.03	257.24
748.36	257.38
748.68	256.90
749.01	256.14
749.34	255.90
749.67	255.48
750.00	256.14
750.33	257.52
750.65	257.10
750.98	253.71
751.31	253.95
751.64	254.00
751.97	255.71
752.29	255.48
752.62	254.33
752.95	254.38
753.28	253.76
753.60	253.86
753.93	254.38
754.26	254.43
754.59	253.33
754.91	253.10
755.24	252.62
755.57	252.43
755.90	252.43
756.22	252.14
756.55	252.24
756.88	251.33
757.20	249.62
757.53	249.05
757.86	249.24
758.19	249.43
758.51	249.71
758.84	248.48
759.17	248.43
759.49	248.43
759.82	249.14
760.15	249.29
760.47	249.43
760.80	248.71
761.13	249.24
761.45	249.48
761.78	249.29
762.11	249.67
762.43	249.62
762.76	249.24
763.08	249.52
763.41	249.52
763.74	249.86
764.06	249.71
764.39	249.86
764.71	249.71
765.04	249.29
765.37	248.33
765.69	247.95
766.02	247.29
766.34	247.00
766.67	246.05
767.00	246.43
767.32	247.43
767.65	249.10
767.97	248.90
768.30	249.14
768.62	249.10
768.95	248.48
769.27	248.57
769.60	249.38
769.92	249.00
770.25	248.29
770.57	247.81
770.90	247.81
771.22	247.33
771.55	247.29
771.87	247.24
772.20	247.38
772.52	249.48
772.85	252.86
773.17	253.19
773.50	253.10
773.82	252.76
774.15	251.19
774.47	249.48
774.80	248.90
775.12	248.24
775.45	248.29
775.77	248.57
776.09	248.33
776.42	247.95
776.74	248.67
777.07	248.52
777.39	248.52
777.72	248.76
778.04	249.38
778.36	249.14
778.69	249.24
779.01	249.24
779.33	247.00
779.66	244.14
779.98	243.38
780.31	243.29
780.63	244.00
780.95	244.62
781.28	244.57
781.60	244.57
781.92	244.71
782.25	244.67
782.57	244.43
782.89	244.48
783.22	244.38
783.54	243.71
783.86	244.19
784.19	244.00
784.51	244.48
784.83	243.81
785.16	243.71
785.48	243.57
785.80	243.86
786.12	244.10
786.45	243.95
786.77	244.52
787.09	244.33
787.42	243.57
787.74	243.71
788.06	243.29
788.38	243.29
788.71	242.90
789.03	242.90
789.35	243.33
789.67	243.00
789.99	243.24
790.32	242.90
790.64	242.86
790.96	245.05
791.28	244.14
791.61	244.24
791.93	244.62
792.25	244.43
792.57	245.81
792.89	245.33
793.21	245.67
793.54	245.24
793.86	245.24
