SpectraSuite Data File
++++++++++++++++++++++++++++++++++++
Date: Wed Nov 07 18:32:55 EST 2012
User: group
Dark Spectrum Present: No
Reference Spectrum Present: No
Number of Sampled Component Spectra: 1
Spectrometers: USB2E7196
Integration Time (usec): 1000000 (USB2E7196)
Spectra Averaged: 1 (USB2E7196)
Boxcar Smoothing: 10 (USB2E7196)
Correct for Electrical Dark: No (USB2E7196)
Strobe/Lamp Enabled: No (USB2E7196)
Correct for Detector Non-linearity: No (USB2E7196)
Correct for Stray Light: No (USB2E7196)
Number of Pixels in Processed Spectrum: 2048
>>>>>Begin Processed Spectral Data<<<<<
339.09	0.00
339.48	220.00
339.86	220.00
340.24	216.00
340.63	225.00
341.01	265.00
341.39	230.00
341.78	232.00
342.16	242.00
342.54	240.00
342.93	224.62
343.31	235.67
343.69	236.29
344.07	237.10
344.46	238.67
344.84	239.38
345.22	237.95
345.60	238.67
345.99	239.10
346.37	239.38
346.75	239.10
347.13	239.33
347.52	239.62
347.90	239.95
348.28	240.24
348.66	240.81
349.05	240.00
349.43	240.57
349.81	240.86
350.19	240.86
350.57	241.19
350.96	241.43
351.34	241.67
351.72	241.86
352.10	241.86
352.48	241.33
352.87	241.14
353.25	241.33
353.63	240.90
354.01	240.76
354.39	240.43
354.77	240.71
355.15	241.00
355.54	240.48
355.92	240.00
356.30	239.86
356.68	241.19
357.06	241.62
357.44	241.05
357.82	241.00
358.20	241.38
358.58	240.90
358.97	240.95
359.35	241.43
359.73	241.81
360.11	242.00
360.49	242.29
360.87	242.19
361.25	242.76
361.63	243.90
362.01	243.76
362.39	243.48
362.77	243.57
363.15	243.71
363.53	243.76
363.91	243.90
364.29	243.71
364.67	241.57
365.05	241.43
365.43	241.52
365.81	241.67
366.19	242.48
366.57	243.57
366.95	243.38
367.33	243.05
367.71	242.86
368.09	243.05
368.47	242.71
368.85	242.62
369.23	242.52
369.61	241.24
369.99	242.19
370.37	242.52
370.75	243.57
371.13	243.05
371.51	242.90
371.89	243.14
372.27	243.57
372.65	243.67
373.03	243.67
373.41	243.71
373.78	243.57
374.16	242.33
374.54	241.62
374.92	241.52
375.30	241.48
375.68	240.90
376.06	240.86
376.44	240.57
376.82	240.86
377.19	240.76
377.57	240.81
377.95	239.76
378.33	239.76
378.71	238.14
379.09	238.29
379.47	238.52
379.84	238.38
380.22	237.76
380.60	237.43
380.98	237.29
381.36	237.43
381.73	237.24
382.11	237.81
382.49	237.81
382.87	237.48
383.25	237.33
383.62	240.33
384.00	239.71
384.38	239.95
384.76	240.43
385.13	241.29
385.51	241.33
385.89	241.29
386.27	241.05
386.64	241.57
387.02	241.24
387.40	241.14
387.78	241.14
388.15	241.24
388.53	240.90
388.91	240.90
389.29	240.62
389.66	241.29
390.04	240.76
390.42	240.95
390.79	241.14
391.17	241.19
391.55	238.48
391.92	238.71
392.30	238.86
392.68	238.43
393.05	238.14
393.43	238.29
393.81	238.48
394.18	238.19
394.56	238.24
394.94	238.81
395.31	238.90
395.69	239.76
396.06	240.43
396.44	240.86
396.82	240.52
397.19	241.62
397.57	241.14
397.95	241.90
398.32	241.43
398.70	241.71
399.07	242.05
399.45	242.29
399.82	242.24
400.20	241.95
400.58	241.86
400.95	241.00
401.33	241.43
401.70	243.38
402.08	243.95
402.45	244.05
402.83	244.81
403.20	244.52
403.58	244.38
403.95	245.05
404.33	245.57
404.71	246.14
405.08	247.71
405.46	248.29
405.83	248.48
406.21	248.90
406.58	249.29
406.96	249.76
407.33	250.57
407.70	251.38
408.08	254.24
408.45	255.24
408.83	256.43
409.20	257.10
409.58	256.29
409.95	257.19
410.33	257.95
410.70	257.95
411.08	259.90
411.45	260.90
411.82	261.33
412.20	263.00
412.57	265.71
412.95	264.81
413.32	266.76
413.69	267.95
414.07	269.95
414.44	271.81
414.82	274.05
415.19	276.14
415.56	278.43
415.94	279.33
416.31	282.00
416.68	284.86
417.06	288.05
417.43	291.71
417.81	295.33
418.18	299.10
418.55	302.71
418.93	306.57
419.30	310.95
419.67	315.71
420.04	320.48
420.42	324.81
420.79	332.48
421.16	338.24
421.54	346.33
421.91	352.57
422.28	358.86
422.66	365.19
423.03	373.52
423.40	380.38
423.77	387.29
424.15	394.38
424.52	402.00
424.89	410.71
425.26	418.62
425.64	426.38
426.01	434.86
426.38	444.48
426.75	453.67
427.13	462.52
427.50	472.10
427.87	482.29
428.24	491.90
428.61	499.67
428.99	510.71
429.36	520.52
429.73	532.00
430.10	544.14
430.47	556.76
430.85	567.90
431.22	581.05
431.59	597.76
431.96	610.90
432.33	625.14
432.70	639.38
433.08	655.71
433.45	671.14
433.82	686.52
434.19	703.62
434.56	720.38
434.93	736.24
435.30	751.43
435.68	768.48
436.05	785.05
436.42	802.29
436.79	818.05
437.16	834.90
437.53	851.67
437.90	868.00
438.27	883.90
438.64	900.33
439.01	916.05
439.38	927.19
439.75	941.38
440.13	956.62
440.50	970.29
440.87	981.14
441.24	993.48
441.61	1006.57
441.98	1015.71
442.35	1026.14
442.72	1036.81
443.09	1049.24
443.46	1054.29
443.83	1058.71
444.20	1060.76
444.57	1063.81
444.94	1063.67
445.31	1065.38
445.68	1070.00
446.05	1069.86
446.42	1066.95
446.79	1064.52
447.16	1061.00
447.53	1058.24
447.90	1050.62
448.27	1043.10
448.64	1034.00
449.01	1026.10
449.37	1013.57
449.74	1001.05
450.11	989.29
450.48	974.76
450.85	957.86
451.22	944.81
451.59	931.05
451.96	919.71
452.33	904.76
452.70	891.29
453.07	874.05
453.43	853.71
453.80	837.52
454.17	821.62
454.54	806.19
454.91	790.19
455.28	774.10
455.65	758.95
456.02	747.86
456.38	735.62
456.75	720.95
457.12	708.00
457.49	695.43
457.86	681.33
458.23	671.86
458.59	661.00
458.96	649.90
459.33	640.38
459.70	630.29
460.07	622.05
460.43	613.00
460.80	605.67
461.17	597.62
461.54	589.57
461.91	582.14
462.27	574.24
462.64	568.29
463.01	561.29
463.38	556.57
463.74	546.14
464.11	539.43
464.48	533.57
464.85	528.24
465.21	525.10
465.58	520.62
465.95	514.10
466.32	509.67
466.68	504.90
467.05	500.57
467.42	496.10
467.78	491.14
468.15	486.95
468.52	483.57
468.88	479.48
469.25	475.76
469.62	473.33
469.98	469.95
470.35	466.52
470.72	463.05
471.08	458.38
471.45	455.52
471.82	453.24
472.18	450.52
472.55	448.29
472.92	444.29
473.28	441.10
473.65	438.57
474.02	435.95
474.38	434.52
474.75	432.48
475.11	430.38
475.48	428.90
475.85	427.10
476.21	424.86
476.58	424.19
476.94	423.14
477.31	421.33
477.67	420.43
478.04	419.29
478.41	418.76
478.77	420.62
479.14	420.10
479.50	419.00
479.87	418.05
480.23	417.90
480.60	418.19
480.96	418.33
481.33	419.81
481.69	420.48
482.06	420.95
482.42	421.76
482.79	422.90
483.15	423.62
483.52	425.43
483.88	426.10
484.25	427.14
484.61	428.48
484.98	429.67
485.34	431.62
485.71	433.52
486.07	435.29
486.44	434.29
486.80	435.29
487.17	436.86
487.53	439.76
487.90	441.95
488.26	444.57
488.62	447.14
488.99	447.95
489.35	449.48
489.72	450.76
490.08	452.67
490.44	454.10
490.81	457.05
491.17	458.86
491.54	461.48
491.90	464.33
492.26	466.14
492.63	468.52
492.99	470.05
493.36	472.33
493.72	475.05
494.08	477.81
494.45	481.29
494.81	485.00
495.17	487.38
495.54	490.86
495.90	493.19
496.26	496.48
496.63	500.48
496.99	504.76
497.35	508.71
497.72	513.43
498.08	517.71
498.44	521.33
498.80	525.33
499.17	529.90
499.53	534.38
499.89	539.57
500.26	544.62
500.62	549.67
500.98	555.19
501.34	559.14
501.71	564.95
502.07	570.00
502.43	574.86
502.79	579.71
503.16	584.33
503.52	590.00
503.88	594.33
504.24	599.62
504.60	604.29
504.97	610.67
505.33	615.86
505.69	621.86
506.05	627.95
506.41	633.67
506.78	638.29
507.14	642.81
507.50	648.10
507.86	653.38
508.22	659.33
508.59	663.81
508.95	670.10
509.31	676.52
509.67	681.81
510.03	686.33
510.39	691.38
510.75	696.43
511.12	700.67
511.48	706.90
511.84	711.48
512.20	716.57
512.56	720.52
512.92	724.48
513.28	729.38
513.64	733.33
514.00	737.86
514.37	742.43
514.73	747.43
515.09	752.05
515.45	755.67
515.81	759.52
516.17	763.67
516.53	767.10
516.89	769.48
517.25	773.62
517.61	779.24
517.97	783.95
518.33	788.05
518.69	792.57
519.05	795.90
519.41	800.43
519.77	805.10
520.13	808.48
520.49	812.48
520.85	815.10
521.21	819.43
521.57	822.48
521.93	826.14
522.29	829.52
522.65	830.90
523.01	833.52
523.37	836.14
523.73	838.86
524.09	841.76
524.45	843.71
524.81	845.43
525.17	847.24
525.53	849.48
525.89	851.10
526.25	852.62
526.61	854.29
526.97	855.43
527.33	856.71
527.68	860.86
528.04	862.33
528.40	863.29
528.76	863.81
529.12	865.76
529.48	867.24
529.84	867.90
530.20	870.33
530.56	872.43
530.91	873.24
531.27	874.24
531.63	875.43
531.99	877.19
532.35	879.10
532.71	879.00
533.07	879.57
533.42	883.90
533.78	884.90
534.14	886.48
534.50	887.05
534.86	889.38
535.21	888.57
535.57	890.24
535.93	891.48
536.29	894.24
536.65	895.57
537.00	897.19
537.36	898.33
537.72	900.05
538.08	902.86
538.44	905.33
538.79	907.38
539.15	910.00
539.51	912.48
539.87	914.67
540.22	917.90
540.58	919.52
540.94	918.52
541.29	921.10
541.65	922.48
542.01	926.19
542.37	925.67
542.72	926.19
543.08	925.71
543.44	926.81
543.79	924.52
544.15	925.05
544.51	925.05
544.87	924.67
545.22	923.19
545.58	920.90
545.94	918.76
546.29	917.33
546.65	915.14
547.01	912.76
547.36	910.14
547.72	907.29
548.07	905.48
548.43	902.95
548.79	899.33
549.14	896.52
549.50	893.19
549.86	889.67
550.21	887.52
550.57	885.86
550.92	883.57
551.28	881.76
551.64	878.57
551.99	875.71
552.35	873.71
552.70	872.05
553.06	869.00
553.41	867.29
553.77	866.43
554.13	864.24
554.48	861.95
554.84	859.90
555.19	857.95
555.55	857.24
555.90	855.00
556.26	854.05
556.61	852.19
556.97	848.52
557.32	847.43
557.68	846.00
558.03	844.00
558.39	842.62
558.74	841.05
559.10	838.67
559.45	837.10
559.81	835.00
560.16	832.71
560.52	832.00
560.87	830.67
561.23	827.76
561.58	827.43
561.94	825.05
562.29	823.76
562.64	822.19
563.00	818.90
563.35	818.00
563.71	815.29
564.06	812.62
564.42	811.19
564.77	808.95
565.12	807.95
565.48	808.67
565.83	807.24
566.19	806.24
566.54	805.29
566.89	803.43
567.25	803.33
567.60	803.48
567.96	804.19
568.31	804.05
568.66	804.38
569.02	801.62
569.37	800.71
569.72	799.67
570.08	797.62
570.43	796.29
570.78	794.10
571.14	792.71
571.49	792.43
571.84	791.29
572.20	790.81
572.55	788.62
572.90	784.81
573.26	782.33
573.61	780.95
573.96	779.19
574.31	777.95
574.67	775.38
575.02	773.14
575.37	769.76
575.72	767.48
576.08	764.95
576.43	763.71
576.78	762.43
577.13	760.38
577.49	759.19
577.84	758.62
578.19	757.05
578.54	756.67
578.90	754.76
579.25	754.19
579.60	752.62
579.95	750.52
580.30	749.19
580.66	748.43
581.01	747.00
581.36	745.67
581.71	744.57
582.06	744.29
582.42	743.19
582.77	741.48
583.12	739.43
583.47	738.52
583.82	736.90
584.17	735.86
584.53	735.48
584.88	734.19
585.23	732.33
585.58	730.52
585.93	728.24
586.28	727.62
586.63	725.57
586.98	724.33
587.34	723.33
587.69	721.43
588.04	718.95
588.39	716.38
588.74	713.71
589.09	711.43
589.44	706.95
589.79	703.95
590.14	701.29
590.49	698.05
590.84	693.62
591.19	691.24
591.54	687.67
591.89	683.81
592.25	683.38
592.60	679.76
592.95	677.81
593.30	675.67
593.65	672.38
594.00	669.05
594.35	671.57
594.70	668.00
595.05	665.29
595.40	662.33
595.75	659.29
596.10	657.00
596.45	653.67
596.80	652.10
597.15	649.14
597.50	646.05
597.85	644.24
598.19	642.19
598.54	639.19
598.89	636.86
599.24	633.95
599.59	628.76
599.94	626.33
600.29	623.38
600.64	620.00
600.99	617.86
601.34	615.86
601.69	607.29
602.04	604.62
602.39	602.24
602.74	600.43
603.08	597.81
603.43	596.52
603.78	594.62
604.13	592.24
604.48	589.76
604.83	589.05
605.18	588.29
605.53	588.48
605.87	590.10
606.22	592.76
606.57	597.24
606.92	601.86
607.27	606.95
607.62	612.24
607.96	617.95
608.31	621.14
608.66	624.67
609.01	628.52
609.36	632.19
609.70	635.76
610.05	638.38
610.40	641.76
610.75	643.29
611.10	645.14
611.44	647.14
611.79	648.19
612.14	647.95
612.49	646.67
612.83	644.24
613.18	640.57
613.53	635.10
613.88	628.19
614.22	620.24
614.57	612.19
614.92	603.81
615.27	595.48
615.61	588.24
615.96	581.19
616.31	573.33
616.65	567.43
617.00	560.62
617.35	554.05
617.70	547.86
618.04	542.29
618.39	536.48
618.74	531.62
619.08	527.48
619.43	523.43
619.78	519.14
620.12	515.71
620.47	512.71
620.82	509.62
621.16	506.14
621.51	505.33
621.85	502.62
622.20	500.62
622.55	498.29
622.89	496.48
623.24	494.29
623.59	492.86
623.93	490.48
624.28	488.00
624.62	488.33
624.97	487.48
625.32	485.14
625.66	484.00
626.01	481.57
626.35	480.29
626.70	478.52
627.04	477.95
627.39	475.95
627.73	474.52
628.08	473.10
628.43	471.48
628.77	468.24
629.12	465.86
629.46	463.48
629.81	461.24
630.15	458.71
630.50	456.86
630.84	455.38
631.19	452.76
631.53	450.67
631.88	446.00
632.22	442.33
632.57	440.48
632.91	437.90
633.26	435.62
633.60	432.95
633.95	430.33
634.29	426.90
634.64	425.10
634.98	421.67
635.32	419.33
635.67	417.48
636.01	415.43
636.36	414.10
636.70	412.67
637.05	411.19
637.39	409.24
637.73	407.43
638.08	405.43
638.42	403.76
638.77	402.48
639.11	401.43
639.45	399.95
639.80	398.10
640.14	396.62
640.49	394.90
640.83	393.19
641.17	392.33
641.52	390.90
641.86	389.76
642.20	389.48
642.55	388.05
642.89	387.14
643.23	385.95
643.58	385.62
643.92	383.71
644.26	382.10
644.61	381.81
644.95	380.71
645.29	379.57
645.64	379.43
645.98	378.24
646.32	377.52
646.66	376.81
647.01	376.29
647.35	375.76
647.69	375.71
648.04	375.14
648.38	374.10
648.72	373.33
649.06	371.76
649.41	370.48
649.75	369.48
650.09	368.14
650.43	366.86
650.78	365.00
651.12	364.00
651.46	363.14
651.80	361.38
652.14	360.14
652.49	359.33
652.83	357.48
653.17	356.43
653.51	354.57
653.85	353.71
654.20	352.33
654.54	350.86
654.88	349.10
655.22	347.67
655.56	346.57
655.90	344.90
656.25	344.19
656.59	343.33
656.93	342.19
657.27	342.24
657.61	341.57
657.95	340.76
658.29	340.19
658.64	339.81
658.98	339.24
659.32	338.00
659.66	337.10
660.00	336.48
660.34	335.52
660.68	335.05
661.02	334.00
661.36	333.10
661.70	332.24
662.05	331.43
662.39	331.43
662.73	331.14
663.07	332.48
663.41	332.14
663.75	331.19
664.09	331.00
664.43	329.29
664.77	328.57
665.11	327.71
665.45	326.95
665.79	326.29
666.13	325.29
666.47	324.62
666.81	323.90
667.15	322.62
667.49	322.29
667.83	322.24
668.17	321.48
668.51	320.86
668.85	320.19
669.19	320.62
669.53	319.05
669.87	318.10
670.21	316.67
670.55	315.95
670.89	316.52
671.23	316.14
671.57	315.57
671.91	314.90
672.25	314.24
672.58	314.81
672.92	313.57
673.26	313.38
673.60	313.05
673.94	312.57
674.28	312.24
674.62	311.90
674.96	310.81
675.30	310.52
675.64	309.76
675.97	309.24
676.31	307.67
676.65	307.19
676.99	307.24
677.33	305.57
677.67	304.67
678.01	302.62
678.34	301.76
678.68	302.19
679.02	301.33
679.36	300.95
679.70	299.14
680.04	299.10
680.37	298.38
680.71	298.05
681.05	297.14
681.39	297.10
681.73	296.14
682.06	295.71
682.40	295.00
682.74	294.76
683.08	295.57
683.42	295.38
683.75	295.67
684.09	294.81
684.43	295.05
684.77	294.76
685.10	294.81
685.44	294.71
685.78	293.95
686.12	293.76
686.45	293.48
686.79	293.14
687.13	292.86
687.46	292.52
687.80	292.57
688.14	292.38
688.48	291.90
688.81	291.71
689.15	291.86
689.49	291.90
689.82	291.76
690.16	290.24
690.50	289.86
690.83	289.14
691.17	288.48
691.51	288.00
691.84	288.00
692.18	287.19
692.52	285.95
692.85	285.62
693.19	286.38
693.52	285.67
693.86	285.19
694.20	284.43
694.53	284.10
694.87	283.62
695.21	282.62
695.54	282.43
695.88	281.71
696.21	280.52
696.55	279.33
696.88	279.00
697.22	278.52
697.56	278.43
697.89	277.81
698.23	277.95
698.56	277.76
698.90	277.52
699.23	277.62
699.57	278.00
699.90	277.19
700.24	276.14
700.58	276.38
700.91	276.62
701.25	278.76
701.58	279.14
701.92	279.48
702.25	280.19
702.59	280.19
702.92	280.43
703.26	281.33
703.59	282.10
703.93	284.33
704.26	284.81
704.60	284.95
704.93	285.57
705.26	285.33
705.60	286.19
705.93	285.86
706.27	286.76
706.60	287.76
706.94	289.48
707.27	289.71
707.61	289.76
707.94	289.95
708.27	288.29
708.61	287.52
708.94	286.95
709.28	286.86
709.61	286.29
709.94	286.10
710.28	285.52
710.61	285.05
710.95	282.00
711.28	282.95
711.61	282.00
711.95	281.62
712.28	280.90
712.61	279.67
712.95	280.38
713.28	280.05
713.61	278.62
713.95	276.76
714.28	275.71
714.61	274.57
714.95	273.48
715.28	272.24
715.61	271.43
715.95	271.10
716.28	269.90
716.61	269.67
716.95	269.05
717.28	268.38
717.61	267.76
717.94	267.71
718.28	265.33
718.61	264.86
718.94	264.10
719.27	263.57
719.61	263.29
719.94	262.43
720.27	260.90
720.60	260.86
720.94	260.62
721.27	261.10
721.60	262.05
721.93	261.95
722.27	262.76
722.60	263.29
722.93	262.38
723.26	262.71
723.59	262.33
723.93	262.48
724.26	262.57
724.59	262.24
724.92	262.10
725.25	262.76
725.59	263.00
725.92	262.76
726.25	262.67
726.58	262.81
726.91	262.38
727.24	262.67
727.57	262.05
727.91	261.43
728.24	261.19
728.57	260.38
728.90	260.48
729.23	259.67
729.56	260.38
729.89	260.67
730.22	260.33
730.55	260.29
730.89	260.10
731.22	260.14
731.55	260.33
731.88	260.43
732.21	259.86
732.54	259.57
732.87	259.48
733.20	259.52
733.53	258.86
733.86	258.76
734.19	258.57
734.52	259.00
734.85	260.38
735.18	259.86
735.51	260.52
735.84	260.76
736.17	261.10
736.50	259.62
736.83	262.71
737.16	262.90
737.49	262.90
737.82	262.86
738.15	262.67
738.48	262.71
738.81	262.29
739.14	261.95
739.47	261.90
739.80	261.95
740.13	261.90
740.46	262.00
740.79	261.57
741.12	261.57
741.45	260.86
741.78	259.90
742.11	260.33
742.44	259.29
742.77	259.24
743.10	258.95
743.43	258.95
743.75	255.62
744.08	258.38
744.41	257.90
744.74	257.48
745.07	256.86
745.40	257.00
745.73	257.90
746.06	258.05
746.39	258.33
746.71	258.10
747.04	257.52
747.37	257.38
747.70	257.48
748.03	257.52
748.36	258.19
748.68	257.67
749.01	257.05
749.34	257.00
749.67	256.95
750.00	257.14
750.33	258.81
750.65	258.95
750.98	255.86
751.31	256.19
751.64	256.33
751.97	257.52
752.29	257.19
752.62	255.71
752.95	255.43
753.28	254.90
753.60	254.95
753.93	255.81
754.26	255.71
754.59	255.33
754.91	254.86
755.24	254.29
755.57	254.00
755.90	254.10
756.22	254.05
756.55	253.48
756.88	252.67
757.20	250.86
757.53	250.33
757.86	250.62
758.19	250.48
758.51	250.48
758.84	249.43
759.17	248.95
759.49	249.29
759.82	250.52
760.15	250.48
760.47	250.24
760.80	249.43
761.13	249.57
761.45	249.57
761.78	249.24
762.11	249.48
762.43	249.57
762.76	249.00
763.08	249.24
763.41	249.62
763.74	249.86
764.06	249.90
764.39	249.67
764.71	248.76
765.04	248.48
765.37	248.00
765.69	247.90
766.02	247.95
766.34	247.90
766.67	246.76
767.00	247.19
767.32	248.43
767.65	249.90
767.97	249.86
768.30	249.81
768.62	250.05
768.95	249.67
769.27	249.57
769.60	250.19
769.92	249.67
770.25	249.29
770.57	248.95
770.90	249.05
771.22	249.10
771.55	249.05
771.87	249.14
772.20	248.90
772.52	251.00
772.85	253.71
773.17	253.81
773.50	254.00
773.82	253.48
774.15	252.10
774.47	250.62
774.80	250.10
775.12	250.05
775.45	250.10
775.77	250.19
776.09	250.38
776.42	250.14
776.74	250.76
777.07	250.14
777.39	250.05
777.72	249.52
778.04	249.81
778.36	250.00
778.69	250.00
779.01	250.19
779.33	247.81
779.66	245.00
779.98	244.71
780.31	244.38
780.63	245.52
780.95	245.86
781.28	245.62
781.60	245.95
781.92	246.05
782.25	245.81
782.57	245.67
782.89	245.19
783.22	245.10
783.54	244.57
783.86	244.90
784.19	244.43
784.51	245.52
784.83	245.05
785.16	244.86
785.48	244.67
785.80	244.81
786.12	244.86
786.45	244.90
786.77	245.19
787.09	245.10
787.42	243.95
787.74	244.10
788.06	244.43
788.38	244.24
788.71	243.86
789.03	243.86
789.35	244.05
789.67	243.86
789.99	244.33
790.32	243.76
790.64	244.05
790.96	246.38
791.28	245.38
791.61	245.29
791.93	245.62
792.25	245.48
792.57	247.19
792.89	246.81
793.21	246.81
793.54	246.76
793.86	246.38
