SpectraSuite Data File
++++++++++++++++++++++++++++++++++++
Date: Wed Nov 07 18:31:52 EST 2012
User: group
Dark Spectrum Present: No
Reference Spectrum Present: No
Number of Sampled Component Spectra: 1
Spectrometers: USB2E7196
Integration Time (usec): 1000000 (USB2E7196)
Spectra Averaged: 1 (USB2E7196)
Boxcar Smoothing: 10 (USB2E7196)
Correct for Electrical Dark: No (USB2E7196)
Strobe/Lamp Enabled: No (USB2E7196)
Correct for Detector Non-linearity: No (USB2E7196)
Correct for Stray Light: No (USB2E7196)
Number of Pixels in Processed Spectrum: 2048
>>>>>Begin Processed Spectral Data<<<<<
339.09	0.00
339.48	218.00
339.86	223.00
340.24	223.00
340.63	224.00
341.01	265.00
341.39	232.00
341.78	232.00
342.16	240.00
342.54	230.00
342.93	223.71
343.31	234.86
343.69	235.48
344.07	235.95
344.46	236.81
344.84	237.29
345.22	235.57
345.60	235.86
345.99	236.24
346.37	236.14
346.75	236.19
347.13	236.00
347.52	236.19
347.90	237.05
348.28	237.19
348.66	237.81
349.05	237.00
349.43	237.52
349.81	237.52
350.19	237.14
350.57	237.24
350.96	237.10
351.34	237.10
351.72	237.29
352.10	237.24
352.48	236.90
352.87	237.00
353.25	237.24
353.63	237.00
354.01	236.71
354.39	236.52
354.77	236.38
355.15	237.05
355.54	236.76
355.92	235.81
356.30	235.71
356.68	236.81
357.06	237.05
357.44	236.67
357.82	236.90
358.20	237.38
358.58	237.52
358.97	237.76
359.35	238.33
359.73	238.81
360.11	238.81
360.49	238.76
360.87	238.86
361.25	239.05
361.63	240.00
362.01	240.48
362.39	240.52
362.77	241.05
363.15	241.14
363.53	241.29
363.91	242.05
364.29	241.90
364.67	239.71
365.05	239.67
365.43	240.10
365.81	240.52
366.19	241.71
366.57	242.62
366.95	242.43
367.33	241.76
367.71	242.00
368.09	242.76
368.47	243.00
368.85	242.57
369.23	243.33
369.61	242.62
369.99	243.29
370.37	243.62
370.75	245.05
371.13	244.43
371.51	244.62
371.89	244.67
372.27	245.29
372.65	245.95
373.03	246.33
373.41	246.29
373.78	245.81
374.16	244.71
374.54	243.76
374.92	243.52
375.30	243.86
375.68	243.00
376.06	242.95
376.44	242.86
376.82	243.24
377.19	242.95
377.57	242.67
377.95	241.71
378.33	241.48
378.71	239.86
379.09	240.24
379.47	240.19
379.84	239.81
380.22	239.14
380.60	238.43
380.98	238.38
381.36	238.19
381.73	237.95
382.11	238.43
382.49	238.76
382.87	238.67
383.25	239.05
383.62	242.14
384.00	241.95
384.38	241.81
384.76	242.19
385.13	243.24
385.51	243.67
385.89	243.29
386.27	243.43
386.64	243.62
387.02	243.71
387.40	243.52
387.78	243.62
388.15	243.81
388.53	243.95
388.91	243.90
389.29	243.95
389.66	244.48
390.04	243.95
390.42	244.10
390.79	244.43
391.17	244.10
391.55	241.24
391.92	240.67
392.30	241.24
392.68	240.86
393.05	240.57
393.43	240.62
393.81	240.67
394.18	240.29
394.56	240.86
394.94	241.05
395.31	240.90
395.69	242.10
396.06	242.10
396.44	242.29
396.82	242.33
397.19	243.48
397.57	243.33
397.95	244.10
398.32	243.76
398.70	244.14
399.07	244.86
399.45	245.05
399.82	245.52
400.20	245.14
400.58	245.19
400.95	244.38
401.33	245.00
401.70	247.19
402.08	247.57
402.45	247.24
402.83	247.57
403.20	247.62
403.58	247.10
403.95	248.10
404.33	248.57
404.71	248.95
405.08	250.67
405.46	250.95
405.83	251.14
406.21	251.33
406.58	251.86
406.96	252.05
407.33	252.38
407.70	253.19
408.08	255.67
408.45	257.00
408.83	257.90
409.20	258.00
409.58	257.24
409.95	258.43
410.33	259.48
410.70	260.05
411.08	261.81
411.45	262.90
411.82	263.67
412.20	265.62
412.57	268.10
412.95	267.14
413.32	268.90
413.69	270.33
414.07	272.29
414.44	273.71
414.82	275.76
415.19	278.14
415.56	280.29
415.94	281.14
416.31	283.76
416.68	286.62
417.06	290.10
417.43	293.86
417.81	297.38
418.18	301.10
418.55	304.71
418.93	309.00
419.30	313.38
419.67	318.38
420.04	322.24
420.42	326.52
420.79	334.43
421.16	339.81
421.54	346.81
421.91	352.76
422.28	358.90
422.66	365.38
423.03	373.57
423.40	380.05
423.77	387.81
424.15	395.43
424.52	403.14
424.89	411.52
425.26	418.86
425.64	426.62
426.01	435.29
426.38	443.95
426.75	452.90
427.13	461.62
427.50	470.71
427.87	480.81
428.24	490.86
428.61	498.29
428.99	510.00
429.36	520.19
429.73	531.52
430.10	543.38
430.47	555.48
430.85	566.62
431.22	579.81
431.59	594.90
431.96	607.76
432.33	622.05
432.70	636.38
433.08	652.67
433.45	667.81
433.82	683.33
434.19	700.14
434.56	716.14
434.93	732.10
435.30	747.38
435.68	764.38
436.05	780.62
436.42	797.76
436.79	812.76
437.16	829.52
437.53	846.33
437.90	863.43
438.27	879.71
438.64	896.95
439.01	912.76
439.38	923.95
439.75	937.05
440.13	952.57
440.50	965.62
440.87	977.29
441.24	988.71
441.61	1001.43
441.98	1010.90
442.35	1021.86
442.72	1032.19
443.09	1043.29
443.46	1049.19
443.83	1053.29
444.20	1056.10
444.57	1060.29
444.94	1061.48
445.31	1063.81
445.68	1068.10
446.05	1068.29
446.42	1064.71
446.79	1062.33
447.16	1060.14
447.53	1057.19
447.90	1048.76
448.27	1041.67
448.64	1031.90
449.01	1025.05
449.37	1012.14
449.74	1000.52
450.11	989.05
450.48	974.05
450.85	958.67
451.22	945.62
451.59	933.43
451.96	920.71
452.33	904.95
452.70	890.43
453.07	873.14
453.43	853.00
453.80	837.05
454.17	821.52
454.54	805.95
454.91	789.76
455.28	774.48
455.65	760.43
456.02	750.43
456.38	737.43
456.75	722.43
457.12	709.76
457.49	697.43
457.86	683.19
458.23	674.14
458.59	662.52
458.96	651.57
459.33	640.52
459.70	631.14
460.07	623.71
460.43	614.62
460.80	607.00
461.17	599.33
461.54	591.24
461.91	583.43
462.27	575.90
462.64	568.95
463.01	562.24
463.38	556.48
463.74	545.14
464.11	539.33
464.48	534.33
464.85	528.86
465.21	525.48
465.58	521.00
465.95	514.76
466.32	510.81
466.68	505.48
467.05	501.57
467.42	497.57
467.78	492.10
468.15	488.33
468.52	484.33
468.88	479.57
469.25	475.19
469.62	472.38
469.98	468.38
470.35	465.33
470.72	461.76
471.08	457.05
471.45	454.95
471.82	452.76
472.18	449.00
472.55	446.71
472.92	442.52
473.28	439.62
473.65	436.76
474.02	433.95
474.38	432.71
474.75	431.05
475.11	428.52
475.48	427.24
475.85	425.48
476.21	423.95
476.58	423.62
476.94	422.43
477.31	421.14
477.67	420.48
478.04	419.67
478.41	418.81
478.77	420.90
479.14	419.57
479.50	418.95
479.87	418.81
480.23	418.76
480.60	418.14
480.96	417.90
481.33	419.71
481.69	419.62
482.06	419.62
482.42	420.48
482.79	420.71
483.15	421.90
483.52	423.48
483.88	423.95
484.25	424.57
484.61	425.48
484.98	426.19
485.34	428.76
485.71	430.81
486.07	432.10
486.44	430.95
486.80	432.43
487.17	433.86
487.53	436.38
487.90	438.52
488.26	442.38
488.62	444.81
488.99	445.67
489.35	448.00
489.72	450.14
490.08	451.52
490.44	453.67
490.81	455.71
491.17	456.76
491.54	459.52
491.90	462.57
492.26	464.52
492.63	467.29
492.99	468.57
493.36	470.71
493.72	474.24
494.08	477.24
494.45	480.62
494.81	484.48
495.17	487.52
495.54	491.48
495.90	493.71
496.26	497.48
496.63	501.29
496.99	504.95
497.35	508.62
497.72	512.43
498.08	516.38
498.44	520.48
498.80	525.05
499.17	529.38
499.53	532.81
499.89	538.14
500.26	542.95
500.62	548.43
500.98	553.90
501.34	558.57
501.71	564.00
502.07	569.05
502.43	572.86
502.79	576.81
503.16	581.10
503.52	586.19
503.88	590.95
504.24	596.71
504.60	602.48
504.97	608.00
505.33	613.38
505.69	619.90
506.05	624.95
506.41	630.76
506.78	635.52
507.14	641.29
507.50	646.71
507.86	652.10
508.22	656.95
508.59	661.90
508.95	667.57
509.31	673.71
509.67	678.62
510.03	683.86
510.39	689.57
510.75	694.76
511.12	700.00
511.48	704.71
511.84	709.19
512.20	714.00
512.56	719.10
512.92	723.67
513.28	727.86
513.64	732.19
514.00	736.43
514.37	741.00
514.73	745.33
515.09	749.95
515.45	754.00
515.81	757.76
516.17	761.81
516.53	765.14
516.89	767.52
517.25	771.38
517.61	776.43
517.97	780.38
518.33	784.48
518.69	788.29
519.05	792.62
519.41	796.10
519.77	801.10
520.13	804.19
520.49	807.43
520.85	811.10
521.21	815.38
521.57	818.95
521.93	821.86
522.29	825.33
522.65	827.57
523.01	829.86
523.37	831.71
523.73	834.00
524.09	836.19
524.45	838.90
524.81	840.67
525.17	842.43
525.53	844.71
525.89	845.52
526.25	847.62
526.61	848.33
526.97	850.24
527.33	850.71
527.68	854.29
528.04	855.86
528.40	856.62
528.76	857.10
529.12	857.90
529.48	860.10
529.84	860.00
530.20	861.10
530.56	862.71
530.91	865.05
531.27	866.29
531.63	868.00
531.99	868.95
532.35	871.14
532.71	872.14
533.07	872.05
533.42	876.29
533.78	875.67
534.14	877.10
534.50	877.10
534.86	878.00
535.21	877.05
535.57	879.14
535.93	880.10
536.29	883.24
536.65	885.52
537.00	886.86
537.36	889.10
537.72	891.10
538.08	894.19
538.44	895.14
538.79	897.86
539.15	899.57
539.51	901.62
539.87	903.29
540.22	905.29
540.58	908.00
540.94	908.00
541.29	911.43
541.65	913.05
542.01	916.62
542.37	918.43
542.72	920.14
543.08	919.81
543.44	920.33
543.79	917.71
544.15	917.48
544.51	917.00
544.87	916.90
545.22	915.90
545.58	913.67
545.94	912.33
546.29	910.19
546.65	907.86
547.01	904.81
547.36	902.10
547.72	899.33
548.07	896.52
548.43	892.57
548.79	888.29
549.14	885.52
549.50	882.29
549.86	878.52
550.21	874.81
550.57	872.10
550.92	869.05
551.28	867.76
551.64	865.19
551.99	862.52
552.35	858.81
552.70	856.71
553.06	854.57
553.41	852.19
553.77	850.43
554.13	848.24
554.48	847.52
554.84	846.57
555.19	844.76
555.55	844.90
555.90	844.19
556.26	842.86
556.61	840.81
556.97	837.29
557.32	835.33
557.68	833.86
558.03	832.76
558.39	831.10
558.74	829.14
559.10	826.29
559.45	824.86
559.81	823.10
560.16	820.57
560.52	818.62
560.87	817.86
561.23	815.95
561.58	816.76
561.94	814.38
562.29	811.43
562.64	809.67
563.00	805.86
563.35	803.48
563.71	802.10
564.06	800.71
564.42	799.29
564.77	797.86
565.12	796.81
565.48	797.52
565.83	796.76
566.19	794.67
566.54	793.71
566.89	791.95
567.25	792.24
567.60	792.76
567.96	794.10
568.31	793.90
568.66	793.05
569.02	789.62
569.37	788.71
569.72	788.62
570.08	787.52
570.43	786.52
570.78	785.19
571.14	783.95
571.49	782.90
571.84	781.52
572.20	780.43
572.55	778.52
572.90	774.57
573.26	772.57
573.61	771.90
573.96	771.10
574.31	770.71
574.67	768.95
575.02	766.43
575.37	762.71
575.72	760.14
576.08	757.81
576.43	756.71
576.78	754.76
577.13	753.14
577.49	751.38
577.84	750.24
578.19	748.95
578.54	748.19
578.90	747.00
579.25	746.14
579.60	745.33
579.95	744.19
580.30	743.62
580.66	742.62
581.01	741.43
581.36	739.86
581.71	737.71
582.06	737.48
582.42	736.05
582.77	734.62
583.12	733.24
583.47	732.19
583.82	731.00
584.17	730.76
584.53	730.00
584.88	728.43
585.23	727.57
585.58	725.95
585.93	723.24
586.28	720.76
586.63	719.10
586.98	716.10
587.34	714.10
587.69	711.05
588.04	708.57
588.39	706.19
588.74	703.00
589.09	700.86
589.44	696.48
589.79	693.95
590.14	690.95
590.49	687.38
590.84	684.10
591.19	681.48
591.54	677.62
591.89	673.29
592.25	672.48
592.60	668.29
592.95	664.95
593.30	662.90
593.65	659.90
594.00	656.19
594.35	660.10
594.70	656.14
595.05	653.76
595.40	650.86
595.75	647.67
596.10	645.29
596.45	642.05
596.80	639.52
597.15	636.33
597.50	633.24
597.85	632.00
598.19	629.57
598.54	626.14
598.89	623.29
599.24	621.33
599.59	616.71
599.94	614.43
600.29	611.71
600.64	608.90
600.99	607.52
601.34	606.24
601.69	597.57
602.04	595.90
602.39	593.24
602.74	591.29
603.08	589.33
603.43	588.00
603.78	586.71
604.13	584.86
604.48	583.33
604.83	582.38
605.18	580.48
605.53	581.48
605.87	583.29
606.22	586.57
606.57	590.90
606.92	596.19
607.27	601.67
607.62	608.38
607.96	613.43
608.31	617.10
608.66	621.33
609.01	625.10
609.36	628.57
609.70	632.62
610.05	636.10
610.40	638.62
610.75	640.29
611.10	641.33
611.44	642.62
611.79	643.00
612.14	643.24
612.49	642.67
612.83	639.33
613.18	635.00
613.53	629.48
613.88	622.10
614.22	613.90
614.57	605.52
614.92	595.24
615.27	587.71
615.61	580.33
615.96	572.71
616.31	565.38
616.65	559.05
617.00	552.00
617.35	545.38
617.70	539.43
618.04	534.05
618.39	529.14
618.74	524.95
619.08	520.48
619.43	516.57
619.78	512.90
620.12	509.81
620.47	506.90
620.82	504.19
621.16	501.14
621.51	500.14
621.85	497.86
622.20	496.67
622.55	493.48
622.89	490.76
623.24	488.57
623.59	486.48
623.93	484.86
624.28	482.57
624.62	482.52
624.97	481.86
625.32	479.24
625.66	477.29
626.01	475.10
626.35	473.90
626.70	472.10
627.04	470.81
627.39	468.86
627.73	468.90
628.08	467.24
628.43	465.19
628.77	461.48
629.12	459.38
629.46	457.71
629.81	455.71
630.15	453.67
630.50	451.48
630.84	449.76
631.19	447.48
631.53	445.62
631.88	441.57
632.22	437.90
632.57	437.10
632.91	435.10
633.26	432.95
633.60	430.67
633.95	428.14
634.29	425.14
634.64	423.05
634.98	418.86
635.32	416.95
635.67	415.38
636.01	414.19
636.36	412.24
636.70	410.14
637.05	408.48
637.39	406.81
637.73	405.48
638.08	403.86
638.42	401.81
638.77	400.10
639.11	398.05
639.45	396.48
639.80	393.86
640.14	392.10
640.49	390.24
640.83	388.57
641.17	387.57
641.52	386.29
641.86	385.24
642.20	385.33
642.55	383.81
642.89	382.43
643.23	381.00
643.58	380.57
643.92	379.48
644.26	378.38
644.61	377.86
644.95	376.52
645.29	375.29
645.64	375.19
645.98	374.00
646.32	374.00
646.66	373.29
647.01	372.48
647.35	372.14
647.69	372.14
648.04	371.29
648.38	370.10
648.72	369.43
649.06	368.14
649.41	366.19
649.75	364.86
650.09	364.24
650.43	363.00
650.78	361.33
651.12	359.81
651.46	358.81
651.80	357.76
652.14	356.38
652.49	355.86
652.83	353.86
653.17	353.00
653.51	351.33
653.85	350.67
654.20	349.90
654.54	348.05
654.88	345.81
655.22	344.76
655.56	343.19
655.90	341.81
656.25	340.71
656.59	339.90
656.93	339.10
657.27	338.57
657.61	337.95
657.95	337.24
658.29	336.81
658.64	336.81
658.98	335.86
659.32	335.52
659.66	334.29
660.00	334.00
660.34	333.48
660.68	332.90
661.02	332.10
661.36	331.24
661.70	330.71
662.05	330.62
662.39	331.33
662.73	332.10
663.07	332.95
663.41	332.76
663.75	331.90
664.09	331.71
664.43	330.52
664.77	329.71
665.11	328.62
665.45	328.24
665.79	327.62
666.13	326.57
666.47	325.38
666.81	325.24
667.15	323.95
667.49	323.10
667.83	323.00
668.17	322.14
668.51	321.14
668.85	320.86
669.19	321.19
669.53	319.24
669.87	317.81
670.21	316.14
670.55	315.33
670.89	316.33
671.23	315.29
671.57	314.81
671.91	314.14
672.25	314.05
672.58	314.29
672.92	312.62
673.26	312.29
673.60	311.76
673.94	310.52
674.28	310.43
674.62	310.52
674.96	309.38
675.30	308.95
675.64	308.76
675.97	308.10
676.31	306.57
676.65	306.00
676.99	306.14
677.33	305.19
677.67	304.71
678.01	302.76
678.34	302.71
678.68	302.81
679.02	302.05
679.36	300.95
679.70	299.43
680.04	299.24
680.37	298.90
680.71	298.38
681.05	298.14
681.39	297.43
681.73	296.81
682.06	296.48
682.40	296.00
682.74	295.76
683.08	296.86
683.42	296.38
683.75	296.52
684.09	295.76
684.43	295.71
684.77	295.43
685.10	294.95
685.44	294.62
685.78	293.95
686.12	293.52
686.45	293.29
686.79	292.48
687.13	292.57
687.46	291.95
687.80	292.52
688.14	292.10
688.48	292.00
688.81	291.76
689.15	291.90
689.49	291.67
689.82	290.86
690.16	288.90
690.50	288.52
690.83	287.67
691.17	286.90
691.51	286.38
691.84	286.19
692.18	285.24
692.52	284.24
692.85	283.86
693.19	284.57
693.52	284.19
693.86	284.14
694.20	283.67
694.53	283.43
694.87	282.38
695.21	281.57
695.54	281.05
695.88	280.38
696.21	279.14
696.55	278.52
696.88	278.29
697.22	277.52
697.56	277.33
697.89	276.67
698.23	276.62
698.56	276.24
698.90	275.90
699.23	276.05
699.57	276.14
699.90	275.24
700.24	274.33
700.58	274.71
700.91	274.81
701.25	277.38
701.58	278.19
701.92	278.86
702.25	279.38
702.59	279.33
702.92	279.67
703.26	280.38
703.59	281.38
703.93	283.71
704.26	285.05
704.60	285.71
704.93	286.10
705.26	286.48
705.60	287.33
705.93	287.29
706.27	288.57
706.60	289.71
706.94	291.52
707.27	291.71
707.61	291.76
707.94	291.86
708.27	289.67
708.61	289.00
708.94	288.81
709.28	288.86
709.61	288.76
709.94	288.38
710.28	287.90
710.61	286.90
710.95	284.76
711.28	285.19
711.61	284.38
711.95	284.14
712.28	283.10
712.61	282.10
712.95	282.76
713.28	283.24
713.61	281.76
713.95	280.10
714.28	279.38
714.61	278.95
714.95	278.00
715.28	276.81
715.61	276.19
715.95	276.10
716.28	275.29
716.61	275.52
716.95	274.62
717.28	274.19
717.61	273.71
717.94	273.05
718.28	271.05
718.61	270.62
718.94	270.14
719.27	269.71
719.61	269.71
719.94	268.38
720.27	266.57
720.60	266.19
720.94	266.00
721.27	265.90
721.60	265.48
721.93	265.43
722.27	266.10
722.60	266.19
722.93	265.24
723.26	265.38
723.59	264.19
723.93	264.43
724.26	264.05
724.59	263.76
724.92	263.71
725.25	263.95
725.59	263.57
725.92	263.95
726.25	263.81
726.58	263.71
726.91	263.67
727.24	263.62
727.57	263.57
727.91	263.38
728.24	263.52
728.57	262.86
728.90	263.00
729.23	261.90
729.56	262.62
729.89	262.33
730.22	261.86
730.55	261.71
730.89	261.43
731.22	261.29
731.55	260.86
731.88	260.86
732.21	260.43
732.54	260.24
732.87	259.52
733.20	259.29
733.53	259.05
733.86	259.05
734.19	258.48
734.52	258.24
734.85	259.52
735.18	259.00
735.51	260.24
735.84	259.95
736.17	260.43
736.50	259.10
736.83	261.90
737.16	261.71
737.49	261.62
737.82	261.33
738.15	261.90
738.48	262.19
738.81	261.76
739.14	261.29
739.47	260.90
739.80	261.14
740.13	261.57
740.46	261.05
740.79	260.33
741.12	260.38
741.45	260.38
741.78	259.00
742.11	259.62
742.44	258.48
742.77	258.71
743.10	258.57
743.43	258.29
743.75	255.81
744.08	258.71
744.41	258.67
744.74	258.57
745.07	257.67
745.40	257.57
745.73	258.67
746.06	258.67
746.39	258.95
746.71	258.71
747.04	258.38
747.37	258.14
747.70	258.62
748.03	258.71
748.36	258.81
748.68	258.57
749.01	257.76
749.34	257.90
749.67	257.62
750.00	257.62
750.33	259.38
750.65	259.19
750.98	256.38
751.31	256.52
751.64	256.67
751.97	257.76
752.29	257.95
752.62	256.71
752.95	256.71
753.28	256.76
753.60	256.24
753.93	257.14
754.26	257.43
754.59	256.48
754.91	256.14
755.24	256.00
755.57	255.67
755.90	255.76
756.22	255.57
756.55	255.38
756.88	254.76
757.20	253.00
757.53	252.38
757.86	252.24
758.19	251.95
758.51	251.71
758.84	250.48
759.17	249.86
759.49	249.90
759.82	251.14
760.15	251.00
760.47	251.43
760.80	250.43
761.13	250.76
761.45	251.14
761.78	250.90
762.11	250.86
762.43	251.10
762.76	250.90
763.08	251.00
763.41	251.05
763.74	251.10
764.06	251.33
764.39	251.52
764.71	251.29
765.04	251.19
765.37	251.05
765.69	251.19
766.02	251.38
766.34	251.33
766.67	250.43
767.00	250.95
767.32	251.95
767.65	253.48
767.97	253.33
768.30	253.48
768.62	253.76
768.95	253.38
769.27	252.90
769.60	253.14
769.92	252.62
770.25	252.00
770.57	251.67
770.90	251.24
771.22	250.95
771.55	251.05
771.87	251.10
772.20	250.48
772.52	252.52
772.85	255.29
773.17	255.05
773.50	254.76
773.82	254.29
774.15	252.90
774.47	250.86
774.80	250.33
775.12	250.00
775.45	249.76
775.77	249.95
776.09	249.95
776.42	249.76
776.74	250.24
777.07	250.33
777.39	250.52
777.72	250.24
778.04	250.19
778.36	249.86
778.69	249.43
779.01	249.76
779.33	247.29
779.66	244.43
779.98	244.10
780.31	243.76
780.63	244.57
780.95	244.71
781.28	244.86
781.60	244.52
781.92	244.14
782.25	243.95
782.57	243.52
782.89	243.62
783.22	243.14
783.54	242.90
783.86	242.81
784.19	242.52
784.51	243.19
784.83	243.05
785.16	243.00
785.48	243.00
785.80	242.90
786.12	243.10
786.45	243.00
786.77	243.14
787.09	243.05
787.42	242.05
787.74	241.95
788.06	242.00
788.38	241.86
788.71	242.10
789.03	242.29
789.35	242.81
789.67	242.43
789.99	242.48
790.32	241.86
790.64	242.24
790.96	244.00
791.28	243.24
791.61	243.14
791.93	243.48
792.25	243.57
792.57	245.43
792.89	245.10
793.21	245.43
793.54	245.43
793.86	245.33
