SpectraSuite Data File
++++++++++++++++++++++++++++++++++++
Date: Wed Nov 07 18:33:10 EST 2012
User: group
Dark Spectrum Present: No
Reference Spectrum Present: No
Number of Sampled Component Spectra: 1
Spectrometers: USB2E7196
Integration Time (usec): 1000000 (USB2E7196)
Spectra Averaged: 1 (USB2E7196)
Boxcar Smoothing: 10 (USB2E7196)
Correct for Electrical Dark: No (USB2E7196)
Strobe/Lamp Enabled: No (USB2E7196)
Correct for Detector Non-linearity: No (USB2E7196)
Correct for Stray Light: No (USB2E7196)
Number of Pixels in Processed Spectrum: 2048
>>>>>Begin Processed Spectral Data<<<<<
339.09	0.00
339.48	217.00
339.86	224.00
340.24	225.00
340.63	226.00
341.01	267.00
341.39	232.00
341.78	233.00
342.16	241.00
342.54	234.00
342.93	225.33
343.31	236.48
343.69	237.14
344.07	237.67
344.46	238.29
344.84	238.90
345.22	237.48
345.60	237.86
345.99	238.24
346.37	237.90
346.75	237.90
347.13	237.76
347.52	237.81
347.90	238.33
348.28	238.33
348.66	239.10
349.05	238.10
349.43	238.52
349.81	238.76
350.19	238.57
350.57	238.52
350.96	238.86
351.34	239.00
351.72	239.33
352.10	239.43
352.48	239.24
352.87	239.00
353.25	238.62
353.63	238.14
354.01	237.81
354.39	238.19
354.77	238.14
355.15	238.86
355.54	238.48
355.92	237.71
356.30	237.62
356.68	239.05
357.06	238.95
357.44	238.19
357.82	237.95
358.20	238.24
358.58	238.24
358.97	238.05
359.35	238.24
359.73	238.52
360.11	238.19
360.49	238.33
360.87	238.43
361.25	238.81
361.63	240.10
362.01	240.24
362.39	239.81
362.77	240.29
363.15	239.81
363.53	239.95
363.91	240.29
364.29	240.33
364.67	237.81
365.05	238.10
365.43	238.57
365.81	238.81
366.19	239.71
366.57	240.76
366.95	240.43
367.33	240.10
367.71	239.95
368.09	240.76
368.47	240.81
368.85	240.52
369.23	241.14
369.61	240.00
369.99	240.95
370.37	241.33
370.75	242.48
371.13	242.19
371.51	242.00
371.89	241.81
372.27	241.76
372.65	242.00
373.03	242.00
373.41	241.86
373.78	241.71
374.16	240.29
374.54	239.48
374.92	239.62
375.30	239.43
375.68	238.95
376.06	238.76
376.44	238.29
376.82	238.48
377.19	238.52
377.57	238.52
377.95	237.43
378.33	237.10
378.71	235.86
379.09	236.19
379.47	236.90
379.84	237.00
380.22	236.95
380.60	236.81
380.98	236.90
381.36	236.86
381.73	236.76
382.11	237.62
382.49	237.62
382.87	237.19
383.25	237.48
383.62	240.71
384.00	240.48
384.38	240.57
384.76	241.24
385.13	241.90
385.51	241.81
385.89	241.76
386.27	242.19
386.64	242.29
387.02	241.90
387.40	241.38
387.78	241.52
388.15	241.67
388.53	241.29
388.91	241.33
389.29	241.05
389.66	241.71
390.04	241.14
390.42	241.81
390.79	242.29
391.17	242.29
391.55	239.00
391.92	238.81
392.30	239.29
392.68	238.57
393.05	238.33
393.43	238.57
393.81	239.10
394.18	238.62
394.56	238.48
394.94	239.48
395.31	239.48
395.69	240.33
396.06	240.48
396.44	241.00
396.82	240.67
397.19	242.00
397.57	241.38
397.95	241.71
398.32	241.05
398.70	241.48
399.07	242.24
399.45	242.67
399.82	242.81
400.20	242.86
400.58	242.95
400.95	241.86
401.33	242.52
401.70	244.05
402.08	244.38
402.45	244.57
402.83	244.95
403.20	245.05
403.58	244.86
403.95	245.33
404.33	245.71
404.71	246.24
405.08	247.76
405.46	248.38
405.83	249.00
406.21	249.29
406.58	249.24
406.96	249.14
407.33	249.86
407.70	250.38
408.08	252.76
408.45	254.00
408.83	255.29
409.20	255.76
409.58	255.00
409.95	256.24
410.33	257.29
410.70	257.62
411.08	259.05
411.45	260.00
411.82	260.86
412.20	262.57
412.57	265.00
412.95	264.43
413.32	266.10
413.69	267.52
414.07	269.57
414.44	271.62
414.82	274.10
415.19	276.48
415.56	279.10
415.94	280.00
416.31	282.86
416.68	285.67
417.06	288.81
417.43	292.57
417.81	296.00
418.18	299.76
418.55	303.67
418.93	308.05
419.30	312.33
419.67	317.14
420.04	321.81
420.42	326.48
420.79	333.71
421.16	339.76
421.54	347.10
421.91	353.57
422.28	359.90
422.66	366.38
423.03	375.00
423.40	382.29
423.77	390.05
424.15	396.90
424.52	404.67
424.89	413.76
425.26	421.43
425.64	429.24
426.01	437.71
426.38	446.14
426.75	455.90
427.13	464.95
427.50	474.43
427.87	484.00
428.24	493.90
428.61	501.81
428.99	513.05
429.36	523.38
429.73	534.71
430.10	546.86
430.47	559.10
430.85	569.81
431.22	582.62
431.59	597.81
431.96	611.52
432.33	626.05
432.70	639.29
433.08	655.52
433.45	670.19
433.82	685.19
434.19	702.24
434.56	717.43
434.93	732.76
435.30	748.57
435.68	766.81
436.05	783.43
436.42	800.62
436.79	815.62
437.16	832.19
437.53	849.38
437.90	865.76
438.27	882.24
438.64	898.71
439.01	914.00
439.38	926.14
439.75	939.57
440.13	954.90
440.50	969.52
440.87	981.24
441.24	994.29
441.61	1007.90
441.98	1017.33
442.35	1028.76
442.72	1040.95
443.09	1053.43
443.46	1058.14
443.83	1061.52
444.20	1064.62
444.57	1068.86
444.94	1069.81
445.31	1070.95
445.68	1076.57
446.05	1076.43
446.42	1073.38
446.79	1071.10
447.16	1067.48
447.53	1064.71
447.90	1057.14
448.27	1049.48
448.64	1039.24
449.01	1031.48
449.37	1019.24
449.74	1007.52
450.11	996.00
450.48	979.24
450.85	961.62
451.22	948.67
451.59	937.05
451.96	925.48
452.33	909.48
452.70	895.33
453.07	877.86
453.43	856.57
453.80	839.62
454.17	824.76
454.54	808.71
454.91	792.62
455.28	776.71
455.65	761.29
456.02	750.95
456.38	738.90
456.75	723.33
457.12	709.86
457.49	697.33
457.86	682.71
458.23	674.33
458.59	663.57
458.96	652.33
459.33	641.14
459.70	630.43
460.07	622.86
460.43	613.62
460.80	606.33
461.17	598.86
461.54	591.38
461.91	583.10
462.27	575.76
462.64	569.29
463.01	561.86
463.38	556.33
463.74	544.52
464.11	538.00
464.48	532.95
464.85	527.33
465.21	523.90
465.58	519.48
465.95	512.86
466.32	508.05
466.68	503.38
467.05	499.38
467.42	494.90
467.78	490.14
468.15	485.62
468.52	482.24
468.88	478.24
469.25	474.14
469.62	471.10
469.98	467.90
470.35	465.29
470.72	462.24
471.08	457.48
471.45	455.52
471.82	453.24
472.18	450.48
472.55	448.90
472.92	445.05
473.28	442.19
473.65	439.48
474.02	437.48
474.38	435.81
474.75	433.71
475.11	431.90
475.48	430.52
475.85	429.38
476.21	427.52
476.58	426.00
476.94	424.81
477.31	423.81
477.67	422.29
478.04	420.95
478.41	420.62
478.77	423.10
479.14	421.95
479.50	421.33
479.87	421.29
480.23	420.52
480.60	420.14
480.96	420.29
481.33	421.38
481.69	421.05
482.06	421.71
482.42	423.00
482.79	423.62
483.15	424.00
483.52	425.19
483.88	425.86
484.25	426.62
484.61	428.10
484.98	429.71
485.34	432.00
485.71	433.48
486.07	434.71
486.44	433.95
486.80	435.86
487.17	437.48
487.53	439.10
487.90	441.29
488.26	444.48
488.62	446.76
488.99	448.43
489.35	450.67
489.72	452.10
490.08	453.57
490.44	455.33
490.81	457.48
491.17	459.43
491.54	461.76
491.90	464.10
492.26	465.86
492.63	467.48
492.99	469.62
493.36	472.86
493.72	475.62
494.08	478.81
494.45	481.90
494.81	485.19
495.17	487.48
495.54	490.62
495.90	493.24
496.26	496.57
496.63	499.95
496.99	503.71
497.35	507.71
497.72	512.24
498.08	516.14
498.44	520.52
498.80	524.33
499.17	529.00
499.53	532.71
499.89	537.57
500.26	542.52
500.62	546.71
500.98	551.33
501.34	556.43
501.71	562.00
502.07	567.00
502.43	571.86
502.79	577.29
503.16	582.71
503.52	587.76
503.88	592.38
504.24	598.19
504.60	603.95
504.97	609.81
505.33	614.29
505.69	620.57
506.05	625.62
506.41	631.19
506.78	636.43
507.14	642.62
507.50	647.95
507.86	653.81
508.22	659.71
508.59	664.86
508.95	670.33
509.31	676.33
509.67	681.05
510.03	686.14
510.39	691.43
510.75	695.52
511.12	700.67
511.48	706.33
511.84	710.86
512.20	715.14
512.56	719.67
512.92	724.62
513.28	729.76
513.64	734.57
514.00	739.62
514.37	743.95
514.73	748.62
515.09	754.38
515.45	758.19
515.81	762.52
516.17	766.81
516.53	771.00
516.89	773.67
517.25	778.52
517.61	783.00
517.97	786.90
518.33	791.62
518.69	795.67
519.05	799.71
519.41	803.71
519.77	808.90
520.13	813.05
520.49	816.81
520.85	819.24
521.21	823.71
521.57	827.52
521.93	830.05
522.29	833.19
522.65	835.14
523.01	838.57
523.37	840.71
523.73	843.52
524.09	846.10
524.45	848.24
524.81	850.05
525.17	852.76
525.53	855.52
525.89	857.71
526.25	859.52
526.61	860.86
526.97	862.76
527.33	864.19
527.68	867.62
528.04	868.38
528.40	870.29
528.76	870.81
529.12	871.19
529.48	874.19
529.84	875.19
530.20	876.33
530.56	877.24
530.91	880.19
531.27	881.48
531.63	883.71
531.99	884.67
532.35	886.05
532.71	886.10
533.07	886.14
533.42	889.52
533.78	889.90
534.14	891.43
534.50	891.95
534.86	893.48
535.21	891.90
535.57	894.00
535.93	895.14
536.29	897.76
536.65	899.05
537.00	899.90
537.36	902.38
537.72	903.95
538.08	905.81
538.44	906.62
538.79	908.43
539.15	909.43
539.51	912.24
539.87	914.19
540.22	917.33
540.58	920.14
540.94	920.05
541.29	922.90
541.65	924.38
542.01	927.19
542.37	928.10
542.72	929.14
543.08	929.71
543.44	930.67
543.79	928.90
544.15	930.05
544.51	929.95
544.87	928.57
545.22	927.90
545.58	926.24
545.94	923.90
546.29	921.71
546.65	919.33
547.01	916.38
547.36	914.19
547.72	910.62
548.07	908.19
548.43	904.81
548.79	901.48
549.14	898.38
549.50	895.33
549.86	891.10
550.21	888.86
550.57	886.67
550.92	882.86
551.28	881.76
551.64	878.71
551.99	876.43
552.35	873.29
552.70	871.33
553.06	869.57
553.41	867.90
553.77	867.24
554.13	865.33
554.48	863.57
554.84	862.33
555.19	861.19
555.55	861.57
555.90	860.71
556.26	858.76
556.61	856.81
556.97	853.33
557.32	851.71
557.68	849.57
558.03	847.29
558.39	845.95
558.74	844.05
559.10	842.52
559.45	840.24
559.81	839.00
560.16	836.33
560.52	834.33
560.87	833.05
561.23	830.38
561.58	830.38
561.94	827.76
562.29	825.10
562.64	823.43
563.00	819.14
563.35	816.43
563.71	814.33
564.06	812.71
564.42	812.14
564.77	811.14
565.12	809.71
565.48	811.57
565.83	810.14
566.19	807.05
566.54	806.19
566.89	804.33
567.25	803.81
567.60	804.00
567.96	805.57
568.31	805.52
568.66	805.33
569.02	802.14
569.37	801.76
569.72	800.81
570.08	798.71
570.43	797.62
570.78	796.05
571.14	795.76
571.49	795.19
571.84	793.76
572.20	792.00
572.55	790.62
572.90	785.57
573.26	784.57
573.61	783.90
573.96	781.57
574.31	780.90
574.67	778.62
575.02	776.05
575.37	772.24
575.72	769.48
576.08	767.14
576.43	765.90
576.78	764.71
577.13	763.71
577.49	762.67
577.84	761.43
578.19	760.14
578.54	758.76
578.90	757.19
579.25	756.62
579.60	755.38
579.95	753.10
580.30	752.76
580.66	750.95
581.01	749.14
581.36	747.71
581.71	745.90
582.06	745.67
582.42	744.24
582.77	741.86
583.12	740.48
583.47	739.00
583.82	737.52
584.17	736.10
584.53	734.67
584.88	732.86
585.23	731.57
585.58	730.10
585.93	726.86
586.28	724.52
586.63	722.24
586.98	720.05
587.34	719.38
587.69	716.57
588.04	713.62
588.39	712.14
588.74	709.48
589.09	707.52
589.44	704.33
589.79	702.05
590.14	699.62
590.49	695.52
590.84	691.52
591.19	688.19
591.54	684.71
591.89	680.14
592.25	679.48
592.60	675.43
592.95	672.76
593.30	670.81
593.65	667.52
594.00	663.62
594.35	667.76
594.70	664.43
595.05	661.43
595.40	659.43
595.75	655.76
596.10	653.00
596.45	649.57
596.80	646.10
597.15	642.71
597.50	639.76
597.85	638.14
598.19	635.62
598.54	632.90
598.89	630.19
599.24	628.38
599.59	623.71
599.94	620.95
600.29	617.67
600.64	615.38
600.99	614.24
601.34	611.90
601.69	602.71
602.04	599.95
602.39	597.33
602.74	595.62
603.08	593.86
603.43	592.67
603.78	590.90
604.13	589.10
604.48	587.67
604.83	587.19
605.18	586.38
605.53	587.05
605.87	589.05
606.22	592.76
606.57	597.14
606.92	601.76
607.27	607.48
607.62	613.52
607.96	618.90
608.31	622.29
608.66	626.43
609.01	629.57
609.36	632.43
609.70	635.48
610.05	636.95
610.40	639.38
610.75	640.67
611.10	642.33
611.44	643.67
611.79	644.33
612.14	643.90
612.49	642.67
612.83	640.62
613.18	636.76
613.53	631.00
613.88	623.95
614.22	616.05
614.57	607.67
614.92	598.57
615.27	590.71
615.61	583.48
615.96	576.38
616.31	570.43
616.65	565.10
617.00	559.10
617.35	553.57
617.70	547.95
618.04	542.29
618.39	537.24
618.74	532.95
619.08	528.71
619.43	525.14
619.78	522.00
620.12	518.10
620.47	515.14
620.82	511.90
621.16	509.05
621.51	508.00
621.85	504.90
622.20	503.67
622.55	500.33
622.89	497.57
623.24	495.95
623.59	493.10
623.93	490.81
624.28	488.81
624.62	489.10
624.97	488.71
625.32	486.48
625.66	484.38
626.01	482.29
626.35	480.48
626.70	478.29
627.04	477.05
627.39	475.62
627.73	474.52
628.08	473.29
628.43	471.29
628.77	467.76
629.12	466.67
629.46	464.19
629.81	462.43
630.15	460.38
630.50	458.10
630.84	456.43
631.19	453.67
631.53	451.57
631.88	446.52
632.22	442.00
632.57	441.00
632.91	438.81
633.26	437.00
633.60	434.57
633.95	432.24
634.29	428.71
634.64	426.29
634.98	423.38
635.32	421.05
635.67	419.10
636.01	417.33
636.36	415.33
636.70	413.62
637.05	411.38
637.39	409.62
637.73	407.38
638.08	406.00
638.42	404.43
638.77	403.00
639.11	402.00
639.45	400.76
639.80	398.67
640.14	397.29
640.49	395.62
640.83	393.95
641.17	392.81
641.52	391.71
641.86	390.76
642.20	390.05
642.55	387.95
642.89	386.86
643.23	386.14
643.58	385.33
643.92	383.90
644.26	382.95
644.61	382.29
644.95	381.62
645.29	379.67
645.64	379.52
645.98	378.38
646.32	378.10
646.66	377.05
647.01	375.81
647.35	374.86
647.69	373.90
648.04	373.67
648.38	372.71
648.72	371.76
649.06	370.48
649.41	369.00
649.75	368.57
650.09	368.00
650.43	366.57
650.78	364.76
651.12	363.62
651.46	362.90
651.80	361.71
652.14	360.33
652.49	359.95
652.83	358.14
653.17	356.86
653.51	355.00
653.85	354.48
654.20	353.52
654.54	352.19
654.88	350.67
655.22	348.67
655.56	347.00
655.90	346.29
656.25	345.14
656.59	344.24
656.93	343.10
657.27	342.76
657.61	341.52
657.95	341.05
658.29	340.43
658.64	340.00
658.98	339.10
659.32	338.00
659.66	337.43
660.00	337.33
660.34	336.52
660.68	335.76
661.02	335.00
661.36	333.62
661.70	332.76
662.05	332.29
662.39	332.67
662.73	333.24
663.07	333.86
663.41	333.33
663.75	332.29
664.09	331.90
664.43	330.29
664.77	329.67
665.11	328.76
665.45	327.57
665.79	327.00
666.13	326.00
666.47	325.48
666.81	324.57
667.15	322.95
667.49	322.90
667.83	323.19
668.17	322.19
668.51	322.00
668.85	322.10
669.19	322.38
669.53	321.00
669.87	319.33
670.21	317.29
670.55	317.19
670.89	317.81
671.23	317.19
671.57	316.33
671.91	316.05
672.25	315.62
672.58	316.10
672.92	314.81
673.26	314.14
673.60	313.86
673.94	313.33
674.28	313.33
674.62	312.71
674.96	311.10
675.30	310.62
675.64	310.29
675.97	309.43
676.31	307.95
676.65	307.57
676.99	307.57
677.33	306.48
677.67	305.71
678.01	303.71
678.34	303.33
678.68	303.29
679.02	302.90
679.36	302.24
679.70	301.05
680.04	300.43
680.37	300.33
680.71	299.43
681.05	299.10
681.39	298.33
681.73	297.57
682.06	297.19
682.40	297.05
682.74	296.67
683.08	297.05
683.42	296.52
683.75	296.33
684.09	295.57
684.43	295.90
684.77	294.86
685.10	294.90
685.44	294.29
685.78	293.86
686.12	292.81
686.45	292.38
686.79	291.52
687.13	291.29
687.46	290.81
687.80	291.38
688.14	290.38
688.48	290.52
688.81	290.48
689.15	290.81
689.49	290.24
689.82	290.10
690.16	288.14
690.50	287.76
690.83	287.10
691.17	286.57
691.51	285.57
691.84	285.76
692.18	285.10
692.52	284.52
692.85	284.29
693.19	284.95
693.52	284.71
693.86	284.71
694.20	284.71
694.53	284.14
694.87	283.00
695.21	282.52
695.54	282.10
695.88	281.19
696.21	280.00
696.55	279.57
696.88	278.76
697.22	278.62
697.56	278.52
697.89	278.10
698.23	278.14
698.56	278.00
698.90	277.76
699.23	277.38
699.57	277.24
699.90	276.67
700.24	275.76
700.58	275.86
700.91	275.90
701.25	277.67
701.58	278.38
701.92	279.43
702.25	280.29
702.59	280.43
702.92	280.76
703.26	281.67
703.59	282.19
703.93	285.00
704.26	286.43
704.60	287.05
704.93	287.24
705.26	287.10
705.60	287.95
705.93	288.10
706.27	289.38
706.60	290.76
706.94	292.52
707.27	293.10
707.61	293.62
707.94	293.95
708.27	292.48
708.61	292.10
708.94	291.48
709.28	290.90
709.61	290.24
709.94	290.14
710.28	289.52
710.61	288.76
710.95	285.57
711.28	285.86
711.61	284.95
711.95	284.95
712.28	284.29
712.61	283.62
712.95	284.05
713.28	283.90
713.61	282.33
713.95	280.10
714.28	278.95
714.61	277.48
714.95	276.48
715.28	275.10
715.61	274.52
715.95	274.10
716.28	273.10
716.61	273.00
716.95	272.19
717.28	271.48
717.61	271.05
717.94	270.76
718.28	268.33
718.61	267.62
718.94	266.57
719.27	265.90
719.61	265.52
719.94	264.52
720.27	263.05
720.60	262.33
720.94	262.29
721.27	262.48
721.60	262.81
721.93	262.81
722.27	263.62
722.60	263.33
722.93	262.76
723.26	262.90
723.59	261.86
723.93	262.10
724.26	262.29
724.59	261.95
724.92	262.05
725.25	262.52
725.59	262.38
725.92	262.81
726.25	262.52
726.58	261.86
726.91	261.33
727.24	261.48
727.57	261.14
727.91	260.62
728.24	260.43
728.57	259.71
728.90	259.33
729.23	258.19
729.56	258.90
729.89	258.95
730.22	258.81
730.55	258.62
730.89	258.14
731.22	257.86
731.55	257.76
731.88	257.76
732.21	257.33
732.54	257.14
732.87	256.86
733.20	257.29
733.53	257.71
733.86	258.00
734.19	257.43
734.52	257.86
734.85	259.29
735.18	258.86
735.51	259.62
735.84	259.67
736.17	260.29
736.50	259.14
736.83	261.57
737.16	261.24
737.49	261.52
737.82	261.14
738.15	261.38
738.48	261.05
738.81	260.67
739.14	260.76
739.47	260.52
739.80	260.43
740.13	260.43
740.46	259.90
740.79	259.19
741.12	259.29
741.45	259.19
741.78	257.90
742.11	258.67
742.44	258.10
742.77	258.38
743.10	257.81
743.43	257.62
743.75	254.81
744.08	257.76
744.41	257.76
744.74	257.81
745.07	256.62
745.40	256.71
745.73	257.62
746.06	257.57
746.39	257.71
746.71	257.33
747.04	256.90
747.37	256.67
747.70	257.24
748.03	257.00
748.36	257.19
748.68	256.90
749.01	255.90
749.34	255.86
749.67	255.52
750.00	255.71
750.33	257.52
750.65	257.76
750.98	254.81
751.31	254.48
751.64	254.33
751.97	256.19
752.29	256.52
752.62	255.00
752.95	254.48
753.28	254.00
753.60	253.67
753.93	254.05
754.26	254.33
754.59	253.43
754.91	253.38
755.24	253.05
755.57	253.10
755.90	252.67
756.22	251.90
756.55	251.71
756.88	251.14
757.20	249.24
757.53	248.43
757.86	248.24
758.19	248.62
758.51	248.67
758.84	247.43
759.17	246.62
759.49	246.67
759.82	247.90
760.15	248.33
760.47	248.29
760.80	247.76
761.13	247.86
761.45	247.81
761.78	247.33
762.11	247.10
762.43	246.67
762.76	246.95
763.08	247.62
763.41	247.67
763.74	247.52
764.06	247.29
764.39	247.33
764.71	247.38
765.04	246.81
765.37	246.38
765.69	246.05
766.02	246.19
766.34	246.43
766.67	245.43
767.00	245.81
767.32	247.14
767.65	248.71
767.97	248.29
768.30	248.48
768.62	248.43
768.95	248.52
769.27	248.86
769.60	249.14
769.92	248.62
770.25	247.86
770.57	247.57
770.90	247.76
771.22	247.76
771.55	247.57
771.87	247.43
772.20	247.14
772.52	249.33
772.85	252.38
773.17	252.14
773.50	251.71
773.82	250.81
774.15	249.62
774.47	247.67
774.80	247.76
775.12	247.48
775.45	247.81
775.77	247.71
776.09	247.57
776.42	247.38
776.74	248.19
777.07	248.10
777.39	248.52
777.72	248.19
778.04	248.38
778.36	248.05
778.69	248.38
779.01	248.95
779.33	246.81
779.66	243.81
779.98	243.90
780.31	244.10
780.63	245.76
780.95	246.14
781.28	246.33
781.60	246.10
781.92	246.29
782.25	246.29
782.57	246.05
782.89	245.95
783.22	245.76
783.54	245.00
783.86	245.24
784.19	244.76
784.51	245.71
784.83	245.38
785.16	245.62
785.48	245.48
785.80	245.43
786.12	245.62
786.45	245.90
786.77	245.81
787.09	245.67
787.42	244.29
787.74	244.43
788.06	244.19
788.38	244.10
788.71	243.86
789.03	243.95
789.35	244.33
789.67	244.19
789.99	244.62
790.32	244.48
790.64	244.90
790.96	247.43
791.28	246.38
791.61	246.43
791.93	246.48
792.25	246.62
792.57	248.29
792.89	247.76
793.21	247.90
793.54	247.81
793.86	247.67
