SpectraSuite Data File
++++++++++++++++++++++++++++++++++++
Date: Wed Nov 07 18:31:36 EST 2012
User: group
Dark Spectrum Present: No
Reference Spectrum Present: No
Number of Sampled Component Spectra: 1
Spectrometers: USB2E7196
Integration Time (usec): 1000000 (USB2E7196)
Spectra Averaged: 1 (USB2E7196)
Boxcar Smoothing: 10 (USB2E7196)
Correct for Electrical Dark: No (USB2E7196)
Strobe/Lamp Enabled: No (USB2E7196)
Correct for Detector Non-linearity: No (USB2E7196)
Correct for Stray Light: No (USB2E7196)
Number of Pixels in Processed Spectrum: 2048
>>>>>Begin Processed Spectral Data<<<<<
339.09	0.00
339.48	218.00
339.86	219.00
340.24	216.00
340.63	221.00
341.01	257.00
341.39	228.00
341.78	224.00
342.16	236.00
342.54	231.00
342.93	220.52
343.31	231.29
343.69	231.86
344.07	232.19
344.46	233.48
344.84	234.43
345.22	233.00
345.60	233.24
345.99	233.95
346.37	233.76
346.75	233.62
347.13	234.19
347.52	234.57
347.90	235.33
348.28	235.19
348.66	235.90
349.05	235.48
349.43	236.00
349.81	235.86
350.19	235.95
350.57	235.95
350.96	236.19
351.34	236.76
351.72	237.00
352.10	237.43
352.48	237.29
352.87	236.90
353.25	237.52
353.63	237.52
354.01	237.38
354.39	237.95
354.77	238.24
355.15	238.62
355.54	238.62
355.92	238.19
356.30	238.62
356.68	240.29
357.06	240.52
357.44	240.29
357.82	240.71
358.20	240.86
358.58	241.24
358.97	241.29
359.35	241.81
359.73	242.33
360.11	242.57
360.49	242.52
360.87	243.00
361.25	243.19
361.63	244.33
362.01	244.33
362.39	243.95
362.77	244.19
363.15	244.14
363.53	244.10
363.91	244.19
364.29	243.81
364.67	241.71
365.05	241.67
365.43	242.14
365.81	242.24
366.19	243.43
366.57	244.19
366.95	243.90
367.33	243.29
367.71	243.29
368.09	243.81
368.47	243.90
368.85	243.57
369.23	244.00
369.61	243.14
369.99	244.38
370.37	244.76
370.75	246.10
371.13	245.43
371.51	244.52
371.89	244.67
372.27	245.10
372.65	245.05
373.03	245.14
373.41	244.90
373.78	244.71
374.16	243.52
374.54	242.52
374.92	242.57
375.30	242.38
375.68	241.57
376.06	241.33
376.44	240.95
376.82	241.29
377.19	240.71
377.57	240.29
377.95	239.24
378.33	239.05
378.71	237.43
379.09	238.24
379.47	238.81
379.84	238.67
380.22	238.14
380.60	237.76
380.98	237.43
381.36	236.90
381.73	236.52
382.11	236.95
382.49	237.29
382.87	237.00
383.25	237.24
383.62	240.29
384.00	239.95
384.38	240.10
384.76	240.33
385.13	241.57
385.51	241.57
385.89	241.29
386.27	241.38
386.64	241.90
387.02	241.33
387.40	241.05
387.78	241.43
388.15	241.67
388.53	241.48
388.91	242.00
389.29	242.10
389.66	242.48
390.04	242.19
390.42	242.48
390.79	242.52
391.17	242.38
391.55	239.67
391.92	239.43
392.30	239.67
392.68	239.14
393.05	238.81
393.43	239.10
393.81	239.38
394.18	239.14
394.56	239.29
394.94	240.00
395.31	239.62
395.69	240.05
396.06	240.29
396.44	240.57
396.82	239.81
397.19	241.29
397.57	241.00
397.95	241.76
398.32	241.05
398.70	241.62
399.07	242.71
399.45	242.67
399.82	242.95
400.20	242.57
400.58	242.76
400.95	241.81
401.33	242.62
401.70	244.24
402.08	244.48
402.45	244.48
402.83	245.00
403.20	245.76
403.58	245.43
403.95	246.14
404.33	246.86
404.71	247.48
405.08	248.76
405.46	249.05
405.83	249.24
406.21	249.52
406.58	249.76
406.96	249.76
407.33	250.52
407.70	251.29
408.08	254.19
408.45	255.19
408.83	256.67
409.20	256.62
409.58	255.67
409.95	257.00
410.33	257.86
410.70	258.19
411.08	259.52
411.45	260.81
411.82	261.38
412.20	263.10
412.57	265.62
412.95	265.00
413.32	266.95
413.69	268.19
414.07	269.90
414.44	271.62
414.82	273.43
415.19	276.00
415.56	278.38
415.94	278.95
416.31	282.00
416.68	284.71
417.06	288.00
417.43	291.76
417.81	295.24
418.18	299.05
418.55	302.76
418.93	306.71
419.30	311.10
419.67	315.43
420.04	320.10
420.42	324.81
420.79	332.43
421.16	338.00
421.54	345.00
421.91	351.62
422.28	358.57
422.66	365.52
423.03	373.81
423.40	380.48
423.77	388.86
424.15	395.52
424.52	402.52
424.89	411.76
425.26	419.24
425.64	426.71
426.01	434.62
426.38	443.62
426.75	453.19
427.13	462.29
427.50	472.14
427.87	481.52
428.24	491.38
428.61	499.24
428.99	510.62
429.36	520.81
429.73	532.29
430.10	543.71
430.47	556.19
430.85	567.05
431.22	580.62
431.59	596.10
431.96	609.67
432.33	625.05
432.70	639.71
433.08	657.29
433.45	673.48
433.82	689.33
434.19	705.90
434.56	721.81
434.93	737.86
435.30	754.29
435.68	772.10
436.05	787.38
436.42	803.81
436.79	819.24
437.16	836.05
437.53	852.95
437.90	869.86
438.27	886.38
438.64	902.81
439.01	918.48
439.38	929.19
439.75	941.86
440.13	956.81
440.50	969.14
440.87	980.33
441.24	991.38
441.61	1004.05
441.98	1014.10
442.35	1024.90
442.72	1034.71
443.09	1045.67
443.46	1050.57
443.83	1055.05
444.20	1059.24
444.57	1063.48
444.94	1065.00
445.31	1066.86
445.68	1071.05
446.05	1070.33
446.42	1067.24
446.79	1064.95
447.16	1062.14
447.53	1059.24
447.90	1051.57
448.27	1044.10
448.64	1033.52
449.01	1025.19
449.37	1013.24
449.74	1000.71
450.11	988.38
450.48	974.29
450.85	957.86
451.22	944.33
451.59	932.19
451.96	919.24
452.33	903.38
452.70	889.52
453.07	872.05
453.43	852.14
453.80	835.71
454.17	820.00
454.54	803.52
454.91	787.67
455.28	773.05
455.65	758.00
456.02	748.38
456.38	736.29
456.75	722.14
457.12	707.90
457.49	695.57
457.86	682.14
458.23	672.14
458.59	661.10
458.96	650.81
459.33	640.57
459.70	630.62
460.07	623.24
460.43	613.57
460.80	605.33
461.17	597.10
461.54	589.19
461.91	582.05
462.27	574.81
462.64	568.14
463.01	560.29
463.38	554.33
463.74	543.33
464.11	536.76
464.48	531.71
464.85	527.71
465.21	523.52
465.58	518.90
465.95	512.90
466.32	508.52
466.68	503.62
467.05	499.29
467.42	494.33
467.78	489.24
468.15	484.71
468.52	481.90
468.88	477.52
469.25	473.05
469.62	470.62
469.98	466.81
470.35	463.86
470.72	461.48
471.08	457.24
471.45	454.33
471.82	452.00
472.18	447.95
472.55	445.19
472.92	442.10
473.28	439.52
473.65	437.05
474.02	434.38
474.38	433.24
474.75	431.76
475.11	430.05
475.48	428.52
475.85	427.43
476.21	426.00
476.58	425.71
476.94	424.90
477.31	423.05
477.67	421.71
478.04	420.57
478.41	419.95
478.77	421.86
479.14	421.19
479.50	420.57
479.87	421.29
480.23	421.62
480.60	421.90
480.96	422.33
481.33	424.19
481.69	424.81
482.06	425.29
482.42	426.14
482.79	427.14
483.15	428.38
483.52	430.05
483.88	430.62
484.25	431.48
484.61	433.10
484.98	434.52
485.34	437.14
485.71	438.67
486.07	440.52
486.44	440.71
486.80	442.67
487.17	444.24
487.53	446.71
487.90	448.67
488.26	451.10
488.62	453.57
488.99	454.38
489.35	456.52
489.72	457.67
490.08	459.10
490.44	460.71
490.81	462.57
491.17	463.95
491.54	466.62
491.90	469.24
492.26	471.57
492.63	473.90
492.99	475.67
493.36	478.33
493.72	480.90
494.08	483.38
494.45	486.29
494.81	489.76
495.17	491.71
495.54	495.05
495.90	497.38
496.26	500.19
496.63	503.52
496.99	506.71
497.35	510.43
497.72	514.29
498.08	518.38
498.44	522.29
498.80	526.19
499.17	529.81
499.53	533.38
499.89	537.81
500.26	542.19
500.62	547.14
500.98	552.71
501.34	557.33
501.71	562.38
502.07	567.19
502.43	571.71
502.79	576.71
503.16	581.24
503.52	586.38
503.88	591.57
504.24	596.81
504.60	601.67
504.97	607.19
505.33	611.43
505.69	617.05
506.05	622.00
506.41	627.71
506.78	632.86
507.14	638.24
507.50	643.00
507.86	648.62
508.22	653.52
508.59	657.38
508.95	662.10
509.31	668.05
509.67	673.10
510.03	678.81
510.39	683.86
510.75	688.62
511.12	694.10
511.48	698.95
511.84	703.05
512.20	707.52
512.56	712.48
512.92	718.14
513.28	722.76
513.64	727.29
514.00	731.62
514.37	736.52
514.73	740.95
515.09	746.00
515.45	749.52
515.81	754.33
516.17	759.05
516.53	763.71
516.89	766.43
517.25	769.95
517.61	774.48
517.97	779.24
518.33	783.33
518.69	787.48
519.05	791.52
519.41	794.95
519.77	800.38
520.13	804.00
520.49	806.57
520.85	809.29
521.21	815.00
521.57	818.00
521.93	820.19
522.29	823.81
522.65	826.00
523.01	828.19
523.37	829.00
523.73	830.71
524.09	832.38
524.45	833.62
524.81	835.48
525.17	837.29
525.53	838.62
525.89	840.52
526.25	841.76
526.61	842.62
526.97	845.24
527.33	846.00
527.68	849.38
528.04	851.76
528.40	854.48
528.76	853.62
529.12	854.48
529.48	856.19
529.84	856.33
530.20	857.76
530.56	860.10
530.91	862.71
531.27	864.24
531.63	865.67
531.99	867.57
532.35	869.62
532.71	869.57
533.07	871.19
533.42	874.81
533.78	875.71
534.14	877.57
534.50	878.86
534.86	881.43
535.21	880.81
535.57	882.52
535.93	882.71
536.29	885.71
536.65	889.05
537.00	891.90
537.36	894.57
537.72	897.24
538.08	901.38
538.44	905.00
538.79	910.05
539.15	914.24
539.51	919.19
539.87	922.86
540.22	928.00
540.58	931.43
540.94	933.95
541.29	938.38
541.65	941.90
542.01	946.57
542.37	949.33
542.72	951.95
543.08	953.90
543.44	955.10
543.79	954.29
544.15	954.19
544.51	954.33
544.87	954.24
545.22	953.52
545.58	950.14
545.94	946.48
546.29	942.76
546.65	939.05
547.01	934.81
547.36	930.90
547.72	925.52
548.07	921.48
548.43	916.10
548.79	911.10
549.14	905.90
549.50	899.95
549.86	894.24
550.21	889.57
550.57	885.76
550.92	882.43
551.28	879.86
551.64	877.19
551.99	873.00
552.35	869.71
552.70	866.14
553.06	863.95
553.41	861.29
553.77	860.00
554.13	857.33
554.48	854.86
554.84	852.33
555.19	850.38
555.55	850.14
555.90	848.29
556.26	845.62
556.61	843.10
556.97	840.95
557.32	838.52
557.68	836.57
558.03	833.81
558.39	831.62
558.74	829.10
559.10	825.90
559.45	824.67
559.81	822.29
560.16	819.33
560.52	816.86
560.87	815.57
561.23	812.05
561.58	812.10
561.94	809.81
562.29	807.48
562.64	806.38
563.00	802.10
563.35	799.52
563.71	798.43
564.06	796.48
564.42	794.33
564.77	792.81
565.12	791.29
565.48	792.14
565.83	791.67
566.19	790.14
566.54	788.90
566.89	786.71
567.25	786.62
567.60	787.86
567.96	789.14
568.31	789.00
568.66	789.24
569.02	785.95
569.37	784.29
569.72	784.00
570.08	782.14
570.43	780.95
570.78	779.81
571.14	778.33
571.49	777.29
571.84	776.86
572.20	775.52
572.55	774.86
572.90	772.14
573.26	770.52
573.61	769.00
573.96	768.19
574.31	767.57
574.67	765.76
575.02	763.48
575.37	760.52
575.72	758.57
576.08	756.48
576.43	755.67
576.78	755.62
577.13	754.81
577.49	754.48
577.84	753.62
578.19	752.95
578.54	751.71
578.90	751.48
579.25	749.90
579.60	749.90
579.95	748.29
580.30	747.05
580.66	746.19
581.01	745.52
581.36	743.81
581.71	743.43
582.06	743.05
582.42	741.71
582.77	739.71
583.12	739.48
583.47	737.90
583.82	737.19
584.17	736.14
584.53	735.52
584.88	733.71
585.23	732.86
585.58	730.24
585.93	728.38
586.28	726.14
586.63	724.00
586.98	721.76
587.34	720.14
587.69	717.00
588.04	714.57
588.39	712.48
588.74	709.00
589.09	706.76
589.44	702.67
589.79	700.05
590.14	697.57
590.49	693.24
590.84	689.76
591.19	685.71
591.54	681.71
591.89	677.10
592.25	675.52
592.60	671.10
592.95	668.86
593.30	666.43
593.65	663.52
594.00	660.29
594.35	663.38
594.70	659.57
595.05	657.24
595.40	653.48
595.75	650.19
596.10	648.52
596.45	644.14
596.80	641.10
597.15	637.57
597.50	634.62
597.85	632.90
598.19	630.19
598.54	628.05
598.89	625.29
599.24	622.57
599.59	618.14
599.94	615.62
600.29	613.33
600.64	610.29
600.99	608.48
601.34	606.52
601.69	598.00
602.04	594.95
602.39	592.29
602.74	590.67
603.08	587.90
603.43	586.76
603.78	584.90
604.13	583.24
604.48	581.43
604.83	580.33
605.18	579.24
605.53	580.00
605.87	581.81
606.22	585.24
606.57	590.62
606.92	596.95
607.27	604.24
607.62	610.33
607.96	616.71
608.31	621.29
608.66	625.62
609.01	629.43
609.36	634.86
609.70	639.19
610.05	642.00
610.40	646.24
610.75	647.38
611.10	650.00
611.44	651.62
611.79	653.10
612.14	652.90
612.49	651.24
612.83	648.90
613.18	645.67
613.53	639.52
613.88	631.57
614.22	622.29
614.57	612.67
614.92	603.81
615.27	594.81
615.61	586.71
615.96	579.29
616.31	572.05
616.65	565.38
617.00	558.38
617.35	552.38
617.70	545.38
618.04	540.05
618.39	534.00
618.74	529.90
619.08	525.05
619.43	520.90
619.78	517.24
620.12	514.00
620.47	510.19
620.82	507.81
621.16	505.19
621.51	504.29
621.85	501.38
622.20	498.81
622.55	495.81
622.89	493.14
623.24	490.90
623.59	488.33
623.93	485.76
624.28	483.48
624.62	483.62
624.97	483.10
625.32	481.24
625.66	479.43
626.01	476.95
626.35	475.52
626.70	473.90
627.04	473.29
627.39	471.29
627.73	470.14
628.08	468.67
628.43	466.71
628.77	463.00
629.12	461.43
629.46	458.90
629.81	457.24
630.15	454.95
630.50	452.81
630.84	450.52
631.19	447.95
631.53	446.05
631.88	440.90
632.22	437.24
632.57	435.24
632.91	432.43
633.26	430.29
633.60	428.10
633.95	425.57
634.29	421.90
634.64	419.62
634.98	416.52
635.32	414.10
635.67	412.38
636.01	410.19
636.36	407.86
636.70	406.33
637.05	404.43
637.39	402.71
637.73	401.33
638.08	400.81
638.42	399.05
638.77	397.33
639.11	395.81
639.45	394.24
639.80	392.24
640.14	390.90
640.49	389.24
640.83	387.24
641.17	386.43
641.52	385.52
641.86	384.29
642.20	383.95
642.55	382.57
642.89	380.71
643.23	379.95
643.58	379.57
643.92	378.05
644.26	377.19
644.61	376.67
644.95	375.81
645.29	373.76
645.64	373.71
645.98	372.76
646.32	373.10
646.66	372.24
647.01	371.33
647.35	371.05
647.69	370.76
648.04	370.43
648.38	369.38
648.72	368.24
649.06	367.38
649.41	365.57
649.75	364.48
650.09	364.24
650.43	363.14
650.78	361.67
651.12	360.90
651.46	360.10
651.80	359.05
652.14	357.24
652.49	356.76
652.83	354.95
653.17	353.33
653.51	351.29
653.85	350.43
654.20	349.38
654.54	347.86
654.88	346.14
655.22	344.67
655.56	343.24
655.90	342.24
656.25	340.81
656.59	339.52
656.93	338.86
657.27	338.24
657.61	337.00
657.95	336.57
658.29	335.33
658.64	334.90
658.98	334.19
659.32	333.67
659.66	332.57
660.00	331.67
660.34	331.43
660.68	331.10
661.02	330.05
661.36	329.05
661.70	328.95
662.05	328.48
662.39	328.90
662.73	328.86
663.07	329.95
663.41	329.57
663.75	329.14
664.09	328.62
664.43	327.24
664.77	326.86
665.11	326.10
665.45	325.86
665.79	325.29
666.13	324.24
666.47	323.10
666.81	322.52
667.15	321.86
667.49	321.05
667.83	321.00
668.17	320.57
668.51	320.14
668.85	319.52
669.19	319.52
669.53	318.05
669.87	317.10
670.21	315.00
670.55	314.57
670.89	315.19
671.23	314.43
671.57	314.10
671.91	313.62
672.25	313.05
672.58	313.57
672.92	312.76
673.26	312.19
673.60	312.14
673.94	311.76
674.28	311.43
674.62	311.00
674.96	309.86
675.30	309.71
675.64	309.43
675.97	308.52
676.31	307.62
676.65	306.71
676.99	307.00
677.33	306.38
677.67	306.05
678.01	304.24
678.34	303.76
678.68	303.76
679.02	303.10
679.36	302.48
679.70	300.86
680.04	299.95
680.37	299.76
680.71	299.14
681.05	298.67
681.39	298.05
681.73	297.71
682.06	297.43
682.40	296.62
682.74	296.33
683.08	296.76
683.42	296.10
683.75	296.67
684.09	295.52
684.43	295.10
684.77	294.24
685.10	294.05
685.44	293.95
685.78	293.19
686.12	293.05
686.45	292.67
686.79	292.14
687.13	292.24
687.46	291.67
687.80	291.71
688.14	291.10
688.48	291.05
688.81	290.76
689.15	291.14
689.49	290.33
689.82	289.95
690.16	288.76
690.50	288.14
690.83	287.29
691.17	286.38
691.51	286.38
691.84	286.67
692.18	286.10
692.52	285.33
692.85	285.24
693.19	285.81
693.52	285.33
693.86	284.90
694.20	284.29
694.53	284.00
694.87	283.48
695.21	283.14
695.54	282.71
695.88	282.19
696.21	280.62
696.55	280.71
696.88	280.10
697.22	279.62
697.56	279.86
697.89	279.33
698.23	279.57
698.56	278.95
698.90	278.48
699.23	278.00
699.57	277.95
699.90	277.43
700.24	276.38
700.58	276.29
700.91	276.71
701.25	278.52
701.58	279.52
701.92	280.00
702.25	280.14
702.59	279.90
702.92	280.14
703.26	281.10
703.59	281.14
703.93	283.71
704.26	284.76
704.60	285.43
704.93	285.71
705.26	285.86
705.60	286.76
705.93	286.81
706.27	288.10
706.60	288.90
706.94	290.05
707.27	289.95
707.61	290.33
707.94	290.33
708.27	288.76
708.61	287.81
708.94	287.43
709.28	287.33
709.61	287.14
709.94	286.67
710.28	285.86
710.61	285.62
710.95	282.43
711.28	282.76
711.61	281.57
711.95	281.24
712.28	280.43
712.61	279.76
712.95	280.29
713.28	280.43
713.61	279.19
713.95	277.57
714.28	277.05
714.61	276.10
714.95	274.95
715.28	273.71
715.61	272.67
715.95	272.38
716.28	271.38
716.61	271.10
716.95	270.33
717.28	269.90
717.61	269.29
717.94	269.10
718.28	266.76
718.61	266.24
718.94	265.43
719.27	265.14
719.61	264.43
719.94	263.24
720.27	261.48
720.60	261.24
720.94	261.29
721.27	261.19
721.60	261.29
721.93	261.14
722.27	261.95
722.60	262.24
722.93	261.43
723.26	261.43
723.59	260.76
723.93	260.95
724.26	260.90
724.59	260.62
724.92	260.71
725.25	261.43
725.59	261.24
725.92	261.38
726.25	261.24
726.58	261.19
726.91	260.90
727.24	260.86
727.57	260.62
727.91	260.00
728.24	260.00
728.57	259.67
728.90	260.00
729.23	258.81
729.56	259.86
729.89	259.90
730.22	259.57
730.55	259.48
730.89	259.05
731.22	258.81
731.55	258.33
731.88	258.43
732.21	257.81
732.54	257.62
732.87	257.52
733.20	257.62
733.53	257.43
733.86	257.57
734.19	257.48
734.52	257.57
734.85	259.38
735.18	258.76
735.51	259.29
735.84	259.14
736.17	259.81
736.50	258.14
736.83	260.67
737.16	260.81
737.49	261.19
737.82	261.05
738.15	261.10
738.48	261.33
738.81	260.81
739.14	260.71
739.47	260.38
739.80	260.29
740.13	260.19
740.46	259.86
740.79	259.38
741.12	259.19
741.45	258.81
741.78	257.14
742.11	257.86
742.44	257.14
742.77	257.33
743.10	256.62
743.43	256.43
743.75	253.67
744.08	256.57
744.41	255.90
744.74	255.95
745.07	255.24
745.40	255.67
745.73	256.90
746.06	256.81
746.39	257.05
746.71	256.71
747.04	256.24
747.37	256.14
747.70	256.57
748.03	256.95
748.36	257.33
748.68	257.24
749.01	256.14
749.34	256.10
749.67	255.90
750.00	256.38
750.33	258.38
750.65	258.43
750.98	255.43
751.31	255.57
751.64	255.57
751.97	257.19
752.29	256.76
752.62	255.33
752.95	254.95
753.28	254.76
753.60	254.57
753.93	255.19
754.26	255.33
754.59	254.67
754.91	253.90
755.24	253.52
755.57	253.48
755.90	253.57
756.22	253.29
756.55	253.05
756.88	252.43
757.20	250.67
757.53	250.29
757.86	250.24
758.19	250.29
758.51	250.19
758.84	248.76
759.17	248.38
759.49	248.52
759.82	250.38
760.15	250.62
760.47	250.67
760.80	249.71
761.13	250.10
761.45	249.86
761.78	250.05
762.11	250.14
762.43	249.71
762.76	249.90
763.08	250.05
763.41	249.76
763.74	250.14
764.06	250.19
764.39	250.48
764.71	250.57
765.04	250.43
765.37	250.38
765.69	250.43
766.02	250.43
766.34	250.14
766.67	248.67
767.00	248.76
767.32	249.90
767.65	251.62
767.97	251.33
768.30	251.48
768.62	251.62
768.95	251.38
769.27	251.19
769.60	251.48
769.92	251.14
770.25	250.90
770.57	250.05
770.90	250.19
771.22	249.67
771.55	249.05
771.87	249.14
772.20	248.95
772.52	251.00
772.85	253.95
773.17	253.86
773.50	253.76
773.82	253.33
774.15	252.48
774.47	250.76
774.80	250.19
775.12	250.29
775.45	249.90
775.77	249.90
776.09	250.19
776.42	250.00
776.74	250.86
777.07	250.71
777.39	250.76
777.72	250.19
778.04	250.71
778.36	250.57
778.69	250.67
779.01	250.67
779.33	248.24
779.66	245.43
779.98	245.48
780.31	245.14
780.63	246.19
780.95	246.24
781.28	246.24
781.60	246.24
781.92	246.05
782.25	245.95
782.57	245.81
782.89	245.67
783.22	245.43
783.54	244.76
783.86	244.76
784.19	244.95
784.51	245.86
784.83	245.00
785.16	245.38
785.48	245.05
785.80	245.10
786.12	245.48
786.45	245.52
786.77	245.38
787.09	245.81
787.42	244.57
787.74	244.38
788.06	244.52
788.38	244.52
788.71	244.24
789.03	244.48
789.35	244.38
789.67	244.05
789.99	244.24
790.32	243.95
790.64	244.43
790.96	246.19
791.28	245.10
791.61	245.19
791.93	245.14
792.25	245.00
792.57	246.52
792.89	245.76
793.21	245.86
793.54	245.86
793.86	245.19
