SpectraSuite Data File
++++++++++++++++++++++++++++++++++++
Date: Wed Nov 07 18:32:13 EST 2012
User: group
Dark Spectrum Present: No
Reference Spectrum Present: No
Number of Sampled Component Spectra: 1
Spectrometers: USB2E7196
Integration Time (usec): 1000000 (USB2E7196)
Spectra Averaged: 1 (USB2E7196)
Boxcar Smoothing: 10 (USB2E7196)
Correct for Electrical Dark: No (USB2E7196)
Strobe/Lamp Enabled: No (USB2E7196)
Correct for Detector Non-linearity: No (USB2E7196)
Correct for Stray Light: No (USB2E7196)
Number of Pixels in Processed Spectrum: 2048
>>>>>Begin Processed Spectral Data<<<<<
339.09	0.00
339.48	217.00
339.86	218.00
340.24	222.00
340.63	219.00
341.01	261.00
341.39	224.00
341.78	223.00
342.16	236.00
342.54	227.00
342.93	222.43
343.31	233.52
343.69	234.10
344.07	234.90
344.46	235.62
344.84	236.38
345.22	235.19
345.60	235.95
345.99	236.62
346.37	236.57
346.75	236.90
347.13	236.67
347.52	236.86
347.90	237.67
348.28	237.81
348.66	238.24
349.05	237.48
349.43	237.57
349.81	237.81
350.19	238.10
350.57	238.33
350.96	238.76
351.34	239.00
351.72	239.29
352.10	239.43
352.48	239.33
352.87	239.38
353.25	239.52
353.63	239.48
354.01	239.52
354.39	239.48
354.77	239.81
355.15	241.33
355.54	240.86
355.92	239.95
356.30	239.81
356.68	241.33
357.06	241.86
357.44	241.48
357.82	241.52
358.20	241.67
358.58	241.57
358.97	240.95
359.35	241.86
359.73	242.43
360.11	242.57
360.49	242.90
360.87	242.90
361.25	243.24
361.63	244.10
362.01	244.19
362.39	244.48
362.77	244.48
363.15	244.05
363.53	244.24
363.91	244.71
364.29	244.81
364.67	242.43
365.05	242.00
365.43	242.67
365.81	242.90
366.19	243.71
366.57	244.43
366.95	244.43
367.33	243.38
367.71	243.19
368.09	243.43
368.47	243.38
368.85	243.29
369.23	243.71
369.61	242.71
369.99	243.43
370.37	243.52
370.75	244.86
371.13	244.19
371.51	244.05
371.89	243.81
372.27	243.95
372.65	244.24
373.03	244.19
373.41	243.86
373.78	243.43
374.16	242.24
374.54	241.38
374.92	241.33
375.30	241.71
375.68	241.19
376.06	241.19
376.44	240.81
376.82	240.95
377.19	240.48
377.57	240.57
377.95	239.76
378.33	239.52
378.71	237.62
379.09	238.10
379.47	238.52
379.84	238.48
380.22	238.05
380.60	237.62
380.98	237.86
381.36	237.52
381.73	237.33
382.11	237.81
382.49	238.14
382.87	237.86
383.25	237.62
383.62	240.57
384.00	240.10
384.38	240.52
384.76	240.95
385.13	241.90
385.51	241.71
385.89	241.57
386.27	241.57
386.64	242.33
387.02	242.10
387.40	241.71
387.78	241.57
388.15	242.05
388.53	242.05
388.91	241.81
389.29	241.57
389.66	242.05
390.04	241.86
390.42	242.10
390.79	242.43
391.17	242.52
391.55	239.67
391.92	239.76
392.30	239.52
392.68	238.95
393.05	238.90
393.43	239.10
393.81	238.90
394.18	238.67
394.56	238.38
394.94	239.05
395.31	238.57
395.69	239.67
396.06	239.67
396.44	239.57
396.82	239.62
397.19	240.90
397.57	240.52
397.95	241.00
398.32	240.33
398.70	240.81
399.07	241.24
399.45	241.33
399.82	241.19
400.20	241.29
400.58	241.81
400.95	240.95
401.33	241.57
401.70	243.62
402.08	243.90
402.45	244.14
402.83	244.48
403.20	245.00
403.58	244.90
403.95	245.62
404.33	246.52
404.71	246.76
405.08	248.43
405.46	248.86
405.83	249.10
406.21	249.38
406.58	249.76
406.96	250.10
407.33	250.90
407.70	251.95
408.08	254.48
408.45	255.19
408.83	256.43
409.20	256.81
409.58	256.00
409.95	257.14
410.33	258.19
410.70	258.38
411.08	259.76
411.45	260.62
411.82	261.38
412.20	263.05
412.57	265.33
412.95	264.52
413.32	266.33
413.69	267.52
414.07	269.86
414.44	271.57
414.82	273.67
415.19	275.86
415.56	278.24
415.94	279.19
416.31	282.33
416.68	284.90
417.06	288.33
417.43	292.29
417.81	296.14
418.18	300.29
418.55	304.52
418.93	308.81
419.30	313.19
419.67	317.90
420.04	322.67
420.42	327.19
420.79	334.67
421.16	340.76
421.54	348.24
421.91	353.86
422.28	360.52
422.66	367.05
423.03	375.43
423.40	382.33
423.77	389.90
424.15	396.62
424.52	404.38
424.89	413.05
425.26	420.33
425.64	427.86
426.01	435.86
426.38	444.10
426.75	453.71
427.13	463.29
427.50	472.90
427.87	482.24
428.24	492.24
428.61	500.43
428.99	511.05
429.36	521.57
429.73	532.90
430.10	544.86
430.47	557.19
430.85	568.05
431.22	580.95
431.59	596.76
431.96	609.71
432.33	623.90
432.70	637.33
433.08	654.43
433.45	669.43
433.82	684.90
434.19	702.81
434.56	718.00
434.93	733.67
435.30	749.24
435.68	766.76
436.05	782.76
436.42	799.71
436.79	815.19
437.16	831.76
437.53	848.95
437.90	865.86
438.27	882.24
438.64	898.95
439.01	914.86
439.38	925.38
439.75	939.29
440.13	954.24
440.50	968.14
440.87	979.43
441.24	991.95
441.61	1004.52
441.98	1013.33
442.35	1023.71
442.72	1034.19
443.09	1045.95
443.46	1051.95
443.83	1056.38
444.20	1059.43
444.57	1063.48
444.94	1064.62
445.31	1066.24
445.68	1070.67
446.05	1071.10
446.42	1068.38
446.79	1065.62
447.16	1063.14
447.53	1059.81
447.90	1051.57
448.27	1044.19
448.64	1033.86
449.01	1025.81
449.37	1013.71
449.74	1002.00
450.11	991.48
450.48	976.71
450.85	959.71
451.22	946.38
451.59	934.00
451.96	920.67
452.33	904.76
452.70	890.19
453.07	873.43
453.43	852.52
453.80	835.67
454.17	819.86
454.54	804.24
454.91	788.05
455.28	772.52
455.65	758.29
456.02	748.38
456.38	736.00
456.75	721.43
457.12	708.48
457.49	696.29
457.86	681.71
458.23	672.29
458.59	661.52
458.96	650.14
459.33	639.90
459.70	630.71
460.07	623.29
460.43	614.19
460.80	606.29
461.17	598.95
461.54	591.48
461.91	584.00
462.27	576.29
462.64	569.43
463.01	562.76
463.38	557.29
463.74	545.86
464.11	539.76
464.48	533.81
464.85	528.10
465.21	524.48
465.58	520.38
465.95	513.90
466.32	509.57
466.68	505.05
467.05	500.81
467.42	496.57
467.78	492.19
468.15	488.19
468.52	485.62
468.88	481.00
469.25	476.10
469.62	473.24
469.98	469.76
470.35	467.29
470.72	463.86
471.08	459.43
471.45	457.67
471.82	455.48
472.18	452.52
472.55	450.90
472.92	447.05
473.28	444.05
473.65	441.19
474.02	438.81
474.38	436.90
474.75	434.48
475.11	432.24
475.48	430.24
475.85	428.52
476.21	425.67
476.58	424.62
476.94	423.62
477.31	422.48
477.67	421.19
478.04	419.67
478.41	419.29
478.77	421.48
479.14	420.14
479.50	419.33
479.87	419.19
480.23	418.81
480.60	418.52
480.96	418.76
481.33	419.86
481.69	419.52
482.06	419.95
482.42	421.05
482.79	422.48
483.15	423.71
483.52	425.29
483.88	426.48
484.25	427.48
484.61	428.33
484.98	429.33
485.34	431.57
485.71	433.71
486.07	435.24
486.44	434.38
486.80	435.62
487.17	436.62
487.53	439.38
487.90	440.71
488.26	443.38
488.62	445.67
488.99	447.67
489.35	450.38
489.72	452.14
490.08	454.14
490.44	455.05
490.81	456.38
491.17	457.86
491.54	459.71
491.90	462.67
492.26	465.67
492.63	467.86
492.99	469.62
493.36	472.43
493.72	475.67
494.08	478.29
494.45	481.71
494.81	485.48
495.17	488.00
495.54	492.10
495.90	494.76
496.26	498.29
496.63	501.14
496.99	503.90
497.35	507.76
497.72	511.76
498.08	516.00
498.44	520.24
498.80	524.95
499.17	529.33
499.53	533.19
499.89	537.29
500.26	541.86
500.62	546.19
500.98	551.33
501.34	555.52
501.71	560.90
502.07	565.05
502.43	569.81
502.79	575.14
503.16	579.81
503.52	584.57
503.88	589.57
504.24	595.48
504.60	601.33
504.97	606.81
505.33	611.81
505.69	617.67
506.05	623.62
506.41	628.62
506.78	634.43
507.14	639.86
507.50	645.29
507.86	651.24
508.22	657.38
508.59	661.24
508.95	667.10
509.31	672.67
509.67	679.10
510.03	683.62
510.39	688.52
510.75	693.43
511.12	698.62
511.48	703.19
511.84	707.33
512.20	712.33
512.56	717.14
512.92	722.00
513.28	726.71
513.64	730.43
514.00	734.38
514.37	739.05
514.73	742.67
515.09	747.71
515.45	750.81
515.81	755.10
516.17	759.95
516.53	763.29
516.89	766.10
517.25	769.48
517.61	774.48
517.97	777.95
518.33	781.48
518.69	785.81
519.05	790.05
519.41	793.38
519.77	798.19
520.13	801.05
520.49	804.76
520.85	808.10
521.21	813.14
521.57	817.10
521.93	818.95
522.29	822.52
522.65	823.71
523.01	826.67
523.37	828.24
523.73	830.14
524.09	832.38
524.45	835.95
524.81	838.19
525.17	840.33
525.53	842.38
525.89	844.24
526.25	845.57
526.61	846.71
526.97	848.57
527.33	849.43
527.68	852.76
528.04	854.38
528.40	855.33
528.76	855.76
529.12	856.24
529.48	858.62
529.84	859.05
530.20	861.86
530.56	863.86
530.91	865.33
531.27	867.00
531.63	869.29
531.99	870.10
532.35	870.71
532.71	870.76
533.07	872.19
533.42	876.48
533.78	877.57
534.14	879.38
534.50	881.29
534.86	882.86
535.21	883.10
535.57	884.86
535.93	885.95
536.29	889.00
536.65	891.67
537.00	892.33
537.36	895.05
537.72	896.67
538.08	898.90
538.44	901.29
538.79	904.19
539.15	905.76
539.51	908.29
539.87	911.71
540.22	914.33
540.58	916.95
540.94	916.62
541.29	919.48
541.65	920.57
542.01	923.05
542.37	924.67
542.72	925.33
543.08	925.10
543.44	925.10
543.79	922.67
544.15	922.71
544.51	922.24
544.87	921.57
545.22	920.71
545.58	918.62
545.94	917.05
546.29	914.29
546.65	912.24
547.01	909.00
547.36	906.33
547.72	904.24
548.07	900.24
548.43	896.48
548.79	892.57
549.14	889.19
549.50	886.00
549.86	881.48
550.21	878.86
550.57	876.33
550.92	874.29
551.28	872.86
551.64	869.62
551.99	867.52
552.35	865.29
552.70	862.43
553.06	860.76
553.41	858.14
553.77	858.05
554.13	856.33
554.48	854.95
554.84	853.48
555.19	851.52
555.55	852.19
555.90	850.71
556.26	849.10
556.61	847.43
556.97	844.24
557.32	843.14
557.68	841.19
558.03	838.95
558.39	836.86
558.74	834.86
559.10	832.76
559.45	830.81
559.81	828.57
560.16	826.52
560.52	824.24
560.87	822.81
561.23	820.10
561.58	820.14
561.94	817.33
562.29	814.95
562.64	813.90
563.00	809.81
563.35	809.00
563.71	807.24
564.06	805.33
564.42	803.14
564.77	801.48
565.12	800.05
565.48	801.24
565.83	801.29
566.19	800.14
566.54	799.67
566.89	798.48
567.25	797.71
567.60	797.81
567.96	799.10
568.31	799.48
568.66	799.10
569.02	794.95
569.37	794.29
569.72	792.24
570.08	789.86
570.43	789.29
570.78	787.05
571.14	785.43
571.49	785.52
571.84	784.76
572.20	782.86
572.55	781.86
572.90	777.86
573.26	775.57
573.61	773.48
573.96	771.76
574.31	770.76
574.67	769.10
575.02	766.86
575.37	762.62
575.72	760.57
576.08	757.48
576.43	757.29
576.78	756.14
577.13	754.71
577.49	753.48
577.84	752.14
578.19	751.48
578.54	750.67
578.90	749.05
579.25	748.67
579.60	748.24
579.95	746.43
580.30	745.76
580.66	744.52
581.01	743.71
581.36	742.00
581.71	740.48
582.06	739.71
582.42	738.24
582.77	737.10
583.12	735.14
583.47	734.62
583.82	732.86
584.17	731.10
584.53	730.86
584.88	728.86
585.23	727.57
585.58	725.24
585.93	722.86
586.28	720.38
586.63	718.19
586.98	715.90
587.34	714.52
587.69	711.86
588.04	709.14
588.39	706.33
588.74	703.67
589.09	701.81
589.44	698.00
589.79	695.76
590.14	692.86
590.49	689.14
590.84	685.43
591.19	682.29
591.54	679.24
591.89	674.90
592.25	674.19
592.60	669.81
592.95	666.71
593.30	664.67
593.65	661.95
594.00	658.00
594.35	661.57
594.70	658.05
595.05	655.29
595.40	652.67
595.75	649.90
596.10	648.10
596.45	645.19
596.80	642.71
597.15	639.57
597.50	637.38
597.85	636.10
598.19	633.19
598.54	630.48
598.89	627.71
599.24	625.19
599.59	620.62
599.94	618.57
600.29	616.52
600.64	613.52
600.99	611.52
601.34	610.10
601.69	601.29
602.04	598.48
602.39	595.48
602.74	593.00
603.08	590.90
603.43	589.19
603.78	586.62
604.13	584.81
604.48	582.90
604.83	581.86
605.18	580.81
605.53	581.05
605.87	582.57
606.22	586.86
606.57	592.00
606.92	597.48
607.27	602.33
607.62	607.90
607.96	613.52
608.31	617.38
608.66	621.52
609.01	624.71
609.36	629.00
609.70	633.29
610.05	636.71
610.40	638.95
610.75	639.71
611.10	641.71
611.44	643.29
611.79	643.71
612.14	643.24
612.49	641.67
612.83	639.48
613.18	635.67
613.53	629.14
613.88	621.62
614.22	613.00
614.57	605.62
614.92	596.76
615.27	588.71
615.61	581.24
615.96	574.00
616.31	567.33
616.65	560.86
617.00	554.05
617.35	547.43
617.70	541.81
618.04	536.95
618.39	531.86
618.74	527.71
619.08	523.86
619.43	519.90
619.78	516.52
620.12	513.48
620.47	510.52
620.82	507.52
621.16	504.57
621.51	503.57
621.85	500.71
622.20	498.81
622.55	495.67
622.89	493.43
623.24	491.33
623.59	488.67
623.93	486.52
624.28	484.33
624.62	484.76
624.97	484.29
625.32	481.71
625.66	479.67
626.01	477.10
626.35	475.48
626.70	473.57
627.04	472.48
627.39	470.62
627.73	469.52
628.08	467.95
628.43	465.95
628.77	462.71
629.12	460.62
629.46	458.33
629.81	456.86
630.15	454.38
630.50	451.62
630.84	450.24
631.19	447.86
631.53	445.71
631.88	440.90
632.22	436.90
632.57	435.67
632.91	433.38
633.26	431.48
633.60	428.38
633.95	426.10
634.29	422.95
634.64	420.52
634.98	417.29
635.32	415.67
635.67	414.00
636.01	412.33
636.36	410.14
636.70	408.81
637.05	406.57
637.39	404.86
637.73	404.14
638.08	402.57
638.42	400.33
638.77	399.48
639.11	398.00
639.45	396.33
639.80	394.71
640.14	393.67
640.49	391.71
640.83	390.43
641.17	389.52
641.52	388.14
641.86	387.24
642.20	387.19
642.55	385.52
642.89	384.62
643.23	383.62
643.58	384.05
643.92	382.43
644.26	381.62
644.61	381.43
644.95	379.76
645.29	378.38
645.64	378.38
645.98	376.95
646.32	376.86
646.66	376.14
647.01	374.62
647.35	373.76
647.69	373.38
648.04	373.10
648.38	371.76
648.72	370.71
649.06	369.57
649.41	367.67
649.75	366.57
650.09	365.86
650.43	364.67
650.78	362.52
651.12	361.67
651.46	360.48
651.80	358.90
652.14	357.38
652.49	357.10
652.83	355.81
653.17	354.62
653.51	352.86
653.85	352.43
654.20	351.67
654.54	350.00
654.88	348.38
655.22	346.71
655.56	345.95
655.90	345.43
656.25	344.48
656.59	343.52
656.93	342.76
657.27	342.29
657.61	341.57
657.95	341.52
658.29	340.57
658.64	340.52
658.98	339.90
659.32	339.67
659.66	338.19
660.00	337.52
660.34	336.62
660.68	336.29
661.02	335.05
661.36	334.10
661.70	333.24
662.05	332.67
662.39	332.90
662.73	332.71
663.07	332.86
663.41	332.19
663.75	331.38
664.09	330.90
664.43	329.38
664.77	328.43
665.11	327.00
665.45	326.14
665.79	325.24
666.13	324.05
666.47	322.90
666.81	322.95
667.15	321.67
667.49	321.62
667.83	321.67
668.17	320.57
668.51	319.76
668.85	319.43
669.19	319.81
669.53	318.52
669.87	317.67
670.21	316.10
670.55	315.67
670.89	316.10
671.23	315.33
671.57	315.14
671.91	314.81
672.25	314.24
672.58	314.57
672.92	313.10
673.26	313.05
673.60	312.81
673.94	311.76
674.28	311.71
674.62	311.38
674.96	310.38
675.30	310.48
675.64	309.95
675.97	309.57
676.31	308.29
676.65	307.48
676.99	307.43
677.33	306.71
677.67	306.00
678.01	304.81
678.34	304.05
678.68	303.62
679.02	303.00
679.36	302.29
679.70	301.38
680.04	301.38
680.37	300.57
680.71	299.67
681.05	299.62
681.39	299.14
681.73	298.00
682.06	297.10
682.40	296.71
682.74	296.86
683.08	297.48
683.42	296.90
683.75	297.43
684.09	296.52
684.43	296.19
684.77	295.81
685.10	295.10
685.44	294.90
685.78	294.33
686.12	293.81
686.45	293.90
686.79	292.95
687.13	292.86
687.46	292.48
687.80	292.71
688.14	292.05
688.48	291.71
688.81	291.62
689.15	292.05
689.49	291.48
689.82	290.95
690.16	289.19
690.50	288.71
690.83	287.62
691.17	286.33
691.51	286.05
691.84	285.62
692.18	285.10
692.52	284.81
692.85	284.57
693.19	284.86
693.52	284.05
693.86	283.38
694.20	283.00
694.53	282.86
694.87	282.33
695.21	281.62
695.54	281.05
695.88	280.38
696.21	279.24
696.55	278.81
696.88	277.90
697.22	277.33
697.56	277.00
697.89	276.48
698.23	276.95
698.56	276.62
698.90	276.29
699.23	276.10
699.57	275.86
699.90	275.05
700.24	274.29
700.58	274.71
700.91	275.38
701.25	277.00
701.58	277.86
701.92	278.43
702.25	278.67
702.59	278.90
702.92	279.24
703.26	279.90
703.59	280.52
703.93	283.29
704.26	284.62
704.60	285.29
704.93	285.52
705.26	285.38
705.60	285.95
705.93	286.33
706.27	287.10
706.60	287.71
706.94	289.33
707.27	289.33
707.61	289.14
707.94	289.10
708.27	287.38
708.61	286.38
708.94	286.14
709.28	286.00
709.61	285.29
709.94	284.86
710.28	284.38
710.61	283.76
710.95	280.62
711.28	281.05
711.61	280.19
711.95	280.43
712.28	279.76
712.61	278.81
712.95	279.05
713.28	279.43
713.61	278.33
713.95	276.57
714.28	275.95
714.61	275.00
714.95	274.10
715.28	272.62
715.61	271.90
715.95	271.14
716.28	270.10
716.61	269.71
716.95	269.29
717.28	268.33
717.61	267.71
717.94	267.76
718.28	265.81
718.61	265.29
718.94	264.19
719.27	263.76
719.61	263.62
719.94	262.62
720.27	260.86
720.60	260.38
720.94	260.10
721.27	259.86
721.60	260.19
721.93	259.76
722.27	260.95
722.60	261.10
722.93	260.62
723.26	260.43
723.59	260.14
723.93	259.86
724.26	259.95
724.59	259.48
724.92	259.29
725.25	259.52
725.59	259.33
725.92	259.62
726.25	259.48
726.58	259.24
726.91	258.76
727.24	259.10
727.57	259.00
727.91	258.86
728.24	259.00
728.57	258.29
728.90	258.67
729.23	257.52
729.56	258.29
729.89	258.29
730.22	258.38
730.55	258.43
730.89	258.29
731.22	258.14
731.55	258.24
731.88	258.19
732.21	257.90
732.54	257.43
732.87	257.43
733.20	257.38
733.53	257.38
733.86	257.81
734.19	257.57
734.52	257.81
734.85	259.48
735.18	259.33
735.51	260.19
735.84	260.10
736.17	260.86
736.50	259.38
736.83	261.76
737.16	261.52
737.49	261.19
737.82	260.76
738.15	260.81
738.48	260.71
738.81	260.71
739.14	260.24
739.47	260.05
739.80	259.76
740.13	259.86
740.46	259.52
740.79	258.67
741.12	258.00
741.45	257.57
741.78	255.81
742.11	256.43
742.44	255.67
742.77	256.05
743.10	255.33
743.43	255.33
743.75	252.62
744.08	255.86
744.41	255.71
744.74	255.71
745.07	255.48
745.40	255.81
745.73	256.57
746.06	257.00
746.39	257.76
746.71	257.57
747.04	257.24
747.37	257.19
747.70	257.76
748.03	258.43
748.36	258.67
748.68	258.90
749.01	257.90
749.34	257.90
749.67	257.43
750.00	257.71
750.33	259.43
750.65	259.95
750.98	256.57
751.31	256.43
751.64	256.62
751.97	257.81
752.29	257.48
752.62	256.33
752.95	255.76
753.28	255.14
753.60	254.29
753.93	254.67
754.26	254.48
754.59	253.86
754.91	253.29
755.24	252.90
755.57	252.52
755.90	252.38
756.22	252.00
756.55	251.67
756.88	251.19
757.20	249.43
757.53	248.38
757.86	248.57
758.19	248.90
758.51	248.90
758.84	247.33
759.17	246.95
759.49	247.05
759.82	248.33
760.15	248.71
760.47	249.57
760.80	248.81
761.13	249.24
761.45	249.10
761.78	249.14
762.11	249.24
762.43	248.90
762.76	248.95
763.08	249.43
763.41	249.52
763.74	249.57
764.06	249.76
764.39	250.43
764.71	250.24
765.04	250.05
765.37	249.76
765.69	249.29
766.02	249.52
766.34	249.29
766.67	247.90
767.00	248.00
767.32	249.05
767.65	250.76
767.97	250.33
768.30	250.14
768.62	250.14
768.95	249.71
769.27	249.86
769.60	250.14
769.92	249.38
770.25	249.10
770.57	248.76
770.90	248.38
771.22	248.05
771.55	247.90
771.87	247.90
772.20	247.90
772.52	250.52
772.85	253.38
773.17	253.43
773.50	253.33
773.82	252.67
774.15	251.33
774.47	249.57
774.80	249.38
775.12	249.43
775.45	249.00
775.77	249.14
776.09	249.05
776.42	249.14
776.74	250.05
777.07	249.90
777.39	250.10
777.72	249.71
778.04	249.57
778.36	249.14
778.69	249.10
779.01	249.14
779.33	247.05
779.66	243.86
779.98	243.71
780.31	243.52
780.63	244.81
780.95	245.05
781.28	245.14
781.60	244.71
781.92	244.95
782.25	245.29
782.57	245.14
782.89	245.05
783.22	244.52
783.54	244.19
783.86	244.43
784.19	244.10
784.51	245.10
784.83	245.14
785.16	245.38
785.48	245.29
785.80	245.00
786.12	244.76
786.45	245.14
786.77	244.95
787.09	245.00
787.42	244.14
787.74	244.14
788.06	244.33
788.38	244.62
788.71	244.29
789.03	244.29
789.35	244.76
789.67	244.43
789.99	244.52
790.32	244.10
790.64	244.19
790.96	246.05
791.28	244.95
791.61	244.81
791.93	245.00
792.25	244.86
792.57	246.76
792.89	246.43
793.21	246.14
793.54	246.24
793.86	246.19
