SpectraSuite Data File
++++++++++++++++++++++++++++++++++++
Date: Wed Nov 07 18:31:10 EST 2012
User: group
Dark Spectrum Present: No
Reference Spectrum Present: No
Number of Sampled Component Spectra: 1
Spectrometers: USB2E7196
Integration Time (usec): 1000000 (USB2E7196)
Spectra Averaged: 1 (USB2E7196)
Boxcar Smoothing: 10 (USB2E7196)
Correct for Electrical Dark: No (USB2E7196)
Strobe/Lamp Enabled: No (USB2E7196)
Correct for Detector Non-linearity: No (USB2E7196)
Correct for Stray Light: No (USB2E7196)
Number of Pixels in Processed Spectrum: 2048
>>>>>Begin Processed Spectral Data<<<<<
339.09	0.00
339.48	221.00
339.86	219.00
340.24	222.00
340.63	226.00
341.01	263.00
341.39	225.00
341.78	237.00
342.16	235.00
342.54	224.00
342.93	222.29
343.31	233.14
343.69	233.76
344.07	234.29
344.46	234.95
344.84	235.38
345.22	233.76
345.60	234.52
345.99	234.43
346.37	234.52
346.75	235.10
347.13	235.24
347.52	235.38
347.90	236.38
348.28	236.48
348.66	237.14
349.05	236.48
349.43	236.90
349.81	237.43
350.19	237.95
350.57	238.52
350.96	238.76
351.34	239.67
351.72	239.90
352.10	240.24
352.48	240.14
352.87	240.33
353.25	240.67
353.63	240.57
354.01	241.00
354.39	241.33
354.77	241.19
355.15	241.95
355.54	241.67
355.92	240.86
356.30	240.81
356.68	242.29
357.06	242.43
357.44	242.14
357.82	242.19
358.20	242.29
358.58	242.29
358.97	242.57
359.35	242.81
359.73	243.14
360.11	243.19
360.49	243.57
360.87	243.38
361.25	243.71
361.63	244.48
362.01	244.24
362.39	244.19
362.77	244.62
363.15	244.57
363.53	244.48
363.91	244.76
364.29	244.71
364.67	242.29
365.05	242.33
365.43	242.71
365.81	242.90
366.19	243.71
366.57	244.76
366.95	244.52
367.33	243.67
367.71	243.57
368.09	243.67
368.47	243.43
368.85	243.52
369.23	243.90
369.61	243.10
369.99	244.05
370.37	244.19
370.75	245.00
371.13	244.33
371.51	244.14
371.89	244.05
372.27	244.57
372.65	244.62
373.03	244.62
373.41	244.38
373.78	244.29
374.16	243.14
374.54	242.24
374.92	242.24
375.30	242.33
375.68	242.10
376.06	242.52
376.44	242.19
376.82	242.57
377.19	242.24
377.57	241.95
377.95	241.05
378.33	240.57
378.71	239.43
379.09	239.76
379.47	240.24
379.84	240.00
380.22	239.52
380.60	239.33
380.98	239.33
381.36	239.00
381.73	238.71
382.11	239.43
382.49	239.71
382.87	239.43
383.25	239.71
383.62	242.33
384.00	241.62
384.38	241.95
384.76	242.38
385.13	243.81
385.51	244.29
385.89	244.10
386.27	244.10
386.64	244.52
387.02	244.19
387.40	243.76
387.78	244.19
388.15	244.29
388.53	244.29
388.91	243.81
389.29	243.86
389.66	243.90
390.04	243.38
390.42	243.48
390.79	243.33
391.17	243.00
391.55	240.67
391.92	240.95
392.30	241.24
392.68	240.48
393.05	239.71
393.43	239.48
393.81	239.48
394.18	239.48
394.56	239.52
394.94	240.00
395.31	239.71
395.69	240.14
396.06	240.62
396.44	240.71
396.82	241.00
397.19	242.05
397.57	242.00
397.95	242.29
398.32	241.76
398.70	242.05
399.07	242.95
399.45	242.67
399.82	242.95
400.20	243.14
400.58	243.43
400.95	242.81
401.33	243.52
401.70	245.38
402.08	245.57
402.45	245.57
402.83	246.43
403.20	247.19
403.58	246.95
403.95	247.43
404.33	248.14
404.71	248.52
405.08	250.33
405.46	250.90
405.83	251.43
406.21	251.71
406.58	252.57
406.96	252.57
407.33	253.10
407.70	253.52
408.08	255.71
408.45	256.52
408.83	257.67
409.20	257.90
409.58	257.29
409.95	258.33
410.33	259.48
410.70	259.71
411.08	260.81
411.45	262.43
411.82	263.00
412.20	264.52
412.57	267.10
412.95	266.33
413.32	268.05
413.69	269.33
414.07	271.48
414.44	272.71
414.82	274.90
415.19	277.19
415.56	279.57
415.94	280.14
416.31	283.14
416.68	286.24
417.06	289.81
417.43	293.33
417.81	296.90
418.18	300.71
418.55	304.62
418.93	308.76
419.30	312.48
419.67	317.19
420.04	322.05
420.42	325.90
420.79	333.67
421.16	338.95
421.54	346.00
421.91	352.29
422.28	358.57
422.66	365.14
423.03	374.05
423.40	381.10
423.77	388.43
424.15	395.48
424.52	402.57
424.89	411.10
425.26	418.81
425.64	426.76
426.01	434.76
426.38	443.29
426.75	452.90
427.13	462.24
427.50	471.81
427.87	481.19
428.24	490.86
428.61	498.62
428.99	510.33
429.36	521.19
429.73	532.38
430.10	545.00
430.47	558.43
430.85	569.81
431.22	583.14
431.59	600.52
431.96	614.86
432.33	630.38
432.70	645.43
433.08	662.19
433.45	677.86
433.82	694.19
434.19	712.29
434.56	728.86
434.93	744.90
435.30	760.67
435.68	777.48
436.05	794.48
436.42	810.05
436.79	825.62
437.16	842.05
437.53	859.14
437.90	875.48
438.27	890.71
438.64	906.62
439.01	920.90
439.38	931.10
439.75	943.24
440.13	958.14
440.50	971.14
440.87	982.00
441.24	993.33
441.61	1005.10
441.98	1012.67
442.35	1022.24
442.72	1033.52
443.09	1045.05
443.46	1051.38
443.83	1056.05
444.20	1060.48
444.57	1064.00
444.94	1064.90
445.31	1066.43
445.68	1070.62
446.05	1070.67
446.42	1067.43
446.79	1066.19
447.16	1063.14
447.53	1060.48
447.90	1051.81
448.27	1043.76
448.64	1034.67
449.01	1027.52
449.37	1016.24
449.74	1005.05
450.11	994.76
450.48	978.57
450.85	961.81
451.22	948.57
451.59	935.48
451.96	922.81
452.33	907.71
452.70	893.86
453.07	876.76
453.43	857.57
453.80	841.43
454.17	826.05
454.54	810.10
454.91	793.71
455.28	777.86
455.65	763.71
456.02	754.00
456.38	740.62
456.75	725.24
457.12	712.43
457.49	700.29
457.86	685.10
458.23	675.67
458.59	665.29
458.96	654.38
459.33	644.05
459.70	634.52
460.07	626.24
460.43	616.90
460.80	609.19
461.17	600.57
461.54	592.90
461.91	585.43
462.27	577.38
462.64	570.95
463.01	563.90
463.38	557.81
463.74	546.00
464.11	540.33
464.48	535.05
464.85	528.67
465.21	524.81
465.58	520.62
465.95	514.95
466.32	510.24
466.68	505.57
467.05	501.48
467.42	497.67
467.78	493.19
468.15	489.05
468.52	486.19
468.88	482.19
469.25	477.52
469.62	474.67
469.98	472.05
470.35	469.57
470.72	467.05
471.08	463.62
471.45	462.00
471.82	459.62
472.18	456.76
472.55	455.05
472.92	451.62
473.28	449.19
473.65	446.38
474.02	444.14
474.38	442.29
474.75	440.52
475.11	437.57
475.48	436.52
475.85	435.38
476.21	433.14
476.58	432.43
476.94	431.62
477.31	430.52
477.67	429.33
478.04	428.57
478.41	428.14
478.77	429.90
479.14	428.76
479.50	429.00
479.87	429.76
480.23	430.33
480.60	430.38
480.96	431.48
481.33	433.76
481.69	435.24
482.06	436.71
482.42	439.05
482.79	441.62
483.15	442.57
483.52	444.86
483.88	447.19
484.25	449.76
484.61	451.95
484.98	454.24
485.34	457.43
485.71	460.05
486.07	462.48
486.44	462.67
486.80	465.52
487.17	467.81
487.53	470.10
487.90	472.33
488.26	475.71
488.62	477.86
488.99	479.57
489.35	481.52
489.72	483.10
490.08	483.81
490.44	485.10
490.81	487.52
491.17	489.05
491.54	490.86
491.90	492.38
492.26	494.24
492.63	495.95
492.99	496.52
493.36	498.38
493.72	500.81
494.08	502.71
494.45	505.24
494.81	507.38
495.17	509.57
495.54	512.19
495.90	514.48
496.26	517.76
496.63	520.38
496.99	523.29
497.35	526.33
497.72	529.95
498.08	533.14
498.44	536.38
498.80	540.10
499.17	543.48
499.53	546.86
499.89	551.10
500.26	555.57
500.62	560.38
500.98	564.90
501.34	568.90
501.71	574.19
502.07	578.14
502.43	582.38
502.79	586.38
503.16	590.57
503.52	594.90
503.88	598.62
504.24	603.86
504.60	608.43
504.97	613.90
505.33	618.52
505.69	624.43
506.05	629.33
506.41	634.38
506.78	639.52
507.14	644.33
507.50	649.24
507.86	654.29
508.22	659.71
508.59	664.48
508.95	669.05
509.31	674.05
509.67	679.19
510.03	684.00
510.39	688.86
510.75	693.62
511.12	699.76
511.48	704.38
511.84	708.24
512.20	713.19
512.56	717.86
512.92	722.38
513.28	726.95
513.64	731.52
514.00	736.10
514.37	740.24
514.73	744.52
515.09	749.38
515.45	752.90
515.81	756.19
516.17	759.38
516.53	763.19
516.89	766.05
517.25	769.95
517.61	775.05
517.97	779.29
518.33	783.29
518.69	786.05
519.05	789.90
519.41	794.00
519.77	798.48
520.13	801.71
520.49	804.71
520.85	807.57
521.21	811.90
521.57	814.19
521.93	817.05
522.29	820.57
522.65	821.67
523.01	824.29
523.37	827.05
523.73	830.86
524.09	833.71
524.45	836.10
524.81	838.52
525.17	839.57
525.53	842.29
525.89	844.38
526.25	845.76
526.61	847.29
526.97	848.86
527.33	849.48
527.68	853.10
528.04	854.67
528.40	856.00
528.76	857.10
529.12	859.48
529.48	860.76
529.84	861.10
530.20	863.29
530.56	865.24
530.91	867.05
531.27	867.71
531.63	869.00
531.99	870.29
532.35	870.67
532.71	872.43
533.07	873.19
533.42	877.43
533.78	879.29
534.14	881.24
534.50	882.76
534.86	885.52
535.21	885.38
535.57	889.43
535.93	891.38
536.29	896.29
536.65	899.86
537.00	905.90
537.36	913.90
537.72	921.62
538.08	931.29
538.44	940.43
538.79	952.43
539.15	963.86
539.51	975.86
539.87	987.00
540.22	998.43
540.58	1011.38
540.94	1021.48
541.29	1034.81
541.65	1047.81
542.01	1060.43
542.37	1069.90
542.72	1078.48
543.08	1083.19
543.44	1089.19
543.79	1090.52
544.15	1094.05
544.51	1094.38
544.87	1092.86
545.22	1090.29
545.58	1083.81
545.94	1078.19
546.29	1069.76
546.65	1060.48
547.01	1051.05
547.36	1042.90
547.72	1032.00
548.07	1019.90
548.43	1007.76
548.79	994.76
549.14	981.57
549.50	969.43
549.86	957.62
550.21	947.38
550.57	939.62
550.92	931.14
551.28	924.48
551.64	916.24
551.99	909.48
552.35	901.86
552.70	895.81
553.06	891.10
553.41	885.57
553.77	881.62
554.13	877.52
554.48	873.43
554.84	868.57
555.19	865.71
555.55	864.14
555.90	860.90
556.26	856.90
556.61	853.14
556.97	848.19
557.32	845.43
557.68	843.24
558.03	841.10
558.39	838.05
558.74	835.00
559.10	832.43
559.45	830.00
559.81	828.52
560.16	826.38
560.52	823.76
560.87	822.71
561.23	819.67
561.58	819.43
561.94	816.71
562.29	814.86
562.64	812.33
563.00	808.43
563.35	806.10
563.71	805.19
564.06	803.24
564.42	802.38
564.77	800.48
565.12	798.33
565.48	798.33
565.83	798.29
566.19	796.71
566.54	795.14
566.89	794.14
567.25	793.38
567.60	793.05
567.96	794.19
568.31	793.57
568.66	793.14
569.02	789.48
569.37	788.95
569.72	788.67
570.08	787.71
570.43	786.67
570.78	785.05
571.14	783.14
571.49	782.43
571.84	781.00
572.20	781.29
572.55	780.67
572.90	777.33
573.26	775.52
573.61	774.86
573.96	774.71
574.31	774.33
574.67	772.24
575.02	770.71
575.37	768.19
575.72	766.24
576.08	764.05
576.43	764.76
576.78	764.00
577.13	762.86
577.49	762.48
577.84	761.76
578.19	762.24
578.54	762.52
578.90	763.10
579.25	763.86
579.60	762.57
579.95	762.00
580.30	762.33
580.66	762.00
581.01	761.57
581.36	760.33
581.71	758.76
582.06	759.95
582.42	759.67
582.77	758.14
583.12	757.05
583.47	756.86
583.82	754.71
584.17	754.14
584.53	753.71
584.88	752.33
585.23	752.48
585.58	750.10
585.93	747.67
586.28	744.33
586.63	741.67
586.98	739.38
587.34	737.10
587.69	733.62
588.04	731.38
588.39	728.33
588.74	725.00
589.09	722.86
589.44	718.57
589.79	714.62
590.14	711.90
590.49	707.95
590.84	703.43
591.19	699.90
591.54	695.38
591.89	690.29
592.25	688.05
592.60	682.86
592.95	678.76
593.30	675.29
593.65	671.95
594.00	667.67
594.35	671.10
594.70	667.67
595.05	664.76
595.40	660.67
595.75	656.90
596.10	654.29
596.45	650.86
596.80	647.90
597.15	643.90
597.50	640.81
597.85	638.95
598.19	636.52
598.54	633.86
598.89	630.76
599.24	628.48
599.59	624.52
599.94	621.10
600.29	618.52
600.64	616.48
600.99	614.52
601.34	612.29
601.69	602.48
602.04	599.14
602.39	596.00
602.74	594.10
603.08	591.29
603.43	589.62
603.78	587.67
604.13	585.57
604.48	584.81
604.83	583.86
605.18	583.62
605.53	585.14
605.87	588.81
606.22	595.24
606.57	602.76
606.92	610.71
607.27	620.48
607.62	629.95
607.96	638.67
608.31	646.14
608.66	652.52
609.01	658.05
609.36	664.33
609.70	670.29
610.05	675.67
610.40	681.71
610.75	685.24
611.10	688.52
611.44	691.76
611.79	692.95
612.14	694.14
612.49	692.86
612.83	689.48
613.18	684.05
613.53	676.19
613.88	667.05
614.22	656.14
614.57	644.62
614.92	632.57
615.27	621.48
615.61	611.38
615.96	602.81
616.31	595.05
616.65	587.33
617.00	579.10
617.35	570.38
617.70	562.81
618.04	555.71
618.39	549.10
618.74	543.14
619.08	538.29
619.43	533.00
619.78	528.62
620.12	525.86
620.47	522.81
620.82	519.05
621.16	515.38
621.51	514.10
621.85	510.86
622.20	508.95
622.55	505.67
622.89	502.48
623.24	500.10
623.59	497.10
623.93	494.38
624.28	492.05
624.62	492.19
624.97	490.57
625.32	488.33
625.66	486.10
626.01	483.67
626.35	482.14
626.70	480.14
627.04	479.33
627.39	476.95
627.73	475.90
628.08	474.48
628.43	472.52
628.77	468.95
629.12	466.81
629.46	464.90
629.81	462.86
630.15	460.52
630.50	458.14
630.84	456.33
631.19	453.71
631.53	451.19
631.88	446.29
632.22	442.05
632.57	439.86
632.91	436.86
633.26	434.19
633.60	430.67
633.95	428.24
634.29	423.90
634.64	421.67
634.98	418.29
635.32	416.52
635.67	414.38
636.01	412.57
636.36	411.00
636.70	409.19
637.05	406.90
637.39	405.29
637.73	403.48
638.08	402.14
638.42	400.19
638.77	398.86
639.11	397.19
639.45	396.24
639.80	394.29
640.14	393.14
640.49	391.62
640.83	390.29
641.17	389.10
641.52	388.29
641.86	387.05
642.20	386.67
642.55	384.52
642.89	383.10
643.23	381.86
643.58	381.48
643.92	379.48
644.26	378.43
644.61	377.81
644.95	377.00
645.29	375.33
645.64	375.43
645.98	374.62
646.32	374.90
646.66	373.90
647.01	373.38
647.35	372.81
647.69	372.57
648.04	372.19
648.38	371.05
648.72	370.33
649.06	368.81
649.41	366.90
649.75	366.33
650.09	365.71
650.43	364.57
650.78	362.76
651.12	362.00
651.46	360.86
651.80	359.76
652.14	357.95
652.49	357.52
652.83	355.19
653.17	353.62
653.51	351.57
653.85	350.67
654.20	349.43
654.54	347.81
654.88	346.19
655.22	344.62
655.56	343.33
655.90	342.00
656.25	341.57
656.59	340.71
656.93	339.67
657.27	339.48
657.61	338.62
657.95	337.86
658.29	336.86
658.64	337.10
658.98	335.86
659.32	334.86
659.66	334.10
660.00	333.95
660.34	333.48
660.68	332.90
661.02	332.19
661.36	331.62
661.70	330.90
662.05	330.05
662.39	330.38
662.73	330.67
663.07	331.81
663.41	330.81
663.75	329.62
664.09	329.00
664.43	327.38
664.77	326.57
665.11	325.62
665.45	325.38
665.79	324.67
666.13	323.76
666.47	323.10
666.81	322.05
667.15	321.10
667.49	320.48
667.83	320.67
668.17	319.38
668.51	318.48
668.85	318.05
669.19	318.38
669.53	316.86
669.87	315.57
670.21	313.76
670.55	313.05
670.89	313.86
671.23	312.76
671.57	312.38
671.91	311.86
672.25	311.67
672.58	311.90
672.92	310.43
673.26	310.05
673.60	309.95
673.94	309.43
674.28	309.19
674.62	309.14
674.96	308.05
675.30	308.19
675.64	307.57
675.97	307.24
676.31	306.19
676.65	305.48
676.99	305.10
677.33	304.10
677.67	303.81
678.01	302.05
678.34	302.10
678.68	301.71
679.02	301.14
679.36	300.33
679.70	298.62
680.04	298.29
680.37	298.10
680.71	297.43
681.05	296.76
681.39	296.33
681.73	295.33
682.06	294.81
682.40	294.10
682.74	294.00
683.08	294.48
683.42	293.71
683.75	294.14
684.09	293.52
684.43	293.48
684.77	292.81
685.10	292.71
685.44	292.24
685.78	291.52
686.12	291.19
686.45	291.14
686.79	290.76
687.13	291.10
687.46	290.43
687.80	291.05
688.14	290.62
688.48	290.10
688.81	289.90
689.15	289.95
689.49	289.95
689.82	290.05
690.16	288.62
690.50	288.24
690.83	287.24
691.17	286.52
691.51	286.10
691.84	286.19
692.18	285.81
692.52	285.24
692.85	285.19
693.19	285.48
693.52	284.67
693.86	284.29
694.20	283.71
694.53	283.57
694.87	282.76
695.21	282.00
695.54	281.67
695.88	280.86
696.21	279.76
696.55	279.14
696.88	278.24
697.22	277.81
697.56	277.38
697.89	277.19
698.23	277.24
698.56	276.71
698.90	276.71
699.23	276.19
699.57	276.29
699.90	275.86
700.24	275.19
700.58	275.57
700.91	276.10
701.25	277.86
701.58	278.52
701.92	279.10
702.25	279.52
702.59	279.71
702.92	280.48
703.26	281.38
703.59	281.62
703.93	284.19
704.26	284.86
704.60	285.71
704.93	286.24
705.26	286.43
705.60	286.90
705.93	286.57
706.27	287.86
706.60	288.52
706.94	290.14
707.27	289.95
707.61	290.24
707.94	289.90
708.27	288.29
708.61	287.71
708.94	287.52
709.28	287.67
709.61	287.00
709.94	286.19
710.28	285.43
710.61	284.86
710.95	281.90
711.28	282.81
711.61	281.95
711.95	281.95
712.28	281.19
712.61	280.95
712.95	281.71
713.28	281.52
713.61	280.19
713.95	278.10
714.28	277.62
714.61	276.81
714.95	275.90
715.28	274.43
715.61	273.71
715.95	272.86
716.28	271.95
716.61	271.86
716.95	271.52
717.28	271.00
717.61	270.57
717.94	270.10
718.28	267.67
718.61	267.29
718.94	265.95
719.27	265.29
719.61	264.57
719.94	263.10
720.27	261.71
720.60	261.33
720.94	261.05
721.27	260.90
721.60	261.05
721.93	260.95
722.27	261.62
722.60	261.57
722.93	260.81
723.26	260.76
723.59	260.33
723.93	260.29
724.26	260.29
724.59	259.81
724.92	260.00
725.25	260.90
725.59	260.90
725.92	261.19
726.25	260.95
726.58	261.10
726.91	260.90
727.24	261.00
727.57	260.62
727.91	260.05
728.24	260.29
728.57	259.57
728.90	259.90
729.23	259.14
729.56	259.90
729.89	260.33
730.22	259.95
730.55	259.67
730.89	259.29
731.22	258.95
731.55	258.95
731.88	258.62
732.21	257.71
732.54	257.33
732.87	257.19
733.20	257.67
733.53	257.67
733.86	257.90
734.19	257.62
734.52	258.19
734.85	260.24
735.18	259.38
735.51	260.05
735.84	259.67
736.17	260.29
736.50	259.05
736.83	261.24
737.16	261.19
737.49	261.05
737.82	261.14
738.15	261.33
738.48	261.48
738.81	261.24
739.14	261.14
739.47	260.67
739.80	260.48
740.13	260.33
740.46	259.57
740.79	259.33
741.12	258.95
741.45	258.43
741.78	256.76
742.11	257.71
742.44	256.90
742.77	257.14
743.10	256.57
743.43	256.24
743.75	253.86
744.08	257.29
744.41	257.14
744.74	256.95
745.07	256.14
745.40	256.38
745.73	257.67
746.06	257.52
746.39	257.95
746.71	257.48
747.04	256.67
747.37	256.57
747.70	256.81
748.03	257.19
748.36	257.62
748.68	257.71
749.01	256.71
749.34	256.57
749.67	256.38
750.00	256.57
750.33	258.43
750.65	258.71
750.98	255.29
751.31	255.43
751.64	255.33
751.97	256.90
752.29	256.57
752.62	254.90
752.95	254.76
753.28	254.24
753.60	254.24
753.93	255.48
754.26	255.62
754.59	254.76
754.91	254.29
755.24	253.81
755.57	253.52
755.90	253.33
756.22	253.10
756.55	253.05
756.88	252.38
757.20	250.67
757.53	249.81
757.86	249.67
758.19	249.62
758.51	249.81
758.84	248.62
759.17	248.43
759.49	248.62
759.82	249.76
760.15	250.05
760.47	249.76
760.80	248.81
761.13	249.48
761.45	249.48
761.78	249.76
762.11	249.67
762.43	249.48
762.76	249.29
763.08	249.52
763.41	249.33
763.74	249.71
764.06	249.86
764.39	249.76
764.71	249.43
765.04	249.14
765.37	248.76
765.69	248.48
766.02	248.43
766.34	248.43
766.67	247.62
767.00	248.10
767.32	249.43
767.65	250.81
767.97	250.10
768.30	249.86
768.62	249.38
768.95	249.19
769.27	249.00
769.60	249.48
769.92	249.19
770.25	248.71
770.57	248.14
770.90	247.90
771.22	247.62
771.55	248.00
771.87	248.14
772.20	247.76
772.52	250.00
772.85	252.76
773.17	252.67
773.50	252.43
773.82	252.05
774.15	251.29
774.47	249.67
774.80	249.67
775.12	249.95
775.45	249.90
775.77	250.00
776.09	250.29
776.42	250.19
776.74	250.71
777.07	250.05
777.39	250.00
777.72	249.76
778.04	250.19
778.36	250.10
778.69	249.90
779.01	250.00
779.33	247.57
779.66	244.86
779.98	244.86
780.31	245.05
780.63	245.95
780.95	246.05
781.28	245.95
781.60	245.57
781.92	245.52
782.25	245.38
782.57	245.33
782.89	244.95
783.22	244.95
783.54	244.33
783.86	244.71
784.19	244.52
784.51	245.24
784.83	244.76
785.16	244.29
785.48	244.62
785.80	244.71
786.12	244.86
786.45	244.67
786.77	244.71
787.09	244.33
787.42	243.05
787.74	242.86
788.06	242.81
788.38	242.95
788.71	242.81
789.03	243.24
789.35	243.67
789.67	243.57
789.99	243.81
790.32	243.90
790.64	244.71
790.96	246.86
791.28	246.05
791.61	245.81
791.93	246.10
792.25	245.86
792.57	247.76
792.89	247.52
793.21	247.90
