SpectraSuite Data File
++++++++++++++++++++++++++++++++++++
Date: Wed Nov 07 18:33:31 EST 2012
User: group
Dark Spectrum Present: No
Reference Spectrum Present: No
Number of Sampled Component Spectra: 1
Spectrometers: USB2E7196
Integration Time (usec): 1000000 (USB2E7196)
Spectra Averaged: 1 (USB2E7196)
Boxcar Smoothing: 10 (USB2E7196)
Correct for Electrical Dark: No (USB2E7196)
Strobe/Lamp Enabled: No (USB2E7196)
Correct for Detector Non-linearity: No (USB2E7196)
Correct for Stray Light: No (USB2E7196)
Number of Pixels in Processed Spectrum: 2048
>>>>>Begin Processed Spectral Data<<<<<
339.09	0.00
339.48	221.00
339.86	219.00
340.24	224.00
340.63	226.00
341.01	266.00
341.39	226.00
341.78	238.00
342.16	238.00
342.54	228.00
342.93	223.38
343.31	234.52
343.69	234.90
344.07	235.67
344.46	236.52
344.84	237.14
345.22	235.90
345.60	236.38
345.99	236.33
346.37	236.10
346.75	236.62
347.13	237.05
347.52	237.33
347.90	238.52
348.28	238.57
348.66	238.86
349.05	238.14
349.43	238.43
349.81	238.76
350.19	238.38
350.57	238.62
350.96	238.86
351.34	239.10
351.72	239.33
352.10	239.29
352.48	239.00
352.87	238.95
353.25	239.00
353.63	239.05
354.01	238.86
354.39	239.48
354.77	239.24
355.15	240.19
355.54	239.57
355.92	238.81
356.30	239.05
356.68	240.86
357.06	241.14
357.44	240.76
357.82	240.76
358.20	241.10
358.58	241.14
358.97	241.19
359.35	241.48
359.73	241.76
360.11	241.81
360.49	241.76
360.87	241.62
361.25	241.86
361.63	242.67
362.01	242.81
362.39	242.57
362.77	243.00
363.15	242.29
363.53	242.43
363.91	242.43
364.29	242.29
364.67	239.95
365.05	239.95
365.43	240.05
365.81	240.38
366.19	241.33
366.57	242.29
366.95	241.90
367.33	241.43
367.71	241.43
368.09	242.10
368.47	242.19
368.85	242.19
369.23	242.52
369.61	241.57
369.99	242.57
370.37	242.76
370.75	243.48
371.13	243.10
371.51	243.14
371.89	243.29
372.27	243.33
372.65	243.48
373.03	243.57
373.41	243.10
373.78	242.71
374.16	241.57
374.54	240.81
374.92	240.52
375.30	240.52
375.68	239.95
376.06	240.00
376.44	239.71
376.82	239.76
377.19	239.52
377.57	239.62
377.95	238.76
378.33	238.38
378.71	237.19
379.09	237.62
379.47	237.86
379.84	237.81
380.22	237.57
380.60	237.10
380.98	237.05
381.36	237.29
381.73	236.86
382.11	237.24
382.49	237.38
382.87	237.10
383.25	237.24
383.62	240.52
384.00	239.86
384.38	240.00
384.76	240.71
385.13	241.62
385.51	241.57
385.89	241.33
386.27	241.24
386.64	241.62
387.02	241.48
387.40	241.14
387.78	241.10
388.15	241.43
388.53	241.29
388.91	241.43
389.29	241.52
389.66	242.29
390.04	241.95
390.42	242.10
390.79	242.43
391.17	242.19
391.55	239.48
391.92	239.48
392.30	239.95
392.68	239.10
393.05	238.90
393.43	238.76
393.81	239.00
394.18	238.81
394.56	238.86
394.94	238.95
395.31	238.90
395.69	239.76
396.06	240.10
396.44	240.57
396.82	240.00
397.19	241.19
397.57	240.76
397.95	241.38
398.32	240.67
398.70	240.81
399.07	241.62
399.45	241.48
399.82	241.48
400.20	241.33
400.58	241.76
400.95	240.86
401.33	241.62
401.70	243.19
402.08	243.48
402.45	243.57
402.83	244.29
403.20	244.33
403.58	244.19
403.95	244.62
404.33	245.00
404.71	245.48
405.08	246.81
405.46	247.24
405.83	247.57
406.21	248.14
406.58	248.71
406.96	248.57
407.33	249.43
407.70	250.43
408.08	252.90
408.45	253.67
408.83	254.76
409.20	255.38
409.58	254.67
409.95	255.71
410.33	256.81
410.70	257.10
411.08	258.48
411.45	259.62
411.82	260.38
412.20	262.38
412.57	264.95
412.95	264.38
413.32	266.24
413.69	267.71
414.07	269.43
414.44	271.33
414.82	273.57
415.19	275.57
415.56	277.43
415.94	278.33
416.31	281.48
416.68	284.24
417.06	287.57
417.43	291.48
417.81	295.48
418.18	299.05
418.55	303.19
418.93	307.48
419.30	311.48
419.67	316.33
420.04	320.57
420.42	325.24
420.79	333.00
421.16	338.62
421.54	345.90
421.91	352.33
422.28	358.62
422.66	365.43
423.03	374.43
423.40	381.71
423.77	389.10
424.15	396.00
424.52	403.67
424.89	412.14
425.26	420.00
425.64	427.33
426.01	435.90
426.38	444.24
426.75	453.90
427.13	463.48
427.50	473.19
427.87	483.19
428.24	492.38
428.61	500.76
428.99	512.81
429.36	523.38
429.73	534.90
430.10	547.29
430.47	560.00
430.85	570.05
431.22	583.43
431.59	599.14
431.96	612.00
432.33	626.76
432.70	641.62
433.08	657.33
433.45	673.14
433.82	688.24
434.19	705.95
434.56	722.05
434.93	737.95
435.30	752.95
435.68	770.38
436.05	787.57
436.42	802.86
436.79	818.29
437.16	833.81
437.53	851.24
437.90	868.52
438.27	885.57
438.64	903.00
439.01	918.43
439.38	930.05
439.75	943.62
440.13	958.43
440.50	972.19
440.87	983.90
441.24	995.76
441.61	1008.67
441.98	1017.90
442.35	1028.71
442.72	1039.05
443.09	1050.95
443.46	1057.33
443.83	1061.38
444.20	1065.05
444.57	1068.67
444.94	1070.76
445.31	1071.67
445.68	1074.81
446.05	1073.67
446.42	1069.95
446.79	1068.14
447.16	1065.38
447.53	1062.86
447.90	1054.43
448.27	1046.62
448.64	1037.19
449.01	1030.48
449.37	1018.86
449.74	1006.86
450.11	995.71
450.48	981.10
450.85	964.76
451.22	950.71
451.59	938.19
451.96	926.14
452.33	910.19
452.70	895.81
453.07	878.71
453.43	859.24
453.80	842.57
454.17	827.52
454.54	810.86
454.91	794.00
455.28	778.48
455.65	765.05
456.02	754.86
456.38	741.86
456.75	725.38
457.12	712.00
457.49	699.29
457.86	684.33
458.23	674.38
458.59	663.24
458.96	651.81
459.33	641.76
459.70	632.05
460.07	623.95
460.43	614.90
460.80	606.90
461.17	598.67
461.54	591.19
461.91	583.90
462.27	576.52
462.64	570.33
463.01	562.81
463.38	556.48
463.74	544.29
464.11	538.19
464.48	533.14
464.85	527.81
465.21	524.43
465.58	520.05
465.95	513.71
466.32	509.38
466.68	504.67
467.05	499.52
467.42	494.81
467.78	489.43
468.15	485.14
468.52	482.29
468.88	478.00
469.25	473.29
469.62	470.10
469.98	466.38
470.35	463.10
470.72	460.71
471.08	456.43
471.45	454.57
471.82	452.43
472.18	449.57
472.55	446.86
472.92	442.71
473.28	439.57
473.65	437.14
474.02	434.24
474.38	433.00
474.75	431.76
475.11	429.52
475.48	428.57
475.85	426.71
476.21	424.57
476.58	423.67
476.94	423.00
477.31	422.24
477.67	421.38
478.04	420.43
478.41	419.62
478.77	421.95
479.14	420.52
479.50	420.14
479.87	419.57
480.23	419.19
480.60	419.24
480.96	419.57
481.33	421.24
481.69	421.81
482.06	421.67
482.42	422.38
482.79	423.71
483.15	424.62
483.52	426.24
483.88	426.86
484.25	427.86
484.61	428.62
484.98	428.71
485.34	430.67
485.71	432.43
486.07	433.43
486.44	432.00
486.80	433.67
487.17	434.76
487.53	437.43
487.90	440.19
488.26	442.86
488.62	445.29
488.99	446.14
489.35	447.90
489.72	449.90
490.08	451.86
490.44	453.10
490.81	455.00
491.17	456.71
491.54	459.76
491.90	462.29
492.26	465.10
492.63	468.10
492.99	469.81
493.36	472.52
493.72	476.00
494.08	479.48
494.45	482.86
494.81	486.29
495.17	489.33
495.54	492.76
495.90	495.67
496.26	499.05
496.63	502.62
496.99	506.48
497.35	510.62
497.72	514.48
498.08	518.71
498.44	523.14
498.80	527.67
499.17	531.48
499.53	536.14
499.89	540.81
500.26	545.33
500.62	550.76
500.98	556.29
501.34	560.62
501.71	565.24
502.07	569.81
502.43	574.86
502.79	579.38
503.16	583.14
503.52	588.24
503.88	593.05
504.24	598.43
504.60	603.52
504.97	608.71
505.33	613.57
505.69	620.33
506.05	625.14
506.41	630.29
506.78	635.38
507.14	640.67
507.50	646.05
507.86	650.71
508.22	656.05
508.59	660.52
508.95	666.10
509.31	673.00
509.67	679.19
510.03	684.29
510.39	689.00
510.75	694.86
511.12	699.95
511.48	704.95
511.84	710.19
512.20	715.52
512.56	720.71
512.92	725.90
513.28	729.76
513.64	735.38
514.00	740.24
514.37	745.81
514.73	749.52
515.09	754.19
515.45	759.29
515.81	763.24
516.17	767.24
516.53	772.00
516.89	774.90
517.25	779.10
517.61	783.81
517.97	788.24
518.33	791.76
518.69	795.57
519.05	799.71
519.41	803.48
519.77	808.38
520.13	811.38
520.49	814.86
520.85	818.00
521.21	822.10
521.57	825.67
521.93	827.67
522.29	831.38
522.65	834.19
523.01	837.05
523.37	839.33
523.73	842.19
524.09	843.48
524.45	845.38
524.81	846.43
525.17	847.76
525.53	850.81
525.89	853.33
526.25	856.24
526.61	858.24
526.97	859.38
527.33	860.62
527.68	865.05
528.04	866.00
528.40	868.14
528.76	868.62
529.12	869.90
529.48	871.62
529.84	872.48
530.20	874.05
530.56	876.10
530.91	879.10
531.27	880.29
531.63	882.33
531.99	883.14
532.35	885.24
532.71	886.43
533.07	886.43
533.42	889.67
533.78	889.14
534.14	889.57
534.50	890.81
534.86	891.81
535.21	890.90
535.57	892.90
535.93	892.71
536.29	894.95
536.65	896.43
537.00	897.81
537.36	899.71
537.72	900.90
538.08	902.43
538.44	903.00
538.79	905.14
539.15	906.52
539.51	909.29
539.87	911.10
540.22	913.62
540.58	916.19
540.94	916.52
541.29	918.86
541.65	920.48
542.01	922.52
542.37	923.86
542.72	923.57
543.08	923.43
543.44	924.81
543.79	923.33
544.15	923.10
544.51	923.81
544.87	922.43
545.22	921.24
545.58	919.19
545.94	917.67
546.29	916.48
546.65	914.33
547.01	911.95
547.36	909.81
547.72	906.48
548.07	904.05
548.43	900.19
548.79	897.29
549.14	894.48
549.50	892.19
549.86	888.86
550.21	887.24
550.57	885.71
550.92	882.67
551.28	881.48
551.64	879.05
551.99	875.76
552.35	874.05
552.70	871.71
553.06	869.95
553.41	868.00
553.77	867.19
554.13	865.19
554.48	863.67
554.84	861.29
555.19	859.95
555.55	860.67
555.90	859.43
556.26	857.67
556.61	855.81
556.97	853.14
557.32	851.43
557.68	850.33
558.03	848.05
558.39	846.81
558.74	844.29
559.10	841.81
559.45	840.67
559.81	838.48
560.16	835.76
560.52	833.86
560.87	832.19
561.23	829.10
561.58	829.24
561.94	826.81
562.29	825.57
562.64	823.71
563.00	818.76
563.35	817.43
563.71	815.81
564.06	814.62
564.42	813.05
564.77	810.52
565.12	808.52
565.48	809.95
565.83	809.19
566.19	808.29
566.54	807.38
566.89	805.76
567.25	805.00
567.60	805.95
567.96	807.24
568.31	807.48
568.66	806.71
569.02	803.38
569.37	802.67
569.72	801.57
570.08	800.67
570.43	799.33
570.78	797.52
571.14	795.90
571.49	794.76
571.84	793.29
572.20	792.86
572.55	791.57
572.90	787.10
573.26	784.38
573.61	782.81
573.96	782.14
574.31	780.86
574.67	778.81
575.02	776.71
575.37	773.10
575.72	769.90
576.08	767.38
576.43	766.24
576.78	764.86
577.13	762.71
577.49	760.95
577.84	760.24
578.19	759.10
578.54	758.05
578.90	756.90
579.25	755.67
579.60	754.62
579.95	752.48
580.30	751.43
580.66	750.95
581.01	749.48
581.36	747.19
581.71	745.48
582.06	745.43
582.42	743.71
582.77	741.52
583.12	740.24
583.47	738.33
583.82	736.95
584.17	735.38
584.53	734.76
584.88	733.52
585.23	732.24
585.58	730.05
585.93	728.05
586.28	725.71
586.63	724.05
586.98	721.67
587.34	720.24
587.69	717.48
588.04	715.00
588.39	712.24
588.74	709.24
589.09	707.19
589.44	703.14
589.79	700.38
590.14	698.05
590.49	695.10
590.84	691.62
591.19	688.48
591.54	684.76
591.89	679.90
592.25	678.43
592.60	674.29
592.95	671.24
593.30	668.38
593.65	664.95
594.00	661.71
594.35	665.48
594.70	661.67
595.05	659.24
595.40	656.14
595.75	652.86
596.10	649.95
596.45	646.86
596.80	644.57
597.15	641.67
597.50	638.81
597.85	637.19
598.19	635.38
598.54	632.43
598.89	629.76
599.24	628.24
599.59	623.57
599.94	620.95
600.29	618.90
600.64	616.29
600.99	614.71
601.34	611.90
601.69	602.48
602.04	600.24
602.39	597.67
602.74	595.90
603.08	594.24
603.43	593.14
603.78	590.90
604.13	588.90
604.48	587.24
604.83	586.48
605.18	584.95
605.53	584.81
605.87	586.90
606.22	590.10
606.57	593.33
606.92	597.71
607.27	602.86
607.62	607.14
607.96	611.43
608.31	614.48
608.66	618.24
609.01	620.76
609.36	623.90
609.70	626.71
610.05	628.86
610.40	631.10
610.75	632.38
611.10	634.38
611.44	635.71
611.79	635.67
612.14	635.10
612.49	633.24
612.83	630.86
613.18	626.95
613.53	621.62
613.88	615.33
614.22	608.10
614.57	600.38
614.92	592.86
615.27	586.71
615.61	579.48
615.96	572.81
616.31	567.67
616.65	562.10
617.00	556.19
617.35	550.43
617.70	544.71
618.04	539.38
618.39	533.81
618.74	529.57
619.08	525.67
619.43	521.43
619.78	518.33
620.12	515.57
620.47	512.57
620.82	509.57
621.16	506.71
621.51	505.67
621.85	503.05
622.20	500.71
622.55	496.95
622.89	495.00
623.24	493.00
623.59	490.38
623.93	487.81
624.28	485.86
624.62	485.90
624.97	485.76
625.32	483.57
625.66	481.67
626.01	478.95
626.35	477.81
626.70	476.57
627.04	475.19
627.39	473.43
627.73	472.48
628.08	470.67
628.43	468.90
628.77	465.19
629.12	463.19
629.46	461.38
629.81	460.10
630.15	457.95
630.50	455.81
630.84	453.67
631.19	452.05
631.53	449.86
631.88	445.14
632.22	441.24
632.57	439.86
632.91	437.24
633.26	435.90
633.60	432.86
633.95	429.95
634.29	427.00
634.64	424.86
634.98	421.76
635.32	419.81
635.67	418.19
636.01	416.81
636.36	414.62
636.70	413.57
637.05	411.48
637.39	409.48
637.73	407.71
638.08	406.67
638.42	404.38
638.77	402.90
639.11	401.48
639.45	399.76
639.80	398.00
640.14	396.76
640.49	394.67
640.83	393.48
641.17	392.38
641.52	390.76
641.86	389.71
642.20	389.24
642.55	387.43
642.89	386.24
643.23	384.71
643.58	384.57
643.92	382.14
644.26	381.38
644.61	381.33
644.95	380.62
645.29	378.95
645.64	378.81
645.98	377.62
646.32	377.24
646.66	376.05
647.01	374.81
647.35	374.38
647.69	373.81
648.04	373.14
648.38	372.57
648.72	372.10
649.06	370.33
649.41	368.57
649.75	367.76
650.09	367.05
650.43	366.43
650.78	364.10
651.12	363.14
651.46	362.10
651.80	360.38
652.14	358.90
652.49	358.57
652.83	356.81
653.17	355.62
653.51	353.81
653.85	353.10
654.20	351.90
654.54	350.38
654.88	348.57
655.22	346.76
655.56	345.00
655.90	343.81
656.25	342.81
656.59	341.76
656.93	340.67
657.27	339.95
657.61	338.62
657.95	338.48
658.29	337.76
658.64	336.81
658.98	335.95
659.32	334.90
659.66	333.33
660.00	332.95
660.34	332.33
660.68	332.14
661.02	331.81
661.36	331.19
661.70	330.57
662.05	330.62
662.39	331.24
662.73	331.57
663.07	332.38
663.41	331.67
663.75	331.14
664.09	331.24
664.43	330.33
664.77	329.86
665.11	328.71
665.45	328.33
665.79	328.29
666.13	327.33
666.47	326.52
666.81	326.05
667.15	324.76
667.49	324.24
667.83	324.62
668.17	323.71
668.51	323.14
668.85	322.95
669.19	323.38
669.53	321.90
669.87	320.48
670.21	318.76
670.55	318.86
670.89	319.52
671.23	318.33
671.57	317.43
671.91	317.10
672.25	316.95
672.58	317.05
672.92	315.62
673.26	315.48
673.60	315.24
673.94	314.81
674.28	314.62
674.62	314.43
674.96	312.71
675.30	312.10
675.64	312.05
675.97	311.67
676.31	310.10
676.65	309.67
676.99	310.14
677.33	309.52
677.67	309.33
678.01	307.62
678.34	307.57
678.68	307.71
679.02	307.14
679.36	306.57
679.70	305.29
680.04	304.76
680.37	304.14
680.71	303.67
681.05	303.29
681.39	302.76
681.73	302.19
682.06	301.71
682.40	301.33
682.74	301.05
683.08	301.24
683.42	300.67
683.75	300.67
684.09	299.71
684.43	299.24
684.77	298.10
685.10	297.52
685.44	297.19
685.78	296.38
686.12	295.67
686.45	295.24
686.79	294.52
687.13	295.24
687.46	294.76
687.80	294.95
688.14	294.62
688.48	294.43
688.81	294.05
689.15	294.38
689.49	293.86
689.82	293.24
690.16	291.71
690.50	291.33
690.83	290.29
691.17	289.14
691.51	288.67
691.84	288.76
692.18	288.76
692.52	287.90
692.85	287.48
693.19	288.00
693.52	287.48
693.86	287.14
694.20	286.52
694.53	286.48
694.87	285.48
695.21	284.48
695.54	283.67
695.88	282.62
696.21	281.71
696.55	281.33
696.88	280.76
697.22	279.90
697.56	279.71
697.89	279.48
698.23	279.67
698.56	279.10
698.90	278.81
699.23	278.24
699.57	278.52
699.90	277.90
700.24	276.81
700.58	276.76
700.91	276.95
701.25	278.33
701.58	278.67
701.92	279.48
702.25	280.10
702.59	280.24
702.92	280.81
703.26	280.95
703.59	281.81
703.93	284.05
704.26	284.95
704.60	285.38
704.93	285.62
705.26	285.86
705.60	286.76
705.93	286.67
706.27	287.62
706.60	288.24
706.94	289.86
707.27	289.81
707.61	290.33
707.94	290.38
708.27	288.43
708.61	287.86
708.94	287.33
709.28	286.86
709.61	286.38
709.94	285.90
710.28	285.33
710.61	284.29
710.95	281.43
711.28	282.95
711.61	282.05
711.95	281.76
712.28	280.62
712.61	279.43
712.95	280.00
713.28	280.05
713.61	278.52
713.95	276.52
714.28	276.10
714.61	274.57
714.95	273.86
715.28	272.57
715.61	271.81
715.95	271.43
716.28	270.52
716.61	270.29
716.95	269.62
717.28	269.00
717.61	268.52
717.94	268.24
718.28	265.19
718.61	264.57
718.94	264.00
719.27	263.71
719.61	263.76
719.94	262.76
720.27	261.00
720.60	260.29
720.94	260.24
721.27	260.10
721.60	260.52
721.93	259.86
722.27	260.95
722.60	260.71
722.93	259.90
723.26	260.14
723.59	259.62
723.93	260.00
724.26	260.00
724.59	259.71
724.92	259.52
725.25	260.38
725.59	260.29
725.92	260.38
726.25	260.29
726.58	260.24
726.91	259.62
727.24	260.00
727.57	260.05
727.91	259.76
728.24	259.86
728.57	259.14
728.90	260.00
729.23	258.76
729.56	259.81
729.89	259.95
730.22	259.43
730.55	259.43
730.89	258.95
731.22	258.67
731.55	258.57
731.88	258.52
732.21	257.71
732.54	257.38
732.87	257.19
733.20	257.43
733.53	257.10
733.86	257.52
734.19	256.76
734.52	257.29
734.85	258.71
735.18	258.38
735.51	259.43
735.84	258.95
736.17	259.52
736.50	258.10
736.83	260.52
737.16	260.90
737.49	261.00
737.82	260.81
738.15	261.14
738.48	261.05
738.81	261.00
739.14	261.05
739.47	261.00
739.80	260.71
740.13	260.76
740.46	260.33
740.79	259.57
741.12	259.86
741.45	259.19
741.78	257.86
742.11	257.90
742.44	257.14
742.77	257.24
743.10	257.00
743.43	257.00
743.75	254.33
744.08	257.10
744.41	256.90
744.74	256.71
745.07	255.81
745.40	256.05
745.73	256.81
746.06	256.52
746.39	256.52
746.71	256.48
747.04	256.00
747.37	255.95
747.70	256.33
748.03	256.33
748.36	256.52
748.68	256.10
749.01	255.57
749.34	255.52
749.67	255.57
750.00	255.81
750.33	257.52
750.65	257.71
750.98	254.52
751.31	254.43
751.64	254.57
751.97	256.10
752.29	255.57
752.62	254.76
752.95	254.52
753.28	254.24
753.60	253.90
753.93	254.52
754.26	254.48
754.59	253.86
754.91	253.52
755.24	253.57
755.57	253.52
755.90	253.57
756.22	253.05
756.55	252.38
756.88	251.71
757.20	250.33
757.53	249.48
757.86	249.38
758.19	249.67
758.51	249.48
758.84	248.38
759.17	248.48
759.49	248.57
759.82	249.90
760.15	250.14
760.47	250.19
760.80	249.14
761.13	249.62
761.45	249.43
761.78	249.29
762.11	249.29
762.43	249.19
762.76	248.81
763.08	249.29
763.41	249.62
763.74	249.71
764.06	249.57
764.39	249.57
764.71	249.33
765.04	248.76
765.37	248.29
765.69	248.14
766.02	247.95
766.34	247.33
766.67	246.00
767.00	246.24
767.32	247.43
767.65	248.95
767.97	248.48
768.30	248.81
768.62	248.71
768.95	248.14
769.27	248.00
769.60	248.24
769.92	247.67
770.25	247.33
770.57	246.81
770.90	246.48
771.22	246.57
771.55	246.71
771.87	246.95
772.20	247.10
772.52	249.10
772.85	252.00
773.17	252.19
773.50	252.00
773.82	251.57
774.15	250.38
774.47	248.86
774.80	248.90
775.12	248.43
775.45	248.67
775.77	248.86
776.09	249.24
776.42	249.29
776.74	249.95
777.07	249.67
777.39	249.57
777.72	249.29
778.04	249.38
778.36	249.10
778.69	248.67
779.01	248.71
779.33	246.57
779.66	243.86
779.98	243.95
780.31	244.29
780.63	245.43
780.95	245.76
781.28	245.81
781.60	245.43
781.92	245.33
782.25	244.81
782.57	244.62
782.89	244.19
783.22	244.29
783.54	243.71
783.86	243.86
784.19	243.86
784.51	244.71
784.83	244.52
785.16	244.57
785.48	244.90
785.80	244.90
786.12	245.19
786.45	244.95
786.77	244.86
787.09	244.57
787.42	243.76
787.74	243.95
788.06	244.00
788.38	243.71
788.71	243.71
789.03	243.90
789.35	244.33
789.67	244.14
789.99	243.90
790.32	243.81
790.64	244.38
790.96	246.62
791.28	245.52
791.61	245.33
791.93	245.33
792.25	245.19
792.57	247.00
792.89	246.24
793.21	246.33
793.54	246.00
793.86	245.81
