SpectraSuite Data File
++++++++++++++++++++++++++++++++++++
Date: Wed Nov 07 18:31:43 EST 2012
User: group
Dark Spectrum Present: No
Reference Spectrum Present: No
Number of Sampled Component Spectra: 1
Spectrometers: USB2E7196
Integration Time (usec): 1000000 (USB2E7196)
Spectra Averaged: 1 (USB2E7196)
Boxcar Smoothing: 10 (USB2E7196)
Correct for Electrical Dark: No (USB2E7196)
Strobe/Lamp Enabled: No (USB2E7196)
Correct for Detector Non-linearity: No (USB2E7196)
Correct for Stray Light: No (USB2E7196)
Number of Pixels in Processed Spectrum: 2048
>>>>>Begin Processed Spectral Data<<<<<
339.09	0.00
339.48	221.00
339.86	223.00
340.24	224.00
340.63	225.00
341.01	263.00
341.39	224.00
341.78	238.00
342.16	243.00
342.54	229.00
342.93	222.95
343.31	234.00
343.69	234.52
344.07	234.90
344.46	235.71
344.84	236.14
345.22	234.86
345.60	235.62
345.99	235.57
346.37	235.10
346.75	235.19
347.13	234.86
347.52	234.86
347.90	235.67
348.28	235.95
348.66	236.43
349.05	236.10
349.43	236.33
349.81	237.14
350.19	237.05
350.57	237.05
350.96	237.38
351.34	237.57
351.72	237.76
352.10	237.90
352.48	237.52
352.87	237.38
353.25	237.38
353.63	237.14
354.01	236.95
354.39	237.38
354.77	237.48
355.15	238.52
355.54	238.29
355.92	237.71
356.30	237.62
356.68	238.86
357.06	239.05
357.44	238.71
357.82	238.57
358.20	239.10
358.58	239.48
358.97	239.43
359.35	240.14
359.73	240.81
360.11	240.71
360.49	240.95
360.87	241.33
361.25	241.81
361.63	242.71
362.01	243.24
362.39	242.86
362.77	243.33
363.15	243.29
363.53	243.38
363.91	243.76
364.29	244.10
364.67	242.00
365.05	242.05
365.43	242.57
365.81	243.10
366.19	244.05
366.57	244.81
366.95	245.19
367.33	244.43
367.71	244.38
368.09	244.95
368.47	245.19
368.85	245.00
369.23	245.48
369.61	244.52
369.99	245.38
370.37	245.90
370.75	246.95
371.13	246.67
371.51	246.62
371.89	246.81
372.27	246.71
372.65	246.86
373.03	247.05
373.41	246.86
373.78	246.38
374.16	244.81
374.54	244.33
374.92	243.81
375.30	244.00
375.68	243.14
376.06	243.43
376.44	243.43
376.82	243.81
377.19	243.24
377.57	243.19
377.95	242.19
378.33	242.10
378.71	240.62
379.09	241.00
379.47	241.24
379.84	240.67
380.22	240.00
380.60	239.86
380.98	239.43
381.36	239.48
381.73	239.38
382.11	240.14
382.49	240.05
382.87	239.81
383.25	239.71
383.62	242.95
384.00	242.52
384.38	242.24
384.76	242.57
385.13	243.86
385.51	243.95
385.89	243.48
386.27	243.52
386.64	244.19
387.02	243.71
387.40	243.48
387.78	243.67
388.15	244.38
388.53	244.33
388.91	244.19
389.29	243.67
389.66	243.81
390.04	243.33
390.42	243.95
390.79	243.90
391.17	243.76
391.55	240.71
391.92	240.33
392.30	240.62
392.68	240.05
393.05	239.67
393.43	239.62
393.81	240.29
394.18	239.86
394.56	239.52
394.94	240.38
395.31	240.24
395.69	240.81
396.06	241.00
396.44	241.19
396.82	241.33
397.19	242.90
397.57	242.57
397.95	242.86
398.32	241.86
398.70	242.48
399.07	243.33
399.45	243.43
399.82	243.76
400.20	243.19
400.58	243.38
400.95	242.38
401.33	242.95
401.70	244.48
402.08	244.90
402.45	245.00
402.83	245.19
403.20	245.62
403.58	245.62
403.95	246.24
404.33	246.90
404.71	247.24
405.08	248.38
405.46	248.67
405.83	249.29
406.21	249.95
406.58	250.29
406.96	250.48
407.33	251.48
407.70	252.38
408.08	255.10
408.45	256.14
408.83	257.38
409.20	257.95
409.58	257.00
409.95	258.57
410.33	259.71
410.70	259.95
411.08	261.43
411.45	262.33
411.82	263.10
412.20	264.71
412.57	267.29
412.95	266.90
413.32	269.33
413.69	270.52
414.07	272.43
414.44	274.29
414.82	276.67
415.19	278.67
415.56	280.52
415.94	281.81
416.31	284.52
416.68	287.29
417.06	290.67
417.43	295.10
417.81	298.24
418.18	302.14
418.55	306.05
418.93	310.24
419.30	314.48
419.67	319.00
420.04	323.14
420.42	327.14
420.79	334.67
421.16	340.14
421.54	348.05
421.91	354.24
422.28	360.19
422.66	366.52
423.03	374.81
423.40	382.05
423.77	389.33
424.15	396.86
424.52	405.00
424.89	413.57
425.26	420.86
425.64	428.00
426.01	436.00
426.38	444.76
426.75	454.76
427.13	464.05
427.50	473.62
427.87	483.43
428.24	493.33
428.61	501.19
428.99	512.24
429.36	521.76
429.73	532.81
430.10	544.95
430.47	557.19
430.85	567.62
431.22	580.81
431.59	596.86
431.96	610.14
432.33	623.57
432.70	637.38
433.08	653.43
433.45	668.90
433.82	684.57
434.19	701.86
434.56	715.95
434.93	731.90
435.30	747.00
435.68	764.57
436.05	781.33
436.42	798.10
436.79	813.57
437.16	830.05
437.53	847.14
437.90	863.24
438.27	879.76
438.64	897.00
439.01	912.67
439.38	923.71
439.75	935.86
440.13	951.67
440.50	966.00
440.87	976.81
441.24	988.71
441.61	1000.95
441.98	1009.95
442.35	1021.29
442.72	1032.86
443.09	1044.52
443.46	1050.57
443.83	1054.24
444.20	1057.24
444.57	1061.19
444.94	1061.90
445.31	1064.14
445.68	1069.19
446.05	1068.10
446.42	1064.05
446.79	1061.33
447.16	1059.05
447.53	1056.67
447.90	1048.90
448.27	1040.19
448.64	1031.38
449.01	1024.43
449.37	1012.24
449.74	999.81
450.11	988.95
450.48	971.86
450.85	955.05
451.22	941.57
451.59	928.81
451.96	916.67
452.33	901.05
452.70	887.71
453.07	870.19
453.43	849.71
453.80	833.71
454.17	819.05
454.54	803.19
454.91	786.19
455.28	770.10
455.65	755.19
456.02	745.76
456.38	732.81
456.75	717.33
457.12	704.48
457.49	692.24
457.86	677.67
458.23	669.67
458.59	659.10
458.96	647.95
459.33	637.95
459.70	628.14
460.07	620.14
460.43	610.62
460.80	602.43
461.17	594.95
461.54	587.33
461.91	579.81
462.27	572.00
462.64	564.90
463.01	558.76
463.38	553.62
463.74	542.19
464.11	535.95
464.48	530.90
464.85	525.33
465.21	521.95
465.58	517.67
465.95	510.71
466.32	505.90
466.68	500.81
467.05	496.86
467.42	492.05
467.78	487.43
468.15	483.14
468.52	480.29
468.88	475.95
469.25	471.81
469.62	469.05
469.98	465.86
470.35	462.95
470.72	459.62
471.08	454.62
471.45	452.62
471.82	450.14
472.18	446.95
472.55	445.05
472.92	441.24
473.28	438.38
473.65	436.05
474.02	434.00
474.38	432.48
474.75	430.43
475.11	427.86
475.48	426.19
475.85	424.52
476.21	422.48
476.58	421.57
476.94	420.71
477.31	419.14
477.67	417.76
478.04	417.19
478.41	416.76
478.77	418.33
479.14	417.10
479.50	416.57
479.87	416.43
480.23	416.29
480.60	416.00
480.96	416.29
481.33	417.71
481.69	417.67
482.06	417.86
482.42	418.43
482.79	419.52
483.15	420.38
483.52	421.33
483.88	422.24
484.25	422.81
484.61	423.48
484.98	424.38
485.34	426.95
485.71	428.76
486.07	429.90
486.44	429.10
486.80	431.14
487.17	432.86
487.53	434.67
487.90	436.90
488.26	439.81
488.62	442.19
488.99	443.14
489.35	445.57
489.72	446.95
490.08	448.52
490.44	450.19
490.81	452.19
491.17	454.10
491.54	456.24
491.90	459.81
492.26	462.38
492.63	464.81
492.99	465.95
493.36	468.48
493.72	471.19
494.08	474.14
494.45	476.86
494.81	480.19
495.17	483.24
495.54	486.52
495.90	489.38
496.26	492.57
496.63	496.71
496.99	500.29
497.35	504.67
497.72	508.86
498.08	513.62
498.44	517.48
498.80	522.24
499.17	526.10
499.53	529.10
499.89	534.19
500.26	539.05
500.62	543.86
500.98	549.57
501.34	554.38
501.71	560.71
502.07	565.67
502.43	570.14
502.79	574.76
503.16	579.81
503.52	585.05
503.88	588.81
504.24	593.33
504.60	598.71
504.97	604.81
505.33	610.00
505.69	616.05
506.05	621.52
506.41	626.76
506.78	632.48
507.14	637.71
507.50	642.95
507.86	648.05
508.22	654.38
508.59	658.05
508.95	663.57
509.31	668.76
509.67	673.81
510.03	678.67
510.39	684.43
510.75	689.05
511.12	694.00
511.48	700.14
511.84	704.86
512.20	709.57
512.56	713.48
512.92	718.57
513.28	723.10
513.64	727.67
514.00	732.33
514.37	736.86
514.73	741.67
515.09	746.05
515.45	750.29
515.81	753.57
516.17	757.81
516.53	761.76
516.89	764.14
517.25	768.24
517.61	773.19
517.97	776.10
518.33	779.57
518.69	783.67
519.05	787.86
519.41	792.14
519.77	797.00
520.13	800.90
520.49	804.19
520.85	806.67
521.21	810.33
521.57	813.38
521.93	815.57
522.29	818.67
522.65	820.38
523.01	823.52
523.37	825.86
523.73	828.24
524.09	830.33
524.45	832.57
524.81	835.24
525.17	837.00
525.53	839.67
525.89	842.33
526.25	843.95
526.61	844.81
526.97	845.71
527.33	846.38
527.68	849.48
528.04	850.57
528.40	852.19
528.76	853.81
529.12	855.14
529.48	857.62
529.84	858.43
530.20	860.29
530.56	861.57
530.91	863.62
531.27	865.19
531.63	867.05
531.99	868.48
532.35	868.52
532.71	869.38
533.07	870.19
533.42	873.62
533.78	874.24
534.14	875.62
534.50	877.57
534.86	879.19
535.21	878.43
535.57	880.10
535.93	879.90
536.29	881.76
536.65	882.62
537.00	883.86
537.36	886.24
537.72	888.05
538.08	891.00
538.44	892.43
538.79	894.76
539.15	895.95
539.51	898.76
539.87	901.29
540.22	903.52
540.58	906.19
540.94	905.52
541.29	908.05
541.65	909.19
542.01	911.62
542.37	912.57
542.72	913.71
543.08	913.43
543.44	914.62
543.79	913.24
544.15	913.76
544.51	913.05
544.87	911.48
545.22	910.19
545.58	907.33
545.94	905.33
546.29	904.00
546.65	902.14
547.01	898.95
547.36	897.00
547.72	894.81
548.07	891.57
548.43	888.05
548.79	884.14
549.14	881.14
549.50	877.33
549.86	873.71
550.21	870.71
550.57	868.24
550.92	866.14
551.28	864.19
551.64	861.62
551.99	859.52
552.35	856.90
552.70	853.76
553.06	851.71
553.41	849.19
553.77	847.43
554.13	844.76
554.48	843.86
554.84	842.14
555.19	839.14
555.55	839.29
555.90	837.95
556.26	836.81
556.61	835.38
556.97	832.43
557.32	830.43
557.68	828.62
558.03	827.00
558.39	825.10
558.74	823.05
559.10	821.43
559.45	819.57
559.81	819.24
560.16	818.05
560.52	815.86
560.87	814.86
561.23	811.76
561.58	812.67
561.94	810.14
562.29	807.95
562.64	806.95
563.00	802.38
563.35	800.86
563.71	799.10
564.06	796.33
564.42	795.05
564.77	793.86
565.12	792.86
565.48	793.57
565.83	792.90
566.19	790.90
566.54	788.95
566.89	787.52
567.25	786.38
567.60	786.76
567.96	788.43
568.31	788.95
568.66	789.05
569.02	785.24
569.37	784.10
569.72	782.00
570.08	780.81
570.43	779.67
570.78	777.71
571.14	776.38
571.49	775.19
571.84	774.33
572.20	772.90
572.55	771.24
572.90	767.48
573.26	764.90
573.61	764.43
573.96	763.52
574.31	761.90
574.67	760.14
575.02	757.24
575.37	752.90
575.72	749.95
576.08	747.62
576.43	746.90
576.78	745.19
577.13	744.19
577.49	742.10
577.84	741.57
578.19	740.81
578.54	739.10
578.90	738.29
579.25	736.67
579.60	735.43
579.95	733.67
580.30	733.19
580.66	732.14
581.01	730.05
581.36	727.95
581.71	726.52
582.06	725.71
582.42	724.14
582.77	722.76
583.12	720.95
583.47	719.33
583.82	717.71
584.17	716.05
584.53	714.90
584.88	713.00
585.23	711.57
585.58	709.05
585.93	706.76
586.28	705.71
586.63	704.05
586.98	702.00
587.34	699.86
587.69	697.05
588.04	694.52
588.39	692.10
588.74	689.62
589.09	687.67
589.44	683.33
589.79	680.76
590.14	677.90
590.49	674.67
590.84	670.95
591.19	668.10
591.54	665.76
591.89	662.19
592.25	661.52
592.60	657.52
592.95	655.19
593.30	652.71
593.65	649.10
594.00	645.38
594.35	649.24
594.70	646.10
595.05	643.24
595.40	640.43
595.75	638.29
596.10	635.95
596.45	633.19
596.80	631.24
597.15	628.48
597.50	625.95
597.85	624.71
598.19	622.43
598.54	619.57
598.89	616.57
599.24	614.19
599.59	610.24
599.94	608.67
600.29	605.76
600.64	604.05
600.99	602.10
601.34	599.95
601.69	591.00
602.04	588.86
602.39	586.43
602.74	584.19
603.08	581.38
603.43	580.24
603.78	577.76
604.13	574.81
604.48	573.33
604.83	572.10
605.18	570.81
605.53	571.67
605.87	573.10
606.22	575.19
606.57	578.48
606.92	581.38
607.27	585.10
607.62	589.71
607.96	593.33
608.31	597.00
608.66	600.71
609.01	602.81
609.36	605.62
609.70	607.81
610.05	609.57
610.40	611.33
610.75	612.43
611.10	613.86
611.44	615.86
611.79	616.10
612.14	616.24
612.49	613.90
612.83	611.19
613.18	607.67
613.53	602.57
613.88	596.81
614.22	590.62
614.57	583.38
614.92	575.71
615.27	569.10
615.61	561.57
615.96	554.76
616.31	548.86
616.65	543.86
617.00	538.57
617.35	533.19
617.70	529.19
618.04	523.76
618.39	518.81
618.74	514.38
619.08	510.48
619.43	506.90
619.78	504.52
620.12	501.10
620.47	497.90
620.82	495.33
621.16	492.29
621.51	491.90
621.85	489.33
622.20	487.24
622.55	484.10
622.89	482.43
623.24	480.81
623.59	478.95
623.93	476.86
624.28	475.48
624.62	477.00
624.97	475.62
625.32	473.76
625.66	472.33
626.01	470.57
626.35	468.81
626.70	466.33
627.04	464.76
627.39	463.90
627.73	462.90
628.08	461.52
628.43	459.90
628.77	455.57
629.12	453.86
629.46	452.19
629.81	450.76
630.15	448.43
630.50	445.95
630.84	444.38
631.19	442.33
631.53	440.14
631.88	434.71
632.22	431.43
632.57	430.43
632.91	428.48
633.26	426.43
633.60	423.71
633.95	421.71
634.29	419.00
634.64	416.29
634.98	413.19
635.32	411.62
635.67	409.67
636.01	408.43
636.36	406.52
636.70	404.90
637.05	402.67
637.39	401.05
637.73	399.71
638.08	398.48
638.42	396.33
638.77	395.14
639.11	394.00
639.45	392.29
639.80	389.71
640.14	387.86
640.49	385.90
640.83	384.95
641.17	383.86
641.52	382.48
641.86	381.62
642.20	382.14
642.55	380.24
642.89	379.33
643.23	377.81
643.58	377.24
643.92	375.86
644.26	374.90
644.61	374.48
644.95	373.76
645.29	372.05
645.64	371.81
645.98	370.43
646.32	370.48
646.66	369.38
647.01	368.90
647.35	368.57
647.69	368.19
648.04	367.76
648.38	367.29
648.72	366.43
649.06	364.90
649.41	363.00
649.75	362.24
650.09	361.57
650.43	360.90
650.78	359.38
651.12	357.86
651.46	356.67
651.80	355.33
652.14	353.43
652.49	353.00
652.83	351.24
653.17	350.05
653.51	347.95
653.85	347.62
654.20	346.19
654.54	344.43
654.88	342.95
655.22	341.43
655.56	340.05
655.90	339.24
656.25	338.48
656.59	337.52
656.93	336.90
657.27	336.57
657.61	334.95
657.95	334.67
658.29	334.19
658.64	334.43
658.98	333.57
659.32	332.90
659.66	331.81
660.00	331.81
660.34	331.24
660.68	330.48
661.02	329.57
661.36	328.81
661.70	328.29
662.05	327.57
662.39	328.05
662.73	328.14
663.07	329.10
663.41	328.62
663.75	327.71
664.09	327.19
664.43	325.33
664.77	325.29
665.11	324.19
665.45	323.81
665.79	323.24
666.13	322.43
666.47	322.10
666.81	321.52
667.15	319.86
667.49	319.52
667.83	320.00
668.17	319.33
668.51	319.05
668.85	318.33
669.19	318.62
669.53	316.62
669.87	315.81
670.21	313.95
670.55	313.29
670.89	313.67
671.23	313.05
671.57	312.76
671.91	312.38
672.25	312.05
672.58	312.62
672.92	311.19
673.26	310.52
673.60	310.00
673.94	309.52
674.28	309.43
674.62	308.90
674.96	307.86
675.30	307.67
675.64	306.76
675.97	306.24
676.31	304.90
676.65	304.57
676.99	304.38
677.33	303.29
677.67	303.14
678.01	301.57
678.34	301.00
678.68	300.90
679.02	300.14
679.36	299.43
679.70	298.05
680.04	298.00
680.37	298.00
680.71	297.67
681.05	297.29
681.39	296.57
681.73	295.95
682.06	295.19
682.40	294.48
682.74	294.81
683.08	295.67
683.42	295.38
683.75	295.71
684.09	294.48
684.43	294.48
684.77	293.67
685.10	293.33
685.44	292.86
685.78	292.38
686.12	291.95
686.45	291.62
686.79	291.10
687.13	291.00
687.46	290.43
687.80	290.62
688.14	289.95
688.48	289.86
688.81	289.71
689.15	290.19
689.49	289.43
689.82	288.95
690.16	287.38
690.50	287.29
690.83	286.52
691.17	285.90
691.51	285.43
691.84	285.38
692.18	285.14
692.52	284.67
692.85	284.76
693.19	285.62
693.52	285.43
693.86	285.05
694.20	284.33
694.53	283.71
694.87	282.62
695.21	282.05
695.54	281.81
695.88	280.95
696.21	279.76
696.55	279.71
696.88	279.43
697.22	278.95
697.56	278.71
697.89	278.29
698.23	278.48
698.56	278.14
698.90	278.14
699.23	277.48
699.57	277.57
699.90	276.57
700.24	275.71
700.58	275.43
700.91	275.43
701.25	277.52
701.58	278.62
701.92	279.38
702.25	279.71
702.59	279.52
702.92	280.05
703.26	280.71
703.59	281.10
703.93	283.29
704.26	284.38
704.60	284.71
704.93	284.86
705.26	285.14
705.60	286.05
705.93	285.57
706.27	286.57
706.60	287.05
706.94	288.52
707.27	288.24
707.61	288.71
707.94	288.76
708.27	286.62
708.61	285.90
708.94	285.57
709.28	285.76
709.61	285.10
709.94	284.48
710.28	283.76
710.61	283.38
710.95	280.52
711.28	281.00
711.61	280.05
711.95	280.05
712.28	278.86
712.61	277.71
712.95	278.38
713.28	278.71
713.61	277.29
713.95	275.81
714.28	275.52
714.61	274.52
714.95	273.76
715.28	272.95
715.61	272.00
715.95	271.48
716.28	270.14
716.61	270.33
716.95	269.71
717.28	269.24
717.61	268.71
717.94	268.52
718.28	266.43
718.61	266.14
718.94	265.43
719.27	265.05
719.61	265.00
719.94	263.76
720.27	262.33
720.60	262.14
720.94	261.62
721.27	261.14
721.60	261.43
721.93	261.19
722.27	261.81
722.60	262.00
722.93	261.33
723.26	261.67
723.59	261.24
723.93	261.57
724.26	261.76
724.59	261.57
724.92	261.43
725.25	262.19
725.59	262.00
725.92	262.14
726.25	262.10
726.58	262.10
726.91	262.10
727.24	262.24
727.57	262.05
727.91	261.67
728.24	262.24
728.57	261.48
728.90	261.33
729.23	260.48
729.56	261.52
729.89	261.67
730.22	261.38
730.55	261.33
730.89	261.29
731.22	260.81
731.55	260.71
731.88	260.71
732.21	260.05
732.54	259.86
732.87	259.71
733.20	259.86
733.53	259.81
733.86	259.90
734.19	259.29
734.52	259.67
734.85	261.29
735.18	260.43
735.51	261.29
735.84	261.52
736.17	261.95
736.50	260.67
736.83	263.24
737.16	263.24
737.49	263.00
737.82	262.43
738.15	262.62
738.48	262.24
738.81	261.67
739.14	261.43
739.47	261.19
739.80	260.90
740.13	261.10
740.46	260.62
740.79	260.00
741.12	260.19
741.45	259.76
741.78	258.38
742.11	258.90
742.44	258.24
742.77	258.33
743.10	258.00
743.43	257.48
743.75	254.90
744.08	258.10
744.41	258.05
744.74	257.90
745.07	257.29
745.40	257.57
745.73	258.67
746.06	258.57
746.39	258.67
746.71	258.43
747.04	257.71
747.37	257.48
747.70	258.29
748.03	257.95
748.36	258.24
748.68	258.19
749.01	257.62
749.34	257.24
749.67	257.14
750.00	257.48
750.33	259.67
750.65	259.62
750.98	256.14
751.31	256.19
751.64	256.24
751.97	257.67
752.29	257.00
752.62	255.62
752.95	255.38
753.28	254.86
753.60	254.48
753.93	255.24
754.26	255.38
754.59	254.24
754.91	254.14
755.24	253.81
755.57	253.43
755.90	253.19
756.22	253.29
756.55	253.00
756.88	252.19
757.20	250.00
757.53	249.29
757.86	249.38
758.19	249.62
758.51	249.57
758.84	248.33
759.17	248.43
759.49	248.24
759.82	249.24
760.15	249.52
760.47	249.62
760.80	248.29
761.13	248.33
761.45	248.19
761.78	248.24
762.11	248.38
762.43	248.14
762.76	248.10
763.08	248.38
763.41	248.38
763.74	248.24
764.06	248.05
764.39	248.24
764.71	248.05
765.04	247.43
765.37	247.00
765.69	246.90
766.02	246.71
766.34	247.19
766.67	246.24
767.00	246.71
767.32	247.81
767.65	249.95
767.97	249.81
768.30	250.05
768.62	249.95
768.95	249.48
769.27	249.43
769.60	249.76
769.92	248.86
770.25	248.05
770.57	247.67
770.90	247.76
771.22	247.43
771.55	247.67
771.87	247.71
772.20	247.71
772.52	249.90
772.85	252.95
773.17	252.62
773.50	252.29
773.82	251.76
774.15	250.81
774.47	248.90
774.80	248.62
775.12	248.57
775.45	248.48
775.77	248.67
776.09	249.05
776.42	248.86
776.74	249.90
777.07	250.14
777.39	250.48
777.72	250.29
778.04	250.52
778.36	249.81
778.69	249.86
779.01	249.95
779.33	247.76
779.66	244.67
779.98	244.38
780.31	244.43
780.63	245.52
780.95	245.90
781.28	246.14
781.60	245.76
781.92	245.67
782.25	245.71
782.57	245.57
782.89	245.33
783.22	245.33
783.54	244.43
783.86	244.48
784.19	244.19
784.51	245.29
784.83	245.05
785.16	245.10
785.48	244.95
785.80	244.81
786.12	244.57
786.45	245.24
786.77	245.48
787.09	245.86
787.42	244.76
787.74	244.71
788.06	244.71
788.38	244.95
788.71	244.52
789.03	244.52
789.35	244.62
789.67	244.14
789.99	244.10
790.32	244.19
790.64	244.57
790.96	246.33
791.28	245.24
791.61	245.14
791.93	245.71
792.25	245.67
792.57	247.81
792.89	247.33
793.21	246.86
793.54	246.81
793.86	246.29
