SpectraSuite Data File
++++++++++++++++++++++++++++++++++++
Date: Wed Nov 07 18:33:38 EST 2012
User: group
Dark Spectrum Present: No
Reference Spectrum Present: No
Number of Sampled Component Spectra: 1
Spectrometers: USB2E7196
Integration Time (usec): 1000000 (USB2E7196)
Spectra Averaged: 1 (USB2E7196)
Boxcar Smoothing: 10 (USB2E7196)
Correct for Electrical Dark: No (USB2E7196)
Strobe/Lamp Enabled: No (USB2E7196)
Correct for Detector Non-linearity: No (USB2E7196)
Correct for Stray Light: No (USB2E7196)
Number of Pixels in Processed Spectrum: 2048
>>>>>Begin Processed Spectral Data<<<<<
339.09	0.00
339.48	222.00
339.86	218.00
340.24	216.00
340.63	218.00
341.01	261.00
341.39	226.00
341.78	233.00
342.16	236.00
342.54	230.00
342.93	220.43
343.31	231.24
343.69	231.43
344.07	232.14
344.46	233.19
344.84	233.81
345.22	232.43
345.60	232.81
345.99	232.81
346.37	232.62
346.75	232.48
347.13	232.62
347.52	232.76
347.90	233.81
348.28	233.81
348.66	234.52
349.05	233.76
349.43	234.24
349.81	235.10
350.19	235.00
350.57	235.14
350.96	235.57
351.34	235.95
351.72	236.24
352.10	236.24
352.48	235.90
352.87	236.10
353.25	236.38
353.63	236.10
354.01	236.05
354.39	236.43
354.77	236.57
355.15	237.19
355.54	237.00
355.92	236.14
356.30	236.62
356.68	237.95
357.06	238.48
357.44	238.48
357.82	238.10
358.20	238.67
358.58	238.67
358.97	239.00
359.35	239.71
359.73	240.33
360.11	240.29
360.49	240.86
360.87	241.10
361.25	241.24
361.63	242.67
362.01	243.10
362.39	243.14
362.77	243.48
363.15	243.38
363.53	243.38
363.91	243.81
364.29	243.71
364.67	241.57
365.05	241.57
365.43	241.76
365.81	242.19
366.19	243.14
366.57	244.48
366.95	244.48
367.33	244.00
367.71	244.05
368.09	244.67
368.47	244.43
368.85	244.24
369.23	244.90
369.61	243.90
369.99	244.86
370.37	245.24
370.75	246.38
371.13	245.90
371.51	245.62
371.89	245.76
372.27	245.81
372.65	245.90
373.03	245.76
373.41	245.76
373.78	245.67
374.16	244.43
374.54	243.48
374.92	243.33
375.30	243.19
375.68	242.95
376.06	242.76
376.44	242.57
376.82	242.95
377.19	242.62
377.57	242.48
377.95	241.38
378.33	240.86
378.71	239.81
379.09	240.33
379.47	240.71
379.84	240.38
380.22	240.10
380.60	239.86
380.98	239.76
381.36	239.43
381.73	239.14
382.11	239.48
382.49	239.86
382.87	239.38
383.25	239.48
383.62	242.24
384.00	241.76
384.38	242.10
384.76	242.33
385.13	243.38
385.51	243.33
385.89	243.14
386.27	243.33
386.64	243.62
387.02	243.05
387.40	242.71
387.78	242.90
388.15	242.95
388.53	242.76
388.91	242.90
389.29	242.76
389.66	243.19
390.04	242.81
390.42	242.86
390.79	242.71
391.17	242.81
391.55	239.67
391.92	239.95
392.30	240.05
392.68	239.57
393.05	238.95
393.43	239.05
393.81	239.29
394.18	238.90
394.56	238.90
394.94	239.29
395.31	239.14
395.69	240.00
396.06	240.24
396.44	240.81
396.82	240.48
397.19	241.71
397.57	241.62
397.95	242.24
398.32	241.14
398.70	241.71
399.07	242.24
399.45	242.48
399.82	242.48
400.20	242.29
400.58	242.24
400.95	241.67
401.33	242.10
401.70	243.76
402.08	244.14
402.45	244.24
402.83	244.95
403.20	245.19
403.58	244.67
403.95	245.43
404.33	245.52
404.71	246.43
405.08	247.81
405.46	247.67
405.83	248.10
406.21	249.00
406.58	249.52
406.96	249.90
407.33	250.67
407.70	251.38
408.08	254.05
408.45	255.19
408.83	256.38
409.20	257.00
409.58	256.48
409.95	257.90
410.33	258.57
410.70	259.24
411.08	260.81
411.45	262.24
411.82	263.14
412.20	264.95
412.57	267.48
412.95	267.00
413.32	269.48
413.69	270.95
414.07	272.62
414.44	274.38
414.82	276.57
415.19	279.33
415.56	281.81
415.94	282.90
416.31	285.29
416.68	288.33
417.06	291.81
417.43	295.71
417.81	298.86
418.18	302.67
418.55	306.29
418.93	310.14
419.30	314.33
419.67	318.62
420.04	323.10
420.42	327.10
420.79	334.71
421.16	340.10
421.54	347.48
421.91	353.95
422.28	360.29
422.66	366.67
423.03	374.90
423.40	381.67
423.77	389.00
424.15	397.29
424.52	405.10
424.89	413.76
425.26	420.95
425.64	428.71
426.01	437.48
426.38	446.10
426.75	455.52
427.13	465.14
427.50	474.71
427.87	485.05
428.24	494.71
428.61	502.48
428.99	514.14
429.36	524.05
429.73	535.05
430.10	547.14
430.47	559.43
430.85	569.67
431.22	583.24
431.59	598.33
431.96	610.90
432.33	624.76
432.70	638.95
433.08	655.67
433.45	671.29
433.82	686.33
434.19	703.05
434.56	719.71
434.93	734.67
435.30	751.14
435.68	767.71
436.05	784.38
436.42	800.38
436.79	814.95
437.16	831.76
437.53	848.86
437.90	865.76
438.27	881.81
438.64	898.52
439.01	914.38
439.38	927.62
439.75	941.38
440.13	956.81
440.50	971.48
440.87	982.48
441.24	994.57
441.61	1007.76
441.98	1017.10
442.35	1027.76
442.72	1039.24
443.09	1050.19
443.46	1056.24
443.83	1060.62
444.20	1064.52
444.57	1068.71
444.94	1070.76
445.31	1071.76
445.68	1076.33
446.05	1076.95
446.42	1074.00
446.79	1071.05
447.16	1066.43
447.53	1063.19
447.90	1055.19
448.27	1046.52
448.64	1037.43
449.01	1029.33
449.37	1016.43
449.74	1004.38
450.11	993.00
450.48	977.43
450.85	961.05
451.22	947.71
451.59	935.38
451.96	923.90
452.33	908.48
452.70	893.48
453.07	876.62
453.43	855.62
453.80	838.62
454.17	822.81
454.54	807.52
454.91	791.71
455.28	775.95
455.65	761.05
456.02	750.38
456.38	737.29
456.75	722.19
457.12	710.81
457.49	699.33
457.86	684.71
458.23	675.48
458.59	664.14
458.96	653.43
459.33	642.24
459.70	631.33
460.07	623.57
460.43	614.10
460.80	606.76
461.17	599.29
461.54	591.43
461.91	584.29
462.27	576.52
462.64	570.52
463.01	564.48
463.38	559.29
463.74	548.29
464.11	542.05
464.48	536.95
464.85	530.24
465.21	526.24
465.58	522.00
465.95	515.33
466.32	511.10
466.68	505.86
467.05	501.90
467.42	497.62
467.78	492.33
468.15	488.10
468.52	484.62
468.88	480.24
469.25	476.10
469.62	473.33
469.98	469.57
470.35	466.05
470.72	462.10
471.08	457.10
471.45	455.05
471.82	453.10
472.18	449.62
472.55	447.57
472.92	443.48
473.28	440.57
473.65	438.43
474.02	435.86
474.38	434.00
474.75	432.10
475.11	429.29
475.48	428.19
475.85	426.95
476.21	425.24
476.58	424.05
476.94	423.19
477.31	421.62
477.67	420.38
478.04	419.05
478.41	418.57
478.77	420.81
479.14	419.57
479.50	418.76
479.87	419.24
480.23	419.00
480.60	419.24
480.96	419.67
481.33	421.38
481.69	421.62
482.06	422.14
482.42	422.76
482.79	424.38
483.15	425.14
483.52	426.38
483.88	427.00
484.25	427.86
484.61	428.24
484.98	429.29
485.34	431.57
485.71	433.81
486.07	434.76
486.44	434.05
486.80	435.52
487.17	436.81
487.53	438.81
487.90	440.57
488.26	443.95
488.62	446.00
488.99	446.67
489.35	448.52
489.72	450.62
490.08	452.67
490.44	454.10
490.81	456.62
491.17	458.71
491.54	462.00
491.90	464.90
492.26	467.76
492.63	469.67
492.99	471.24
493.36	473.33
493.72	477.00
494.08	479.52
494.45	482.67
494.81	486.33
495.17	489.10
495.54	492.90
495.90	494.90
496.26	498.29
496.63	502.14
496.99	506.24
497.35	509.76
497.72	514.33
498.08	518.00
498.44	521.90
498.80	526.71
499.17	530.62
499.53	534.67
499.89	539.52
500.26	544.67
500.62	550.38
500.98	555.48
501.34	559.10
501.71	564.62
502.07	569.52
502.43	574.05
502.79	578.95
503.16	583.52
503.52	588.67
503.88	593.33
504.24	598.05
504.60	603.67
504.97	609.57
505.33	613.76
505.69	620.24
506.05	625.10
506.41	629.81
506.78	634.38
507.14	639.52
507.50	645.10
507.86	651.05
508.22	655.48
508.59	659.76
508.95	665.86
509.31	672.10
509.67	678.05
510.03	683.57
510.39	688.76
510.75	693.95
511.12	699.57
511.48	704.38
511.84	709.62
512.20	714.05
512.56	719.00
512.92	724.76
513.28	730.14
513.64	735.57
514.00	740.19
514.37	745.95
514.73	751.24
515.09	755.86
515.45	759.76
515.81	765.05
516.17	770.10
516.53	774.67
516.89	777.29
517.25	781.29
517.61	785.95
517.97	789.71
518.33	793.52
518.69	796.57
519.05	800.57
519.41	805.00
519.77	810.24
520.13	813.76
520.49	816.57
520.85	819.10
521.21	823.19
521.57	826.86
521.93	829.05
522.29	831.86
522.65	834.14
523.01	836.71
523.37	838.05
523.73	840.62
524.09	841.90
524.45	844.57
524.81	846.19
525.17	848.19
525.53	850.86
525.89	852.10
526.25	854.52
526.61	856.38
526.97	858.14
527.33	858.62
527.68	862.10
528.04	864.19
528.40	866.10
528.76	866.90
529.12	868.10
529.48	870.05
529.84	871.43
530.20	873.38
530.56	875.05
530.91	877.86
531.27	879.48
531.63	882.05
531.99	883.57
532.35	885.90
532.71	886.67
533.07	887.76
533.42	892.33
533.78	893.19
534.14	894.76
534.50	895.52
534.86	897.14
535.21	896.19
535.57	897.33
535.93	897.14
536.29	899.62
536.65	901.52
537.00	902.81
537.36	904.24
537.72	904.90
538.08	907.43
538.44	908.19
538.79	910.33
539.15	911.90
539.51	913.71
539.87	915.10
540.22	916.81
540.58	918.76
540.94	918.86
541.29	920.71
541.65	921.67
542.01	923.33
542.37	924.86
542.72	925.52
543.08	925.57
543.44	927.81
543.79	925.24
544.15	924.52
544.51	924.71
544.87	923.71
545.22	923.10
545.58	922.38
545.94	920.14
546.29	917.90
546.65	915.43
547.01	913.14
547.36	911.29
547.72	909.38
548.07	906.24
548.43	902.76
548.79	899.86
549.14	896.67
549.50	894.00
549.86	890.24
550.21	888.95
550.57	887.14
550.92	883.71
551.28	883.62
551.64	880.24
551.99	877.76
552.35	875.48
552.70	873.33
553.06	870.67
553.41	869.52
553.77	869.10
554.13	867.86
554.48	867.14
554.84	864.90
555.19	862.33
555.55	863.29
555.90	861.24
556.26	859.76
556.61	858.19
556.97	854.95
557.32	853.19
557.68	850.86
558.03	848.86
558.39	846.57
558.74	843.38
559.10	842.38
559.45	840.62
559.81	839.29
560.16	837.57
560.52	834.86
560.87	833.19
561.23	830.62
561.58	830.19
561.94	827.38
562.29	825.19
562.64	824.76
563.00	820.52
563.35	819.71
563.71	818.10
564.06	817.05
564.42	816.71
564.77	815.24
565.12	812.95
565.48	813.90
565.83	813.38
566.19	812.29
566.54	811.29
566.89	809.10
567.25	808.43
567.60	808.38
567.96	810.52
568.31	810.19
568.66	808.76
569.02	805.71
569.37	804.19
569.72	804.00
570.08	801.29
570.43	799.76
570.78	797.38
571.14	796.29
571.49	794.81
571.84	793.29
572.20	792.43
572.55	791.81
572.90	787.95
573.26	786.43
573.61	784.86
573.96	783.19
574.31	782.29
574.67	780.24
575.02	777.71
575.37	774.05
575.72	772.00
576.08	770.90
576.43	769.57
576.78	768.43
577.13	766.38
577.49	765.67
577.84	765.00
578.19	764.52
578.54	763.81
578.90	762.62
579.25	761.43
579.60	759.67
579.95	757.86
580.30	756.76
580.66	755.00
581.01	753.67
581.36	751.81
581.71	750.05
582.06	750.38
582.42	749.95
582.77	748.19
583.12	747.19
583.47	744.95
583.82	743.95
584.17	742.71
584.53	741.43
584.88	739.48
585.23	737.95
585.58	735.86
585.93	732.95
586.28	731.14
586.63	729.57
586.98	726.90
587.34	725.24
587.69	722.43
588.04	720.33
588.39	718.14
588.74	715.67
589.09	714.10
589.44	708.95
589.79	705.05
590.14	701.95
590.49	697.67
590.84	694.24
591.19	690.29
591.54	687.57
591.89	683.62
592.25	682.33
592.60	678.57
592.95	675.95
593.30	673.29
593.65	670.10
594.00	665.81
594.35	670.48
594.70	666.19
595.05	663.29
595.40	659.90
595.75	656.14
596.10	653.14
596.45	649.90
596.80	647.95
597.15	645.52
597.50	642.48
597.85	641.24
598.19	638.48
598.54	636.19
598.89	632.52
599.24	630.38
599.59	626.43
599.94	623.57
600.29	620.38
600.64	617.62
600.99	615.81
601.34	614.81
601.69	605.14
602.04	603.14
602.39	600.62
602.74	599.24
603.08	597.86
603.43	597.05
603.78	595.29
604.13	593.05
604.48	591.57
604.83	591.48
605.18	589.81
605.53	590.48
605.87	591.90
606.22	594.81
606.57	598.71
606.92	602.95
607.27	609.62
607.62	614.90
607.96	620.05
608.31	623.48
608.66	626.43
609.01	629.76
609.36	633.43
609.70	637.38
610.05	639.62
610.40	642.05
610.75	642.76
611.10	643.81
611.44	645.19
611.79	645.95
612.14	645.57
612.49	644.14
612.83	641.86
613.18	638.05
613.53	633.33
613.88	627.24
614.22	619.81
614.57	610.71
614.92	603.14
615.27	595.33
615.61	587.90
615.96	581.33
616.31	575.05
616.65	569.14
617.00	562.24
617.35	556.29
617.70	550.14
618.04	545.48
618.39	540.62
618.74	536.67
619.08	531.24
619.43	526.38
619.78	523.38
620.12	519.71
620.47	517.14
620.82	513.52
621.16	510.43
621.51	509.05
621.85	505.67
622.20	503.10
622.55	500.24
622.89	498.00
623.24	495.90
623.59	493.05
623.93	490.95
624.28	489.00
624.62	489.71
624.97	489.24
625.32	487.10
625.66	484.71
626.01	482.10
626.35	480.86
626.70	479.10
627.04	477.90
627.39	477.14
627.73	475.43
628.08	473.62
628.43	471.33
628.77	468.29
629.12	467.33
629.46	465.33
629.81	463.43
630.15	461.33
630.50	458.67
630.84	457.10
631.19	454.71
631.53	452.48
631.88	447.71
632.22	444.10
632.57	442.24
632.91	440.05
633.26	437.90
633.60	435.95
633.95	433.81
634.29	430.48
634.64	427.48
634.98	424.71
635.32	423.33
635.67	420.95
636.01	419.00
636.36	416.43
636.70	415.05
637.05	413.05
637.39	411.38
637.73	409.81
638.08	408.43
638.42	406.24
638.77	404.90
639.11	403.52
639.45	402.14
639.80	400.24
640.14	398.81
640.49	397.24
640.83	395.24
641.17	393.67
641.52	391.76
641.86	390.81
642.20	390.57
642.55	388.76
642.89	388.00
643.23	386.76
643.58	386.52
643.92	384.00
644.26	382.86
644.61	382.24
644.95	381.19
645.29	379.62
645.64	379.86
645.98	379.05
646.32	378.48
646.66	377.43
647.01	376.33
647.35	375.76
647.69	375.14
648.04	374.48
648.38	373.71
648.72	373.29
649.06	372.19
649.41	370.24
649.75	368.71
650.09	367.86
650.43	366.76
650.78	364.52
651.12	364.00
651.46	362.76
651.80	360.86
652.14	359.29
652.49	358.76
652.83	356.57
653.17	355.00
653.51	353.48
653.85	352.43
654.20	351.52
654.54	350.10
654.88	348.76
655.22	347.14
655.56	345.67
655.90	344.81
656.25	343.43
656.59	342.57
656.93	342.52
657.27	342.19
657.61	341.29
657.95	341.52
658.29	340.57
658.64	340.76
658.98	340.24
659.32	339.48
659.66	338.62
660.00	338.33
660.34	337.76
660.68	336.71
661.02	335.81
661.36	334.52
661.70	333.57
662.05	332.62
662.39	332.86
662.73	333.14
663.07	333.76
663.41	333.19
663.75	332.19
664.09	331.48
664.43	330.24
664.77	329.24
665.11	328.00
665.45	327.52
665.79	326.90
666.13	326.14
666.47	325.24
666.81	324.43
667.15	322.95
667.49	322.52
667.83	322.48
668.17	321.95
668.51	321.52
668.85	321.10
669.19	321.67
669.53	320.33
669.87	318.86
670.21	316.62
670.55	316.10
670.89	316.90
671.23	315.67
671.57	315.10
671.91	315.33
672.25	315.29
672.58	315.52
672.92	314.14
673.26	313.81
673.60	313.62
673.94	313.05
674.28	313.24
674.62	313.05
674.96	312.67
675.30	311.90
675.64	311.57
675.97	311.38
676.31	310.05
676.65	309.48
676.99	309.67
677.33	309.29
677.67	308.86
678.01	306.95
678.34	307.10
678.68	307.24
679.02	306.10
679.36	304.71
679.70	303.38
680.04	302.90
680.37	302.52
680.71	302.05
681.05	301.76
681.39	301.19
681.73	300.29
682.06	298.76
682.40	298.76
682.74	298.52
683.08	299.14
683.42	298.76
683.75	298.71
684.09	297.71
684.43	297.52
684.77	296.81
685.10	296.62
685.44	295.95
685.78	294.90
686.12	294.52
686.45	294.38
686.79	293.81
687.13	294.19
687.46	293.29
687.80	293.43
688.14	293.14
688.48	292.95
688.81	292.90
689.15	293.52
689.49	292.81
689.82	292.62
690.16	291.05
690.50	290.57
690.83	289.86
691.17	289.43
691.51	289.05
691.84	288.67
692.18	288.29
692.52	287.95
692.85	287.95
693.19	288.57
693.52	288.33
693.86	288.10
694.20	287.19
694.53	287.43
694.87	286.95
695.21	286.29
695.54	285.81
695.88	284.62
696.21	283.43
696.55	282.76
696.88	281.86
697.22	281.29
697.56	280.95
697.89	280.57
698.23	280.62
698.56	280.33
698.90	280.38
699.23	279.90
699.57	279.81
699.90	279.24
700.24	278.14
700.58	278.10
700.91	278.52
701.25	280.62
701.58	281.43
701.92	281.90
702.25	282.10
702.59	282.10
702.92	282.90
703.26	284.00
703.59	285.14
703.93	288.00
704.26	288.62
704.60	289.29
704.93	289.95
705.26	290.10
705.60	291.00
705.93	290.76
706.27	291.52
706.60	292.52
706.94	293.71
707.27	293.71
707.61	294.00
707.94	293.67
708.27	291.90
708.61	290.81
708.94	290.10
709.28	290.00
709.61	289.38
709.94	289.00
710.28	288.19
710.61	287.05
710.95	284.10
711.28	285.24
711.61	284.48
711.95	284.43
712.28	283.19
712.61	281.81
712.95	282.67
713.28	282.86
713.61	280.81
713.95	279.14
714.28	278.52
714.61	277.29
714.95	276.00
715.28	274.86
715.61	274.10
715.95	273.62
716.28	272.48
716.61	272.29
716.95	271.33
717.28	270.52
717.61	269.95
717.94	269.38
718.28	267.00
718.61	266.14
718.94	264.86
719.27	264.76
719.61	264.67
719.94	263.33
720.27	261.86
720.60	261.90
720.94	261.86
721.27	261.71
721.60	262.19
721.93	262.10
722.27	262.52
722.60	262.24
722.93	261.76
723.26	261.86
723.59	261.05
723.93	261.33
724.26	261.14
724.59	260.90
724.92	261.19
725.25	261.38
725.59	261.24
725.92	261.48
726.25	261.33
726.58	261.29
726.91	261.43
727.24	261.81
727.57	261.76
727.91	261.24
728.24	261.43
728.57	260.76
728.90	261.14
729.23	260.43
729.56	261.48
729.89	261.52
730.22	261.38
730.55	261.38
730.89	261.05
731.22	260.76
731.55	260.71
731.88	260.33
732.21	259.71
732.54	259.52
732.87	258.90
733.20	258.86
733.53	258.62
733.86	258.29
734.19	257.62
734.52	257.71
734.85	259.05
735.18	258.43
735.51	258.95
735.84	258.95
736.17	259.29
736.50	258.29
736.83	260.81
737.16	260.76
737.49	261.05
737.82	260.90
738.15	261.33
738.48	261.33
738.81	261.19
739.14	260.81
739.47	260.24
739.80	260.33
740.13	260.33
740.46	259.90
740.79	259.05
741.12	259.19
741.45	258.62
741.78	257.38
742.11	257.76
742.44	257.14
742.77	257.38
743.10	257.10
743.43	256.90
743.75	254.33
744.08	257.38
744.41	257.00
744.74	256.62
745.07	256.05
745.40	256.19
745.73	257.10
746.06	257.38
746.39	257.71
746.71	257.48
747.04	256.86
747.37	256.43
747.70	257.24
748.03	257.43
748.36	257.81
748.68	257.81
749.01	257.19
749.34	256.95
749.67	256.76
750.00	256.95
750.33	258.67
750.65	258.86
750.98	255.38
751.31	255.57
751.64	255.52
751.97	256.71
752.29	256.19
752.62	254.90
752.95	254.48
753.28	254.38
753.60	254.24
753.93	255.19
754.26	255.48
754.59	254.86
754.91	254.52
755.24	254.19
755.57	253.67
755.90	253.67
756.22	253.76
756.55	253.33
756.88	252.67
757.20	250.67
757.53	249.71
757.86	249.86
758.19	250.10
758.51	250.19
758.84	248.86
759.17	248.43
759.49	248.43
759.82	249.81
760.15	250.14
760.47	250.38
760.80	249.67
761.13	250.24
761.45	250.33
761.78	250.00
762.11	250.10
762.43	250.05
762.76	250.10
763.08	250.38
763.41	250.43
763.74	250.33
764.06	250.38
764.39	250.71
764.71	250.62
765.04	249.86
765.37	249.52
765.69	249.43
766.02	249.62
766.34	249.48
766.67	248.52
767.00	248.67
767.32	249.48
767.65	250.86
767.97	250.43
768.30	250.43
768.62	250.52
768.95	250.33
769.27	250.14
769.60	250.24
769.92	249.29
770.25	248.76
770.57	248.38
770.90	248.24
771.22	247.76
771.55	247.52
771.87	247.71
772.20	247.81
772.52	250.00
772.85	252.95
773.17	252.95
773.50	252.81
773.82	252.29
774.15	251.29
774.47	249.67
774.80	249.43
775.12	249.19
775.45	248.86
775.77	248.71
776.09	248.90
776.42	248.81
776.74	249.90
777.07	249.62
777.39	249.95
777.72	249.90
778.04	250.19
778.36	250.00
778.69	250.00
779.01	250.14
779.33	247.76
779.66	245.00
779.98	244.86
780.31	245.14
780.63	246.00
780.95	246.67
781.28	246.52
781.60	246.24
781.92	246.14
782.25	246.10
782.57	246.00
782.89	245.81
783.22	245.86
783.54	245.19
783.86	245.52
784.19	245.14
784.51	245.62
784.83	245.29
785.16	245.24
785.48	245.14
785.80	245.14
786.12	245.38
786.45	245.33
786.77	245.71
787.09	245.24
787.42	244.05
787.74	243.67
788.06	243.71
788.38	243.71
788.71	243.52
789.03	243.67
789.35	244.14
789.67	243.86
789.99	243.90
790.32	243.71
790.64	244.19
790.96	246.38
791.28	245.43
791.61	245.48
791.93	245.76
792.25	245.52
792.57	247.14
792.89	246.90
793.21	246.95
793.54	246.81
793.86	246.57
