SpectraSuite Data File
++++++++++++++++++++++++++++++++++++
Date: Wed Nov 07 18:31:25 EST 2012
User: group
Dark Spectrum Present: No
Reference Spectrum Present: No
Number of Sampled Component Spectra: 1
Spectrometers: USB2E7196
Integration Time (usec): 1000000 (USB2E7196)
Spectra Averaged: 1 (USB2E7196)
Boxcar Smoothing: 10 (USB2E7196)
Correct for Electrical Dark: No (USB2E7196)
Strobe/Lamp Enabled: No (USB2E7196)
Correct for Detector Non-linearity: No (USB2E7196)
Correct for Stray Light: No (USB2E7196)
Number of Pixels in Processed Spectrum: 2048
>>>>>Begin Processed Spectral Data<<<<<
339.09	0.00
339.48	221.00
339.86	222.00
340.24	222.00
340.63	224.00
341.01	267.00
341.39	237.00
341.78	239.00
342.16	237.00
342.54	226.00
342.93	224.71
343.31	235.76
343.69	236.14
344.07	236.62
344.46	237.29
344.84	237.90
345.22	236.24
345.60	236.24
345.99	236.43
346.37	236.57
346.75	236.90
347.13	236.71
347.52	237.00
347.90	237.38
348.28	237.14
348.66	238.00
349.05	237.10
349.43	237.14
349.81	237.43
350.19	237.43
350.57	237.29
350.96	237.62
351.34	237.71
351.72	237.71
352.10	237.81
352.48	237.76
352.87	237.62
353.25	237.95
353.63	238.00
354.01	237.38
354.39	237.38
354.77	237.29
355.15	238.05
355.54	237.62
355.92	237.10
356.30	237.14
356.68	238.29
357.06	238.71
357.44	238.05
357.82	237.67
358.20	238.05
358.58	238.29
358.97	238.14
359.35	238.81
359.73	239.24
360.11	239.24
360.49	239.38
360.87	239.19
361.25	239.38
361.63	239.86
362.01	240.52
362.39	240.19
362.77	240.33
363.15	239.86
363.53	239.86
363.91	239.86
364.29	240.10
364.67	238.10
365.05	237.95
365.43	238.52
365.81	238.86
366.19	239.52
366.57	240.19
366.95	240.05
367.33	239.19
367.71	239.33
368.09	239.57
368.47	239.43
368.85	239.57
369.23	240.14
369.61	239.48
369.99	239.67
370.37	239.95
370.75	241.62
371.13	241.52
371.51	241.48
371.89	242.00
372.27	242.10
372.65	242.33
373.03	242.29
373.41	242.05
373.78	241.76
374.16	240.76
374.54	240.00
374.92	240.05
375.30	240.19
375.68	239.81
376.06	240.33
376.44	240.29
376.82	240.57
377.19	240.33
377.57	240.38
377.95	240.00
378.33	239.81
378.71	237.86
379.09	238.19
379.47	238.19
379.84	237.90
380.22	237.67
380.60	237.24
380.98	236.86
381.36	236.81
381.73	236.62
382.11	237.00
382.49	237.00
382.87	236.71
383.25	237.00
383.62	240.00
384.00	239.33
384.38	239.67
384.76	240.33
385.13	241.19
385.51	241.24
385.89	241.10
386.27	241.62
386.64	242.14
387.02	242.14
387.40	242.19
387.78	242.48
388.15	243.10
388.53	243.29
388.91	243.57
389.29	243.81
389.66	244.24
390.04	244.05
390.42	244.81
390.79	245.05
391.17	244.81
391.55	241.90
391.92	242.10
392.30	242.05
392.68	241.33
393.05	240.95
393.43	241.14
393.81	241.43
394.18	240.67
394.56	241.00
394.94	241.38
395.31	241.38
395.69	241.95
396.06	241.71
396.44	241.90
396.82	241.90
397.19	242.52
397.57	242.29
397.95	242.67
398.32	241.81
398.70	241.90
399.07	242.62
399.45	242.67
399.82	242.52
400.20	242.52
400.58	242.62
400.95	241.71
401.33	242.48
401.70	244.14
402.08	244.81
402.45	244.57
402.83	244.90
403.20	245.00
403.58	244.81
403.95	245.43
404.33	245.71
404.71	246.05
405.08	247.71
405.46	248.14
405.83	248.71
406.21	249.05
406.58	249.48
406.96	249.52
407.33	250.29
407.70	251.19
408.08	253.81
408.45	254.43
408.83	255.86
409.20	256.00
409.58	254.86
409.95	255.71
410.33	256.90
410.70	257.29
411.08	258.57
411.45	259.76
411.82	260.29
412.20	262.00
412.57	264.10
412.95	263.43
413.32	265.24
413.69	266.48
414.07	268.14
414.44	269.95
414.82	272.24
415.19	274.48
415.56	276.67
415.94	277.71
416.31	280.76
416.68	283.33
417.06	286.67
417.43	290.76
417.81	294.81
418.18	298.62
418.55	302.57
418.93	307.19
419.30	311.43
419.67	316.71
420.04	321.29
420.42	326.00
420.79	333.57
421.16	339.19
421.54	346.62
421.91	353.05
422.28	359.48
422.66	366.33
423.03	375.24
423.40	382.05
423.77	389.10
424.15	396.29
424.52	403.95
424.89	412.62
425.26	419.90
425.64	426.86
426.01	434.76
426.38	443.33
426.75	452.10
427.13	461.24
427.50	470.43
427.87	479.95
428.24	489.52
428.61	497.67
428.99	509.14
429.36	518.38
429.73	529.57
430.10	541.95
430.47	554.00
430.85	564.19
431.22	578.10
431.59	593.71
431.96	607.48
432.33	622.95
432.70	636.29
433.08	653.81
433.45	669.38
433.82	685.67
434.19	703.10
434.56	719.48
434.93	734.52
435.30	750.67
435.68	768.33
436.05	785.57
436.42	802.19
436.79	817.76
437.16	834.81
437.53	851.76
437.90	868.00
438.27	884.05
438.64	901.10
439.01	916.24
439.38	928.24
439.75	941.05
440.13	955.05
440.50	969.95
440.87	980.05
441.24	992.33
441.61	1004.71
441.98	1013.43
442.35	1024.67
442.72	1036.81
443.09	1047.48
443.46	1053.29
443.83	1057.00
444.20	1059.90
444.57	1063.95
444.94	1065.00
445.31	1066.90
445.68	1071.48
446.05	1070.48
446.42	1068.05
446.79	1065.48
447.16	1061.62
447.53	1059.05
447.90	1050.38
448.27	1041.48
448.64	1033.00
449.01	1024.57
449.37	1012.05
449.74	1000.14
450.11	987.57
450.48	971.95
450.85	955.33
451.22	941.52
451.59	928.86
451.96	916.57
452.33	900.67
452.70	886.86
453.07	869.86
453.43	850.10
453.80	834.52
454.17	818.29
454.54	802.38
454.91	786.62
455.28	770.76
455.65	756.95
456.02	747.67
456.38	734.43
456.75	720.14
457.12	707.57
457.49	695.43
457.86	681.05
458.23	671.67
458.59	661.14
458.96	650.33
459.33	639.90
459.70	630.19
460.07	622.43
460.43	613.29
460.80	605.57
461.17	596.71
461.54	589.24
461.91	581.86
462.27	574.62
462.64	568.00
463.01	561.43
463.38	555.76
463.74	544.86
464.11	538.29
464.48	533.38
464.85	527.71
465.21	524.24
465.58	520.14
465.95	513.71
466.32	509.33
466.68	504.33
467.05	500.05
467.42	495.67
467.78	490.57
468.15	486.57
468.52	483.43
468.88	479.81
469.25	475.48
469.62	472.29
469.98	468.24
470.35	465.29
470.72	462.33
471.08	457.95
471.45	455.38
471.82	453.24
472.18	449.76
472.55	447.38
472.92	443.95
473.28	441.33
473.65	438.71
474.02	436.33
474.38	435.00
474.75	433.52
475.11	431.43
475.48	430.33
475.85	428.29
476.21	426.57
476.58	425.10
476.94	424.43
477.31	423.76
477.67	423.10
478.04	421.71
478.41	420.90
478.77	423.00
479.14	422.24
479.50	421.81
479.87	421.71
480.23	421.71
480.60	421.38
480.96	422.00
481.33	423.33
481.69	424.10
482.06	424.67
482.42	425.81
482.79	427.29
483.15	427.86
483.52	429.71
483.88	430.71
484.25	432.05
484.61	433.14
484.98	433.86
485.34	436.24
485.71	438.57
486.07	440.05
486.44	439.71
486.80	441.67
487.17	443.19
487.53	445.14
487.90	447.29
488.26	450.62
488.62	452.62
488.99	454.19
489.35	456.05
489.72	457.76
490.08	459.05
490.44	460.14
490.81	462.71
491.17	464.29
491.54	466.33
491.90	469.29
492.26	471.90
492.63	474.86
492.99	476.52
493.36	478.90
493.72	481.90
494.08	484.76
494.45	486.76
494.81	490.00
495.17	493.00
495.54	496.95
495.90	499.00
496.26	502.24
496.63	505.67
496.99	508.76
497.35	512.43
497.72	516.62
498.08	520.38
498.44	524.00
498.80	528.76
499.17	532.43
499.53	535.90
499.89	540.00
500.26	543.81
500.62	548.29
500.98	553.76
501.34	557.90
501.71	562.57
502.07	567.62
502.43	572.33
502.79	577.24
503.16	581.38
503.52	585.95
503.88	590.76
504.24	595.38
504.60	600.29
504.97	605.95
505.33	610.29
505.69	616.43
506.05	621.76
506.41	626.67
506.78	632.24
507.14	637.38
507.50	643.38
507.86	648.90
508.22	654.19
508.59	658.81
508.95	664.29
509.31	669.95
509.67	675.33
510.03	680.57
510.39	684.95
510.75	689.86
511.12	694.95
511.48	699.29
511.84	704.67
512.20	709.95
512.56	714.10
512.92	719.81
513.28	724.43
513.64	728.81
514.00	733.00
514.37	737.14
514.73	741.95
515.09	745.71
515.45	749.57
515.81	753.48
516.17	757.38
516.53	760.71
516.89	763.95
517.25	767.48
517.61	771.81
517.97	775.52
518.33	779.76
518.69	783.71
519.05	788.05
519.41	791.62
519.77	797.10
520.13	800.67
520.49	802.95
520.85	806.05
521.21	810.62
521.57	814.38
521.93	817.57
522.29	820.95
522.65	823.29
523.01	825.67
523.37	826.76
523.73	829.00
524.09	831.33
524.45	833.29
524.81	835.62
525.17	837.38
525.53	839.76
525.89	841.19
526.25	843.52
526.61	844.52
526.97	845.43
527.33	845.76
527.68	850.05
528.04	851.67
528.40	853.05
528.76	853.38
529.12	854.38
529.48	856.19
529.84	856.95
530.20	858.00
530.56	860.00
530.91	863.00
531.27	864.81
531.63	866.62
531.99	867.62
532.35	868.29
532.71	868.67
533.07	870.19
533.42	873.81
533.78	874.33
534.14	876.71
534.50	878.67
534.86	880.90
535.21	879.14
535.57	881.19
535.93	882.10
536.29	884.52
536.65	886.81
537.00	888.38
537.36	891.76
537.72	895.81
538.08	899.76
538.44	903.43
538.79	907.86
539.15	912.57
539.51	918.00
539.87	923.57
540.22	928.33
540.58	932.76
540.94	935.57
541.29	940.10
541.65	944.00
542.01	949.05
542.37	951.86
542.72	955.76
543.08	957.71
543.44	959.71
543.79	960.57
544.15	960.90
544.51	962.10
544.87	960.48
545.22	958.29
545.58	954.95
545.94	952.38
546.29	948.71
546.65	944.52
547.01	939.62
547.36	934.95
547.72	930.57
548.07	925.81
548.43	920.57
548.79	915.43
549.14	910.33
549.50	904.86
549.86	899.43
550.21	894.00
550.57	889.71
550.92	886.00
551.28	881.67
551.64	878.14
551.99	874.14
552.35	871.00
552.70	867.38
553.06	865.95
553.41	862.95
553.77	861.24
554.13	858.52
554.48	857.00
554.84	854.33
555.19	851.95
555.55	851.76
555.90	849.33
556.26	847.19
556.61	844.24
556.97	841.14
557.32	838.19
557.68	836.19
558.03	834.29
558.39	832.19
558.74	830.24
559.10	827.57
559.45	825.43
559.81	824.14
560.16	822.76
560.52	820.00
560.87	817.86
561.23	815.48
561.58	815.48
561.94	811.71
562.29	810.62
562.64	808.48
563.00	804.10
563.35	802.38
563.71	800.29
564.06	799.33
564.42	797.05
564.77	795.81
565.12	794.71
565.48	794.81
565.83	793.62
566.19	792.24
566.54	791.24
566.89	789.81
567.25	788.67
567.60	788.76
567.96	789.33
568.31	790.05
568.66	789.10
569.02	786.48
569.37	786.43
569.72	785.48
570.08	784.43
570.43	783.76
570.78	781.90
571.14	781.00
571.49	779.52
571.84	779.19
572.20	778.43
572.55	777.05
572.90	774.00
573.26	772.43
573.61	771.38
573.96	770.62
574.31	769.10
574.67	767.38
575.02	765.62
575.37	762.81
575.72	760.86
576.08	759.10
576.43	757.76
576.78	756.76
577.13	755.10
577.49	754.00
577.84	753.10
578.19	752.38
578.54	752.19
578.90	751.19
579.25	749.95
579.60	749.38
579.95	748.86
580.30	748.48
580.66	748.05
581.01	747.10
581.36	746.19
581.71	745.43
582.06	745.19
582.42	743.52
582.77	741.48
583.12	740.76
583.47	739.71
583.82	738.48
584.17	737.67
584.53	737.24
584.88	736.14
585.23	735.86
585.58	734.05
585.93	731.33
586.28	729.38
586.63	727.43
586.98	724.95
587.34	722.33
587.69	719.90
588.04	717.67
588.39	715.14
588.74	712.05
589.09	709.52
589.44	705.76
589.79	703.14
590.14	701.33
590.49	696.67
590.84	692.86
591.19	689.90
591.54	686.29
591.89	681.57
592.25	680.43
592.60	675.29
592.95	672.24
593.30	668.95
593.65	665.67
594.00	661.90
594.35	666.19
594.70	662.90
595.05	660.43
595.40	656.81
595.75	654.10
596.10	651.62
596.45	648.71
596.80	646.14
597.15	642.95
597.50	639.10
597.85	637.38
598.19	634.52
598.54	631.71
598.89	628.90
599.24	627.19
599.59	622.52
599.94	620.52
600.29	618.29
600.64	616.00
600.99	614.95
601.34	613.33
601.69	603.10
602.04	600.57
602.39	597.05
602.74	594.76
603.08	591.90
603.43	590.52
603.78	588.43
604.13	585.76
604.48	584.24
604.83	584.43
605.18	583.33
605.53	584.29
605.87	587.43
606.22	592.29
606.57	598.00
606.92	604.62
607.27	611.76
607.62	618.52
607.96	625.86
608.31	630.71
608.66	636.52
609.01	641.52
609.36	647.00
609.70	652.10
610.05	656.14
610.40	660.24
610.75	662.38
611.10	665.38
611.44	668.00
611.79	669.05
612.14	668.43
612.49	667.05
612.83	664.71
613.18	659.14
613.53	651.62
613.88	643.00
614.22	633.52
614.57	623.29
614.92	613.33
615.27	603.81
615.61	595.05
615.96	586.24
616.31	578.38
616.65	570.76
617.00	563.10
617.35	555.71
617.70	549.67
618.04	543.43
618.39	536.95
618.74	532.05
619.08	527.71
619.43	524.24
619.78	521.05
620.12	517.86
620.47	514.95
620.82	512.81
621.16	509.67
621.51	508.71
621.85	506.05
622.20	504.00
622.55	500.90
622.89	498.90
623.24	496.76
623.59	494.19
623.93	492.05
624.28	490.29
624.62	491.14
624.97	490.10
625.32	487.76
625.66	486.14
626.01	483.57
626.35	481.81
626.70	479.43
627.04	478.62
627.39	476.90
627.73	476.10
628.08	474.00
628.43	471.76
628.77	468.24
629.12	466.57
629.46	464.33
629.81	462.86
630.15	460.24
630.50	457.81
630.84	456.29
631.19	453.76
631.53	451.43
631.88	446.00
632.22	441.90
632.57	439.90
632.91	437.48
633.26	435.33
633.60	432.67
633.95	429.67
634.29	425.52
634.64	422.76
634.98	419.19
635.32	417.52
635.67	416.19
636.01	414.00
636.36	411.62
636.70	410.29
637.05	408.00
637.39	405.90
637.73	404.52
638.08	403.05
638.42	400.90
638.77	399.10
639.11	398.05
639.45	395.62
639.80	393.62
640.14	392.48
640.49	390.71
640.83	388.86
641.17	388.10
641.52	387.00
641.86	385.90
642.20	385.86
642.55	383.67
642.89	382.33
643.23	381.14
643.58	380.86
643.92	379.19
644.26	378.29
644.61	378.10
644.95	376.38
645.29	374.76
645.64	374.76
645.98	373.95
646.32	373.43
646.66	373.00
647.01	372.24
647.35	371.14
647.69	370.95
648.04	370.52
648.38	369.71
648.72	369.29
649.06	367.95
649.41	366.48
649.75	365.52
650.09	364.57
650.43	363.76
650.78	362.10
651.12	361.05
651.46	359.62
651.80	357.86
652.14	357.33
652.49	357.05
652.83	355.38
653.17	354.00
653.51	352.19
653.85	351.05
654.20	350.14
654.54	348.95
654.88	347.14
655.22	345.38
655.56	343.90
655.90	342.43
656.25	341.10
656.59	340.00
656.93	339.29
657.27	339.10
657.61	337.90
657.95	337.67
658.29	336.90
658.64	337.05
658.98	336.29
659.32	335.29
659.66	333.86
660.00	333.38
660.34	332.71
660.68	332.24
661.02	331.81
661.36	330.86
661.70	329.86
662.05	329.10
662.39	329.76
662.73	329.76
663.07	330.95
663.41	330.81
663.75	329.62
664.09	329.24
664.43	327.76
664.77	327.38
665.11	326.24
665.45	325.48
665.79	324.67
666.13	323.76
666.47	322.90
666.81	322.52
667.15	321.14
667.49	320.52
667.83	320.67
668.17	319.62
668.51	319.33
668.85	318.90
669.19	319.00
669.53	317.10
669.87	316.10
670.21	314.00
670.55	313.29
670.89	313.76
671.23	312.90
671.57	312.38
671.91	311.95
672.25	311.33
672.58	311.95
672.92	310.95
673.26	310.76
673.60	310.57
673.94	309.52
674.28	309.57
674.62	309.24
674.96	308.19
675.30	308.29
675.64	307.52
675.97	306.62
676.31	305.95
676.65	305.67
676.99	305.81
677.33	305.14
677.67	304.71
678.01	302.76
678.34	302.52
678.68	302.67
679.02	302.00
679.36	301.43
679.70	299.76
680.04	299.62
680.37	299.38
680.71	298.62
681.05	298.62
681.39	298.14
681.73	297.90
682.06	296.90
682.40	296.29
682.74	296.05
683.08	297.10
683.42	296.38
683.75	296.43
684.09	295.52
684.43	295.43
684.77	295.10
685.10	295.48
685.44	294.81
685.78	293.81
686.12	293.29
686.45	293.24
686.79	292.52
687.13	292.24
687.46	291.48
687.80	291.95
688.14	291.62
688.48	291.33
688.81	290.90
689.15	291.62
689.49	290.71
689.82	290.52
690.16	289.14
690.50	288.81
690.83	288.19
691.17	287.90
691.51	287.38
691.84	287.19
692.18	286.38
692.52	286.19
692.85	286.14
693.19	286.86
693.52	286.24
693.86	285.76
694.20	284.86
694.53	284.62
694.87	283.38
695.21	282.24
695.54	281.95
695.88	280.81
696.21	279.33
696.55	279.43
696.88	278.86
697.22	278.29
697.56	278.29
697.89	277.95
698.23	277.62
698.56	277.14
698.90	277.10
699.23	276.81
699.57	276.19
699.90	275.62
700.24	274.33
700.58	274.57
700.91	274.95
701.25	276.90
701.58	277.86
701.92	278.95
702.25	279.90
702.59	280.05
702.92	280.71
703.26	282.05
703.59	282.33
703.93	284.71
704.26	285.38
704.60	285.67
704.93	285.95
705.26	285.90
705.60	286.57
705.93	286.24
706.27	287.67
706.60	288.38
706.94	289.71
707.27	290.05
707.61	290.24
707.94	290.67
708.27	289.05
708.61	288.00
708.94	287.33
709.28	286.95
709.61	286.14
709.94	286.00
710.28	284.95
710.61	284.10
710.95	281.38
711.28	282.14
711.61	281.24
711.95	281.24
712.28	280.48
712.61	279.67
712.95	280.14
713.28	279.86
713.61	278.95
713.95	277.19
714.28	276.52
714.61	275.57
714.95	274.52
715.28	273.62
715.61	272.71
715.95	272.00
716.28	271.14
716.61	271.05
716.95	270.29
717.28	269.67
717.61	269.33
717.94	268.86
718.28	267.00
718.61	266.52
718.94	265.19
719.27	264.76
719.61	264.62
719.94	263.57
720.27	261.86
720.60	261.19
720.94	261.33
721.27	261.24
721.60	261.38
721.93	260.90
722.27	261.29
722.60	261.48
722.93	261.33
723.26	261.52
723.59	261.05
723.93	261.33
724.26	261.29
724.59	261.10
724.92	261.14
725.25	261.48
725.59	261.57
725.92	262.00
726.25	261.57
726.58	261.38
726.91	261.10
727.24	261.62
727.57	261.86
727.91	261.14
728.24	261.05
728.57	260.38
728.90	260.57
729.23	259.71
729.56	260.90
729.89	260.43
730.22	259.95
730.55	259.71
730.89	259.24
731.22	259.19
731.55	259.00
731.88	258.95
732.21	258.38
732.54	258.05
732.87	257.86
733.20	257.86
733.53	257.67
733.86	258.14
734.19	257.33
734.52	257.43
734.85	259.00
735.18	258.19
735.51	258.62
735.84	258.57
736.17	259.05
736.50	257.43
736.83	260.52
737.16	260.76
737.49	260.90
737.82	261.14
738.15	260.95
738.48	260.90
738.81	260.71
739.14	260.57
739.47	260.05
739.80	260.05
740.13	260.24
740.46	260.00
740.79	259.24
741.12	259.33
741.45	259.05
741.78	257.81
742.11	258.71
742.44	258.38
742.77	258.86
743.10	258.48
743.43	258.19
743.75	255.29
744.08	258.10
744.41	257.71
744.74	257.43
745.07	257.05
745.40	257.52
745.73	258.67
746.06	258.48
746.39	258.71
746.71	258.57
747.04	258.10
747.37	257.71
747.70	258.38
748.03	258.62
748.36	258.90
748.68	258.67
749.01	257.95
749.34	257.90
749.67	257.48
750.00	257.52
750.33	259.43
750.65	259.62
750.98	256.57
751.31	256.43
751.64	256.48
751.97	257.86
752.29	257.19
752.62	255.62
752.95	255.71
753.28	255.71
753.60	255.24
753.93	255.95
754.26	255.95
754.59	254.90
754.91	254.33
755.24	253.95
755.57	253.38
755.90	253.29
756.22	252.90
756.55	252.29
756.88	251.90
757.20	250.43
757.53	249.19
757.86	248.95
758.19	249.14
758.51	248.95
758.84	247.57
759.17	247.38
759.49	247.62
759.82	248.43
760.15	248.57
760.47	248.38
760.80	247.52
761.13	248.24
761.45	248.05
761.78	247.81
762.11	247.57
762.43	247.95
762.76	247.95
763.08	248.00
763.41	248.57
763.74	248.76
764.06	248.33
764.39	248.81
764.71	248.48
765.04	247.95
765.37	247.81
765.69	247.90
766.02	247.95
766.34	247.43
766.67	246.19
767.00	246.43
767.32	248.00
767.65	249.38
767.97	248.71
768.30	248.76
768.62	248.86
768.95	248.86
769.27	248.62
769.60	248.76
769.92	248.38
770.25	247.90
770.57	247.33
770.90	247.33
771.22	247.24
771.55	247.76
771.87	248.24
772.20	247.81
772.52	249.90
772.85	252.71
773.17	252.86
773.50	252.86
773.82	252.48
774.15	250.90
774.47	249.52
774.80	249.52
775.12	249.81
775.45	249.67
775.77	249.57
776.09	249.48
776.42	249.43
776.74	250.14
777.07	249.71
777.39	249.71
777.72	249.19
778.04	249.48
778.36	249.24
778.69	249.19
779.01	249.43
779.33	247.10
779.66	244.29
779.98	244.19
780.31	244.57
780.63	245.52
780.95	246.38
781.28	246.67
781.60	246.57
781.92	246.38
782.25	246.62
782.57	246.76
782.89	246.90
783.22	246.67
783.54	246.14
783.86	246.62
784.19	246.62
784.51	247.52
784.83	247.24
785.16	246.76
785.48	246.71
785.80	246.43
786.12	246.43
786.45	246.29
786.77	246.67
787.09	246.48
787.42	245.24
787.74	245.00
788.06	244.90
788.38	244.81
788.71	244.62
789.03	244.57
789.35	244.71
789.67	244.38
789.99	244.76
790.32	244.76
790.64	245.10
790.96	246.67
791.28	246.00
791.61	245.76
791.93	246.24
792.25	245.86
792.57	247.76
792.89	247.38
793.21	247.81
793.54	247.62
793.86	247.10
