SpectraSuite Data File
++++++++++++++++++++++++++++++++++++
Date: Wed Nov 07 18:31:34 EST 2012
User: group
Dark Spectrum Present: No
Reference Spectrum Present: No
Number of Sampled Component Spectra: 1
Spectrometers: USB2E7196
Integration Time (usec): 1000000 (USB2E7196)
Spectra Averaged: 1 (USB2E7196)
Boxcar Smoothing: 10 (USB2E7196)
Correct for Electrical Dark: No (USB2E7196)
Strobe/Lamp Enabled: No (USB2E7196)
Correct for Detector Non-linearity: No (USB2E7196)
Correct for Stray Light: No (USB2E7196)
Number of Pixels in Processed Spectrum: 2048
>>>>>Begin Processed Spectral Data<<<<<
339.09	0.00
339.48	219.00
339.86	219.00
340.24	217.00
340.63	221.00
341.01	263.00
341.39	221.00
341.78	237.00
342.16	239.00
342.54	227.00
342.93	221.95
343.31	232.95
343.69	233.29
344.07	233.76
344.46	234.86
344.84	235.71
345.22	234.33
345.60	235.19
345.99	235.10
346.37	234.95
346.75	235.14
347.13	235.24
347.52	235.38
347.90	236.24
348.28	236.43
348.66	236.95
349.05	236.71
349.43	237.24
349.81	237.43
350.19	237.62
350.57	237.67
350.96	237.71
351.34	237.81
351.72	238.52
352.10	238.67
352.48	238.52
352.87	238.67
353.25	238.71
353.63	238.62
354.01	238.62
354.39	239.05
354.77	239.43
355.15	240.19
355.54	239.95
355.92	239.29
356.30	239.05
356.68	240.76
357.06	240.48
357.44	239.67
357.82	239.62
358.20	239.81
358.58	239.81
358.97	240.33
359.35	241.05
359.73	241.29
360.11	241.48
360.49	241.62
360.87	241.48
361.25	241.81
361.63	242.76
362.01	242.95
362.39	242.57
362.77	242.76
363.15	242.62
363.53	243.00
363.91	243.14
364.29	243.33
364.67	241.10
365.05	241.24
365.43	241.67
365.81	241.90
366.19	243.10
366.57	244.14
366.95	243.62
367.33	243.14
367.71	242.90
368.09	243.38
368.47	243.19
368.85	242.76
369.23	243.19
369.61	242.24
369.99	243.10
370.37	243.38
370.75	244.38
371.13	243.76
371.51	243.00
371.89	243.33
372.27	243.43
372.65	243.14
373.03	243.43
373.41	243.05
373.78	242.81
374.16	241.52
374.54	240.90
374.92	240.81
375.30	240.76
375.68	240.71
376.06	240.57
376.44	240.43
376.82	240.81
377.19	240.86
377.57	240.57
377.95	239.62
378.33	239.19
378.71	237.62
379.09	237.90
379.47	238.71
379.84	238.29
380.22	238.10
380.60	237.86
380.98	237.52
381.36	237.86
381.73	237.67
382.11	238.05
382.49	238.05
382.87	237.90
383.25	237.90
383.62	241.14
384.00	240.71
384.38	241.00
384.76	241.19
385.13	241.71
385.51	241.81
385.89	241.62
386.27	241.86
386.64	242.29
387.02	242.29
387.40	241.76
387.78	242.14
388.15	242.19
388.53	242.19
388.91	242.38
389.29	241.95
389.66	242.19
390.04	241.86
390.42	241.95
390.79	242.00
391.17	242.14
391.55	238.76
391.92	238.86
392.30	238.90
392.68	238.76
393.05	238.57
393.43	238.76
393.81	239.24
394.18	238.90
394.56	239.10
394.94	239.14
395.31	239.19
395.69	239.38
396.06	239.62
396.44	239.81
396.82	239.86
397.19	241.14
397.57	240.90
397.95	241.57
398.32	241.10
398.70	241.62
399.07	242.14
399.45	242.19
399.82	242.57
400.20	242.43
400.58	242.52
400.95	241.67
401.33	242.38
401.70	244.10
402.08	244.52
402.45	244.81
402.83	245.90
403.20	246.19
403.58	246.43
403.95	247.14
404.33	247.71
404.71	247.86
405.08	249.29
405.46	250.00
405.83	250.05
406.21	250.33
406.58	250.57
406.96	251.00
407.33	251.48
407.70	252.10
408.08	254.76
408.45	255.62
408.83	256.95
409.20	257.10
409.58	256.00
409.95	256.95
410.33	257.86
410.70	257.90
411.08	259.33
411.45	260.52
411.82	261.05
412.20	262.71
412.57	264.95
412.95	264.71
413.32	266.38
413.69	267.95
414.07	269.90
414.44	271.90
414.82	273.57
415.19	276.05
415.56	278.48
415.94	279.52
416.31	282.62
416.68	285.43
417.06	288.90
417.43	293.14
417.81	297.05
418.18	300.71
418.55	304.52
418.93	308.57
419.30	312.57
419.67	317.86
420.04	322.52
420.42	327.14
420.79	334.67
421.16	340.62
421.54	347.95
421.91	354.05
422.28	360.62
422.66	367.38
423.03	376.05
423.40	382.71
423.77	389.76
424.15	396.57
424.52	404.43
424.89	413.29
425.26	420.43
425.64	427.90
426.01	435.95
426.38	445.14
426.75	454.81
427.13	464.57
427.50	473.76
427.87	483.33
428.24	492.95
428.61	501.19
428.99	512.52
429.36	522.67
429.73	534.05
430.10	545.52
430.47	558.24
430.85	569.38
431.22	582.67
431.59	598.81
431.96	611.86
432.33	627.19
432.70	640.48
433.08	657.29
433.45	672.95
433.82	688.57
434.19	705.76
434.56	721.43
434.93	737.14
435.30	753.67
435.68	771.05
436.05	788.57
436.42	804.48
436.79	819.33
437.16	836.10
437.53	853.38
437.90	870.00
438.27	885.43
438.64	901.67
439.01	917.29
439.38	928.10
439.75	941.38
440.13	955.24
440.50	969.71
440.87	980.71
441.24	991.14
441.61	1004.24
441.98	1013.00
442.35	1024.10
442.72	1034.67
443.09	1045.48
443.46	1052.00
443.83	1054.81
444.20	1057.24
444.57	1061.90
444.94	1062.67
445.31	1064.19
445.68	1068.05
446.05	1068.86
446.42	1065.67
446.79	1062.71
447.16	1059.81
447.53	1058.00
447.90	1050.14
448.27	1042.86
448.64	1032.95
449.01	1026.67
449.37	1014.10
449.74	1002.10
450.11	990.00
450.48	974.48
450.85	957.33
451.22	942.90
451.59	930.81
451.96	919.19
452.33	903.14
452.70	888.81
453.07	871.90
453.43	852.81
453.80	835.29
454.17	820.43
454.54	805.14
454.91	789.38
455.28	772.71
455.65	757.90
456.02	747.52
456.38	735.14
456.75	720.38
457.12	707.90
457.49	695.62
457.86	681.19
458.23	672.10
458.59	661.43
458.96	651.24
459.33	641.14
459.70	632.00
460.07	623.90
460.43	615.00
460.80	606.38
461.17	598.67
461.54	591.38
461.91	583.29
462.27	575.19
462.64	568.10
463.01	561.14
463.38	555.67
463.74	544.43
464.11	538.38
464.48	532.81
464.85	527.24
465.21	523.33
465.58	519.90
465.95	512.95
466.32	509.05
466.68	503.71
467.05	499.29
467.42	494.52
467.78	490.00
468.15	486.19
468.52	483.52
468.88	479.05
469.25	474.95
469.62	471.90
469.98	468.43
470.35	465.62
470.72	462.76
471.08	458.62
471.45	456.38
471.82	454.29
472.18	450.81
472.55	447.86
472.92	444.24
473.28	440.90
473.65	438.71
474.02	435.67
474.38	434.24
474.75	432.62
475.11	430.24
475.48	428.71
475.85	426.71
476.21	424.62
476.58	423.43
476.94	422.52
477.31	421.86
477.67	421.81
478.04	421.14
478.41	420.86
478.77	422.33
479.14	420.86
479.50	419.90
479.87	420.19
480.23	420.90
480.60	421.24
480.96	421.81
481.33	423.71
481.69	425.05
482.06	425.43
482.42	426.38
482.79	428.00
483.15	428.86
483.52	430.48
483.88	432.19
484.25	433.33
484.61	434.90
484.98	435.62
485.34	437.24
485.71	438.90
486.07	440.48
486.44	440.57
486.80	443.00
487.17	445.00
487.53	447.95
487.90	450.00
488.26	453.33
488.62	455.52
488.99	456.62
489.35	458.48
489.72	460.43
490.08	462.19
490.44	463.86
490.81	466.10
491.17	467.67
491.54	469.81
491.90	472.14
492.26	474.33
492.63	476.76
492.99	478.57
493.36	481.57
493.72	484.33
494.08	486.71
494.45	489.48
494.81	492.43
495.17	494.33
495.54	498.00
495.90	500.14
496.26	503.71
496.63	506.95
496.99	509.86
497.35	513.43
497.72	516.81
498.08	520.76
498.44	525.14
498.80	529.52
499.17	533.10
499.53	537.67
499.89	542.19
500.26	546.29
500.62	551.19
500.98	556.00
501.34	560.48
501.71	565.38
502.07	569.81
502.43	574.33
502.79	579.10
503.16	583.33
503.52	588.38
503.88	592.52
504.24	597.57
504.60	602.52
504.97	607.71
505.33	612.76
505.69	618.33
506.05	622.95
506.41	628.43
506.78	634.33
507.14	639.14
507.50	644.62
507.86	650.14
508.22	655.19
508.59	659.24
508.95	665.14
509.31	671.52
509.67	676.57
510.03	681.62
510.39	686.90
510.75	692.33
511.12	697.24
511.48	702.29
511.84	706.43
512.20	711.14
512.56	715.29
512.92	719.62
513.28	724.10
513.64	728.62
514.00	733.29
514.37	737.48
514.73	742.00
515.09	745.90
515.45	750.33
515.81	754.81
516.17	758.76
516.53	762.10
516.89	764.81
517.25	769.10
517.61	773.62
517.97	776.86
518.33	780.19
518.69	783.62
519.05	787.24
519.41	791.52
519.77	796.29
520.13	800.76
520.49	804.05
520.85	806.24
521.21	810.10
521.57	812.29
521.93	814.43
522.29	816.67
522.65	818.76
523.01	820.62
523.37	822.43
523.73	825.76
524.09	827.14
524.45	829.05
524.81	830.43
525.17	832.05
525.53	834.71
525.89	836.67
526.25	838.81
526.61	840.48
526.97	841.62
527.33	842.10
527.68	845.33
528.04	847.24
528.40	848.76
528.76	849.29
529.12	851.52
529.48	853.90
529.84	854.95
530.20	857.00
530.56	858.67
530.91	859.43
531.27	860.86
531.63	863.14
531.99	864.19
532.35	865.67
532.71	866.81
533.07	868.10
533.42	871.57
533.78	873.71
534.14	874.90
534.50	876.43
534.86	879.05
535.21	878.19
535.57	880.00
535.93	881.57
536.29	885.86
536.65	888.52
537.00	889.90
537.36	892.95
537.72	896.62
538.08	901.67
538.44	907.62
538.79	912.00
539.15	915.95
539.51	921.38
539.87	925.90
540.22	931.05
540.58	935.29
540.94	938.14
541.29	942.00
541.65	946.95
542.01	952.81
542.37	956.05
542.72	959.33
543.08	960.90
543.44	963.14
543.79	961.67
544.15	962.05
544.51	963.76
544.87	963.57
545.22	961.57
545.58	958.48
545.94	954.19
546.29	951.05
546.65	946.29
547.01	941.71
547.36	938.38
547.72	933.43
548.07	928.62
548.43	922.71
548.79	917.38
549.14	911.71
549.50	906.05
549.86	900.52
550.21	895.67
550.57	892.81
550.92	888.90
551.28	885.86
551.64	881.57
551.99	877.48
552.35	873.38
552.70	869.81
553.06	866.10
553.41	863.10
553.77	860.43
554.13	859.10
554.48	857.43
554.84	854.62
555.19	851.86
555.55	852.10
555.90	849.43
556.26	846.24
556.61	844.10
556.97	839.95
557.32	837.52
557.68	835.43
558.03	832.24
558.39	829.52
558.74	827.43
559.10	824.57
559.45	822.57
559.81	821.86
560.16	819.57
560.52	818.33
560.87	817.43
561.23	814.95
561.58	815.33
561.94	812.29
562.29	809.71
562.64	808.05
563.00	803.81
563.35	802.33
563.71	800.57
564.06	798.48
564.42	797.14
564.77	795.10
565.12	793.81
565.48	794.86
565.83	794.67
566.19	792.76
566.54	792.19
566.89	789.86
567.25	788.38
567.60	789.24
567.96	790.76
568.31	790.62
568.66	790.33
569.02	787.05
569.37	786.81
569.72	786.71
570.08	785.38
570.43	783.86
570.78	783.24
571.14	782.86
571.49	781.81
571.84	781.71
572.20	781.38
572.55	780.00
572.90	776.67
573.26	775.14
573.61	773.71
573.96	773.10
574.31	772.57
574.67	771.43
575.02	769.43
575.37	765.29
575.72	762.67
576.08	760.95
576.43	760.48
576.78	759.57
577.13	757.81
577.49	757.43
577.84	756.52
578.19	755.05
578.54	754.38
578.90	753.48
579.25	752.33
579.60	751.48
579.95	750.71
580.30	750.00
580.66	748.57
581.01	748.52
581.36	746.86
581.71	745.62
582.06	744.48
582.42	742.62
582.77	742.10
583.12	741.33
583.47	740.33
583.82	738.62
584.17	736.76
584.53	736.62
584.88	734.81
585.23	734.38
585.58	732.76
585.93	730.24
586.28	728.90
586.63	726.62
586.98	724.48
587.34	721.76
587.69	718.71
588.04	716.62
588.39	713.95
588.74	711.52
589.09	709.57
589.44	706.43
589.79	703.90
590.14	700.29
590.49	696.24
590.84	691.52
591.19	687.95
591.54	684.81
591.89	680.14
592.25	678.43
592.60	673.81
592.95	670.48
593.30	667.29
593.65	662.90
594.00	659.33
594.35	663.14
594.70	660.33
595.05	657.76
595.40	655.14
595.75	652.05
596.10	649.24
596.45	645.57
596.80	642.90
597.15	639.95
597.50	636.76
597.85	635.38
598.19	633.33
598.54	631.19
598.89	627.76
599.24	625.38
599.59	621.24
599.94	618.48
600.29	616.24
600.64	613.38
600.99	612.24
601.34	610.10
601.69	601.00
602.04	597.57
602.39	594.81
602.74	592.24
603.08	589.71
603.43	588.38
603.78	586.43
604.13	584.19
604.48	582.71
604.83	582.24
605.18	581.52
605.53	582.19
605.87	584.05
606.22	588.38
606.57	594.67
606.92	600.71
607.27	608.00
607.62	614.43
607.96	622.10
608.31	627.38
608.66	632.38
609.01	636.14
609.36	641.29
609.70	645.76
610.05	649.52
610.40	653.10
610.75	655.33
611.10	658.14
611.44	660.90
611.79	661.90
612.14	662.05
612.49	660.05
612.83	657.71
613.18	652.95
613.53	646.76
613.88	638.24
614.22	629.43
614.57	620.57
614.92	611.10
615.27	601.86
615.61	592.43
615.96	585.29
616.31	578.38
616.65	572.62
617.00	565.52
617.35	558.62
617.70	551.52
618.04	545.00
618.39	538.62
618.74	533.14
619.08	528.48
619.43	523.76
619.78	520.67
620.12	517.57
620.47	515.19
620.82	512.24
621.16	509.00
621.51	507.62
621.85	504.19
622.20	501.86
622.55	498.33
622.89	496.81
623.24	494.29
623.59	491.43
623.93	488.38
624.28	486.10
624.62	485.95
624.97	486.10
625.32	483.71
625.66	482.14
626.01	479.52
626.35	477.43
626.70	476.19
627.04	475.14
627.39	473.00
627.73	472.00
628.08	470.00
628.43	468.10
628.77	464.95
629.12	463.29
629.46	461.76
629.81	460.38
630.15	457.81
630.50	454.86
630.84	453.38
631.19	450.95
631.53	448.62
631.88	443.95
632.22	440.00
632.57	438.38
632.91	435.86
633.26	434.33
633.60	431.52
633.95	428.43
634.29	424.76
634.64	422.38
634.98	418.43
635.32	416.86
635.67	414.95
636.01	412.95
636.36	410.57
636.70	408.71
637.05	406.62
637.39	404.71
637.73	404.00
638.08	402.67
638.42	400.86
638.77	400.05
639.11	398.67
639.45	396.86
639.80	395.48
640.14	394.10
640.49	391.86
640.83	390.57
641.17	389.90
641.52	388.67
641.86	387.38
642.20	387.43
642.55	385.33
642.89	384.19
643.23	383.48
643.58	383.29
643.92	381.57
644.26	380.67
644.61	380.24
644.95	378.86
645.29	376.86
645.64	376.52
645.98	374.95
646.32	374.52
646.66	373.71
647.01	371.95
647.35	371.76
647.69	371.62
648.04	371.24
648.38	370.24
648.72	369.57
649.06	368.81
649.41	367.05
649.75	366.33
650.09	365.57
650.43	363.90
650.78	361.95
651.12	360.76
651.46	359.24
651.80	357.81
652.14	356.52
652.49	356.24
652.83	354.43
653.17	353.38
653.51	351.76
653.85	351.00
654.20	350.19
654.54	348.19
654.88	346.24
655.22	344.57
655.56	343.14
655.90	341.86
656.25	340.71
656.59	339.90
656.93	338.76
657.27	338.67
657.61	337.62
657.95	337.33
658.29	336.48
658.64	336.52
658.98	335.71
659.32	334.76
659.66	333.43
660.00	333.29
660.34	332.67
660.68	332.00
661.02	331.14
661.36	330.43
661.70	329.76
662.05	329.10
662.39	329.52
662.73	329.81
663.07	330.67
663.41	330.14
663.75	329.00
664.09	329.00
664.43	327.29
664.77	326.86
665.11	325.81
665.45	325.48
665.79	324.76
666.13	323.86
666.47	323.14
666.81	322.48
667.15	321.05
667.49	320.33
667.83	320.52
668.17	319.76
668.51	318.90
668.85	318.38
669.19	319.10
669.53	317.43
669.87	316.43
670.21	314.48
670.55	314.00
670.89	314.62
671.23	313.76
671.57	313.57
671.91	313.24
672.25	312.86
672.58	313.24
672.92	311.90
673.26	311.95
673.60	311.62
673.94	311.38
674.28	310.81
674.62	310.86
674.96	309.86
675.30	309.52
675.64	309.38
675.97	309.24
676.31	307.67
676.65	306.81
676.99	306.86
677.33	306.19
677.67	305.38
678.01	303.95
678.34	303.24
678.68	303.00
679.02	301.81
679.36	301.05
679.70	299.38
680.04	299.05
680.37	298.00
680.71	297.24
681.05	296.71
681.39	296.52
681.73	295.67
682.06	295.10
682.40	294.81
682.74	294.86
683.08	295.38
683.42	295.14
683.75	295.62
684.09	294.29
684.43	294.05
684.77	293.76
685.10	293.52
685.44	293.14
685.78	292.29
686.12	291.86
686.45	291.90
686.79	291.57
687.13	291.67
687.46	291.24
687.80	291.52
688.14	291.14
688.48	290.90
688.81	290.57
689.15	290.71
689.49	289.95
689.82	289.62
690.16	288.05
690.50	287.81
690.83	287.00
691.17	286.24
691.51	285.81
691.84	285.62
692.18	285.00
692.52	284.67
692.85	284.38
693.19	285.29
693.52	284.57
693.86	284.00
694.20	283.19
694.53	282.95
694.87	282.05
695.21	280.86
695.54	280.52
695.88	279.43
696.21	278.33
696.55	278.24
696.88	277.62
697.22	277.10
697.56	276.90
697.89	276.52
698.23	276.90
698.56	276.48
698.90	276.43
699.23	275.95
699.57	275.81
699.90	275.38
700.24	274.71
700.58	274.81
700.91	275.05
701.25	277.48
701.58	278.38
701.92	279.52
702.25	280.00
702.59	279.95
702.92	280.86
703.26	281.43
703.59	281.81
703.93	283.81
704.26	284.76
704.60	285.43
704.93	285.90
705.26	285.67
705.60	286.43
705.93	285.90
706.27	287.10
706.60	287.81
706.94	289.52
707.27	289.62
707.61	290.33
707.94	290.90
708.27	289.05
708.61	288.19
708.94	287.86
709.28	288.05
709.61	287.52
709.94	287.24
710.28	286.71
710.61	285.81
710.95	283.05
711.28	283.81
711.61	282.62
711.95	282.29
712.28	281.81
712.61	280.62
712.95	281.38
713.28	281.33
713.61	280.10
713.95	277.90
714.28	277.14
714.61	275.81
714.95	274.76
715.28	273.38
715.61	272.67
715.95	271.71
716.28	270.76
716.61	271.10
716.95	270.14
717.28	269.52
717.61	269.29
717.94	269.00
718.28	266.62
718.61	266.19
718.94	265.43
719.27	265.10
719.61	264.81
719.94	263.95
720.27	262.48
720.60	261.86
720.94	261.62
721.27	261.33
721.60	261.24
721.93	260.43
722.27	261.10
722.60	261.19
722.93	260.38
723.26	260.24
723.59	259.57
723.93	259.81
724.26	259.86
724.59	259.33
724.92	259.57
725.25	260.52
725.59	260.43
725.92	260.67
726.25	260.67
726.58	260.90
726.91	260.05
727.24	260.33
727.57	260.71
727.91	260.43
728.24	260.38
728.57	259.86
728.90	260.38
729.23	259.76
729.56	260.52
729.89	260.71
730.22	260.52
730.55	260.10
730.89	259.48
731.22	259.33
731.55	259.43
731.88	259.38
732.21	258.24
732.54	257.57
732.87	257.48
733.20	257.43
733.53	257.19
733.86	257.81
734.19	257.43
734.52	257.38
734.85	258.76
735.18	258.38
735.51	259.52
735.84	259.24
736.17	259.57
736.50	258.14
736.83	260.81
737.16	261.19
737.49	261.33
737.82	261.52
738.15	261.19
738.48	261.14
738.81	260.62
739.14	260.62
739.47	260.71
739.80	260.52
740.13	260.57
740.46	260.10
740.79	259.86
741.12	259.48
741.45	259.33
741.78	258.05
742.11	258.86
742.44	257.81
742.77	258.38
743.10	257.90
743.43	258.10
743.75	255.57
744.08	258.24
744.41	257.81
744.74	257.62
745.07	257.48
745.40	257.81
745.73	258.71
746.06	258.67
746.39	258.95
746.71	258.81
747.04	258.43
747.37	258.29
747.70	258.29
748.03	258.76
748.36	258.90
748.68	258.90
749.01	257.86
749.34	258.14
749.67	257.95
750.00	258.57
750.33	260.14
750.65	260.14
750.98	257.14
751.31	257.48
751.64	257.24
751.97	258.67
752.29	258.57
752.62	257.57
752.95	257.52
753.28	257.14
753.60	257.19
753.93	257.81
754.26	258.00
754.59	257.00
754.91	256.43
755.24	256.33
755.57	256.00
755.90	255.90
756.22	255.43
756.55	254.86
756.88	254.05
757.20	252.29
757.53	251.48
757.86	251.52
758.19	251.33
758.51	251.48
758.84	249.95
759.17	249.67
759.49	249.81
759.82	250.86
760.15	251.10
760.47	250.52
760.80	249.57
761.13	249.95
761.45	250.14
761.78	250.10
762.11	249.81
762.43	249.62
762.76	249.67
763.08	250.00
763.41	249.90
763.74	250.14
764.06	250.05
764.39	250.24
764.71	249.67
765.04	249.38
765.37	249.38
765.69	249.33
766.02	249.00
766.34	248.86
766.67	247.52
767.00	248.00
767.32	249.24
767.65	250.67
767.97	250.52
768.30	250.67
768.62	250.43
768.95	249.95
769.27	249.67
769.60	249.95
769.92	249.29
770.25	248.86
770.57	248.19
770.90	248.00
771.22	247.76
771.55	248.00
771.87	247.95
772.20	247.57
772.52	249.67
772.85	252.95
773.17	252.76
773.50	252.90
773.82	252.33
774.15	251.43
774.47	249.81
774.80	249.14
775.12	249.05
775.45	249.19
775.77	249.43
776.09	249.95
776.42	249.95
776.74	250.33
777.07	250.05
777.39	250.00
777.72	249.67
778.04	250.24
778.36	250.14
778.69	250.33
779.01	250.29
779.33	248.14
779.66	244.67
779.98	244.38
780.31	244.24
780.63	245.14
780.95	245.19
781.28	245.05
781.60	244.67
781.92	244.62
782.25	244.43
782.57	244.33
782.89	243.81
783.22	243.48
783.54	243.00
783.86	243.38
784.19	243.24
784.51	244.19
784.83	243.57
785.16	243.19
785.48	243.19
785.80	243.48
786.12	243.29
786.45	243.38
786.77	243.62
787.09	243.81
787.42	242.86
787.74	242.57
788.06	242.90
788.38	243.43
788.71	243.10
789.03	243.24
789.35	243.10
789.67	243.00
789.99	243.43
790.32	243.24
790.64	243.62
790.96	246.05
791.28	245.10
791.61	244.81
791.93	245.19
792.25	245.24
792.57	246.76
792.89	246.62
793.21	246.76
793.54	246.52
793.86	246.19
