SpectraSuite Data File
++++++++++++++++++++++++++++++++++++
Date: Wed Nov 07 18:32:46 EST 2012
User: group
Dark Spectrum Present: No
Reference Spectrum Present: No
Number of Sampled Component Spectra: 1
Spectrometers: USB2E7196
Integration Time (usec): 1000000 (USB2E7196)
Spectra Averaged: 1 (USB2E7196)
Boxcar Smoothing: 10 (USB2E7196)
Correct for Electrical Dark: No (USB2E7196)
Strobe/Lamp Enabled: No (USB2E7196)
Correct for Detector Non-linearity: No (USB2E7196)
Correct for Stray Light: No (USB2E7196)
Number of Pixels in Processed Spectrum: 2048
>>>>>Begin Processed Spectral Data<<<<<
339.09	0.00
339.48	221.00
339.86	218.00
340.24	221.00
340.63	225.00
341.01	265.00
341.39	225.00
341.78	232.00
342.16	241.00
342.54	234.00
342.93	222.10
343.31	233.48
343.69	233.95
344.07	234.33
344.46	235.05
344.84	235.38
345.22	233.90
345.60	234.52
345.99	234.81
346.37	234.62
346.75	234.57
347.13	234.48
347.52	234.57
347.90	235.67
348.28	235.86
348.66	236.48
349.05	236.14
349.43	236.48
349.81	236.10
350.19	236.43
350.57	236.95
350.96	237.29
351.34	237.05
351.72	237.10
352.10	237.43
352.48	237.43
352.87	237.62
353.25	237.76
353.63	237.48
354.01	237.48
354.39	237.43
354.77	237.52
355.15	238.52
355.54	238.05
355.92	237.76
356.30	237.76
356.68	239.57
357.06	239.95
357.44	239.29
357.82	239.86
358.20	239.81
358.58	239.71
358.97	239.76
359.35	240.43
359.73	241.10
360.11	241.14
360.49	241.14
360.87	240.90
361.25	241.29
361.63	242.38
362.01	242.43
362.39	242.52
362.77	242.57
363.15	242.10
363.53	242.76
363.91	242.52
364.29	242.62
364.67	239.90
365.05	239.38
365.43	240.24
365.81	240.48
366.19	242.10
366.57	243.33
366.95	243.24
367.33	242.67
367.71	242.71
368.09	243.43
368.47	243.81
368.85	243.76
369.23	244.05
369.61	243.19
369.99	243.90
370.37	244.10
370.75	245.67
371.13	245.19
371.51	244.48
371.89	244.52
372.27	244.86
372.65	245.33
373.03	245.81
373.41	245.24
373.78	245.05
374.16	243.43
374.54	242.38
374.92	241.76
375.30	241.76
375.68	241.10
376.06	240.90
376.44	240.33
376.82	240.95
377.19	240.67
377.57	240.71
377.95	240.05
378.33	239.86
378.71	238.10
379.09	238.76
379.47	239.14
379.84	239.10
380.22	238.52
380.60	238.19
380.98	238.10
381.36	238.24
381.73	237.86
382.11	238.67
382.49	238.76
382.87	238.90
383.25	238.90
383.62	241.95
384.00	241.67
384.38	242.05
384.76	242.29
385.13	243.24
385.51	243.00
385.89	242.62
386.27	242.71
386.64	243.48
387.02	242.95
387.40	242.43
387.78	242.71
388.15	243.29
388.53	243.05
388.91	242.81
389.29	242.48
389.66	242.95
390.04	242.38
390.42	242.86
390.79	243.00
391.17	243.24
391.55	240.33
391.92	240.38
392.30	240.52
392.68	240.14
393.05	239.76
393.43	240.10
393.81	240.62
394.18	240.52
394.56	240.10
394.94	241.00
395.31	240.90
395.69	241.57
396.06	241.71
396.44	241.95
396.82	241.86
397.19	243.14
397.57	242.86
397.95	243.24
398.32	242.43
398.70	243.00
399.07	243.33
399.45	243.38
399.82	243.48
400.20	242.95
400.58	243.00
400.95	242.48
401.33	242.95
401.70	244.62
402.08	244.86
402.45	245.10
402.83	245.33
403.20	246.10
403.58	245.67
403.95	245.67
404.33	246.38
404.71	246.95
405.08	248.52
405.46	248.76
405.83	249.24
406.21	249.62
406.58	249.52
406.96	249.62
407.33	250.38
407.70	251.10
408.08	253.86
408.45	254.38
408.83	255.33
409.20	255.76
409.58	254.90
409.95	255.95
410.33	256.76
410.70	257.10
411.08	258.19
411.45	259.52
411.82	260.62
412.20	261.95
412.57	264.57
412.95	264.14
413.32	266.43
413.69	267.71
414.07	269.71
414.44	271.67
414.82	274.14
415.19	276.38
415.56	278.76
415.94	279.81
416.31	283.05
416.68	285.57
417.06	288.76
417.43	292.33
417.81	296.05
418.18	299.62
418.55	303.33
418.93	307.33
419.30	311.29
419.67	316.38
420.04	320.76
420.42	325.05
420.79	332.95
421.16	338.05
421.54	345.14
421.91	351.52
422.28	358.05
422.66	364.33
423.03	372.95
423.40	380.24
423.77	387.38
424.15	394.05
424.52	402.14
424.89	411.05
425.26	419.29
425.64	426.71
426.01	435.38
426.38	444.00
426.75	453.71
427.13	463.33
427.50	472.33
427.87	482.43
428.24	492.57
428.61	500.05
428.99	511.24
429.36	521.05
429.73	531.81
430.10	543.24
430.47	555.48
430.85	565.67
431.22	578.62
431.59	594.19
431.96	607.90
432.33	622.29
432.70	635.81
433.08	651.67
433.45	667.71
433.82	683.00
434.19	700.10
434.56	715.95
434.93	730.95
435.30	746.76
435.68	764.14
436.05	780.62
436.42	797.38
436.79	813.71
437.16	830.86
437.53	847.71
437.90	864.29
438.27	881.43
438.64	899.00
439.01	914.43
439.38	927.10
439.75	940.90
440.13	956.24
440.50	971.05
440.87	982.76
441.24	994.62
441.61	1007.10
441.98	1015.90
442.35	1026.95
442.72	1038.57
443.09	1050.71
443.46	1056.43
443.83	1060.10
444.20	1062.81
444.57	1066.71
444.94	1068.38
445.31	1070.67
445.68	1075.57
446.05	1074.71
446.42	1071.86
446.79	1068.81
447.16	1064.33
447.53	1061.57
447.90	1053.29
448.27	1044.38
448.64	1034.33
449.01	1026.05
449.37	1015.71
449.74	1004.52
450.11	993.00
450.48	977.57
450.85	961.10
451.22	947.67
451.59	935.38
451.96	923.38
452.33	907.48
452.70	892.76
453.07	875.62
453.43	855.48
453.80	838.43
454.17	822.19
454.54	806.57
454.91	790.62
455.28	774.14
455.65	759.29
456.02	748.95
456.38	736.52
456.75	721.62
457.12	707.67
457.49	695.48
457.86	681.05
458.23	671.48
458.59	660.67
458.96	649.48
459.33	638.71
459.70	628.76
460.07	620.95
460.43	612.24
460.80	604.48
461.17	596.81
461.54	589.71
461.91	582.52
462.27	575.00
462.64	569.10
463.01	562.95
463.38	557.62
463.74	547.24
464.11	540.76
464.48	535.48
464.85	529.38
465.21	525.33
465.58	520.62
465.95	514.19
466.32	509.19
466.68	505.10
467.05	501.14
467.42	496.52
467.78	491.05
468.15	486.29
468.52	482.76
468.88	478.14
469.25	473.86
469.62	471.05
469.98	467.48
470.35	464.57
470.72	460.95
471.08	457.05
471.45	454.57
471.82	452.67
472.18	449.38
472.55	447.19
472.92	443.38
473.28	440.48
473.65	438.48
474.02	435.52
474.38	433.19
474.75	431.05
475.11	428.81
475.48	427.57
475.85	425.90
476.21	424.48
476.58	423.48
476.94	422.10
477.31	420.43
477.67	419.67
478.04	418.24
478.41	417.43
478.77	419.52
479.14	418.71
479.50	418.29
479.87	418.14
480.23	418.33
480.60	418.33
480.96	419.24
481.33	420.48
481.69	421.57
482.06	422.52
482.42	424.00
482.79	425.48
483.15	426.38
483.52	427.81
483.88	428.52
484.25	429.62
484.61	431.43
484.98	432.29
485.34	434.43
485.71	436.14
486.07	437.48
486.44	436.05
486.80	437.71
487.17	438.29
487.53	440.90
487.90	442.29
488.26	445.43
488.62	447.86
488.99	448.76
489.35	450.24
489.72	451.43
490.08	452.71
490.44	453.81
490.81	455.90
491.17	457.67
491.54	460.10
491.90	462.52
492.26	464.62
492.63	467.57
492.99	469.43
493.36	471.81
493.72	475.19
494.08	477.67
494.45	480.67
494.81	484.52
495.17	486.95
495.54	490.43
495.90	492.76
496.26	495.43
496.63	499.52
496.99	502.81
497.35	506.71
497.72	510.48
498.08	514.81
498.44	519.14
498.80	523.62
499.17	527.57
499.53	531.67
499.89	536.71
500.26	540.90
500.62	545.76
500.98	551.05
501.34	555.67
501.71	561.86
502.07	566.95
502.43	571.05
502.79	576.14
503.16	581.33
503.52	586.52
503.88	590.81
504.24	595.43
504.60	601.10
504.97	607.29
505.33	611.95
505.69	618.38
506.05	622.86
506.41	628.38
506.78	633.81
507.14	639.48
507.50	644.81
507.86	650.52
508.22	655.29
508.59	660.29
508.95	665.71
509.31	671.81
509.67	676.67
510.03	681.90
510.39	687.05
510.75	692.81
511.12	697.33
511.48	702.38
511.84	707.38
512.20	712.24
512.56	716.71
512.92	722.67
513.28	727.52
513.64	732.67
514.00	736.52
514.37	740.86
514.73	745.48
515.09	750.38
515.45	754.33
515.81	758.95
516.17	762.62
516.53	766.52
516.89	768.81
517.25	772.86
517.61	778.62
517.97	783.10
518.33	786.43
518.69	791.00
519.05	795.62
519.41	798.81
519.77	804.57
520.13	807.52
520.49	809.90
520.85	812.81
521.21	817.33
521.57	821.52
521.93	825.24
522.29	828.33
522.65	830.05
523.01	833.19
523.37	835.24
523.73	838.43
524.09	840.90
524.45	842.95
524.81	845.43
525.17	847.19
525.53	848.52
525.89	850.76
526.25	852.71
526.61	854.00
526.97	856.62
527.33	856.90
527.68	861.14
528.04	864.10
528.40	864.90
528.76	865.57
529.12	866.48
529.48	868.14
529.84	868.71
530.20	870.05
530.56	871.90
530.91	874.48
531.27	875.24
531.63	876.67
531.99	878.62
532.35	879.62
532.71	880.10
533.07	881.38
533.42	884.67
533.78	885.19
534.14	886.95
534.50	887.86
534.86	888.90
535.21	888.33
535.57	889.24
535.93	890.67
536.29	893.86
536.65	895.67
537.00	896.24
537.36	898.10
537.72	899.86
538.08	901.62
538.44	903.14
538.79	905.67
539.15	907.05
539.51	908.90
539.87	911.43
540.22	913.57
540.58	916.00
540.94	916.19
541.29	919.38
541.65	920.24
542.01	923.48
542.37	926.29
542.72	926.76
543.08	927.86
543.44	927.52
543.79	925.33
544.15	925.48
544.51	925.86
544.87	925.48
545.22	925.57
545.58	923.14
545.94	920.95
546.29	919.00
546.65	917.14
547.01	914.90
547.36	911.95
547.72	909.19
548.07	906.10
548.43	902.43
548.79	898.81
549.14	895.90
549.50	891.76
549.86	886.14
550.21	883.14
550.57	879.86
550.92	877.76
551.28	876.43
551.64	873.76
551.99	871.24
552.35	868.62
552.70	864.71
553.06	863.67
553.41	861.62
553.77	861.14
554.13	858.90
554.48	857.52
554.84	856.38
555.19	854.05
555.55	853.86
555.90	852.29
556.26	850.24
556.61	849.48
556.97	846.38
557.32	845.38
557.68	844.24
558.03	842.14
558.39	841.19
558.74	838.38
559.10	836.76
559.45	834.67
559.81	833.14
560.16	832.14
560.52	829.57
560.87	828.86
561.23	826.14
561.58	826.62
561.94	824.38
562.29	822.24
562.64	821.05
563.00	816.81
563.35	814.90
563.71	813.14
564.06	810.57
564.42	809.81
564.77	808.24
565.12	806.81
565.48	807.81
565.83	806.29
566.19	804.62
566.54	803.14
566.89	801.43
567.25	800.71
567.60	800.48
567.96	802.43
568.31	801.95
568.66	801.95
569.02	798.90
569.37	796.90
569.72	795.14
570.08	794.48
570.43	794.43
570.78	793.05
571.14	792.14
571.49	791.29
571.84	790.10
572.20	788.71
572.55	787.10
572.90	783.33
573.26	781.10
573.61	780.38
573.96	778.90
574.31	778.33
574.67	776.05
575.02	773.62
575.37	769.38
575.72	766.86
576.08	763.52
576.43	762.10
576.78	760.86
577.13	759.62
577.49	757.29
577.84	755.95
578.19	754.81
578.54	753.81
578.90	751.81
579.25	750.71
579.60	749.57
579.95	748.00
580.30	746.76
580.66	745.81
581.01	744.67
581.36	742.95
581.71	741.24
582.06	741.81
582.42	740.76
582.77	739.62
583.12	737.86
583.47	736.48
583.82	735.67
584.17	735.43
584.53	734.71
584.88	733.43
585.23	732.48
585.58	730.52
585.93	727.81
586.28	726.19
586.63	724.24
586.98	722.38
587.34	720.95
587.69	718.57
588.04	716.10
588.39	713.29
588.74	710.48
589.09	708.90
589.44	703.90
589.79	701.14
590.14	698.33
590.49	695.05
590.84	691.67
591.19	688.62
591.54	685.00
591.89	680.86
592.25	680.14
592.60	675.90
592.95	673.14
593.30	670.57
593.65	667.57
594.00	663.05
594.35	667.33
594.70	663.33
595.05	660.29
595.40	657.48
595.75	653.90
596.10	651.38
596.45	648.24
596.80	646.00
597.15	642.76
597.50	638.81
597.85	637.43
598.19	635.10
598.54	631.57
598.89	628.62
599.24	626.48
599.59	622.14
599.94	619.86
600.29	617.29
600.64	614.71
600.99	613.24
601.34	612.81
601.69	602.48
602.04	600.29
602.39	598.43
602.74	596.76
603.08	595.29
603.43	594.05
603.78	591.52
604.13	589.43
604.48	588.33
604.83	587.95
605.18	586.90
605.53	587.52
605.87	589.90
606.22	593.43
606.57	597.52
606.92	602.29
607.27	607.90
607.62	614.05
607.96	619.57
608.31	623.62
608.66	626.43
609.01	629.90
609.36	633.38
609.70	637.00
610.05	639.19
610.40	642.10
610.75	643.86
611.10	645.48
611.44	646.71
611.79	646.95
612.14	647.05
612.49	644.67
612.83	642.38
613.18	637.95
613.53	631.95
613.88	625.33
614.22	616.71
614.57	607.71
614.92	598.71
615.27	590.81
615.61	583.10
615.96	576.38
616.31	569.81
616.65	563.71
617.00	556.67
617.35	550.67
617.70	544.29
618.04	538.67
618.39	533.57
618.74	529.81
619.08	525.62
619.43	521.71
619.78	518.48
620.12	515.14
620.47	511.90
620.82	508.81
621.16	505.76
621.51	505.24
621.85	503.05
622.20	500.62
622.55	497.24
622.89	494.71
623.24	492.62
623.59	490.71
623.93	488.52
624.28	486.62
624.62	486.90
624.97	486.10
625.32	483.95
625.66	481.76
626.01	479.10
626.35	477.86
626.70	475.76
627.04	475.14
627.39	473.43
627.73	472.95
628.08	471.67
628.43	469.76
628.77	466.48
629.12	465.05
629.46	463.38
629.81	462.00
630.15	459.90
630.50	457.57
630.84	455.71
631.19	453.29
631.53	451.24
631.88	446.19
632.22	442.86
632.57	441.43
632.91	439.19
633.26	437.33
633.60	434.10
633.95	431.67
634.29	428.00
634.64	425.48
634.98	422.33
635.32	420.33
635.67	418.90
636.01	416.67
636.36	413.95
636.70	412.19
637.05	410.24
637.39	408.43
637.73	406.90
638.08	405.67
638.42	403.62
638.77	402.00
639.11	401.00
639.45	399.14
639.80	396.95
640.14	395.76
640.49	393.95
640.83	392.76
641.17	391.67
641.52	391.10
641.86	389.95
642.20	390.10
642.55	388.19
642.89	386.62
643.23	385.57
643.58	384.95
643.92	383.33
644.26	381.67
644.61	381.33
644.95	380.33
645.29	378.67
645.64	379.10
645.98	378.14
646.32	377.86
646.66	377.29
647.01	376.29
647.35	375.95
647.69	375.14
648.04	374.43
648.38	373.29
648.72	371.95
649.06	370.81
649.41	368.33
649.75	367.62
650.09	366.67
650.43	365.48
650.78	364.14
651.12	362.76
651.46	362.29
651.80	360.43
652.14	358.76
652.49	358.38
652.83	356.29
653.17	355.29
653.51	353.29
653.85	352.24
654.20	350.71
654.54	348.67
654.88	347.24
655.22	345.43
655.56	344.19
655.90	343.43
656.25	342.43
656.59	341.81
656.93	341.29
657.27	341.24
657.61	340.10
657.95	339.76
658.29	339.10
658.64	338.62
658.98	338.14
659.32	337.81
659.66	336.67
660.00	336.38
660.34	335.71
660.68	335.14
661.02	334.67
661.36	334.05
661.70	333.29
662.05	332.95
662.39	333.38
662.73	333.52
663.07	334.14
663.41	333.38
663.75	332.33
664.09	331.52
664.43	329.76
664.77	329.10
665.11	327.86
665.45	327.33
665.79	326.95
666.13	326.14
666.47	325.05
666.81	324.33
667.15	323.33
667.49	322.81
667.83	323.33
668.17	322.24
668.51	321.71
668.85	321.90
669.19	322.10
669.53	320.43
669.87	319.33
670.21	316.95
670.55	316.57
670.89	316.76
671.23	315.67
671.57	315.52
671.91	315.19
672.25	314.95
672.58	315.24
672.92	313.81
673.26	313.38
673.60	313.14
673.94	312.71
674.28	312.24
674.62	311.95
674.96	310.81
675.30	310.62
675.64	310.67
675.97	309.81
676.31	308.57
676.65	308.57
676.99	309.05
677.33	308.71
677.67	308.14
678.01	306.76
678.34	306.90
678.68	306.62
679.02	306.05
679.36	305.00
679.70	303.81
680.04	303.52
680.37	302.81
680.71	302.38
681.05	301.67
681.39	301.38
681.73	300.71
682.06	299.62
682.40	299.05
682.74	298.43
683.08	298.86
683.42	298.24
683.75	298.29
684.09	296.95
684.43	296.90
684.77	296.52
685.10	296.33
685.44	295.86
685.78	295.10
686.12	294.76
686.45	295.00
686.79	294.14
687.13	294.29
687.46	294.24
687.80	294.57
688.14	293.95
688.48	293.67
688.81	293.29
689.15	294.29
689.49	293.81
689.82	293.57
690.16	291.90
690.50	291.81
690.83	290.81
691.17	290.10
691.51	289.67
691.84	289.29
692.18	288.76
692.52	288.29
692.85	288.14
693.19	288.76
693.52	287.71
693.86	287.62
694.20	286.86
694.53	286.29
694.87	285.14
695.21	284.67
695.54	284.00
695.88	282.86
696.21	280.90
696.55	280.48
696.88	279.62
697.22	279.43
697.56	279.76
697.89	279.14
698.23	278.90
698.56	278.10
698.90	277.90
699.23	277.52
699.57	276.86
699.90	276.57
700.24	275.52
700.58	275.71
700.91	275.81
701.25	277.62
701.58	278.38
701.92	279.33
702.25	279.67
702.59	279.86
702.92	280.48
703.26	281.62
703.59	281.95
703.93	284.52
704.26	285.29
704.60	285.14
704.93	285.48
705.26	286.05
705.60	286.81
705.93	287.24
706.27	288.62
706.60	289.62
706.94	290.71
707.27	290.71
707.61	291.19
707.94	291.38
708.27	289.57
708.61	288.86
708.94	288.33
709.28	288.33
709.61	287.76
709.94	287.52
710.28	286.86
710.61	286.24
710.95	283.29
711.28	284.05
711.61	283.05
711.95	282.90
712.28	281.48
712.61	280.62
712.95	280.81
713.28	280.81
713.61	279.52
713.95	277.95
714.28	277.48
714.61	276.62
714.95	275.67
715.28	274.48
715.61	273.71
715.95	273.10
716.28	271.86
716.61	271.76
716.95	270.95
717.28	270.19
717.61	269.95
717.94	269.71
718.28	267.43
718.61	267.24
718.94	266.38
719.27	266.29
719.61	266.29
719.94	265.05
720.27	263.24
720.60	262.57
720.94	261.90
721.27	261.33
721.60	261.05
721.93	260.57
722.27	261.71
722.60	261.86
722.93	261.19
723.26	261.24
723.59	260.52
723.93	260.76
724.26	260.95
724.59	260.33
724.92	260.24
725.25	261.10
725.59	260.95
725.92	261.14
726.25	261.14
726.58	260.81
726.91	260.52
727.24	260.81
727.57	261.05
727.91	260.76
728.24	261.14
728.57	261.19
728.90	261.43
729.23	260.24
729.56	261.00
729.89	261.05
730.22	260.67
730.55	260.48
730.89	260.05
731.22	259.71
731.55	259.48
731.88	259.57
732.21	258.52
732.54	258.00
732.87	258.05
733.20	257.86
733.53	257.81
733.86	257.90
734.19	257.14
734.52	257.19
734.85	259.14
735.18	258.67
735.51	259.10
735.84	259.05
736.17	259.48
736.50	257.90
736.83	260.57
737.16	261.05
737.49	261.19
737.82	261.10
738.15	260.90
738.48	261.00
738.81	260.52
739.14	260.43
739.47	260.29
739.80	260.00
740.13	260.05
740.46	259.76
740.79	259.33
741.12	259.29
741.45	258.86
741.78	257.38
742.11	258.10
742.44	257.14
742.77	257.43
743.10	256.76
743.43	256.71
743.75	253.90
744.08	256.67
744.41	256.43
744.74	256.24
745.07	256.05
745.40	256.33
745.73	257.43
746.06	257.19
746.39	257.43
746.71	256.95
747.04	256.29
747.37	255.95
747.70	256.24
748.03	256.38
748.36	256.62
748.68	256.24
749.01	255.24
749.34	255.19
749.67	255.00
750.00	255.33
750.33	257.33
750.65	257.33
750.98	254.29
751.31	254.10
751.64	254.10
751.97	255.38
752.29	255.24
752.62	253.86
752.95	253.67
753.28	252.95
753.60	252.95
753.93	254.14
754.26	254.33
754.59	253.43
754.91	253.05
755.24	252.67
755.57	252.52
755.90	252.48
756.22	251.90
756.55	251.43
756.88	250.76
757.20	249.00
757.53	248.33
757.86	248.10
758.19	248.14
758.51	248.24
758.84	246.76
759.17	246.52
759.49	246.48
759.82	247.71
760.15	248.38
760.47	248.57
760.80	247.81
761.13	247.95
761.45	247.90
761.78	247.86
762.11	248.19
762.43	248.05
762.76	247.81
763.08	248.43
763.41	248.52
763.74	248.71
764.06	248.48
764.39	248.43
764.71	248.24
765.04	248.00
765.37	247.48
765.69	247.52
766.02	247.48
766.34	247.38
766.67	246.38
767.00	246.71
767.32	247.81
767.65	248.86
767.97	248.76
768.30	248.81
768.62	248.86
768.95	248.24
769.27	248.38
769.60	249.00
769.92	248.67
770.25	248.14
770.57	247.76
770.90	247.57
771.22	247.29
771.55	247.38
771.87	247.62
772.20	247.33
772.52	249.24
772.85	252.14
773.17	252.19
773.50	252.10
773.82	251.33
774.15	249.90
774.47	248.52
774.80	248.33
775.12	248.33
775.45	248.24
775.77	248.48
776.09	248.29
776.42	248.05
776.74	248.52
777.07	248.52
777.39	248.43
777.72	248.38
778.04	248.81
778.36	248.48
778.69	248.33
779.01	248.81
779.33	246.29
779.66	243.10
779.98	243.00
780.31	242.95
780.63	244.43
780.95	244.57
781.28	244.67
781.60	244.24
781.92	244.24
782.25	244.43
782.57	244.19
782.89	244.05
783.22	243.62
783.54	243.33
783.86	243.57
784.19	243.62
784.51	244.14
784.83	244.10
785.16	244.10
785.48	244.10
785.80	243.86
786.12	244.29
786.45	244.57
786.77	244.57
787.09	244.43
787.42	243.29
787.74	243.62
788.06	243.52
788.38	243.57
788.71	243.43
789.03	243.19
789.35	243.57
789.67	243.38
789.99	243.95
790.32	243.38
790.64	243.52
790.96	245.38
791.28	244.62
791.61	244.38
791.93	244.57
792.25	244.67
792.57	246.57
792.89	246.14
793.21	246.19
793.54	245.95
793.86	245.81
