SpectraSuite Data File
++++++++++++++++++++++++++++++++++++
Date: Wed Nov 07 18:32:23 EST 2012
User: group
Dark Spectrum Present: No
Reference Spectrum Present: No
Number of Sampled Component Spectra: 1
Spectrometers: USB2E7196
Integration Time (usec): 1000000 (USB2E7196)
Spectra Averaged: 1 (USB2E7196)
Boxcar Smoothing: 10 (USB2E7196)
Correct for Electrical Dark: No (USB2E7196)
Strobe/Lamp Enabled: No (USB2E7196)
Correct for Detector Non-linearity: No (USB2E7196)
Correct for Stray Light: No (USB2E7196)
Number of Pixels in Processed Spectrum: 2048
>>>>>Begin Processed Spectral Data<<<<<
339.09	0.00
339.48	212.00
339.86	221.00
340.24	224.00
340.63	222.00
341.01	263.00
341.39	225.00
341.78	232.00
342.16	237.00
342.54	223.00
342.93	222.05
343.31	232.95
343.69	234.00
344.07	234.48
344.46	235.19
344.84	235.81
345.22	234.38
345.60	235.19
345.99	235.38
346.37	235.14
346.75	235.48
347.13	235.24
347.52	235.38
347.90	236.19
348.28	236.10
348.66	236.67
349.05	235.95
349.43	236.29
349.81	236.67
350.19	236.71
350.57	236.57
350.96	236.86
351.34	237.14
351.72	237.10
352.10	237.33
352.48	237.00
352.87	237.00
353.25	236.90
353.63	236.52
354.01	236.62
354.39	237.14
354.77	237.43
355.15	238.67
355.54	238.62
355.92	238.10
356.30	238.00
356.68	239.52
357.06	240.10
357.44	239.90
357.82	239.81
358.20	240.14
358.58	240.10
358.97	240.52
359.35	241.10
359.73	241.62
360.11	241.76
360.49	242.00
360.87	242.14
361.25	242.48
361.63	243.57
362.01	243.71
362.39	243.67
362.77	244.19
363.15	243.57
363.53	243.62
363.91	244.14
364.29	244.57
364.67	242.48
365.05	242.52
365.43	242.86
365.81	242.90
366.19	243.90
366.57	244.95
366.95	244.81
367.33	244.29
367.71	244.57
368.09	244.86
368.47	244.95
368.85	245.05
369.23	245.67
369.61	244.52
369.99	245.14
370.37	245.29
370.75	246.33
371.13	245.90
371.51	245.38
371.89	245.38
372.27	245.19
372.65	245.29
373.03	245.14
373.41	245.00
373.78	245.29
374.16	244.05
374.54	243.10
374.92	242.90
375.30	242.90
375.68	242.05
376.06	242.29
376.44	242.24
376.82	242.10
377.19	241.86
377.57	242.14
377.95	241.52
378.33	241.33
378.71	239.57
379.09	240.05
379.47	240.67
379.84	240.29
380.22	239.95
380.60	239.62
380.98	239.48
381.36	239.33
381.73	238.67
382.11	239.10
382.49	239.24
382.87	238.81
383.25	238.81
383.62	242.05
384.00	241.33
384.38	241.62
384.76	242.19
385.13	243.33
385.51	243.29
385.89	242.67
386.27	242.67
386.64	243.29
387.02	242.86
387.40	242.71
387.78	242.81
388.15	243.33
388.53	243.19
388.91	243.38
389.29	243.29
389.66	243.81
390.04	243.43
390.42	243.67
390.79	243.95
391.17	243.76
391.55	240.62
391.92	240.81
392.30	240.76
392.68	240.14
393.05	239.57
393.43	239.43
393.81	239.86
394.18	239.52
394.56	239.38
394.94	240.24
395.31	239.81
395.69	240.71
396.06	240.71
396.44	241.14
396.82	240.71
397.19	242.00
397.57	241.95
397.95	242.57
398.32	242.14
398.70	242.00
399.07	242.81
399.45	243.00
399.82	242.95
400.20	242.86
400.58	242.95
400.95	242.43
401.33	243.29
401.70	245.05
402.08	245.19
402.45	245.48
402.83	245.90
403.20	246.43
403.58	246.00
403.95	246.38
404.33	246.62
404.71	247.05
405.08	248.33
405.46	248.76
405.83	248.90
406.21	249.43
406.58	250.05
406.96	250.10
407.33	250.76
407.70	251.52
408.08	254.00
408.45	254.95
408.83	256.19
409.20	256.29
409.58	255.62
409.95	256.90
410.33	257.52
410.70	257.90
411.08	259.10
411.45	260.43
411.82	261.57
412.20	263.29
412.57	266.14
412.95	265.38
413.32	266.67
413.69	268.00
414.07	269.57
414.44	271.19
414.82	273.57
415.19	276.10
415.56	278.81
415.94	280.19
416.31	283.24
416.68	285.67
417.06	289.29
417.43	292.86
417.81	296.33
418.18	300.38
418.55	303.95
418.93	308.43
419.30	312.67
419.67	317.43
420.04	321.67
420.42	326.10
420.79	334.38
421.16	340.43
421.54	347.86
421.91	354.24
422.28	360.71
422.66	367.29
423.03	375.43
423.40	382.14
423.77	389.38
424.15	396.62
424.52	403.95
424.89	412.81
425.26	420.67
425.64	428.19
426.01	436.52
426.38	445.48
426.75	454.33
427.13	463.24
427.50	471.95
427.87	482.48
428.24	491.48
428.61	498.43
428.99	510.24
429.36	520.05
429.73	530.86
430.10	542.76
430.47	554.62
430.85	564.90
431.22	577.29
431.59	592.33
431.96	605.33
432.33	620.48
432.70	634.05
433.08	650.43
433.45	665.81
433.82	681.19
434.19	697.90
434.56	714.67
434.93	730.38
435.30	746.29
435.68	762.76
436.05	780.10
436.42	796.62
436.79	812.00
437.16	828.95
437.53	846.38
437.90	863.14
438.27	880.24
438.64	897.62
439.01	914.14
439.38	926.14
439.75	939.81
440.13	954.71
440.50	968.95
440.87	980.52
441.24	992.00
441.61	1005.38
441.98	1014.62
442.35	1025.71
442.72	1036.95
443.09	1049.29
443.46	1056.00
443.83	1059.33
444.20	1063.43
444.57	1067.33
444.94	1069.19
445.31	1071.24
445.68	1075.76
446.05	1075.14
446.42	1071.48
446.79	1069.14
447.16	1065.76
447.53	1062.43
447.90	1054.86
448.27	1046.14
448.64	1036.76
449.01	1029.19
449.37	1016.05
449.74	1004.33
450.11	992.33
450.48	977.14
450.85	960.33
451.22	946.33
451.59	933.95
451.96	921.57
452.33	905.38
452.70	890.81
453.07	873.05
453.43	852.90
453.80	836.81
454.17	821.38
454.54	805.00
454.91	788.76
455.28	773.24
455.65	758.48
456.02	749.19
456.38	736.05
456.75	721.76
457.12	709.00
457.49	696.48
457.86	681.57
458.23	672.52
458.59	661.71
458.96	650.19
459.33	639.90
459.70	629.76
460.07	622.14
460.43	612.81
460.80	605.19
461.17	597.43
461.54	589.38
461.91	582.43
462.27	574.95
462.64	568.81
463.01	562.43
463.38	556.33
463.74	544.81
464.11	538.05
464.48	532.86
464.85	526.86
465.21	523.52
465.58	519.43
465.95	512.38
466.32	507.24
466.68	503.29
467.05	499.29
467.42	494.71
467.78	489.62
468.15	485.33
468.52	482.00
468.88	477.57
469.25	473.43
469.62	470.67
469.98	467.43
470.35	464.33
470.72	461.24
471.08	456.57
471.45	454.43
471.82	452.62
472.18	449.10
472.55	447.48
472.92	443.71
473.28	441.19
473.65	438.48
474.02	436.29
474.38	434.62
474.75	432.43
475.11	430.10
475.48	428.52
475.85	426.90
476.21	425.24
476.58	424.33
476.94	423.43
477.31	422.00
477.67	420.67
478.04	419.67
478.41	418.81
478.77	421.24
479.14	420.19
479.50	419.57
479.87	419.71
480.23	419.05
480.60	419.29
480.96	418.86
481.33	420.90
481.69	421.29
482.06	421.24
482.42	422.38
482.79	423.52
483.15	424.43
483.52	425.52
483.88	426.38
484.25	427.05
484.61	427.90
484.98	428.43
485.34	430.67
485.71	432.14
486.07	433.14
486.44	433.05
486.80	434.62
487.17	435.62
487.53	437.86
487.90	440.19
488.26	442.38
488.62	444.67
488.99	445.29
489.35	447.19
489.72	448.86
490.08	450.57
490.44	452.24
490.81	454.33
491.17	456.57
491.54	458.90
491.90	461.67
492.26	463.43
492.63	466.00
492.99	467.38
493.36	470.24
493.72	473.62
494.08	476.19
494.45	479.71
494.81	483.76
495.17	486.05
495.54	489.52
495.90	491.95
496.26	495.81
496.63	499.81
496.99	503.57
497.35	508.24
497.72	512.57
498.08	515.95
498.44	519.86
498.80	523.81
499.17	527.95
499.53	531.90
499.89	537.33
500.26	541.48
500.62	546.57
500.98	551.43
501.34	555.86
501.71	561.10
502.07	565.62
502.43	570.29
502.79	575.90
503.16	580.19
503.52	585.29
503.88	589.57
504.24	594.48
504.60	599.76
504.97	605.24
505.33	609.76
505.69	616.52
506.05	621.71
506.41	627.19
506.78	632.10
507.14	637.38
507.50	642.33
507.86	648.81
508.22	654.33
508.59	659.19
508.95	664.67
509.31	670.67
509.67	676.10
510.03	681.10
510.39	686.00
510.75	691.86
511.12	696.95
511.48	702.19
511.84	707.10
512.20	711.71
512.56	716.00
512.92	721.19
513.28	726.24
513.64	731.19
514.00	736.95
514.37	741.33
514.73	745.86
515.09	750.67
515.45	754.29
515.81	758.52
516.17	763.24
516.53	767.57
516.89	769.86
517.25	773.62
517.61	778.29
517.97	782.00
518.33	785.24
518.69	790.29
519.05	794.24
519.41	798.00
519.77	803.29
520.13	807.05
520.49	809.71
520.85	812.48
521.21	816.57
521.57	818.95
521.93	822.29
522.29	825.29
522.65	827.33
523.01	830.33
523.37	832.14
523.73	833.52
524.09	835.67
524.45	838.52
524.81	841.19
525.17	843.62
525.53	845.38
525.89	847.48
526.25	848.33
526.61	849.86
526.97	851.52
527.33	852.38
527.68	855.38
528.04	856.81
528.40	857.86
528.76	859.24
529.12	860.24
529.48	862.24
529.84	862.71
530.20	864.76
530.56	866.86
530.91	869.24
531.27	870.81
531.63	871.81
531.99	872.19
532.35	873.48
532.71	873.67
533.07	875.90
533.42	880.10
533.78	881.19
534.14	882.19
534.50	882.81
534.86	883.62
535.21	883.62
535.57	885.67
535.93	887.24
536.29	889.67
536.65	891.29
537.00	892.24
537.36	894.90
537.72	896.62
538.08	897.90
538.44	899.52
538.79	902.33
539.15	904.67
539.51	908.00
539.87	909.81
540.22	912.10
540.58	913.38
540.94	912.95
541.29	915.57
541.65	917.71
542.01	920.95
542.37	923.10
542.72	924.10
543.08	924.10
543.44	924.00
543.79	922.19
544.15	922.57
544.51	922.81
544.87	922.52
545.22	921.33
545.58	919.71
545.94	918.14
546.29	916.10
546.65	913.71
547.01	910.24
547.36	907.71
547.72	904.86
548.07	903.05
548.43	900.00
548.79	896.38
549.14	892.33
549.50	889.38
549.86	885.57
550.21	883.10
550.57	880.90
550.92	878.71
551.28	876.52
551.64	873.24
551.99	870.62
552.35	867.24
552.70	863.71
553.06	862.05
553.41	859.67
553.77	858.67
554.13	856.57
554.48	854.95
554.84	852.43
555.19	850.81
555.55	850.76
555.90	848.48
556.26	847.48
556.61	846.29
556.97	843.38
557.32	840.76
557.68	838.62
558.03	836.67
558.39	834.10
558.74	831.90
559.10	830.14
559.45	828.62
559.81	828.00
560.16	826.81
560.52	824.95
560.87	822.86
561.23	819.81
561.58	820.00
561.94	818.14
562.29	817.00
562.64	815.71
563.00	810.48
563.35	810.14
563.71	807.24
564.06	805.71
564.42	803.86
564.77	802.95
565.12	801.10
565.48	802.14
565.83	801.38
566.19	800.14
566.54	798.67
566.89	796.43
567.25	795.19
567.60	796.24
567.96	797.10
568.31	797.62
568.66	798.05
569.02	794.52
569.37	793.29
569.72	791.48
570.08	789.81
570.43	789.43
570.78	786.81
571.14	786.29
571.49	785.48
571.84	784.00
572.20	782.67
572.55	781.24
572.90	777.10
573.26	776.05
573.61	775.33
573.96	774.62
574.31	774.86
574.67	772.48
575.02	769.43
575.37	765.52
575.72	762.86
576.08	760.43
576.43	759.95
576.78	758.86
577.13	757.24
577.49	756.14
577.84	754.57
578.19	753.76
578.54	752.38
578.90	750.14
579.25	749.52
579.60	748.24
579.95	747.10
580.30	746.71
580.66	745.67
581.01	743.38
581.36	740.90
581.71	737.90
582.06	738.38
582.42	737.10
582.77	736.24
583.12	734.76
583.47	733.33
583.82	731.57
584.17	730.48
584.53	730.86
584.88	728.48
585.23	728.00
585.58	725.57
585.93	723.14
586.28	722.00
586.63	719.90
586.98	718.19
587.34	715.95
587.69	713.29
588.04	710.38
588.39	707.95
588.74	705.62
589.09	704.57
589.44	700.43
589.79	697.86
590.14	694.76
590.49	691.81
590.84	687.67
591.19	684.57
591.54	681.19
591.89	676.86
592.25	675.95
592.60	671.67
592.95	669.10
593.30	667.33
593.65	664.48
594.00	661.38
594.35	664.57
594.70	661.19
595.05	658.62
595.40	656.10
595.75	652.81
596.10	650.10
596.45	647.00
596.80	644.14
597.15	641.00
597.50	637.86
597.85	635.81
598.19	633.81
598.54	631.29
598.89	628.10
599.24	625.48
599.59	621.00
599.94	618.71
600.29	615.95
600.64	612.71
600.99	610.62
601.34	608.19
601.69	599.71
602.04	597.76
602.39	594.81
602.74	592.95
603.08	591.86
603.43	591.05
603.78	589.00
604.13	587.29
604.48	585.81
604.83	585.00
605.18	584.14
605.53	584.33
605.87	585.76
606.22	589.86
606.57	594.00
606.92	598.52
607.27	603.90
607.62	610.00
607.96	615.38
608.31	619.33
608.66	623.52
609.01	626.71
609.36	629.81
609.70	633.81
610.05	636.95
610.40	639.43
610.75	640.62
611.10	641.86
611.44	642.90
611.79	643.81
612.14	644.05
612.49	642.29
612.83	640.05
613.18	636.24
613.53	630.24
613.88	623.86
614.22	616.29
614.57	608.05
614.92	598.90
615.27	590.48
615.61	582.62
615.96	575.62
616.31	568.62
616.65	562.90
617.00	556.81
617.35	550.29
617.70	544.24
618.04	539.05
618.39	533.76
618.74	529.52
619.08	525.24
619.43	521.14
619.78	517.90
620.12	514.24
620.47	511.48
620.82	508.05
621.16	505.00
621.51	504.19
621.85	501.67
622.20	499.57
622.55	496.90
622.89	495.14
623.24	492.81
623.59	491.24
623.93	488.67
624.28	485.24
624.62	484.71
624.97	484.10
625.32	482.05
625.66	480.52
626.01	478.57
626.35	476.86
626.70	474.86
627.04	473.95
627.39	472.24
627.73	471.48
628.08	470.52
628.43	468.19
628.77	464.57
629.12	463.00
629.46	461.57
629.81	459.48
630.15	457.14
630.50	454.95
630.84	452.24
631.19	449.81
631.53	448.05
631.88	443.52
632.22	439.29
632.57	437.76
632.91	435.29
633.26	433.19
633.60	430.52
633.95	427.76
634.29	424.19
634.64	422.14
634.98	418.71
635.32	416.48
635.67	414.76
636.01	412.95
636.36	410.71
636.70	408.76
637.05	407.33
637.39	405.48
637.73	404.05
638.08	403.24
638.42	401.90
638.77	400.24
639.11	399.14
639.45	398.10
639.80	396.29
640.14	394.67
640.49	392.57
640.83	391.05
641.17	390.00
641.52	388.67
641.86	387.29
642.20	386.52
642.55	384.71
642.89	384.00
643.23	382.90
643.58	382.48
643.92	380.57
644.26	379.57
644.61	379.19
644.95	378.24
645.29	376.67
645.64	376.29
645.98	375.48
646.32	375.14
646.66	374.10
647.01	372.81
647.35	372.43
647.69	372.10
648.04	371.52
648.38	370.95
648.72	370.52
649.06	369.24
649.41	367.67
649.75	366.76
650.09	365.71
650.43	364.67
650.78	363.14
651.12	362.71
651.46	361.43
651.80	359.62
652.14	357.86
652.49	357.29
652.83	355.29
653.17	354.29
653.51	352.52
653.85	352.00
654.20	350.67
654.54	349.24
654.88	347.76
655.22	346.19
655.56	344.71
655.90	343.19
656.25	342.48
656.59	341.57
656.93	341.00
657.27	341.10
657.61	340.05
657.95	339.67
658.29	338.62
658.64	338.67
658.98	338.05
659.32	337.38
659.66	336.43
660.00	336.05
660.34	335.90
660.68	335.10
661.02	334.57
661.36	333.95
661.70	333.05
662.05	332.76
662.39	333.19
662.73	333.38
663.07	334.38
663.41	334.29
663.75	333.10
664.09	332.24
664.43	330.33
664.77	330.24
665.11	328.90
665.45	328.38
665.79	327.71
666.13	326.62
666.47	325.71
666.81	325.24
667.15	324.52
667.49	323.71
667.83	323.67
668.17	322.19
668.51	321.14
668.85	320.38
669.19	320.48
669.53	318.67
669.87	317.19
670.21	315.52
670.55	314.52
670.89	315.52
671.23	315.05
671.57	314.62
671.91	314.10
672.25	313.29
672.58	313.19
672.92	311.76
673.26	311.67
673.60	311.38
673.94	310.52
674.28	309.90
674.62	309.62
674.96	309.05
675.30	309.10
675.64	308.95
675.97	308.52
676.31	307.10
676.65	306.48
676.99	306.52
677.33	305.67
677.67	305.29
678.01	303.62
678.34	302.81
678.68	302.48
679.02	301.43
679.36	301.10
679.70	300.14
680.04	300.05
680.37	299.71
680.71	299.19
681.05	298.76
681.39	298.10
681.73	297.29
682.06	296.24
682.40	295.67
682.74	295.57
683.08	296.33
683.42	295.86
683.75	296.29
684.09	295.14
684.43	294.86
684.77	294.48
685.10	294.33
685.44	294.33
685.78	293.86
686.12	293.48
686.45	292.76
686.79	292.10
687.13	291.95
687.46	291.19
687.80	291.33
688.14	291.00
688.48	291.14
688.81	290.81
689.15	291.33
689.49	290.57
689.82	290.48
690.16	289.10
690.50	288.43
690.83	287.81
691.17	287.48
691.51	287.05
691.84	286.38
692.18	285.90
692.52	285.33
692.85	285.00
693.19	285.43
693.52	285.29
693.86	284.62
694.20	284.05
694.53	283.67
694.87	282.95
695.21	282.10
695.54	281.48
695.88	280.67
696.21	279.33
696.55	279.10
696.88	278.48
697.22	277.90
697.56	278.19
697.89	277.38
698.23	277.14
698.56	276.62
698.90	276.67
699.23	276.05
699.57	275.81
699.90	275.52
700.24	274.81
700.58	274.71
700.91	275.33
701.25	277.29
701.58	277.95
701.92	279.00
702.25	279.67
702.59	279.57
702.92	280.19
703.26	281.05
703.59	281.71
703.93	283.76
704.26	284.76
704.60	285.29
704.93	285.71
705.26	286.10
705.60	287.00
705.93	286.67
706.27	288.10
706.60	289.14
706.94	290.67
707.27	290.67
707.61	291.19
707.94	291.14
708.27	289.38
708.61	288.86
708.94	288.29
709.28	288.24
709.61	288.00
709.94	287.67
710.28	287.05
710.61	286.38
710.95	283.38
711.28	283.90
711.61	282.67
711.95	282.43
712.28	281.81
712.61	281.00
712.95	282.00
713.28	281.62
713.61	280.19
713.95	278.05
714.28	277.57
714.61	276.43
714.95	275.24
715.28	274.19
715.61	273.24
715.95	272.19
716.28	271.10
716.61	271.19
716.95	270.67
717.28	269.81
717.61	269.33
717.94	269.05
718.28	266.86
718.61	266.38
718.94	265.62
719.27	264.90
719.61	264.38
719.94	262.76
720.27	261.33
720.60	260.81
720.94	260.67
721.27	260.19
721.60	260.14
721.93	260.19
722.27	260.95
722.60	261.10
722.93	260.67
723.26	260.71
723.59	259.43
723.93	259.33
724.26	259.48
724.59	258.86
724.92	259.14
725.25	259.76
725.59	259.43
725.92	259.62
726.25	259.62
726.58	259.71
726.91	259.81
727.24	260.19
727.57	260.05
727.91	259.38
728.24	259.33
728.57	258.67
728.90	258.62
729.23	257.52
729.56	258.52
729.89	258.67
730.22	257.86
730.55	258.00
730.89	258.00
731.22	257.71
731.55	257.62
731.88	257.67
732.21	257.14
732.54	257.57
732.87	257.19
733.20	257.10
733.53	256.95
733.86	257.00
734.19	256.33
734.52	256.43
734.85	258.48
735.18	258.29
735.51	259.62
735.84	259.62
736.17	260.00
736.50	258.33
736.83	260.67
737.16	260.86
737.49	261.10
737.82	260.90
738.15	261.00
738.48	261.10
738.81	260.52
739.14	260.14
739.47	259.33
739.80	259.19
740.13	259.67
740.46	259.19
740.79	258.67
741.12	258.81
741.45	258.52
741.78	257.14
742.11	257.43
742.44	256.62
742.77	257.10
743.10	256.71
743.43	256.81
743.75	254.81
744.08	258.14
744.41	257.52
744.74	257.10
745.07	256.62
745.40	257.00
745.73	258.14
746.06	258.33
746.39	258.95
746.71	258.86
747.04	258.38
747.37	258.10
747.70	258.57
748.03	258.48
748.36	258.71
748.68	258.33
749.01	257.86
749.34	257.67
749.67	257.24
750.00	257.76
750.33	259.52
750.65	259.43
750.98	256.14
751.31	256.29
751.64	256.00
751.97	257.29
752.29	256.81
752.62	255.57
752.95	255.05
753.28	254.57
753.60	254.14
753.93	254.62
754.26	254.71
754.59	253.95
754.91	253.48
755.24	253.48
755.57	253.24
755.90	253.33
756.22	253.00
756.55	252.62
756.88	251.95
757.20	250.24
757.53	249.48
757.86	249.38
758.19	249.48
758.51	249.81
758.84	248.24
759.17	247.95
759.49	248.29
759.82	249.62
760.15	249.57
760.47	249.67
760.80	248.76
761.13	249.24
761.45	249.19
761.78	249.14
762.11	248.95
762.43	248.52
762.76	248.19
763.08	248.43
763.41	248.38
763.74	248.38
764.06	248.33
764.39	248.29
764.71	248.19
765.04	248.00
765.37	247.52
765.69	247.62
766.02	247.52
766.34	246.90
766.67	245.86
767.00	246.33
767.32	248.05
767.65	249.76
767.97	249.24
768.30	249.38
768.62	249.33
768.95	248.81
769.27	248.81
769.60	249.10
769.92	248.71
770.25	248.38
770.57	247.81
770.90	247.86
771.22	247.67
771.55	247.52
771.87	247.43
772.20	247.14
772.52	249.19
772.85	252.24
773.17	252.38
773.50	252.05
773.82	251.76
774.15	250.10
774.47	247.90
774.80	248.10
775.12	247.81
775.45	247.67
775.77	247.90
776.09	248.19
776.42	248.10
776.74	248.52
777.07	248.24
777.39	248.48
777.72	248.05
778.04	248.00
778.36	247.95
778.69	248.05
779.01	248.33
779.33	246.19
779.66	243.19
779.98	242.76
780.31	243.14
780.63	244.05
780.95	244.43
781.28	244.95
781.60	244.24
781.92	244.43
782.25	244.95
782.57	244.90
782.89	244.71
783.22	244.43
783.54	243.95
783.86	244.33
784.19	244.33
784.51	245.33
784.83	245.19
785.16	245.19
785.48	245.24
785.80	245.24
786.12	245.33
786.45	245.57
786.77	245.95
787.09	245.48
787.42	244.33
787.74	244.43
788.06	244.33
788.38	244.48
788.71	244.38
789.03	244.00
789.35	244.38
789.67	244.19
789.99	244.57
790.32	244.14
790.64	244.52
790.96	246.48
791.28	245.33
791.61	245.29
791.93	245.57
792.25	245.57
792.57	247.48
792.89	247.14
793.21	247.14
793.54	246.86
793.86	247.00
