SpectraSuite Data File
++++++++++++++++++++++++++++++++++++
Date: Wed Nov 07 18:33:15 EST 2012
User: group
Dark Spectrum Present: No
Reference Spectrum Present: No
Number of Sampled Component Spectra: 1
Spectrometers: USB2E7196
Integration Time (usec): 1000000 (USB2E7196)
Spectra Averaged: 1 (USB2E7196)
Boxcar Smoothing: 10 (USB2E7196)
Correct for Electrical Dark: No (USB2E7196)
Strobe/Lamp Enabled: No (USB2E7196)
Correct for Detector Non-linearity: No (USB2E7196)
Correct for Stray Light: No (USB2E7196)
Number of Pixels in Processed Spectrum: 2048
>>>>>Begin Processed Spectral Data<<<<<
339.09	0.00
339.48	224.00
339.86	217.00
340.24	221.00
340.63	219.00
341.01	265.00
341.39	223.00
341.78	234.00
342.16	235.00
342.54	229.00
342.93	222.81
343.31	233.81
343.69	234.43
344.07	235.10
344.46	235.76
344.84	236.95
345.22	235.48
345.60	236.05
345.99	236.43
346.37	236.52
346.75	236.81
347.13	237.10
347.52	237.29
347.90	238.29
348.28	238.33
348.66	238.76
349.05	238.14
349.43	238.33
349.81	238.38
350.19	238.38
350.57	238.48
350.96	238.90
351.34	239.29
351.72	238.95
352.10	238.95
352.48	239.00
352.87	238.48
353.25	238.81
353.63	239.00
354.01	238.86
354.39	239.05
354.77	239.00
355.15	239.57
355.54	239.52
355.92	238.95
356.30	238.95
356.68	240.67
357.06	240.86
357.44	240.67
357.82	240.62
358.20	240.81
358.58	240.71
358.97	240.81
359.35	241.10
359.73	241.86
360.11	242.05
360.49	242.05
360.87	242.10
361.25	241.90
361.63	242.62
362.01	242.67
362.39	242.29
362.77	242.86
363.15	242.90
363.53	243.00
363.91	243.19
364.29	243.43
364.67	241.05
365.05	240.90
365.43	240.95
365.81	241.05
366.19	241.81
366.57	243.00
366.95	242.67
367.33	242.19
367.71	242.10
368.09	242.71
368.47	242.71
368.85	242.76
369.23	243.90
369.61	242.90
369.99	243.71
370.37	244.10
370.75	244.95
371.13	244.19
371.51	243.71
371.89	243.76
372.27	243.71
372.65	243.86
373.03	243.81
373.41	243.81
373.78	243.86
374.16	242.62
374.54	241.62
374.92	241.33
375.30	241.29
375.68	240.76
376.06	240.52
376.44	240.19
376.82	240.48
377.19	239.48
377.57	239.86
377.95	238.90
378.33	238.76
378.71	237.48
379.09	238.00
379.47	238.33
379.84	238.14
380.22	238.05
380.60	237.29
380.98	237.43
381.36	237.19
381.73	236.86
382.11	237.33
382.49	237.38
382.87	237.14
383.25	237.33
383.62	240.19
384.00	240.00
384.38	240.14
384.76	240.24
385.13	241.62
385.51	241.33
385.89	241.10
386.27	241.33
386.64	241.86
387.02	241.57
387.40	241.33
387.78	241.33
388.15	241.62
388.53	241.81
388.91	241.71
389.29	241.57
389.66	241.90
390.04	241.76
390.42	242.10
390.79	242.38
391.17	242.33
391.55	239.62
391.92	239.62
392.30	240.10
392.68	239.52
393.05	239.52
393.43	239.38
393.81	239.52
394.18	238.95
394.56	238.57
394.94	239.29
395.31	239.05
395.69	239.90
396.06	239.90
396.44	240.24
396.82	239.81
397.19	241.29
397.57	241.19
397.95	241.29
398.32	240.71
398.70	241.38
399.07	241.90
399.45	242.14
399.82	242.05
400.20	241.90
400.58	242.62
400.95	241.38
401.33	242.19
401.70	244.19
402.08	244.38
402.45	244.62
402.83	245.10
403.20	245.62
403.58	245.29
403.95	246.14
404.33	246.67
404.71	247.29
405.08	248.86
405.46	249.05
405.83	249.57
406.21	250.05
406.58	250.05
406.96	250.29
407.33	250.95
407.70	251.86
408.08	254.38
408.45	254.76
408.83	255.95
409.20	256.43
409.58	255.71
409.95	257.14
410.33	258.10
410.70	258.33
411.08	259.62
411.45	260.67
411.82	261.10
412.20	263.24
412.57	265.71
412.95	264.76
413.32	266.62
413.69	267.86
414.07	269.62
414.44	271.24
414.82	273.24
415.19	275.10
415.56	277.67
415.94	278.71
416.31	281.90
416.68	284.90
417.06	288.43
417.43	292.33
417.81	296.33
418.18	300.05
418.55	304.00
418.93	308.05
419.30	312.62
419.67	317.10
420.04	321.05
420.42	325.43
420.79	333.29
421.16	339.05
421.54	346.76
421.91	353.19
422.28	359.67
422.66	366.86
423.03	375.33
423.40	382.05
423.77	389.62
424.15	396.71
424.52	404.29
424.89	413.00
425.26	420.52
425.64	427.86
426.01	435.86
426.38	444.24
426.75	453.67
427.13	462.62
427.50	471.95
427.87	482.00
428.24	491.76
428.61	499.57
428.99	510.76
429.36	520.90
429.73	531.86
430.10	543.76
430.47	555.52
430.85	566.29
431.22	578.71
431.59	593.67
431.96	606.86
432.33	620.67
432.70	634.33
433.08	650.81
433.45	666.19
433.82	682.10
434.19	699.43
434.56	716.29
434.93	732.05
435.30	747.86
435.68	764.95
436.05	782.05
436.42	798.29
436.79	813.24
437.16	829.43
437.53	846.67
437.90	864.19
438.27	881.10
438.64	897.76
439.01	914.95
439.38	927.71
439.75	940.57
440.13	957.29
440.50	971.19
440.87	981.71
441.24	992.67
441.61	1005.90
441.98	1015.19
442.35	1025.24
442.72	1036.52
443.09	1048.67
443.46	1054.24
443.83	1058.10
444.20	1062.33
444.57	1067.10
444.94	1069.43
445.31	1071.57
445.68	1075.71
446.05	1074.29
446.42	1072.10
446.79	1068.95
447.16	1065.14
447.53	1063.14
447.90	1054.81
448.27	1046.43
448.64	1036.71
449.01	1029.90
449.37	1017.67
449.74	1005.86
450.11	994.62
450.48	978.52
450.85	961.52
451.22	948.90
451.59	936.33
451.96	923.90
452.33	908.19
452.70	893.48
453.07	875.90
453.43	854.95
453.80	839.19
454.17	823.52
454.54	807.05
454.91	790.86
455.28	774.29
455.65	759.29
456.02	750.19
456.38	737.76
456.75	722.90
457.12	709.67
457.49	697.14
457.86	682.48
458.23	673.62
458.59	663.19
458.96	651.62
459.33	641.29
459.70	631.24
460.07	622.90
460.43	613.10
460.80	605.62
461.17	598.14
461.54	590.48
461.91	582.48
462.27	575.52
462.64	568.71
463.01	562.05
463.38	555.43
463.74	543.86
464.11	538.29
464.48	533.10
464.85	527.29
465.21	523.62
465.58	519.14
465.95	512.14
466.32	507.14
466.68	502.33
467.05	497.67
467.42	493.05
467.78	488.43
468.15	484.67
468.52	481.14
468.88	477.19
469.25	472.76
469.62	470.05
469.98	466.33
470.35	464.10
470.72	461.24
471.08	457.33
471.45	455.10
471.82	452.81
472.18	449.86
472.55	447.43
472.92	444.10
473.28	441.10
473.65	439.43
474.02	437.29
474.38	435.71
474.75	433.95
475.11	431.86
475.48	430.33
475.85	428.33
476.21	426.48
476.58	425.14
476.94	424.14
477.31	422.52
477.67	421.14
478.04	419.33
478.41	418.71
478.77	420.67
479.14	419.57
479.50	418.67
479.87	417.95
480.23	418.48
480.60	418.33
480.96	418.52
481.33	419.62
481.69	419.90
482.06	419.81
482.42	421.19
482.79	421.95
483.15	422.67
483.52	424.38
483.88	425.38
484.25	425.90
484.61	427.43
484.98	428.62
485.34	431.10
485.71	432.95
486.07	434.10
486.44	433.24
486.80	435.19
487.17	436.76
487.53	439.52
487.90	441.10
488.26	443.86
488.62	446.81
488.99	447.95
489.35	449.48
489.72	451.43
490.08	452.48
490.44	454.10
490.81	456.86
491.17	458.24
491.54	459.86
491.90	462.57
492.26	465.05
492.63	467.57
492.99	469.10
493.36	471.86
493.72	475.38
494.08	478.86
494.45	482.05
494.81	485.10
495.17	487.38
495.54	490.62
495.90	493.05
496.26	495.95
496.63	500.00
496.99	504.24
497.35	508.10
497.72	512.38
498.08	516.81
498.44	520.95
498.80	526.38
499.17	531.38
499.53	536.05
499.89	541.00
500.26	545.52
500.62	550.38
500.98	555.48
501.34	559.62
501.71	564.24
502.07	569.00
502.43	574.29
502.79	578.67
503.16	584.05
503.52	588.71
503.88	593.48
504.24	598.38
504.60	603.43
504.97	609.67
505.33	614.57
505.69	620.57
506.05	624.43
506.41	629.43
506.78	634.00
507.14	639.24
507.50	643.71
507.86	649.33
508.22	655.19
508.59	659.71
508.95	665.57
509.31	672.14
509.67	677.05
510.03	682.29
510.39	688.71
510.75	693.52
511.12	699.14
511.48	704.10
511.84	709.62
512.20	715.00
512.56	719.48
512.92	724.05
513.28	728.90
513.64	734.81
514.00	739.48
514.37	745.19
514.73	750.38
515.09	756.10
515.45	760.38
515.81	764.81
516.17	769.38
516.53	773.71
516.89	776.19
517.25	780.33
517.61	785.57
517.97	788.81
518.33	792.57
518.69	796.71
519.05	801.19
519.41	804.48
519.77	809.90
520.13	813.10
520.49	817.00
520.85	819.43
521.21	823.57
521.57	826.52
521.93	828.62
522.29	831.24
522.65	832.62
523.01	835.19
523.37	836.95
523.73	839.90
524.09	842.52
524.45	845.52
524.81	847.95
525.17	848.10
525.53	850.19
525.89	852.00
526.25	853.52
526.61	854.81
526.97	856.14
527.33	856.52
527.68	860.48
528.04	861.38
528.40	862.48
528.76	863.52
529.12	864.86
529.48	866.67
529.84	867.14
530.20	868.81
530.56	870.57
530.91	872.33
531.27	873.48
531.63	874.52
531.99	875.62
532.35	876.52
532.71	878.19
533.07	879.62
533.42	883.71
533.78	884.71
534.14	885.86
534.50	886.48
534.86	887.95
535.21	886.48
535.57	888.19
535.93	888.57
536.29	890.33
536.65	891.62
537.00	893.24
537.36	895.43
537.72	898.10
538.08	900.00
538.44	901.52
538.79	904.00
539.15	905.86
539.51	907.62
539.87	909.38
540.22	910.95
540.58	912.43
540.94	912.38
541.29	914.62
541.65	916.10
542.01	918.81
542.37	919.52
542.72	921.00
543.08	921.62
543.44	923.57
543.79	921.81
544.15	922.10
544.51	921.29
544.87	920.81
545.22	918.62
545.58	916.52
545.94	915.10
546.29	912.48
546.65	910.71
547.01	908.48
547.36	906.71
547.72	904.43
548.07	902.24
548.43	899.48
548.79	895.81
549.14	893.29
549.50	889.90
549.86	886.29
550.21	884.57
550.57	882.81
550.92	879.90
551.28	878.33
551.64	876.33
551.99	874.48
552.35	871.62
552.70	869.76
553.06	868.29
553.41	866.52
553.77	865.67
554.13	863.33
554.48	861.81
554.84	860.52
555.19	859.00
555.55	859.24
555.90	857.00
556.26	856.10
556.61	853.95
556.97	852.10
557.32	850.52
557.68	847.62
558.03	845.10
558.39	843.52
558.74	841.95
559.10	839.33
559.45	837.62
559.81	836.05
560.16	834.14
560.52	832.48
560.87	831.00
561.23	828.71
561.58	829.14
561.94	826.90
562.29	824.81
562.64	822.95
563.00	819.38
563.35	818.29
563.71	816.29
564.06	814.67
564.42	812.62
564.77	810.19
565.12	809.19
565.48	810.62
565.83	809.38
566.19	807.90
566.54	807.43
566.89	805.76
567.25	804.81
567.60	804.57
567.96	805.71
568.31	805.10
568.66	804.90
569.02	801.33
569.37	800.38
569.72	798.81
570.08	798.33
570.43	796.38
570.78	794.33
571.14	792.38
571.49	791.38
571.84	791.10
572.20	790.29
572.55	788.86
572.90	784.67
573.26	783.05
573.61	781.90
573.96	779.67
574.31	778.86
574.67	777.57
575.02	775.76
575.37	771.90
575.72	769.71
576.08	766.71
576.43	764.76
576.78	762.81
577.13	761.48
577.49	760.10
577.84	758.86
578.19	757.05
578.54	756.19
578.90	755.10
579.25	753.14
579.60	752.10
579.95	750.19
580.30	749.29
580.66	748.05
581.01	746.62
581.36	745.00
581.71	742.90
582.06	742.48
582.42	740.48
582.77	738.48
583.12	736.67
583.47	735.52
583.82	734.48
584.17	733.05
584.53	732.19
584.88	729.05
585.23	728.19
585.58	726.57
585.93	724.48
586.28	721.81
586.63	719.76
586.98	717.71
587.34	716.38
587.69	713.48
588.04	710.95
588.39	708.33
588.74	705.90
589.09	703.81
589.44	699.71
589.79	697.10
590.14	694.71
590.49	691.33
590.84	687.14
591.19	684.14
591.54	680.90
591.89	676.05
592.25	675.67
592.60	672.05
592.95	669.43
593.30	666.48
593.65	663.71
594.00	659.76
594.35	663.86
594.70	659.95
595.05	657.62
595.40	654.95
595.75	651.76
596.10	648.62
596.45	645.81
596.80	642.81
597.15	639.38
597.50	636.05
597.85	634.52
598.19	632.29
598.54	630.10
598.89	627.71
599.24	626.05
599.59	621.19
599.94	618.48
600.29	616.19
600.64	614.48
600.99	612.81
601.34	611.43
601.69	602.24
602.04	600.43
602.39	597.62
602.74	595.48
603.08	593.10
603.43	592.10
603.78	590.29
604.13	588.10
604.48	587.00
604.83	586.05
605.18	584.33
605.53	584.38
605.87	584.76
606.22	587.29
606.57	590.24
606.92	594.62
607.27	598.81
607.62	602.71
607.96	606.48
608.31	609.86
608.66	613.43
609.01	616.43
609.36	619.29
609.70	622.52
610.05	624.76
610.40	627.14
610.75	628.33
611.10	629.19
611.44	630.90
611.79	631.24
612.14	630.71
612.49	629.29
612.83	627.38
613.18	624.10
613.53	618.67
613.88	612.57
614.22	605.29
614.57	597.81
614.92	590.57
615.27	583.43
615.61	575.95
615.96	569.62
616.31	563.38
616.65	557.71
617.00	551.33
617.35	545.38
617.70	540.38
618.04	534.90
618.39	529.81
618.74	525.57
619.08	521.62
619.43	518.29
619.78	514.90
620.12	511.43
620.47	509.00
620.82	506.38
621.16	503.71
621.51	503.00
621.85	500.95
622.20	499.14
622.55	496.33
622.89	494.29
623.24	492.48
623.59	489.71
623.93	487.14
624.28	485.52
624.62	486.38
624.97	485.76
625.32	484.10
625.66	482.05
626.01	479.76
626.35	478.19
626.70	476.62
627.04	476.00
627.39	474.43
627.73	473.48
628.08	472.10
628.43	470.29
628.77	466.76
629.12	464.57
629.46	461.90
629.81	460.29
630.15	458.33
630.50	455.29
630.84	453.33
631.19	451.43
631.53	448.81
631.88	443.57
632.22	439.67
632.57	438.19
632.91	436.29
633.26	434.29
633.60	431.38
633.95	428.00
634.29	425.00
634.64	423.00
634.98	419.67
635.32	417.86
635.67	415.95
636.01	414.29
636.36	412.76
636.70	411.38
637.05	409.29
637.39	407.48
637.73	406.19
638.08	405.10
638.42	403.29
638.77	402.14
639.11	400.76
639.45	399.24
639.80	397.05
640.14	395.43
640.49	393.62
640.83	392.52
641.17	392.00
641.52	390.62
641.86	389.67
642.20	389.48
642.55	387.43
642.89	386.29
643.23	385.10
643.58	384.29
643.92	382.62
644.26	381.67
644.61	380.76
644.95	379.90
645.29	378.52
645.64	378.14
645.98	376.71
646.32	376.24
646.66	375.57
647.01	374.24
647.35	373.90
647.69	373.33
648.04	372.71
648.38	371.95
648.72	371.29
649.06	369.81
649.41	367.76
649.75	366.86
650.09	365.76
650.43	364.43
650.78	363.00
651.12	361.76
651.46	360.48
651.80	359.62
652.14	358.14
652.49	357.71
652.83	356.24
653.17	355.62
653.51	353.90
653.85	352.81
654.20	351.90
654.54	350.62
654.88	349.24
655.22	347.62
655.56	346.29
655.90	345.14
656.25	344.29
656.59	343.52
656.93	342.71
657.27	342.71
657.61	341.86
657.95	341.00
658.29	340.10
658.64	340.29
658.98	339.19
659.32	338.24
659.66	337.10
660.00	336.33
660.34	335.38
660.68	334.90
661.02	333.81
661.36	332.90
661.70	331.86
662.05	331.24
662.39	331.43
662.73	331.71
663.07	332.24
663.41	331.67
663.75	330.81
664.09	330.24
664.43	328.67
664.77	328.00
665.11	326.90
665.45	326.67
665.79	325.81
666.13	324.86
666.47	324.05
666.81	323.14
667.15	321.95
667.49	321.52
667.83	321.62
668.17	320.57
668.51	320.29
668.85	319.76
669.19	320.38
669.53	318.90
669.87	317.43
670.21	315.95
670.55	315.38
670.89	315.95
671.23	315.24
671.57	314.48
671.91	314.00
672.25	313.76
672.58	314.19
672.92	312.86
673.26	312.19
673.60	311.67
673.94	311.24
674.28	311.00
674.62	310.57
674.96	309.52
675.30	309.38
675.64	309.10
675.97	308.76
676.31	307.29
676.65	306.52
676.99	306.81
677.33	305.52
677.67	304.81
678.01	302.57
678.34	302.14
678.68	302.48
679.02	301.57
679.36	300.95
679.70	299.38
680.04	299.38
680.37	299.14
680.71	298.81
681.05	298.52
681.39	298.10
681.73	297.19
682.06	296.62
682.40	296.14
682.74	295.48
683.08	296.10
683.42	295.19
683.75	295.57
684.09	294.67
684.43	294.62
684.77	293.76
685.10	293.71
685.44	293.24
685.78	292.43
686.12	292.05
686.45	291.48
686.79	290.90
687.13	290.67
687.46	290.00
687.80	289.90
688.14	289.10
688.48	288.67
688.81	288.95
689.15	289.05
689.49	289.14
689.82	289.19
690.16	287.57
690.50	287.29
690.83	286.29
691.17	285.33
691.51	285.24
691.84	285.38
692.18	285.05
692.52	284.62
692.85	284.33
693.19	285.24
693.52	285.00
693.86	284.71
694.20	284.14
694.53	284.10
694.87	283.52
695.21	283.14
695.54	283.00
695.88	281.57
696.21	280.43
696.55	279.62
696.88	279.24
697.22	278.76
697.56	278.86
697.89	278.57
698.23	278.71
698.56	278.05
698.90	277.76
699.23	277.48
699.57	277.81
699.90	277.71
700.24	276.76
700.58	277.24
700.91	277.24
701.25	278.95
701.58	279.57
701.92	280.52
702.25	281.00
702.59	280.95
702.92	281.57
703.26	282.52
703.59	282.86
703.93	285.05
704.26	286.14
704.60	286.38
704.93	287.10
705.26	286.86
705.60	287.67
705.93	287.71
706.27	288.57
706.60	289.19
706.94	290.52
707.27	290.62
707.61	290.48
707.94	290.86
708.27	289.38
708.61	288.71
708.94	288.10
709.28	287.95
709.61	287.00
709.94	286.71
710.28	286.14
710.61	285.62
710.95	282.71
711.28	283.10
711.61	282.38
711.95	281.81
712.28	281.14
712.61	279.71
712.95	280.24
713.28	280.62
713.61	279.33
713.95	277.67
714.28	276.90
714.61	276.14
714.95	275.05
715.28	273.76
715.61	273.05
715.95	272.76
716.28	271.48
716.61	271.62
716.95	270.86
717.28	269.86
717.61	269.29
717.94	268.81
718.28	266.86
718.61	266.52
718.94	265.48
719.27	265.14
719.61	265.48
719.94	264.57
720.27	263.00
720.60	262.57
720.94	262.10
721.27	262.05
721.60	262.00
721.93	261.81
722.27	262.67
722.60	262.86
722.93	262.14
723.26	262.33
723.59	262.10
723.93	262.57
724.26	262.14
724.59	262.00
724.92	262.29
725.25	262.86
725.59	262.67
725.92	263.43
726.25	263.33
726.58	263.14
726.91	263.10
727.24	263.57
727.57	263.48
727.91	263.05
728.24	263.05
728.57	262.48
728.90	262.81
729.23	261.71
729.56	262.90
729.89	262.81
730.22	262.71
730.55	262.38
730.89	262.00
731.22	262.24
731.55	262.19
731.88	262.10
732.21	261.24
732.54	260.71
732.87	260.38
733.20	260.43
733.53	260.33
733.86	260.10
734.19	259.19
734.52	259.29
734.85	261.05
735.18	260.57
735.51	261.62
735.84	261.52
736.17	262.19
736.50	260.43
736.83	263.19
737.16	263.29
737.49	263.14
737.82	262.90
738.15	263.19
738.48	263.38
738.81	263.00
739.14	263.05
739.47	263.14
739.80	262.57
740.13	262.76
740.46	262.10
740.79	261.62
741.12	261.43
741.45	261.10
741.78	259.38
742.11	259.90
742.44	258.81
742.77	258.71
743.10	258.05
743.43	257.95
743.75	255.33
744.08	258.33
744.41	258.33
744.74	257.95
745.07	257.33
745.40	257.19
745.73	257.86
746.06	257.76
746.39	257.57
746.71	258.05
747.04	257.52
747.37	257.57
747.70	258.05
748.03	257.90
748.36	258.19
748.68	257.86
749.01	257.10
749.34	257.05
749.67	257.05
750.00	257.38
750.33	259.10
750.65	259.14
750.98	255.95
751.31	255.90
751.64	256.00
751.97	257.38
752.29	257.05
752.62	255.71
752.95	255.48
753.28	255.19
753.60	254.43
753.93	255.19
754.26	255.14
754.59	254.33
754.91	254.38
755.24	254.10
755.57	253.90
755.90	253.81
756.22	253.57
756.55	252.71
756.88	252.19
757.20	250.38
757.53	249.48
757.86	249.24
758.19	248.86
758.51	248.95
758.84	247.71
759.17	247.43
759.49	247.86
759.82	249.05
760.15	249.29
760.47	249.29
760.80	248.19
761.13	248.43
761.45	248.38
761.78	248.29
762.11	248.29
762.43	248.43
762.76	248.52
763.08	248.62
763.41	249.10
763.74	249.10
764.06	249.38
764.39	249.52
764.71	249.48
765.04	249.57
765.37	249.05
765.69	248.90
766.02	248.81
766.34	248.62
766.67	247.57
767.00	247.71
767.32	249.14
767.65	250.76
767.97	250.86
768.30	250.90
768.62	250.81
768.95	250.43
769.27	250.33
769.60	250.52
769.92	250.10
770.25	249.38
770.57	249.24
770.90	248.76
771.22	248.52
771.55	248.57
771.87	248.62
772.20	248.62
772.52	250.76
772.85	253.52
773.17	253.43
773.50	253.00
773.82	252.71
774.15	251.10
774.47	249.52
774.80	248.86
775.12	248.90
775.45	248.43
775.77	248.05
776.09	248.14
776.42	247.90
776.74	249.10
777.07	249.33
777.39	249.19
777.72	248.76
778.04	248.76
778.36	248.43
778.69	248.48
779.01	248.43
779.33	246.10
779.66	243.33
779.98	243.29
780.31	243.48
780.63	244.76
780.95	245.62
781.28	245.57
781.60	245.29
781.92	245.24
782.25	245.38
782.57	245.57
782.89	245.24
783.22	244.95
783.54	244.24
783.86	244.14
784.19	243.81
784.51	244.62
784.83	244.76
785.16	244.95
785.48	244.67
785.80	244.90
786.12	244.86
786.45	244.90
786.77	245.14
787.09	244.86
787.42	243.67
787.74	243.14
788.06	243.33
788.38	243.57
788.71	243.19
789.03	243.43
789.35	243.95
789.67	244.00
789.99	244.52
790.32	243.95
790.64	244.57
790.96	246.57
791.28	245.90
791.61	245.67
791.93	245.67
792.25	245.90
792.57	247.19
792.89	246.90
793.21	246.62
793.54	245.86
793.86	245.52
