SpectraSuite Data File
++++++++++++++++++++++++++++++++++++
Date: Wed Nov 07 18:33:28 EST 2012
User: group
Dark Spectrum Present: No
Reference Spectrum Present: No
Number of Sampled Component Spectra: 1
Spectrometers: USB2E7196
Integration Time (usec): 1000000 (USB2E7196)
Spectra Averaged: 1 (USB2E7196)
Boxcar Smoothing: 10 (USB2E7196)
Correct for Electrical Dark: No (USB2E7196)
Strobe/Lamp Enabled: No (USB2E7196)
Correct for Detector Non-linearity: No (USB2E7196)
Correct for Stray Light: No (USB2E7196)
Number of Pixels in Processed Spectrum: 2048
>>>>>Begin Processed Spectral Data<<<<<
339.09	0.00
339.48	214.00
339.86	215.00
340.24	221.00
340.63	222.00
341.01	262.00
341.39	231.00
341.78	234.00
342.16	235.00
342.54	235.00
342.93	221.90
343.31	232.71
343.69	233.24
344.07	234.10
344.46	234.86
344.84	235.52
345.22	234.24
345.60	234.29
345.99	234.29
346.37	234.33
346.75	234.19
347.13	234.14
347.52	234.19
347.90	235.24
348.28	235.10
348.66	235.57
349.05	234.76
349.43	235.10
349.81	235.43
350.19	235.52
350.57	235.33
350.96	235.76
351.34	236.05
351.72	236.43
352.10	236.57
352.48	236.33
352.87	236.10
353.25	235.90
353.63	235.71
354.01	235.52
354.39	235.76
354.77	235.67
355.15	236.57
355.54	236.19
355.92	235.19
356.30	235.38
356.68	237.38
357.06	237.81
357.44	237.76
357.82	237.62
358.20	238.19
358.58	238.38
358.97	238.48
359.35	239.24
359.73	239.95
360.11	239.81
360.49	240.00
360.87	240.29
361.25	240.57
361.63	241.90
362.01	242.19
362.39	242.00
362.77	242.52
363.15	242.48
363.53	242.67
363.91	242.90
364.29	243.24
364.67	240.76
365.05	240.81
365.43	241.00
365.81	241.33
366.19	241.95
366.57	243.00
366.95	243.00
367.33	242.62
367.71	242.38
368.09	243.05
368.47	243.05
368.85	242.95
369.23	244.10
369.61	242.86
369.99	243.95
370.37	244.29
370.75	245.67
371.13	245.14
371.51	244.95
371.89	245.57
372.27	245.43
372.65	245.57
373.03	245.71
373.41	245.43
373.78	245.14
374.16	244.29
374.54	243.29
374.92	243.10
375.30	242.86
375.68	242.67
376.06	242.81
376.44	242.86
376.82	243.24
377.19	242.52
377.57	242.81
377.95	241.81
378.33	241.86
378.71	240.24
379.09	240.48
379.47	240.57
379.84	240.10
380.22	240.00
380.60	239.76
380.98	239.71
381.36	239.57
381.73	239.43
382.11	239.90
382.49	240.05
382.87	239.67
383.25	239.81
383.62	242.43
384.00	241.57
384.38	241.48
384.76	241.86
385.13	242.95
385.51	242.81
385.89	242.52
386.27	242.52
386.64	242.90
387.02	242.71
387.40	242.86
387.78	242.76
388.15	242.86
388.53	242.71
388.91	242.62
389.29	242.48
389.66	242.86
390.04	242.33
390.42	242.90
390.79	243.43
391.17	243.10
391.55	240.24
391.92	240.57
392.30	241.10
392.68	240.48
393.05	239.95
393.43	240.14
393.81	240.62
394.18	240.29
394.56	240.29
394.94	240.29
395.31	240.24
395.69	241.19
396.06	241.52
396.44	241.67
396.82	241.19
397.19	242.48
397.57	241.95
397.95	242.43
398.32	241.43
398.70	241.76
399.07	242.52
399.45	242.71
399.82	242.62
400.20	242.14
400.58	242.05
400.95	241.33
401.33	241.81
401.70	243.19
402.08	243.29
402.45	243.24
402.83	244.33
403.20	244.33
403.58	243.86
403.95	244.43
404.33	244.81
404.71	245.38
405.08	247.05
405.46	247.57
405.83	247.95
406.21	248.86
406.58	248.86
406.96	249.19
407.33	249.67
407.70	250.52
408.08	252.90
408.45	254.14
408.83	255.33
409.20	255.81
409.58	255.19
409.95	256.10
410.33	257.10
410.70	257.48
411.08	258.95
411.45	260.33
411.82	260.95
412.20	262.81
412.57	265.33
412.95	264.86
413.32	267.10
413.69	268.62
414.07	270.05
414.44	272.10
414.82	274.05
415.19	276.71
415.56	278.48
415.94	279.71
416.31	282.62
416.68	285.76
417.06	289.10
417.43	293.10
417.81	297.05
418.18	301.00
418.55	304.33
418.93	308.33
419.30	312.67
419.67	317.33
420.04	321.38
420.42	325.71
420.79	333.14
421.16	338.71
421.54	346.38
421.91	352.38
422.28	358.67
422.66	365.10
423.03	373.24
423.40	380.76
423.77	388.38
424.15	395.33
424.52	402.86
424.89	411.62
425.26	419.05
425.64	426.95
426.01	435.05
426.38	444.90
426.75	454.76
427.13	463.86
427.50	473.62
427.87	483.62
428.24	493.05
428.61	500.62
428.99	512.52
429.36	522.19
429.73	533.95
430.10	545.71
430.47	557.81
430.85	568.67
431.22	581.52
431.59	597.38
431.96	610.67
432.33	625.00
432.70	639.10
433.08	655.62
433.45	671.14
433.82	686.95
434.19	703.00
434.56	719.38
434.93	735.14
435.30	750.95
435.68	768.14
436.05	785.24
436.42	801.48
436.79	816.48
437.16	833.33
437.53	850.71
437.90	866.86
438.27	884.19
438.64	900.52
439.01	915.86
439.38	927.29
439.75	941.71
440.13	957.52
440.50	971.05
440.87	983.57
441.24	994.71
441.61	1007.62
441.98	1017.43
442.35	1027.86
442.72	1038.67
443.09	1050.29
443.46	1056.76
443.83	1061.29
444.20	1064.95
444.57	1068.48
444.94	1069.48
445.31	1070.10
445.68	1075.67
446.05	1075.33
446.42	1072.29
446.79	1070.10
447.16	1066.29
447.53	1062.52
447.90	1054.29
448.27	1047.05
448.64	1036.24
449.01	1028.90
449.37	1015.67
449.74	1003.57
450.11	992.10
450.48	977.14
450.85	960.10
451.22	946.29
451.59	934.33
451.96	922.86
452.33	907.62
452.70	893.81
453.07	877.33
453.43	856.33
453.80	839.86
454.17	824.71
454.54	808.81
454.91	793.05
455.28	777.19
455.65	762.19
456.02	751.10
456.38	738.90
456.75	723.48
457.12	711.43
457.49	698.81
457.86	684.05
458.23	674.24
458.59	663.24
458.96	652.52
459.33	640.81
459.70	629.95
460.07	621.48
460.43	611.67
460.80	604.24
461.17	596.52
461.54	588.62
461.91	580.67
462.27	573.38
462.64	567.00
463.01	560.10
463.38	554.71
463.74	544.00
464.11	536.43
464.48	531.57
464.85	525.90
465.21	522.24
465.58	518.05
465.95	511.86
466.32	507.33
466.68	502.52
467.05	498.86
467.42	494.29
467.78	489.29
468.15	484.95
468.52	481.05
468.88	476.86
469.25	472.24
469.62	469.76
469.98	466.57
470.35	463.71
470.72	460.43
471.08	455.62
471.45	453.86
471.82	451.86
472.18	448.81
472.55	446.86
472.92	443.00
473.28	439.81
473.65	437.05
474.02	434.38
474.38	432.24
474.75	430.19
475.11	428.24
475.48	427.10
475.85	425.90
476.21	424.00
476.58	422.86
476.94	422.10
477.31	421.05
477.67	419.71
478.04	418.33
478.41	418.24
478.77	420.43
479.14	418.86
479.50	418.90
479.87	418.38
480.23	417.38
480.60	417.43
480.96	417.86
481.33	419.62
481.69	420.29
482.06	420.95
482.42	421.48
482.79	422.38
483.15	423.14
483.52	424.29
483.88	425.71
484.25	427.10
484.61	428.19
484.98	429.05
485.34	431.00
485.71	432.67
486.07	433.76
486.44	432.90
486.80	434.52
487.17	435.24
487.53	438.14
487.90	440.57
488.26	443.43
488.62	445.43
488.99	446.43
489.35	448.67
489.72	449.81
490.08	451.38
490.44	453.00
490.81	455.29
491.17	457.67
491.54	459.62
491.90	462.10
492.26	464.81
492.63	467.24
492.99	469.10
493.36	471.52
493.72	474.48
494.08	476.76
494.45	480.14
494.81	483.81
495.17	486.10
495.54	489.48
495.90	492.14
496.26	495.57
496.63	499.24
496.99	502.95
497.35	507.14
497.72	511.38
498.08	516.05
498.44	520.81
498.80	524.86
499.17	528.52
499.53	532.14
499.89	536.52
500.26	540.38
500.62	545.48
500.98	550.81
501.34	555.43
501.71	560.86
502.07	565.57
502.43	570.57
502.79	575.05
503.16	579.86
503.52	585.00
503.88	589.38
504.24	594.57
504.60	599.67
504.97	605.62
505.33	611.05
505.69	617.43
506.05	622.33
506.41	627.62
506.78	633.38
507.14	639.19
507.50	644.81
507.86	651.29
508.22	656.52
508.59	660.90
508.95	666.29
509.31	672.90
509.67	678.19
510.03	682.90
510.39	688.71
510.75	694.00
511.12	699.67
511.48	705.14
511.84	709.86
512.20	715.52
512.56	720.14
512.92	725.43
513.28	729.33
513.64	733.38
514.00	738.33
514.37	743.00
514.73	747.57
515.09	752.19
515.45	755.71
515.81	760.10
516.17	764.71
516.53	768.90
516.89	771.67
517.25	776.33
517.61	782.33
517.97	786.33
518.33	790.71
518.69	794.57
519.05	798.86
519.41	803.05
519.77	806.81
520.13	810.24
520.49	812.76
520.85	815.71
521.21	820.86
521.57	824.57
521.93	827.14
522.29	830.52
522.65	832.43
523.01	835.95
523.37	837.76
523.73	840.71
524.09	843.19
524.45	845.62
524.81	847.52
525.17	848.76
525.53	850.86
525.89	852.14
526.25	854.48
526.61	856.14
526.97	857.57
527.33	858.95
527.68	864.00
528.04	865.86
528.40	867.76
528.76	867.76
529.12	868.52
529.48	871.67
529.84	873.05
530.20	875.29
530.56	876.90
530.91	879.24
531.27	880.62
531.63	882.24
531.99	883.14
532.35	884.00
532.71	884.38
533.07	885.52
533.42	889.81
533.78	890.24
534.14	891.38
534.50	892.81
534.86	895.00
535.21	892.62
535.57	894.67
535.93	895.14
536.29	898.81
536.65	901.10
537.00	900.76
537.36	902.19
537.72	904.05
538.08	905.76
538.44	907.00
538.79	909.95
539.15	912.10
539.51	914.81
539.87	916.95
540.22	919.29
540.58	921.81
540.94	921.57
541.29	923.10
541.65	925.29
542.01	928.24
542.37	929.76
542.72	931.05
543.08	930.90
543.44	932.10
543.79	928.86
544.15	928.00
544.51	928.10
544.87	927.10
545.22	925.24
545.58	923.52
545.94	922.33
546.29	919.38
546.65	916.62
547.01	914.24
547.36	912.05
547.72	909.62
548.07	906.95
548.43	903.38
548.79	900.57
549.14	896.90
549.50	893.10
549.86	887.90
550.21	886.05
550.57	883.48
550.92	880.90
551.28	880.00
551.64	878.00
551.99	876.29
552.35	873.76
552.70	871.76
553.06	870.33
553.41	867.90
553.77	867.05
554.13	866.10
554.48	864.19
554.84	862.38
555.19	860.76
555.55	860.24
555.90	859.19
556.26	857.48
556.61	855.33
556.97	852.71
557.32	852.00
557.68	849.90
558.03	849.10
558.39	846.86
558.74	845.24
559.10	842.81
559.45	840.71
559.81	839.14
560.16	837.95
560.52	835.43
560.87	834.29
561.23	831.90
561.58	831.48
561.94	829.33
562.29	826.76
562.64	824.95
563.00	821.00
563.35	818.95
563.71	817.86
564.06	816.19
564.42	815.24
564.77	813.38
565.12	811.90
565.48	811.33
565.83	810.43
566.19	809.10
566.54	808.00
566.89	806.19
567.25	806.71
567.60	806.19
567.96	807.14
568.31	807.14
568.66	806.76
569.02	804.00
569.37	802.81
569.72	803.29
570.08	801.19
570.43	800.52
570.78	798.86
571.14	796.95
571.49	796.19
571.84	795.48
572.20	795.10
572.55	793.57
572.90	790.57
573.26	789.90
573.61	788.52
573.96	787.19
574.31	786.62
574.67	783.81
575.02	781.48
575.37	778.19
575.72	775.24
576.08	772.62
576.43	770.95
576.78	769.76
577.13	767.33
577.49	766.38
577.84	765.24
578.19	764.48
578.54	763.76
578.90	762.62
579.25	760.43
579.60	758.52
579.95	757.19
580.30	756.29
580.66	753.67
581.01	751.62
581.36	749.14
581.71	747.29
582.06	747.00
582.42	745.57
582.77	744.43
583.12	743.10
583.47	741.62
583.82	739.48
584.17	738.24
584.53	737.52
584.88	736.52
585.23	735.38
585.58	733.00
585.93	729.86
586.28	727.81
586.63	725.48
586.98	723.62
587.34	721.62
587.69	718.76
588.04	716.86
588.39	714.90
588.74	713.10
589.09	711.24
589.44	707.24
589.79	704.24
590.14	701.14
590.49	697.76
590.84	694.00
591.19	691.43
591.54	688.19
591.89	684.19
592.25	682.57
592.60	678.29
592.95	675.29
593.30	673.05
593.65	669.67
594.00	666.52
594.35	669.52
594.70	665.57
595.05	662.67
595.40	659.24
595.75	655.67
596.10	653.19
596.45	650.05
596.80	646.90
597.15	644.10
597.50	640.90
597.85	639.38
598.19	637.33
598.54	634.57
598.89	631.95
599.24	629.71
599.59	625.10
599.94	622.43
600.29	619.86
600.64	617.71
600.99	616.43
601.34	614.67
601.69	605.52
602.04	603.00
602.39	600.33
602.74	599.05
603.08	597.24
603.43	595.86
603.78	593.57
604.13	592.29
604.48	590.57
604.83	589.90
605.18	589.05
605.53	588.81
605.87	590.19
606.22	592.57
606.57	597.00
606.92	602.43
607.27	607.86
607.62	613.43
607.96	618.67
608.31	622.10
608.66	625.95
609.01	629.57
609.36	633.57
609.70	637.57
610.05	640.05
610.40	642.71
610.75	643.81
611.10	645.57
611.44	646.62
611.79	647.10
612.14	646.90
612.49	645.10
612.83	643.05
613.18	639.14
613.53	634.29
613.88	627.05
614.22	619.00
614.57	611.14
614.92	602.67
615.27	594.38
615.61	587.14
615.96	579.76
616.31	573.24
616.65	567.52
617.00	560.43
617.35	554.62
617.70	548.76
618.04	543.52
618.39	538.33
618.74	534.05
619.08	529.76
619.43	526.00
619.78	522.24
620.12	519.24
620.47	516.33
620.82	513.52
621.16	510.24
621.51	508.57
621.85	505.86
622.20	503.67
622.55	501.00
622.89	498.76
623.24	496.38
623.59	493.76
623.93	491.48
624.28	490.05
624.62	489.81
624.97	488.95
625.32	486.71
625.66	485.00
626.01	482.57
626.35	481.48
626.70	479.05
627.04	477.95
627.39	476.43
627.73	475.67
628.08	473.33
628.43	471.57
628.77	468.57
629.12	466.52
629.46	464.29
629.81	462.10
630.15	459.71
630.50	457.57
630.84	455.81
631.19	453.33
631.53	450.52
631.88	445.90
632.22	442.33
632.57	440.76
632.91	438.33
633.26	436.24
633.60	433.29
633.95	431.05
634.29	428.10
634.64	425.90
634.98	423.00
635.32	421.43
635.67	419.14
636.01	417.19
636.36	415.43
636.70	414.24
637.05	412.86
637.39	411.19
637.73	409.57
638.08	408.43
638.42	406.10
638.77	404.62
639.11	403.24
639.45	401.76
639.80	399.38
640.14	398.10
640.49	396.10
640.83	394.48
641.17	393.10
641.52	391.86
641.86	389.90
642.20	389.19
642.55	387.43
642.89	386.48
643.23	385.52
643.58	384.95
643.92	382.67
644.26	380.86
644.61	379.81
644.95	378.62
645.29	376.90
645.64	376.67
645.98	376.00
646.32	375.62
646.66	374.62
647.01	373.95
647.35	372.90
647.69	372.81
648.04	372.19
648.38	371.67
648.72	370.81
649.06	369.86
649.41	368.14
649.75	367.10
650.09	366.33
650.43	365.05
650.78	363.19
651.12	362.38
651.46	361.81
651.80	360.76
652.14	360.00
652.49	359.57
652.83	358.29
653.17	357.19
653.51	355.29
653.85	354.00
654.20	352.48
654.54	351.14
654.88	349.05
655.22	347.71
655.56	346.05
655.90	344.86
656.25	344.19
656.59	343.52
656.93	342.52
657.27	342.52
657.61	341.67
657.95	341.14
658.29	340.62
658.64	340.19
658.98	339.00
659.32	338.00
659.66	337.05
660.00	336.76
660.34	336.10
660.68	335.19
661.02	334.76
661.36	334.10
661.70	333.43
662.05	333.38
662.39	333.52
662.73	333.86
663.07	334.67
663.41	333.90
663.75	332.62
664.09	332.24
664.43	330.43
664.77	329.95
665.11	329.38
665.45	328.48
665.79	327.76
666.13	327.57
666.47	326.81
666.81	325.67
667.15	324.24
667.49	323.38
667.83	323.76
668.17	322.71
668.51	322.43
668.85	322.00
669.19	322.43
669.53	321.14
669.87	320.19
670.21	318.24
670.55	317.67
670.89	318.14
671.23	317.29
671.57	317.19
671.91	316.48
672.25	315.86
672.58	316.38
672.92	315.05
673.26	314.38
673.60	314.19
673.94	314.10
674.28	313.57
674.62	313.14
674.96	312.29
675.30	311.95
675.64	311.29
675.97	310.43
676.31	309.14
676.65	308.19
676.99	308.14
677.33	307.48
677.67	306.95
678.01	305.38
678.34	305.10
678.68	304.57
679.02	304.10
679.36	303.29
679.70	301.52
680.04	301.38
680.37	300.86
680.71	300.05
681.05	299.24
681.39	298.52
681.73	298.00
682.06	297.10
682.40	296.67
682.74	296.43
683.08	297.33
683.42	296.33
683.75	296.67
684.09	295.81
684.43	295.24
684.77	294.43
685.10	294.05
685.44	293.71
685.78	293.00
686.12	292.38
686.45	291.95
686.79	291.95
687.13	291.90
687.46	291.19
687.80	291.33
688.14	291.14
688.48	290.95
688.81	290.86
689.15	291.29
689.49	290.86
689.82	290.76
690.16	288.71
690.50	288.52
690.83	288.05
691.17	287.19
691.51	287.19
691.84	287.38
692.18	286.90
692.52	286.19
692.85	286.38
693.19	287.05
693.52	286.57
693.86	286.10
694.20	285.62
694.53	285.48
694.87	284.62
695.21	284.05
695.54	283.76
695.88	282.90
696.21	281.81
696.55	281.19
696.88	280.38
697.22	280.62
697.56	280.67
697.89	279.90
698.23	280.05
698.56	279.52
698.90	279.24
699.23	279.00
699.57	278.95
699.90	278.19
700.24	277.24
700.58	277.52
700.91	277.67
701.25	279.52
701.58	280.38
701.92	281.24
702.25	281.76
702.59	281.95
702.92	282.33
703.26	282.86
703.59	283.57
703.93	286.33
704.26	287.10
704.60	287.95
704.93	288.38
705.26	288.57
705.60	289.33
705.93	289.24
706.27	290.57
706.60	291.57
706.94	293.29
707.27	293.43
707.61	293.29
707.94	293.52
708.27	291.67
708.61	290.86
708.94	290.67
709.28	290.05
709.61	289.57
709.94	289.38
710.28	288.90
710.61	288.14
710.95	285.19
711.28	285.81
711.61	284.19
711.95	284.05
712.28	282.81
712.61	281.86
712.95	282.29
713.28	282.19
713.61	281.10
713.95	279.14
714.28	278.43
714.61	277.62
714.95	276.71
715.28	275.57
715.61	274.81
715.95	273.71
716.28	273.19
716.61	273.10
716.95	272.10
717.28	271.38
717.61	271.19
717.94	270.62
718.28	268.48
718.61	268.38
718.94	267.52
719.27	267.19
719.61	267.00
719.94	266.00
720.27	264.14
720.60	263.48
720.94	263.10
721.27	262.76
721.60	262.76
721.93	261.95
722.27	262.57
722.60	262.67
722.93	262.38
723.26	261.67
723.59	261.14
723.93	261.05
724.26	261.00
724.59	260.38
724.92	260.62
725.25	260.95
725.59	260.62
725.92	260.90
726.25	260.90
726.58	260.57
726.91	260.10
727.24	260.62
727.57	260.52
727.91	260.43
728.24	261.05
728.57	260.95
728.90	261.52
729.23	260.48
729.56	261.33
729.89	260.90
730.22	260.81
730.55	260.43
730.89	260.10
731.22	259.67
731.55	259.29
731.88	259.00
732.21	258.29
732.54	258.00
732.87	257.57
733.20	257.67
733.53	257.81
733.86	257.95
734.19	257.29
734.52	257.71
734.85	258.95
735.18	258.00
735.51	258.19
735.84	257.90
736.17	258.62
736.50	257.19
736.83	260.24
737.16	260.29
737.49	260.33
737.82	260.29
738.15	260.43
738.48	260.76
738.81	260.57
739.14	260.33
739.47	260.24
739.80	260.00
740.13	259.95
740.46	259.43
740.79	259.24
741.12	258.90
741.45	257.76
741.78	256.14
742.11	256.90
742.44	256.43
742.77	256.52
743.10	255.95
743.43	255.71
743.75	252.86
744.08	256.05
744.41	255.90
744.74	255.95
745.07	255.81
745.40	255.71
745.73	256.52
746.06	256.86
746.39	256.95
746.71	256.76
747.04	256.19
747.37	255.76
747.70	256.10
748.03	256.52
748.36	257.05
748.68	257.19
749.01	256.24
749.34	256.29
749.67	256.43
750.00	256.71
750.33	258.71
750.65	258.81
750.98	255.67
751.31	255.57
751.64	255.29
751.97	256.71
752.29	256.62
752.62	255.29
752.95	254.90
753.28	254.67
753.60	254.52
753.93	255.14
754.26	255.38
754.59	254.43
754.91	253.71
755.24	253.52
755.57	253.38
755.90	253.38
756.22	253.24
756.55	252.71
756.88	252.19
757.20	250.57
757.53	249.90
757.86	249.86
758.19	250.00
758.51	250.38
758.84	249.05
759.17	248.86
759.49	249.29
759.82	250.57
760.15	250.81
760.47	250.90
760.80	250.33
761.13	251.24
761.45	251.33
761.78	251.52
762.11	251.71
762.43	251.33
762.76	251.19
763.08	251.00
763.41	251.05
763.74	251.05
764.06	250.86
764.39	251.14
764.71	250.90
765.04	250.57
765.37	250.19
765.69	249.71
766.02	249.43
766.34	249.00
766.67	247.76
767.00	247.95
767.32	248.95
767.65	250.33
767.97	249.57
768.30	249.38
768.62	249.52
768.95	249.19
769.27	249.33
769.60	249.62
769.92	249.43
770.25	249.14
770.57	248.67
770.90	248.43
771.22	247.67
771.55	247.90
771.87	248.14
772.20	247.90
772.52	250.10
772.85	253.00
773.17	253.38
773.50	253.19
773.82	252.52
774.15	251.19
774.47	249.52
774.80	249.48
775.12	249.33
775.45	249.05
775.77	248.86
776.09	249.14
776.42	248.81
776.74	249.57
777.07	249.43
777.39	249.62
777.72	249.33
778.04	249.86
778.36	249.38
778.69	249.10
779.01	249.05
779.33	246.95
779.66	244.48
779.98	244.33
780.31	244.10
780.63	245.38
780.95	245.62
781.28	245.33
781.60	244.90
781.92	245.00
782.25	245.05
782.57	245.00
782.89	244.33
783.22	244.14
783.54	243.52
783.86	243.52
784.19	243.29
784.51	244.38
784.83	244.05
785.16	244.05
785.48	244.24
785.80	244.14
786.12	244.29
786.45	244.10
786.77	244.05
787.09	244.43
787.42	243.38
787.74	243.67
788.06	244.05
788.38	244.00
788.71	243.67
789.03	243.76
789.35	244.24
789.67	244.10
789.99	244.29
790.32	243.62
790.64	244.24
790.96	246.24
791.28	245.10
791.61	245.10
791.93	245.14
792.25	244.76
792.57	246.76
792.89	246.19
793.21	246.43
793.54	246.24
793.86	245.81
