SpectraSuite Data File
++++++++++++++++++++++++++++++++++++
Date: Wed Nov 07 18:33:29 EST 2012
User: group
Dark Spectrum Present: No
Reference Spectrum Present: No
Number of Sampled Component Spectra: 1
Spectrometers: USB2E7196
Integration Time (usec): 1000000 (USB2E7196)
Spectra Averaged: 1 (USB2E7196)
Boxcar Smoothing: 10 (USB2E7196)
Correct for Electrical Dark: No (USB2E7196)
Strobe/Lamp Enabled: No (USB2E7196)
Correct for Detector Non-linearity: No (USB2E7196)
Correct for Stray Light: No (USB2E7196)
Number of Pixels in Processed Spectrum: 2048
>>>>>Begin Processed Spectral Data<<<<<
339.09	0.00
339.48	215.00
339.86	218.00
340.24	217.00
340.63	224.00
341.01	259.00
341.39	228.00
341.78	228.00
342.16	236.00
342.54	223.00
342.93	220.24
343.31	231.19
343.69	231.90
344.07	232.38
344.46	233.00
344.84	233.48
345.22	231.95
345.60	232.19
345.99	232.76
346.37	232.62
346.75	233.05
347.13	232.95
347.52	233.05
347.90	234.76
348.28	235.24
348.66	235.86
349.05	235.14
349.43	235.95
349.81	236.67
350.19	236.38
350.57	236.76
350.96	237.48
351.34	237.90
351.72	238.24
352.10	238.81
352.48	239.00
352.87	239.05
353.25	239.62
353.63	239.67
354.01	239.71
354.39	239.90
354.77	240.00
355.15	240.95
355.54	240.95
355.92	239.95
356.30	240.00
356.68	241.43
357.06	241.57
357.44	240.86
357.82	240.48
358.20	240.81
358.58	240.90
358.97	240.67
359.35	241.05
359.73	241.38
360.11	241.33
360.49	241.57
360.87	241.62
361.25	241.62
361.63	242.29
362.01	242.33
362.39	242.10
362.77	242.14
363.15	242.29
363.53	242.38
363.91	242.67
364.29	242.57
364.67	240.24
365.05	240.62
365.43	241.05
365.81	241.33
366.19	242.57
366.57	243.14
366.95	243.29
367.33	242.90
367.71	243.00
368.09	243.38
368.47	243.43
368.85	243.24
369.23	244.10
369.61	243.52
369.99	244.29
370.37	244.90
370.75	246.43
371.13	245.81
371.51	245.52
371.89	245.38
372.27	245.67
372.65	245.71
373.03	245.38
373.41	245.19
373.78	244.90
374.16	243.48
374.54	242.86
374.92	242.57
375.30	242.76
375.68	241.90
376.06	241.76
376.44	241.57
376.82	241.76
377.19	241.29
377.57	241.29
377.95	240.10
378.33	239.62
378.71	238.10
379.09	238.43
379.47	238.81
379.84	238.48
380.22	237.81
380.60	237.52
380.98	237.48
381.36	237.43
381.73	237.29
382.11	237.95
382.49	237.95
382.87	237.48
383.25	237.29
383.62	240.57
384.00	240.19
384.38	240.19
384.76	240.90
385.13	241.71
385.51	241.57
385.89	241.29
386.27	241.48
386.64	241.90
387.02	241.62
387.40	241.24
387.78	241.52
388.15	241.81
388.53	241.81
388.91	241.90
389.29	241.57
389.66	242.14
390.04	241.29
390.42	241.67
390.79	241.90
391.17	241.90
391.55	239.14
391.92	239.24
392.30	239.52
392.68	238.67
393.05	238.10
393.43	238.19
393.81	238.38
394.18	238.05
394.56	238.14
394.94	238.90
395.31	239.05
395.69	239.76
396.06	240.24
396.44	240.76
396.82	240.52
397.19	242.10
397.57	241.57
397.95	242.33
398.32	241.57
398.70	242.05
399.07	242.57
399.45	242.33
399.82	242.52
400.20	242.24
400.58	242.38
400.95	241.86
401.33	242.19
401.70	244.14
402.08	244.67
402.45	244.90
402.83	245.00
403.20	245.10
403.58	244.90
403.95	245.33
404.33	245.38
404.71	245.81
405.08	247.05
405.46	247.76
405.83	247.90
406.21	248.48
406.58	248.71
406.96	249.00
407.33	249.76
407.70	250.14
408.08	252.90
408.45	254.05
408.83	255.19
409.20	255.90
409.58	255.14
409.95	256.05
410.33	256.62
410.70	257.10
411.08	258.38
411.45	259.81
411.82	260.62
412.20	262.76
412.57	265.38
412.95	264.52
413.32	266.43
413.69	268.29
414.07	270.38
414.44	272.57
414.82	274.81
415.19	277.48
415.56	280.14
415.94	281.00
416.31	283.76
416.68	286.57
417.06	289.95
417.43	294.00
417.81	297.67
418.18	301.38
418.55	305.19
418.93	309.05
419.30	313.29
419.67	318.10
420.04	322.14
420.42	326.19
420.79	333.76
421.16	339.48
421.54	346.43
421.91	352.67
422.28	358.95
422.66	365.43
423.03	373.90
423.40	380.57
423.77	387.57
424.15	395.38
424.52	403.00
424.89	411.95
425.26	419.62
425.64	427.86
426.01	436.05
426.38	445.10
426.75	454.52
427.13	463.67
427.50	473.10
427.87	483.48
428.24	493.48
428.61	501.48
428.99	512.52
429.36	522.81
429.73	533.95
430.10	545.76
430.47	557.90
430.85	567.62
431.22	581.24
431.59	596.95
431.96	609.19
432.33	624.10
432.70	637.67
433.08	653.95
433.45	668.62
433.82	683.67
434.19	700.29
434.56	716.67
434.93	732.10
435.30	747.10
435.68	763.81
436.05	780.90
436.42	798.19
436.79	814.05
437.16	830.67
437.53	847.52
437.90	864.10
438.27	880.71
438.64	898.86
439.01	914.00
439.38	926.38
439.75	940.14
440.13	955.24
440.50	969.43
440.87	981.33
441.24	992.81
441.61	1006.76
441.98	1016.19
442.35	1026.95
442.72	1037.95
443.09	1050.48
443.46	1056.14
443.83	1058.95
444.20	1062.14
444.57	1065.43
444.94	1066.71
445.31	1069.05
445.68	1073.48
446.05	1073.05
446.42	1069.62
446.79	1067.95
447.16	1063.81
447.53	1060.90
447.90	1052.86
448.27	1044.67
448.64	1033.81
449.01	1026.95
449.37	1013.95
449.74	1002.52
450.11	991.10
450.48	976.10
450.85	959.05
451.22	946.14
451.59	934.95
451.96	922.38
452.33	907.52
452.70	893.71
453.07	875.95
453.43	855.71
453.80	839.43
454.17	823.67
454.54	807.19
454.91	791.10
455.28	775.57
455.65	761.57
456.02	751.67
456.38	739.00
456.75	723.76
457.12	711.05
457.49	698.57
457.86	685.05
458.23	675.24
458.59	664.14
458.96	652.86
459.33	642.05
459.70	632.33
460.07	623.57
460.43	613.57
460.80	605.57
461.17	597.48
461.54	589.76
461.91	582.86
462.27	575.38
462.64	569.43
463.01	562.76
463.38	556.24
463.74	545.38
464.11	539.62
464.48	534.24
464.85	528.76
465.21	524.29
465.58	518.71
465.95	512.81
466.32	508.76
466.68	504.05
467.05	499.90
467.42	494.71
467.78	489.81
468.15	486.05
468.52	483.33
468.88	479.14
469.25	474.71
469.62	471.33
469.98	467.76
470.35	464.81
470.72	461.48
471.08	457.29
471.45	454.76
471.82	452.81
472.18	450.05
472.55	448.38
472.92	444.86
473.28	442.57
473.65	439.81
474.02	437.29
474.38	435.57
474.75	433.05
475.11	431.57
475.48	430.57
475.85	428.62
476.21	426.19
476.58	425.24
476.94	424.19
477.31	422.48
477.67	421.90
478.04	420.57
478.41	419.14
478.77	421.10
479.14	419.67
479.50	418.62
479.87	418.71
480.23	417.76
480.60	417.86
480.96	417.90
481.33	419.14
481.69	418.95
482.06	419.00
482.42	420.38
482.79	421.14
483.15	421.33
483.52	422.95
483.88	424.05
484.25	424.90
484.61	425.62
484.98	426.57
485.34	427.86
485.71	429.90
486.07	432.05
486.44	431.33
486.80	433.52
487.17	435.48
487.53	437.62
487.90	439.81
488.26	442.67
488.62	444.62
488.99	445.86
489.35	448.24
489.72	450.05
490.08	451.14
490.44	452.29
490.81	455.19
491.17	457.19
491.54	459.57
491.90	462.52
492.26	464.90
492.63	467.57
492.99	469.38
493.36	471.00
493.72	474.00
494.08	476.48
494.45	479.19
494.81	481.81
495.17	483.90
495.54	487.52
495.90	490.33
496.26	494.19
496.63	498.00
496.99	501.33
497.35	505.76
497.72	510.38
498.08	514.57
498.44	518.43
498.80	522.95
499.17	527.14
499.53	531.38
499.89	536.81
500.26	541.62
500.62	546.43
500.98	552.05
501.34	556.62
501.71	562.57
502.07	567.81
502.43	573.19
502.79	578.43
503.16	582.62
503.52	586.76
503.88	590.62
504.24	596.19
504.60	602.29
504.97	607.76
505.33	612.81
505.69	619.10
506.05	624.00
506.41	629.00
506.78	634.19
507.14	639.48
507.50	644.95
507.86	650.57
508.22	657.19
508.59	662.38
508.95	667.90
509.31	673.57
509.67	678.48
510.03	683.76
510.39	688.71
510.75	694.86
511.12	700.90
511.48	706.52
511.84	711.33
512.20	715.90
512.56	720.71
512.92	726.24
513.28	731.62
513.64	736.71
514.00	741.38
514.37	746.57
514.73	751.52
515.09	756.10
515.45	760.67
515.81	763.90
516.17	767.90
516.53	771.71
516.89	774.95
517.25	779.43
517.61	783.81
517.97	787.24
518.33	790.52
518.69	794.67
519.05	798.38
519.41	802.14
519.77	806.90
520.13	809.81
520.49	812.14
520.85	814.33
521.21	819.19
521.57	822.86
521.93	824.67
522.29	827.90
522.65	830.19
523.01	832.48
523.37	834.90
523.73	837.76
524.09	840.43
524.45	842.43
524.81	844.71
525.17	846.48
525.53	849.38
525.89	851.71
526.25	853.67
526.61	855.10
526.97	856.71
527.33	857.67
527.68	862.05
528.04	863.86
528.40	865.52
528.76	865.86
529.12	866.33
529.48	869.33
529.84	870.14
530.20	871.52
530.56	873.43
530.91	875.43
531.27	877.38
531.63	878.86
531.99	879.86
532.35	881.43
532.71	882.24
533.07	882.90
533.42	885.90
533.78	886.48
534.14	888.19
534.50	889.05
534.86	890.33
535.21	889.57
535.57	891.33
535.93	892.57
536.29	894.95
536.65	896.90
537.00	897.48
537.36	898.71
537.72	900.95
538.08	902.14
538.44	903.14
538.79	904.43
539.15	905.86
539.51	908.71
539.87	909.38
540.22	911.19
540.58	914.05
540.94	914.48
541.29	916.86
541.65	917.57
542.01	920.00
542.37	921.90
542.72	921.67
543.08	921.76
543.44	921.95
543.79	919.86
544.15	920.62
544.51	921.00
544.87	920.62
545.22	918.95
545.58	917.81
545.94	916.43
546.29	914.57
546.65	913.14
547.01	909.76
547.36	908.76
547.72	906.67
548.07	903.62
548.43	900.29
548.79	896.62
549.14	895.05
549.50	891.86
549.86	888.10
550.21	886.48
550.57	884.00
550.92	881.52
551.28	881.05
551.64	877.86
551.99	874.86
552.35	872.19
552.70	869.43
553.06	867.62
553.41	865.57
553.77	864.57
554.13	862.29
554.48	861.76
554.84	859.52
555.19	857.86
555.55	858.38
555.90	856.67
556.26	855.14
556.61	852.81
556.97	850.24
557.32	847.67
557.68	845.57
558.03	844.24
558.39	842.19
558.74	839.19
559.10	836.90
559.45	835.48
559.81	834.19
560.16	832.86
560.52	830.43
560.87	829.05
561.23	826.86
561.58	827.10
561.94	824.48
562.29	822.38
562.64	820.95
563.00	816.81
563.35	815.76
563.71	814.38
564.06	812.57
564.42	810.29
564.77	809.57
565.12	807.86
565.48	808.05
565.83	807.19
566.19	806.38
566.54	805.52
566.89	803.95
567.25	803.38
567.60	803.24
567.96	805.19
568.31	804.81
568.66	804.43
569.02	801.29
569.37	799.76
569.72	798.95
570.08	797.62
570.43	796.14
570.78	794.19
571.14	792.43
571.49	791.43
571.84	790.62
572.20	789.29
572.55	788.24
572.90	784.67
573.26	783.29
573.61	781.33
573.96	780.24
574.31	779.33
574.67	776.38
575.02	774.24
575.37	769.62
575.72	767.52
576.08	764.90
576.43	763.05
576.78	761.14
577.13	759.10
577.49	757.00
577.84	756.38
578.19	754.62
578.54	753.33
578.90	751.76
579.25	750.62
579.60	749.57
579.95	747.33
580.30	746.48
580.66	745.29
581.01	743.24
581.36	740.67
581.71	738.19
582.06	738.57
582.42	737.05
582.77	734.90
583.12	733.38
583.47	731.29
583.82	730.24
584.17	729.24
584.53	727.76
584.88	726.38
585.23	724.71
585.58	722.90
585.93	720.76
586.28	718.90
586.63	716.33
586.98	714.05
587.34	713.33
587.69	710.14
588.04	707.05
588.39	705.29
588.74	702.95
589.09	701.10
589.44	696.71
589.79	694.24
590.14	691.10
590.49	687.71
590.84	684.71
591.19	681.52
591.54	677.71
591.89	674.81
592.25	673.29
592.60	669.24
592.95	666.24
593.30	663.86
593.65	660.33
594.00	657.81
594.35	661.29
594.70	657.19
595.05	654.86
595.40	652.05
595.75	648.76
596.10	645.71
596.45	642.90
596.80	640.62
597.15	637.86
597.50	636.38
597.85	634.76
598.19	632.38
598.54	629.71
598.89	627.76
599.24	624.95
599.59	620.71
599.94	618.57
600.29	616.24
600.64	612.86
600.99	611.57
601.34	608.86
601.69	599.33
602.04	597.29
602.39	594.57
602.74	592.81
603.08	590.29
603.43	589.29
603.78	587.62
604.13	585.43
604.48	583.33
604.83	582.00
605.18	580.38
605.53	580.43
605.87	581.38
606.22	584.19
606.57	587.00
606.92	590.71
607.27	594.43
607.62	598.33
607.96	603.14
608.31	605.81
608.66	609.10
609.01	612.14
609.36	614.10
609.70	616.33
610.05	617.67
610.40	619.81
610.75	620.52
611.10	621.19
611.44	622.14
611.79	622.33
612.14	621.95
612.49	619.48
612.83	617.14
613.18	613.14
613.53	607.57
613.88	601.90
614.22	595.19
614.57	587.95
614.92	580.86
615.27	574.24
615.61	567.76
615.96	561.43
616.31	555.00
616.65	550.48
617.00	545.05
617.35	540.00
617.70	534.95
618.04	530.29
618.39	525.67
618.74	521.57
619.08	517.14
619.43	513.48
619.78	511.19
620.12	508.48
620.47	506.05
620.82	503.14
621.16	500.38
621.51	499.33
621.85	496.95
622.20	495.00
622.55	491.57
622.89	489.19
623.24	487.38
623.59	485.33
623.93	482.90
624.28	481.33
624.62	482.38
624.97	482.14
625.32	480.00
625.66	478.00
626.01	476.29
626.35	474.48
626.70	472.81
627.04	471.52
627.39	469.24
627.73	468.43
628.08	466.95
628.43	465.19
628.77	461.90
629.12	459.71
629.46	457.19
629.81	455.62
630.15	453.76
630.50	451.90
630.84	449.95
631.19	447.81
631.53	445.43
631.88	440.24
632.22	436.00
632.57	434.95
632.91	432.38
633.26	430.29
633.60	428.19
633.95	425.95
634.29	422.95
634.64	420.76
634.98	417.43
635.32	416.05
635.67	414.33
636.01	412.48
636.36	410.90
636.70	410.05
637.05	407.95
637.39	405.81
637.73	404.33
638.08	403.43
638.42	401.38
638.77	400.10
639.11	399.10
639.45	398.10
639.80	395.76
640.14	395.00
640.49	393.29
640.83	392.00
641.17	390.48
641.52	389.57
641.86	388.76
642.20	388.57
642.55	386.62
642.89	385.33
643.23	384.14
643.58	384.05
643.92	381.95
644.26	381.43
644.61	381.10
644.95	379.95
645.29	378.38
645.64	378.90
645.98	377.86
646.32	377.05
646.66	376.14
647.01	375.19
647.35	374.57
647.69	374.14
648.04	373.67
648.38	372.90
648.72	371.71
649.06	370.43
649.41	368.95
649.75	368.05
650.09	367.52
650.43	367.00
650.78	365.29
651.12	364.81
651.46	363.81
651.80	362.38
652.14	360.81
652.49	360.33
652.83	358.19
653.17	357.10
653.51	355.48
653.85	354.38
654.20	353.62
654.54	351.76
654.88	349.86
655.22	348.38
655.56	347.14
655.90	346.33
656.25	345.43
656.59	344.62
656.93	344.10
657.27	343.62
657.61	342.29
657.95	342.05
658.29	341.38
658.64	340.90
658.98	340.10
659.32	339.48
659.66	338.33
660.00	337.90
660.34	337.24
660.68	336.38
661.02	335.43
661.36	334.29
661.70	333.71
662.05	333.38
662.39	333.38
662.73	333.62
663.07	334.10
663.41	333.57
663.75	332.67
664.09	331.90
664.43	330.29
664.77	329.62
665.11	328.38
665.45	327.29
665.79	326.81
666.13	326.19
666.47	325.33
666.81	325.00
667.15	323.67
667.49	323.10
667.83	323.19
668.17	322.67
668.51	322.05
668.85	321.43
669.19	321.67
669.53	320.48
669.87	318.95
670.21	317.29
670.55	316.43
670.89	317.14
671.23	316.38
671.57	316.19
671.91	316.00
672.25	315.43
672.58	315.95
672.92	314.71
673.26	314.19
673.60	313.76
673.94	313.00
674.28	312.57
674.62	312.43
674.96	311.71
675.30	311.43
675.64	311.00
675.97	310.86
676.31	309.71
676.65	309.24
676.99	309.57
677.33	308.57
677.67	308.10
678.01	306.14
678.34	305.43
678.68	305.00
679.02	303.95
679.36	303.05
679.70	301.33
680.04	300.86
680.37	300.10
680.71	299.24
681.05	298.76
681.39	298.71
681.73	297.76
682.06	297.00
682.40	296.67
682.74	296.52
683.08	297.05
683.42	296.24
683.75	296.48
684.09	295.38
684.43	295.43
684.77	294.86
685.10	294.67
685.44	294.48
685.78	293.81
686.12	293.57
686.45	293.24
686.79	292.90
687.13	292.90
687.46	292.29
687.80	292.86
688.14	292.29
688.48	291.57
688.81	291.38
689.15	292.05
689.49	291.24
689.82	290.67
690.16	289.05
690.50	288.48
690.83	287.10
691.17	286.29
691.51	285.81
691.84	285.90
692.18	285.33
692.52	284.81
692.85	285.19
693.19	285.62
693.52	285.33
693.86	284.86
694.20	284.19
694.53	284.57
694.87	283.52
695.21	283.05
695.54	282.95
695.88	282.05
696.21	280.38
696.55	279.67
696.88	279.38
697.22	278.67
697.56	278.81
697.89	278.52
698.23	278.62
698.56	277.90
698.90	277.71
699.23	277.33
699.57	277.14
699.90	276.05
700.24	275.24
700.58	275.10
700.91	275.52
701.25	277.67
701.58	278.05
701.92	278.86
702.25	279.33
702.59	279.00
702.92	279.33
703.26	280.24
703.59	280.86
703.93	283.29
704.26	284.33
704.60	284.81
704.93	285.19
705.26	285.14
705.60	286.24
705.93	285.95
706.27	287.14
706.60	288.48
706.94	289.71
707.27	289.52
707.61	290.00
707.94	290.00
708.27	288.14
708.61	287.33
708.94	286.86
709.28	286.38
709.61	286.05
709.94	285.62
710.28	285.05
710.61	284.71
710.95	281.43
711.28	282.38
711.61	281.43
711.95	281.14
712.28	280.19
712.61	278.90
712.95	279.62
713.28	279.33
713.61	277.48
713.95	275.90
714.28	275.48
714.61	274.48
714.95	273.48
715.28	272.48
715.61	272.00
715.95	271.29
716.28	270.33
716.61	270.10
716.95	269.71
717.28	268.95
717.61	268.29
717.94	268.24
718.28	265.95
718.61	265.43
718.94	264.76
719.27	265.00
719.61	264.90
719.94	263.86
720.27	262.24
720.60	262.05
720.94	261.52
721.27	261.33
721.60	261.67
721.93	261.14
722.27	261.57
722.60	261.24
722.93	260.81
723.26	260.81
723.59	260.38
723.93	260.62
724.26	260.67
724.59	260.24
724.92	260.19
725.25	260.62
725.59	260.33
725.92	260.48
726.25	260.00
726.58	260.00
726.91	259.57
727.24	259.90
727.57	259.76
727.91	259.62
728.24	259.67
728.57	259.19
728.90	259.43
729.23	258.71
729.56	259.67
729.89	259.62
730.22	259.43
730.55	259.71
730.89	259.57
731.22	259.24
731.55	259.38
731.88	259.38
732.21	258.71
732.54	258.38
732.87	258.33
733.20	258.19
733.53	258.05
733.86	258.19
734.19	257.86
734.52	258.19
734.85	259.71
735.18	259.24
735.51	259.81
735.84	260.05
736.17	260.19
736.50	259.10
736.83	261.76
737.16	261.57
737.49	261.33
737.82	260.71
738.15	260.90
738.48	260.81
738.81	260.43
739.14	260.14
739.47	259.95
739.80	259.48
740.13	259.71
740.46	259.33
740.79	258.67
741.12	258.52
741.45	257.95
741.78	256.57
742.11	257.33
742.44	256.62
742.77	256.67
743.10	256.81
743.43	256.67
743.75	254.10
744.08	257.24
744.41	256.95
744.74	256.81
745.07	256.24
745.40	256.48
745.73	256.90
746.06	256.95
746.39	257.29
746.71	257.19
747.04	256.86
747.37	256.67
747.70	257.05
748.03	257.14
748.36	257.14
748.68	256.90
749.01	255.57
749.34	255.43
749.67	255.19
750.00	254.71
750.33	256.19
750.65	256.14
750.98	252.62
751.31	252.81
751.64	252.57
751.97	254.00
752.29	253.90
752.62	253.10
752.95	253.10
753.28	252.86
753.60	252.76
753.93	253.43
754.26	253.62
754.59	252.76
754.91	252.38
755.24	252.33
755.57	252.52
755.90	252.57
756.22	252.24
756.55	251.90
756.88	251.33
757.20	249.48
757.53	248.86
757.86	249.38
758.19	249.48
758.51	249.90
758.84	248.29
759.17	247.81
759.49	247.86
759.82	248.62
760.15	248.62
760.47	248.52
760.80	247.52
761.13	247.86
761.45	247.67
761.78	247.90
762.11	247.71
762.43	247.29
762.76	247.48
763.08	247.71
763.41	247.76
763.74	247.81
764.06	248.00
764.39	248.14
764.71	247.81
765.04	247.19
765.37	246.71
765.69	246.57
766.02	246.33
766.34	246.19
766.67	245.33
767.00	245.95
767.32	247.05
767.65	248.52
767.97	248.10
768.30	248.14
768.62	247.48
768.95	247.24
769.27	247.00
769.60	247.29
769.92	246.90
770.25	246.33
770.57	246.00
770.90	245.76
771.22	245.24
771.55	245.29
771.87	245.43
772.20	245.29
772.52	247.86
772.85	251.00
773.17	250.62
773.50	250.29
773.82	249.76
774.15	248.62
774.47	247.10
774.80	246.71
775.12	247.14
775.45	247.29
775.77	247.48
776.09	247.81
776.42	247.67
776.74	248.52
777.07	248.81
777.39	249.05
777.72	249.00
778.04	249.57
778.36	249.62
778.69	249.71
779.01	249.90
779.33	247.48
779.66	244.43
779.98	244.86
780.31	244.86
780.63	245.52
780.95	246.00
781.28	245.67
781.60	245.52
781.92	245.29
782.25	245.38
782.57	245.43
782.89	245.10
783.22	244.90
783.54	244.38
783.86	244.48
784.19	244.48
784.51	245.43
784.83	244.81
785.16	244.52
785.48	244.33
785.80	244.52
786.12	244.71
786.45	244.95
786.77	244.57
787.09	244.62
787.42	243.90
787.74	243.90
788.06	244.43
788.38	244.71
788.71	244.52
789.03	244.52
789.35	244.81
789.67	244.62
789.99	244.95
790.32	244.43
790.64	244.76
790.96	246.76
791.28	245.76
791.61	245.81
791.93	246.10
792.25	245.71
792.57	247.57
792.89	247.24
793.21	247.29
793.54	247.33
793.86	247.14
