SpectraSuite Data File
++++++++++++++++++++++++++++++++++++
Date: Wed Nov 07 18:31:56 EST 2012
User: group
Dark Spectrum Present: No
Reference Spectrum Present: No
Number of Sampled Component Spectra: 1
Spectrometers: USB2E7196
Integration Time (usec): 1000000 (USB2E7196)
Spectra Averaged: 1 (USB2E7196)
Boxcar Smoothing: 10 (USB2E7196)
Correct for Electrical Dark: No (USB2E7196)
Strobe/Lamp Enabled: No (USB2E7196)
Correct for Detector Non-linearity: No (USB2E7196)
Correct for Stray Light: No (USB2E7196)
Number of Pixels in Processed Spectrum: 2048
>>>>>Begin Processed Spectral Data<<<<<
339.09	0.00
339.48	213.00
339.86	221.00
340.24	220.00
340.63	223.00
341.01	263.00
341.39	226.00
341.78	232.00
342.16	236.00
342.54	230.00
342.93	221.05
343.31	232.00
343.69	232.81
344.07	233.43
344.46	234.24
344.84	234.90
345.22	233.14
345.60	233.48
345.99	233.71
346.37	233.52
346.75	233.52
347.13	233.67
347.52	234.10
347.90	235.29
348.28	235.57
348.66	236.14
349.05	235.33
349.43	235.81
349.81	236.24
350.19	236.38
350.57	236.57
350.96	236.86
351.34	237.10
351.72	237.38
352.10	237.29
352.48	237.29
352.87	237.33
353.25	237.71
353.63	237.76
354.01	237.71
354.39	238.29
354.77	238.52
355.15	239.33
355.54	238.95
355.92	238.19
356.30	238.38
356.68	240.00
357.06	240.24
357.44	239.62
357.82	239.33
358.20	239.52
358.58	239.05
358.97	239.29
359.35	239.57
359.73	239.95
360.11	240.14
360.49	240.33
360.87	240.24
361.25	240.71
361.63	241.67
362.01	242.14
362.39	241.67
362.77	241.81
363.15	241.90
363.53	242.00
363.91	242.29
364.29	242.10
364.67	239.81
365.05	239.95
365.43	240.14
365.81	240.67
366.19	241.81
366.57	243.10
366.95	242.90
367.33	242.57
367.71	242.48
368.09	242.95
368.47	242.76
368.85	242.86
369.23	243.24
369.61	242.38
369.99	243.14
370.37	243.43
370.75	244.71
371.13	244.00
371.51	243.95
371.89	244.29
372.27	244.38
372.65	244.86
373.03	245.14
373.41	245.57
373.78	245.14
374.16	243.81
374.54	243.00
374.92	242.95
375.30	243.24
375.68	242.90
376.06	242.76
376.44	242.43
376.82	242.43
377.19	242.29
377.57	242.24
377.95	240.90
378.33	240.81
378.71	239.14
379.09	239.52
379.47	239.86
379.84	239.19
380.22	239.29
380.60	238.76
380.98	238.43
381.36	238.05
381.73	237.81
382.11	238.48
382.49	238.38
382.87	238.05
383.25	237.76
383.62	240.90
384.00	240.67
384.38	241.24
384.76	241.67
385.13	242.29
385.51	242.24
385.89	242.14
386.27	241.95
386.64	242.67
387.02	242.29
387.40	241.95
387.78	242.33
388.15	242.19
388.53	241.86
388.91	241.95
389.29	241.52
389.66	241.95
390.04	241.33
390.42	241.76
390.79	242.00
391.17	242.33
391.55	239.33
391.92	239.33
392.30	239.29
392.68	238.95
393.05	239.00
393.43	239.10
393.81	239.19
394.18	239.00
394.56	238.71
394.94	239.43
395.31	238.71
395.69	239.38
396.06	239.95
396.44	240.48
396.82	240.43
397.19	241.81
397.57	241.33
397.95	241.86
398.32	241.10
398.70	241.19
399.07	241.57
399.45	241.57
399.82	241.67
400.20	241.48
400.58	241.57
400.95	240.76
401.33	241.14
401.70	243.19
402.08	243.86
402.45	243.95
402.83	244.48
403.20	245.14
403.58	244.67
403.95	244.90
404.33	245.52
404.71	246.10
405.08	247.57
405.46	248.33
405.83	248.95
406.21	249.43
406.58	249.95
406.96	249.90
407.33	250.67
407.70	251.29
408.08	254.10
408.45	254.95
408.83	255.90
409.20	256.24
409.58	255.43
409.95	256.38
410.33	257.52
410.70	257.95
411.08	259.57
411.45	260.86
411.82	261.71
412.20	263.52
412.57	266.14
412.95	265.33
413.32	267.10
413.69	268.38
414.07	270.24
414.44	271.95
414.82	274.52
415.19	276.81
415.56	278.95
415.94	280.10
416.31	283.14
416.68	285.86
417.06	289.52
417.43	292.86
417.81	296.48
418.18	300.29
418.55	303.86
418.93	308.10
419.30	312.62
419.67	317.05
420.04	321.71
420.42	325.48
420.79	333.19
421.16	339.00
421.54	345.90
421.91	352.29
422.28	358.38
422.66	364.52
423.03	372.95
423.40	380.71
423.77	387.29
424.15	394.14
424.52	402.19
424.89	411.00
425.26	419.24
425.64	426.52
426.01	434.67
426.38	443.71
426.75	452.81
427.13	461.57
427.50	471.24
427.87	480.10
428.24	490.33
428.61	498.57
428.99	510.19
429.36	520.38
429.73	531.90
430.10	544.19
430.47	556.57
430.85	566.81
431.22	579.62
431.59	595.57
431.96	608.90
432.33	623.19
432.70	637.24
433.08	653.48
433.45	669.05
433.82	684.14
434.19	701.62
434.56	717.29
434.93	733.71
435.30	749.90
435.68	767.76
436.05	784.43
436.42	800.67
436.79	815.76
437.16	832.67
437.53	849.81
437.90	866.24
438.27	883.24
438.64	900.43
439.01	916.05
439.38	927.67
439.75	941.00
440.13	956.33
440.50	969.81
440.87	980.62
441.24	992.43
441.61	1005.57
441.98	1013.76
442.35	1025.10
442.72	1035.95
443.09	1047.19
443.46	1052.95
443.83	1057.05
444.20	1060.24
444.57	1064.00
444.94	1064.95
445.31	1066.38
445.68	1071.00
446.05	1069.05
446.42	1066.00
446.79	1063.00
447.16	1060.33
447.53	1058.00
447.90	1049.57
448.27	1042.19
448.64	1032.81
449.01	1025.57
449.37	1013.71
449.74	1002.38
450.11	990.33
450.48	974.24
450.85	957.90
451.22	944.29
451.59	931.33
451.96	918.76
452.33	903.62
452.70	889.67
453.07	872.62
453.43	852.33
453.80	837.76
454.17	822.29
454.54	807.10
454.91	790.95
455.28	774.81
455.65	760.71
456.02	750.67
456.38	738.62
456.75	723.38
457.12	710.10
457.49	697.33
457.86	683.24
458.23	674.14
458.59	662.62
458.96	651.86
459.33	641.29
459.70	632.19
460.07	623.76
460.43	614.67
460.80	606.57
461.17	599.29
461.54	590.81
461.91	583.14
462.27	574.57
462.64	567.86
463.01	560.76
463.38	554.71
463.74	543.05
464.11	536.62
464.48	531.19
464.85	525.71
465.21	522.24
465.58	518.43
465.95	512.05
466.32	507.48
466.68	502.48
467.05	498.29
467.42	493.19
467.78	488.38
468.15	484.19
468.52	481.14
468.88	476.62
469.25	472.38
469.62	469.67
469.98	466.62
470.35	463.48
470.72	460.71
471.08	456.71
471.45	454.62
471.82	452.00
472.18	449.14
472.55	447.24
472.92	443.71
473.28	440.48
473.65	438.24
474.02	436.33
474.38	435.10
474.75	433.29
475.11	431.00
475.48	429.86
475.85	428.00
476.21	426.10
476.58	425.48
476.94	424.19
477.31	422.71
477.67	421.95
478.04	420.76
478.41	420.14
478.77	422.00
479.14	421.10
479.50	420.52
479.87	420.24
480.23	419.95
480.60	419.67
480.96	419.62
481.33	420.81
481.69	420.62
482.06	421.19
482.42	422.05
482.79	423.71
483.15	424.05
483.52	425.52
483.88	426.19
484.25	427.14
484.61	428.67
484.98	429.29
485.34	431.10
485.71	432.95
486.07	434.05
486.44	433.10
486.80	434.33
487.17	435.62
487.53	438.00
487.90	440.05
488.26	442.81
488.62	445.24
488.99	446.76
489.35	449.00
489.72	450.14
490.08	451.62
490.44	453.10
490.81	455.43
491.17	457.14
491.54	459.62
491.90	461.90
492.26	464.24
492.63	466.95
492.99	468.52
493.36	470.95
493.72	473.95
494.08	476.67
494.45	480.14
494.81	483.48
495.17	486.14
495.54	489.62
495.90	492.48
496.26	496.10
496.63	500.10
496.99	504.05
497.35	508.00
497.72	512.62
498.08	515.90
498.44	519.67
498.80	524.29
499.17	528.38
499.53	532.62
499.89	537.52
500.26	542.00
500.62	547.10
500.98	552.43
501.34	557.24
501.71	562.43
502.07	566.76
502.43	571.95
502.79	576.67
503.16	580.52
503.52	585.24
503.88	589.67
504.24	594.71
504.60	599.24
504.97	604.67
505.33	609.33
505.69	615.71
506.05	621.05
506.41	625.52
506.78	631.14
507.14	636.05
507.50	641.24
507.86	646.86
508.22	652.86
508.59	656.95
508.95	662.00
509.31	668.48
509.67	673.71
510.03	677.76
510.39	683.10
510.75	689.24
511.12	693.86
511.48	698.81
511.84	703.33
512.20	708.24
512.56	712.76
512.92	718.00
513.28	722.71
513.64	727.48
514.00	732.10
514.37	736.38
514.73	741.10
515.09	745.38
515.45	749.38
515.81	753.33
516.17	758.10
516.53	761.76
516.89	764.76
517.25	769.14
517.61	774.29
517.97	777.95
518.33	780.95
518.69	785.86
519.05	790.43
519.41	793.90
519.77	799.48
520.13	803.48
520.49	806.10
520.85	808.62
521.21	812.62
521.57	816.76
521.93	819.05
522.29	822.19
522.65	824.76
523.01	826.76
523.37	828.10
523.73	830.00
524.09	832.76
524.45	834.19
524.81	836.48
525.17	838.90
525.53	840.62
525.89	843.62
526.25	845.38
526.61	845.57
526.97	846.81
527.33	846.48
527.68	849.76
528.04	851.10
528.40	852.05
528.76	852.57
529.12	853.24
529.48	855.38
529.84	856.90
530.20	858.19
530.56	860.81
530.91	862.90
531.27	865.05
531.63	867.00
531.99	868.10
532.35	869.19
532.71	869.57
533.07	871.14
533.42	874.52
533.78	874.62
534.14	877.14
534.50	878.33
534.86	880.86
535.21	880.33
535.57	882.81
535.93	884.33
536.29	886.33
536.65	887.81
537.00	888.52
537.36	889.10
537.72	890.76
538.08	893.24
538.44	895.10
538.79	897.38
539.15	898.90
539.51	901.38
539.87	903.05
540.22	905.33
540.58	907.67
540.94	907.33
541.29	910.29
541.65	910.86
542.01	913.52
542.37	914.86
542.72	915.76
543.08	915.43
543.44	916.24
543.79	915.52
544.15	916.24
544.51	916.57
544.87	915.43
545.22	914.62
545.58	912.19
545.94	910.43
546.29	907.67
546.65	905.67
547.01	903.86
547.36	901.81
547.72	899.29
548.07	896.05
548.43	892.38
548.79	888.05
549.14	885.67
549.50	882.10
549.86	878.62
550.21	875.81
550.57	873.52
550.92	870.95
551.28	869.86
551.64	867.05
551.99	864.57
552.35	863.67
552.70	861.62
553.06	860.33
553.41	857.81
553.77	856.90
554.13	854.00
554.48	852.10
554.84	850.19
555.19	848.33
555.55	849.43
555.90	847.95
556.26	847.19
556.61	844.71
556.97	842.29
557.32	839.43
557.68	837.43
558.03	835.71
558.39	833.76
558.74	830.67
559.10	828.52
559.45	826.90
559.81	824.62
560.16	821.86
560.52	819.90
560.87	818.62
561.23	816.57
561.58	816.95
561.94	814.24
562.29	812.62
562.64	811.10
563.00	806.90
563.35	805.71
563.71	803.71
564.06	802.14
564.42	800.81
564.77	799.81
565.12	798.76
565.48	799.33
565.83	798.33
566.19	797.14
566.54	794.90
566.89	793.33
567.25	792.29
567.60	793.38
567.96	793.90
568.31	794.24
568.66	793.48
569.02	790.48
569.37	790.14
569.72	788.67
570.08	787.10
570.43	785.33
570.78	783.00
571.14	781.67
571.49	781.43
571.84	780.95
572.20	780.10
572.55	779.14
572.90	776.00
573.26	774.71
573.61	773.67
573.96	773.62
574.31	772.57
574.67	770.43
575.02	767.52
575.37	763.62
575.72	760.29
576.08	758.00
576.43	756.86
576.78	755.52
577.13	754.05
577.49	753.05
577.84	752.33
578.19	751.62
578.54	750.38
578.90	748.38
579.25	747.05
579.60	745.14
579.95	742.38
580.30	740.86
580.66	739.05
581.01	737.71
581.36	734.95
581.71	733.05
582.06	733.52
582.42	732.33
582.77	731.10
583.12	730.14
583.47	729.33
583.82	728.24
584.17	726.38
584.53	725.52
584.88	723.57
585.23	722.29
585.58	719.71
585.93	717.19
586.28	715.19
586.63	713.05
586.98	711.81
587.34	710.14
587.69	707.76
588.04	705.52
588.39	703.10
588.74	700.81
589.09	699.29
589.44	694.14
589.79	691.38
590.14	688.76
590.49	685.67
590.84	681.67
591.19	678.00
591.54	674.81
591.89	670.95
592.25	669.86
592.60	665.86
592.95	663.67
593.30	661.43
593.65	658.67
594.00	654.38
594.35	657.48
594.70	654.81
595.05	651.95
595.40	649.38
595.75	645.95
596.10	643.86
596.45	640.38
596.80	638.43
597.15	635.38
597.50	632.90
597.85	631.43
598.19	628.81
598.54	625.76
598.89	623.00
599.24	620.67
599.59	616.24
599.94	613.76
600.29	611.38
600.64	609.10
600.99	607.43
601.34	605.71
601.69	596.62
602.04	593.57
602.39	590.67
602.74	589.00
603.08	586.95
603.43	585.52
603.78	584.00
604.13	582.76
604.48	581.48
604.83	580.29
605.18	578.33
605.53	578.95
605.87	581.10
606.22	584.52
606.57	588.81
606.92	593.86
607.27	600.05
607.62	604.86
607.96	609.95
608.31	613.52
608.66	617.43
609.01	621.10
609.36	625.14
609.70	628.81
610.05	631.05
610.40	633.62
610.75	635.14
611.10	636.57
611.44	637.43
611.79	638.00
612.14	637.90
612.49	637.24
612.83	634.43
613.18	630.67
613.53	624.67
613.88	618.00
614.22	609.81
614.57	601.00
614.92	592.62
615.27	584.86
615.61	577.86
615.96	571.62
616.31	564.90
616.65	559.10
617.00	552.52
617.35	546.52
617.70	541.14
618.04	535.86
618.39	530.71
618.74	526.52
619.08	522.19
619.43	518.10
619.78	514.24
620.12	511.71
620.47	508.81
620.82	506.57
621.16	504.10
621.51	503.33
621.85	500.19
622.20	498.14
622.55	495.48
622.89	493.14
623.24	490.48
623.59	487.95
623.93	486.10
624.28	484.14
624.62	485.14
624.97	484.29
625.32	482.33
625.66	480.10
626.01	477.76
626.35	476.24
626.70	474.33
627.04	473.81
627.39	471.71
627.73	470.95
628.08	468.57
628.43	465.86
628.77	462.24
629.12	461.05
629.46	459.43
629.81	457.57
630.15	455.33
630.50	453.19
630.84	451.67
631.19	449.14
631.53	447.38
631.88	442.24
632.22	438.48
632.57	436.71
632.91	434.52
633.26	432.62
633.60	429.81
633.95	427.43
634.29	424.19
634.64	422.00
634.98	418.95
635.32	417.57
635.67	416.05
636.01	414.52
636.36	412.67
636.70	411.29
637.05	409.48
637.39	407.95
637.73	406.33
638.08	405.14
638.42	402.86
638.77	401.38
639.11	399.43
639.45	397.52
639.80	395.67
640.14	394.38
640.49	392.48
640.83	390.86
641.17	389.62
641.52	387.90
641.86	387.00
642.20	386.43
642.55	384.38
642.89	383.00
643.23	381.76
643.58	380.95
643.92	379.05
644.26	378.24
644.61	377.29
644.95	376.14
645.29	374.29
645.64	374.33
645.98	373.14
646.32	373.38
646.66	373.10
647.01	371.71
647.35	371.29
647.69	370.57
648.04	370.29
648.38	369.48
648.72	368.86
649.06	367.33
649.41	366.19
649.75	365.48
650.09	364.81
650.43	363.71
650.78	362.05
651.12	360.57
651.46	359.38
651.80	358.00
652.14	357.00
652.49	356.95
652.83	355.14
653.17	354.10
653.51	351.95
653.85	351.00
654.20	350.05
654.54	348.19
654.88	346.67
655.22	344.90
655.56	343.48
655.90	342.52
656.25	341.76
656.59	340.43
656.93	339.48
657.27	339.10
657.61	337.71
657.95	337.57
658.29	337.43
658.64	337.10
658.98	336.19
659.32	335.00
659.66	333.95
660.00	333.57
660.34	332.71
660.68	332.57
661.02	331.90
661.36	330.95
661.70	330.71
662.05	330.71
662.39	331.19
662.73	331.38
663.07	332.14
663.41	331.52
663.75	330.71
664.09	330.81
664.43	329.52
664.77	329.14
665.11	327.95
665.45	327.24
665.79	326.90
666.13	326.19
666.47	325.62
666.81	324.81
667.15	323.67
667.49	323.33
667.83	323.48
668.17	322.29
668.51	321.90
668.85	321.10
669.19	321.10
669.53	319.33
669.87	318.14
670.21	315.95
670.55	315.48
670.89	315.62
671.23	314.33
671.57	313.90
671.91	313.81
672.25	313.29
672.58	313.29
672.92	311.24
673.26	310.48
673.60	310.24
673.94	309.62
674.28	309.19
674.62	309.10
674.96	307.81
675.30	307.52
675.64	307.29
675.97	307.05
676.31	305.71
676.65	305.38
676.99	305.95
677.33	305.57
677.67	305.00
678.01	303.57
678.34	303.10
678.68	302.90
679.02	301.76
679.36	301.05
679.70	300.05
680.04	300.10
680.37	299.95
680.71	299.57
681.05	299.43
681.39	299.05
681.73	298.10
682.06	297.48
682.40	297.29
682.74	296.76
683.08	297.33
683.42	296.95
683.75	297.19
684.09	295.52
684.43	295.33
684.77	294.90
685.10	295.00
685.44	294.81
685.78	294.19
686.12	293.90
686.45	293.33
686.79	292.71
687.13	292.71
687.46	292.05
687.80	292.05
688.14	291.33
688.48	291.10
688.81	291.19
689.15	291.62
689.49	291.19
689.82	291.24
690.16	289.48
690.50	289.24
690.83	288.67
691.17	288.43
691.51	288.00
691.84	287.81
692.18	286.81
692.52	286.57
692.85	286.48
693.19	287.24
693.52	287.52
693.86	287.10
694.20	286.62
694.53	286.57
694.87	285.76
695.21	284.86
695.54	284.52
695.88	283.67
696.21	282.43
696.55	282.14
696.88	281.43
697.22	281.00
697.56	280.76
697.89	280.05
698.23	280.10
698.56	279.67
698.90	279.57
699.23	279.76
699.57	279.71
699.90	279.05
700.24	278.05
700.58	277.76
700.91	278.10
701.25	280.10
701.58	281.00
701.92	281.90
702.25	282.57
702.59	282.38
702.92	282.76
703.26	283.33
703.59	283.67
703.93	286.10
704.26	286.81
704.60	287.62
704.93	288.10
705.26	288.00
705.60	288.90
705.93	288.52
706.27	289.52
706.60	289.90
706.94	291.62
707.27	291.57
707.61	291.95
707.94	292.29
708.27	290.24
708.61	289.33
708.94	289.05
709.28	288.67
709.61	288.43
709.94	288.10
710.28	287.43
710.61	286.86
710.95	284.10
711.28	285.14
711.61	283.90
711.95	283.62
712.28	282.52
712.61	281.38
712.95	282.14
713.28	281.81
713.61	280.57
713.95	278.43
714.28	277.86
714.61	276.71
714.95	274.90
715.28	273.67
715.61	272.95
715.95	271.95
716.28	271.05
716.61	271.05
716.95	269.95
717.28	269.38
717.61	268.76
717.94	268.24
718.28	266.05
718.61	265.48
718.94	264.43
719.27	264.10
719.61	263.90
719.94	262.52
720.27	261.24
720.60	260.86
720.94	260.62
721.27	260.67
721.60	260.95
721.93	261.10
722.27	261.76
722.60	261.57
722.93	261.00
723.26	261.05
723.59	260.33
723.93	260.48
724.26	260.43
724.59	260.48
724.92	260.48
725.25	261.00
725.59	260.95
725.92	261.24
726.25	261.24
726.58	260.90
726.91	260.95
727.24	261.14
727.57	260.90
727.91	260.38
728.24	260.29
728.57	259.62
728.90	259.71
729.23	258.86
729.56	260.14
729.89	260.19
730.22	259.95
730.55	259.86
730.89	259.81
731.22	259.67
731.55	259.19
731.88	259.14
732.21	258.48
732.54	258.10
732.87	258.10
733.20	258.14
733.53	258.29
733.86	258.10
734.19	257.29
734.52	257.48
734.85	259.00
735.18	258.19
735.51	258.67
735.84	258.57
736.17	259.24
736.50	257.62
736.83	260.14
737.16	260.05
737.49	260.00
737.82	260.00
738.15	260.33
738.48	260.29
738.81	260.10
739.14	259.90
739.47	259.81
739.80	259.33
740.13	259.52
740.46	259.19
740.79	259.05
741.12	259.24
741.45	258.86
741.78	257.81
742.11	258.86
742.44	258.19
742.77	258.81
743.10	257.90
743.43	257.62
743.75	255.19
744.08	258.29
744.41	257.48
744.74	257.29
745.07	256.38
745.40	257.00
745.73	257.52
746.06	257.33
746.39	257.86
746.71	257.81
747.04	257.33
747.37	257.00
747.70	257.29
748.03	257.24
748.36	257.62
748.68	257.29
749.01	256.62
749.34	256.62
749.67	256.29
750.00	256.76
750.33	258.67
750.65	258.71
750.98	255.95
751.31	256.38
751.64	256.38
751.97	257.95
752.29	257.24
752.62	256.62
752.95	256.38
753.28	255.76
753.60	255.38
753.93	256.14
754.26	256.24
754.59	255.00
754.91	255.05
755.24	254.81
755.57	254.71
755.90	254.43
756.22	254.14
756.55	253.81
756.88	253.38
757.20	251.81
757.53	251.29
757.86	250.90
758.19	251.24
758.51	251.43
758.84	250.05
759.17	250.05
759.49	249.67
759.82	251.10
760.15	251.29
760.47	251.48
760.80	250.62
761.13	251.14
761.45	251.62
761.78	251.76
762.11	251.90
762.43	251.76
762.76	251.76
763.08	252.24
763.41	252.33
763.74	252.52
764.06	252.48
764.39	252.62
764.71	252.43
765.04	252.24
765.37	251.57
765.69	251.67
766.02	251.43
766.34	251.33
766.67	250.05
767.00	250.57
767.32	251.90
767.65	253.33
767.97	252.90
768.30	253.05
768.62	252.57
768.95	252.10
769.27	251.95
769.60	252.52
769.92	252.14
770.25	251.71
770.57	251.00
770.90	250.71
771.22	250.33
771.55	250.43
771.87	250.14
772.20	250.24
772.52	252.00
772.85	255.24
773.17	255.57
773.50	255.24
773.82	254.43
774.15	252.95
774.47	251.29
774.80	251.00
775.12	250.67
775.45	250.62
775.77	250.71
776.09	251.05
776.42	250.81
776.74	251.48
777.07	251.29
777.39	251.38
777.72	251.29
778.04	251.38
778.36	251.10
778.69	251.14
779.01	251.05
779.33	249.19
779.66	246.14
779.98	245.43
780.31	245.76
780.63	246.81
780.95	247.38
781.28	247.48
781.60	247.19
781.92	247.38
782.25	247.33
782.57	247.10
782.89	246.52
783.22	246.00
783.54	245.10
783.86	245.14
784.19	244.95
784.51	245.76
784.83	245.24
785.16	245.19
785.48	245.00
785.80	245.14
786.12	244.95
786.45	244.90
786.77	245.10
787.09	244.86
787.42	244.10
787.74	243.86
788.06	243.95
788.38	243.76
788.71	243.33
789.03	243.19
789.35	243.57
789.67	243.33
789.99	243.33
790.32	243.19
790.64	243.57
790.96	245.90
791.28	244.95
791.61	244.86
791.93	244.86
792.25	244.86
792.57	246.52
792.89	246.24
793.21	246.10
793.54	246.05
793.86	245.76
