SpectraSuite Data File
++++++++++++++++++++++++++++++++++++
Date: Wed Nov 07 18:33:18 EST 2012
User: group
Dark Spectrum Present: No
Reference Spectrum Present: No
Number of Sampled Component Spectra: 1
Spectrometers: USB2E7196
Integration Time (usec): 1000000 (USB2E7196)
Spectra Averaged: 1 (USB2E7196)
Boxcar Smoothing: 10 (USB2E7196)
Correct for Electrical Dark: No (USB2E7196)
Strobe/Lamp Enabled: No (USB2E7196)
Correct for Detector Non-linearity: No (USB2E7196)
Correct for Stray Light: No (USB2E7196)
Number of Pixels in Processed Spectrum: 2048
>>>>>Begin Processed Spectral Data<<<<<
339.09	0.00
339.48	214.00
339.86	218.00
340.24	223.00
340.63	219.00
341.01	261.00
341.39	223.00
341.78	229.00
342.16	234.00
342.54	230.00
342.93	221.33
343.31	232.05
343.69	232.81
344.07	233.62
344.46	234.48
344.84	235.43
345.22	233.95
345.60	234.29
345.99	234.67
346.37	234.71
346.75	234.81
347.13	234.81
347.52	234.95
347.90	236.10
348.28	236.05
348.66	237.05
349.05	236.10
349.43	236.52
349.81	236.67
350.19	237.00
350.57	237.19
350.96	237.57
351.34	238.14
351.72	238.57
352.10	238.71
352.48	238.29
352.87	238.14
353.25	238.33
353.63	238.38
354.01	238.10
354.39	238.52
354.77	238.81
355.15	239.38
355.54	238.95
355.92	238.29
356.30	238.67
356.68	239.90
357.06	240.33
357.44	240.05
357.82	239.86
358.20	239.95
358.58	239.81
358.97	240.00
359.35	240.76
359.73	241.05
360.11	241.05
360.49	241.43
360.87	241.24
361.25	241.71
361.63	242.90
362.01	243.24
362.39	242.95
362.77	243.19
363.15	243.38
363.53	243.67
363.91	243.67
364.29	243.48
364.67	241.29
365.05	241.48
365.43	242.00
365.81	242.62
366.19	243.62
366.57	244.76
366.95	244.33
367.33	243.43
367.71	243.52
368.09	243.81
368.47	243.57
368.85	243.71
369.23	244.24
369.61	243.19
369.99	244.00
370.37	244.24
370.75	245.29
371.13	244.67
371.51	244.24
371.89	244.19
372.27	244.43
372.65	244.52
373.03	244.43
373.41	244.19
373.78	243.90
374.16	242.76
374.54	241.86
374.92	241.48
375.30	241.57
375.68	240.67
376.06	240.90
376.44	240.90
376.82	241.14
377.19	240.62
377.57	240.29
377.95	239.38
378.33	239.43
378.71	237.90
379.09	238.33
379.47	239.05
379.84	239.14
380.22	238.76
380.60	238.52
380.98	238.33
381.36	238.24
381.73	237.90
382.11	238.38
382.49	238.29
382.87	238.29
383.25	238.29
383.62	241.76
384.00	240.90
384.38	241.00
384.76	241.29
385.13	242.62
385.51	242.90
385.89	242.43
386.27	242.14
386.64	242.43
387.02	241.81
387.40	241.29
387.78	241.19
388.15	241.62
388.53	241.48
388.91	241.48
389.29	241.29
389.66	242.05
390.04	241.76
390.42	242.43
390.79	242.71
391.17	242.81
391.55	239.90
391.92	240.24
392.30	240.43
392.68	240.10
393.05	239.43
393.43	239.62
393.81	240.29
394.18	239.90
394.56	240.05
394.94	240.86
395.31	240.62
395.69	241.14
396.06	241.24
396.44	241.52
396.82	241.38
397.19	242.62
397.57	242.05
397.95	242.43
398.32	242.10
398.70	242.05
399.07	242.67
399.45	242.48
399.82	242.19
400.20	241.90
400.58	242.19
400.95	241.48
401.33	241.95
401.70	243.67
402.08	243.95
402.45	244.14
402.83	244.71
403.20	245.24
403.58	245.57
403.95	246.05
404.33	246.48
404.71	247.10
405.08	248.48
405.46	249.00
405.83	249.38
406.21	249.38
406.58	249.86
406.96	250.24
407.33	251.14
407.70	252.19
408.08	254.90
408.45	255.43
408.83	256.86
409.20	257.29
409.58	256.29
409.95	257.67
410.33	258.52
410.70	258.48
411.08	259.71
411.45	260.57
411.82	261.29
412.20	263.00
412.57	265.43
412.95	264.71
413.32	266.48
413.69	267.76
414.07	269.76
414.44	271.90
414.82	274.00
415.19	276.52
415.56	278.57
415.94	279.67
416.31	282.48
416.68	284.90
417.06	288.71
417.43	292.81
417.81	296.24
418.18	300.19
418.55	304.10
418.93	308.43
419.30	312.81
419.67	317.76
420.04	322.33
420.42	326.86
420.79	334.48
421.16	340.43
421.54	347.48
421.91	354.14
422.28	360.14
422.66	366.81
423.03	374.90
423.40	382.33
423.77	389.24
424.15	397.24
424.52	405.38
424.89	413.81
425.26	421.67
425.64	429.19
426.01	437.33
426.38	446.14
426.75	455.81
427.13	465.33
427.50	475.10
427.87	484.67
428.24	494.24
428.61	501.90
428.99	513.00
429.36	523.90
429.73	535.05
430.10	546.52
430.47	557.81
430.85	568.76
431.22	580.95
431.59	596.62
431.96	608.57
432.33	622.71
432.70	637.14
433.08	653.52
433.45	669.29
433.82	684.05
434.19	700.86
434.56	716.90
434.93	731.67
435.30	747.00
435.68	764.19
436.05	780.86
436.42	797.95
436.79	814.10
437.16	829.81
437.53	846.76
437.90	864.48
438.27	882.14
438.64	899.00
439.01	915.33
439.38	927.43
439.75	941.90
440.13	956.33
440.50	970.52
440.87	981.95
441.24	994.00
441.61	1007.10
441.98	1016.57
442.35	1027.33
442.72	1039.67
443.09	1051.19
443.46	1057.24
443.83	1061.48
444.20	1064.81
444.57	1068.29
444.94	1069.81
445.31	1071.33
445.68	1075.05
446.05	1073.71
446.42	1070.10
446.79	1068.38
447.16	1064.52
447.53	1061.10
447.90	1054.24
448.27	1045.81
448.64	1035.43
449.01	1027.33
449.37	1015.52
449.74	1004.14
450.11	992.33
450.48	976.05
450.85	959.71
451.22	946.43
451.59	933.67
451.96	921.52
452.33	905.81
452.70	891.24
453.07	874.43
453.43	854.67
453.80	839.29
454.17	823.81
454.54	807.19
454.91	792.00
455.28	776.24
455.65	761.00
456.02	750.71
456.38	738.19
456.75	723.14
457.12	710.29
457.49	697.57
457.86	683.05
458.23	674.00
458.59	662.24
458.96	651.24
459.33	641.05
459.70	630.71
460.07	622.48
460.43	613.90
460.80	606.00
461.17	597.95
461.54	589.86
461.91	582.10
462.27	574.81
462.64	567.48
463.01	560.90
463.38	555.48
463.74	544.43
464.11	537.95
464.48	533.05
464.85	527.48
465.21	523.38
465.58	519.43
465.95	513.14
466.32	509.24
466.68	504.81
467.05	500.00
467.42	495.62
467.78	490.71
468.15	486.48
468.52	482.90
468.88	478.71
469.25	473.81
469.62	471.52
469.98	467.48
470.35	464.81
470.72	461.48
471.08	457.19
471.45	455.24
471.82	453.33
472.18	450.05
472.55	447.86
472.92	444.57
473.28	441.05
473.65	438.48
474.02	435.71
474.38	433.48
474.75	431.43
475.11	429.10
475.48	427.86
475.85	426.33
476.21	424.29
476.58	423.76
476.94	423.33
477.31	421.57
477.67	420.95
478.04	419.71
478.41	419.24
478.77	421.10
479.14	419.19
479.50	418.86
479.87	418.90
480.23	418.62
480.60	418.57
480.96	418.90
481.33	419.76
481.69	420.52
482.06	420.76
482.42	422.48
482.79	423.29
483.15	424.10
483.52	424.90
483.88	425.67
484.25	426.14
484.61	426.57
484.98	427.76
485.34	429.90
485.71	431.71
486.07	432.52
486.44	431.48
486.80	432.76
487.17	434.00
487.53	436.10
487.90	438.48
488.26	441.14
488.62	443.24
488.99	444.52
489.35	446.05
489.72	448.10
490.08	449.14
490.44	451.14
490.81	453.33
491.17	455.52
491.54	458.29
491.90	461.43
492.26	464.10
492.63	466.76
492.99	468.62
493.36	471.48
493.72	474.62
494.08	477.29
494.45	480.14
494.81	483.52
495.17	486.05
495.54	488.71
495.90	491.33
496.26	495.19
496.63	498.81
496.99	502.76
497.35	505.71
497.72	510.19
498.08	514.62
498.44	518.52
498.80	523.19
499.17	527.52
499.53	531.24
499.89	537.05
500.26	541.19
500.62	546.05
500.98	551.10
501.34	556.00
501.71	561.62
502.07	567.43
502.43	572.10
502.79	577.10
503.16	582.43
503.52	587.19
503.88	591.43
504.24	596.86
504.60	602.43
504.97	608.57
505.33	613.24
505.69	618.76
506.05	623.95
506.41	628.81
506.78	633.71
507.14	638.95
507.50	643.10
507.86	648.81
508.22	654.43
508.59	659.62
508.95	665.05
509.31	671.71
509.67	677.05
510.03	682.29
510.39	688.10
510.75	693.52
511.12	698.67
511.48	704.43
511.84	709.29
512.20	714.05
512.56	719.43
512.92	724.33
513.28	729.19
513.64	733.90
514.00	739.52
514.37	744.52
514.73	749.52
515.09	754.71
515.45	759.00
515.81	762.48
516.17	765.76
516.53	770.05
516.89	771.81
517.25	776.10
517.61	780.90
517.97	784.62
518.33	788.14
518.69	792.62
519.05	796.57
519.41	800.81
519.77	805.52
520.13	808.48
520.49	812.00
520.85	815.57
521.21	820.67
521.57	824.24
521.93	827.67
522.29	829.90
522.65	832.43
523.01	835.24
523.37	838.43
523.73	841.86
524.09	844.38
524.45	847.76
524.81	849.67
525.17	851.81
525.53	854.14
525.89	856.33
526.25	858.05
526.61	858.67
526.97	859.52
527.33	861.57
527.68	865.29
528.04	867.57
528.40	868.43
528.76	868.33
529.12	868.67
529.48	868.81
529.84	870.52
530.20	872.24
530.56	873.67
530.91	875.67
531.27	877.00
531.63	877.81
531.99	878.81
532.35	880.05
532.71	879.62
533.07	880.33
533.42	884.48
533.78	885.10
534.14	886.95
534.50	888.29
534.86	888.48
535.21	887.43
535.57	888.67
535.93	889.95
536.29	892.48
536.65	893.19
537.00	895.19
537.36	896.52
537.72	897.57
538.08	900.38
538.44	901.57
538.79	903.10
539.15	904.38
539.51	907.05
539.87	908.52
540.22	910.81
540.58	912.43
540.94	910.86
541.29	913.52
541.65	915.10
542.01	917.62
542.37	918.95
542.72	919.90
543.08	920.14
543.44	920.38
543.79	918.38
544.15	919.62
544.51	919.76
544.87	918.19
545.22	916.29
545.58	913.81
545.94	911.33
546.29	909.33
546.65	907.81
547.01	904.14
547.36	902.48
547.72	900.19
548.07	897.67
548.43	895.71
548.79	891.95
549.14	889.33
549.50	886.00
549.86	882.38
550.21	880.86
550.57	878.33
550.92	875.52
551.28	874.86
551.64	873.10
551.99	871.10
552.35	869.48
552.70	868.10
553.06	865.67
553.41	864.05
553.77	864.19
554.13	863.05
554.48	862.29
554.84	860.00
555.19	858.52
555.55	858.05
555.90	855.05
556.26	853.24
556.61	850.95
556.97	848.29
557.32	847.48
557.68	844.71
558.03	842.71
558.39	840.95
558.74	838.43
559.10	834.71
559.45	832.81
559.81	831.71
560.16	830.71
560.52	829.67
560.87	828.00
561.23	824.43
561.58	824.38
561.94	821.76
562.29	821.10
562.64	820.57
563.00	817.76
563.35	817.10
563.71	815.19
564.06	814.10
564.42	813.00
564.77	810.86
565.12	809.29
565.48	809.90
565.83	808.90
566.19	807.29
566.54	806.24
566.89	804.19
567.25	803.67
567.60	803.19
567.96	804.29
568.31	804.81
568.66	805.00
569.02	800.90
569.37	800.38
569.72	798.48
570.08	796.62
570.43	795.57
570.78	793.62
571.14	793.05
571.49	791.05
571.84	789.67
572.20	788.29
572.55	786.62
572.90	783.10
573.26	781.57
573.61	780.05
573.96	778.62
574.31	777.43
574.67	775.10
575.02	772.67
575.37	768.52
575.72	765.10
576.08	762.29
576.43	761.48
576.78	759.14
577.13	756.62
577.49	754.10
577.84	752.00
578.19	750.48
578.54	749.10
578.90	747.19
579.25	745.33
579.60	743.67
579.95	742.00
580.30	740.57
580.66	738.67
581.01	736.67
581.36	735.62
581.71	733.76
582.06	732.52
582.42	730.24
582.77	727.71
583.12	726.48
583.47	723.71
583.82	721.43
584.17	720.24
584.53	719.71
584.88	717.76
585.23	716.67
585.58	714.38
585.93	711.48
586.28	710.24
586.63	708.29
586.98	706.10
587.34	704.38
587.69	701.71
588.04	699.86
588.39	697.95
588.74	694.38
589.09	692.24
589.44	688.90
589.79	685.71
590.14	683.62
590.49	680.00
590.84	677.52
591.19	675.10
591.54	672.14
591.89	669.33
592.25	668.90
592.60	664.67
592.95	662.33
593.30	660.14
593.65	656.86
594.00	653.76
594.35	657.95
594.70	654.86
595.05	652.33
595.40	648.52
595.75	645.52
596.10	642.81
596.45	639.14
596.80	636.48
597.15	634.57
597.50	632.00
597.85	630.76
598.19	628.10
598.54	625.76
598.89	623.10
599.24	620.33
599.59	616.14
599.94	613.67
600.29	611.62
600.64	609.00
600.99	607.43
601.34	605.86
601.69	596.52
602.04	593.81
602.39	591.19
602.74	590.14
603.08	587.90
603.43	587.33
603.78	585.48
604.13	583.14
604.48	580.62
604.83	579.57
605.18	577.86
605.53	578.19
605.87	578.48
606.22	580.24
606.57	582.57
606.92	584.71
607.27	588.05
607.62	590.71
607.96	594.10
608.31	596.33
608.66	598.05
609.01	599.62
609.36	601.71
609.70	603.48
610.05	604.57
610.40	606.19
610.75	606.10
611.10	607.57
611.44	607.86
611.79	607.81
612.14	607.24
612.49	605.86
612.83	603.38
613.18	600.19
613.53	595.00
613.88	589.24
614.22	583.52
614.57	578.00
614.92	571.29
615.27	564.67
615.61	558.33
615.96	552.67
616.31	547.43
616.65	543.48
617.00	539.24
617.35	534.05
617.70	528.81
618.04	524.67
618.39	520.14
618.74	517.14
619.08	514.24
619.43	510.57
619.78	506.81
620.12	504.05
620.47	500.86
620.82	498.19
621.16	495.86
621.51	494.48
621.85	492.00
622.20	490.14
622.55	488.29
622.89	486.43
623.24	484.81
623.59	482.81
623.93	480.05
624.28	477.43
624.62	478.24
624.97	478.38
625.32	476.19
625.66	474.29
626.01	472.05
626.35	469.81
626.70	468.19
627.04	467.48
627.39	465.38
627.73	465.10
628.08	463.67
628.43	461.43
628.77	458.43
629.12	456.19
629.46	454.29
629.81	452.14
630.15	449.71
630.50	447.14
630.84	444.95
631.19	443.10
631.53	440.76
631.88	435.76
632.22	431.29
632.57	429.95
632.91	427.86
633.26	426.05
633.60	423.90
633.95	421.62
634.29	418.90
634.64	417.05
634.98	413.71
635.32	412.43
635.67	410.81
636.01	409.24
636.36	407.29
636.70	405.76
637.05	403.76
637.39	401.95
637.73	400.86
638.08	400.00
638.42	398.43
638.77	397.71
639.11	396.48
639.45	395.33
639.80	393.48
640.14	391.81
640.49	390.05
640.83	388.67
641.17	387.48
641.52	385.62
641.86	384.62
642.20	384.52
642.55	382.62
642.89	381.00
643.23	379.76
643.58	379.52
643.92	377.57
644.26	376.62
644.61	376.43
644.95	375.05
645.29	373.33
645.64	373.10
645.98	372.14
646.32	371.95
646.66	371.10
647.01	369.38
647.35	368.38
647.69	367.52
648.04	366.86
648.38	365.95
648.72	365.62
649.06	363.86
649.41	361.67
649.75	360.76
650.09	360.48
650.43	359.38
650.78	357.43
651.12	356.90
651.46	355.67
651.80	354.48
652.14	353.24
652.49	352.52
652.83	350.71
653.17	349.24
653.51	347.33
653.85	346.48
654.20	345.86
654.54	344.95
654.88	343.57
655.22	342.29
655.56	341.14
655.90	340.00
656.25	339.19
656.59	338.71
656.93	338.19
657.27	338.00
657.61	337.05
657.95	336.71
658.29	335.86
658.64	335.71
658.98	334.62
659.32	333.95
659.66	333.00
660.00	332.48
660.34	331.43
660.68	331.29
661.02	330.81
661.36	330.43
661.70	329.67
662.05	329.33
662.39	329.81
662.73	329.52
663.07	330.29
663.41	330.19
663.75	329.19
664.09	328.24
664.43	326.57
664.77	325.86
665.11	324.81
665.45	324.52
665.79	324.48
666.13	323.90
666.47	323.14
666.81	322.43
667.15	321.10
667.49	320.86
667.83	320.52
668.17	319.43
668.51	318.52
668.85	318.10
669.19	318.86
669.53	317.33
669.87	316.00
670.21	314.19
670.55	313.29
670.89	314.00
671.23	313.52
671.57	312.76
671.91	312.62
672.25	312.19
672.58	312.19
672.92	310.71
673.26	309.90
673.60	309.43
673.94	309.19
674.28	308.86
674.62	308.67
674.96	307.57
675.30	307.67
675.64	307.24
675.97	306.76
676.31	304.86
676.65	303.86
676.99	304.00
677.33	303.33
677.67	303.19
678.01	301.48
678.34	301.24
678.68	301.33
679.02	300.52
679.36	300.29
679.70	299.38
680.04	299.10
680.37	299.05
680.71	298.19
681.05	298.14
681.39	298.00
681.73	297.10
682.06	296.38
682.40	295.81
682.74	295.52
683.08	296.48
683.42	296.00
683.75	296.43
684.09	295.76
684.43	295.43
684.77	294.67
685.10	294.43
685.44	294.05
685.78	293.62
686.12	293.38
686.45	292.71
686.79	291.76
687.13	291.81
687.46	290.95
687.80	291.76
688.14	290.86
688.48	290.43
688.81	290.38
689.15	290.90
689.49	290.48
689.82	290.48
690.16	288.67
690.50	288.33
690.83	287.48
691.17	286.76
691.51	286.57
691.84	286.62
692.18	286.33
692.52	285.62
692.85	285.19
693.19	285.67
693.52	285.43
693.86	284.86
694.20	284.29
694.53	284.05
694.87	283.14
695.21	282.62
695.54	282.57
695.88	281.86
696.21	280.29
696.55	279.95
696.88	279.24
697.22	278.57
697.56	278.81
697.89	278.24
698.23	278.24
698.56	277.48
698.90	277.14
699.23	276.81
699.57	276.62
699.90	276.62
700.24	275.43
700.58	275.43
700.91	275.81
701.25	277.57
701.58	278.57
701.92	279.48
702.25	279.81
702.59	279.71
702.92	280.00
703.26	281.24
703.59	281.57
703.93	283.71
704.26	284.67
704.60	284.57
704.93	285.10
705.26	284.76
705.60	285.86
705.93	285.57
706.27	286.14
706.60	287.00
706.94	287.81
707.27	287.90
707.61	287.95
707.94	288.14
708.27	286.00
708.61	285.19
708.94	284.48
709.28	284.52
709.61	283.67
709.94	283.43
710.28	282.33
710.61	281.52
710.95	278.81
711.28	279.90
711.61	279.14
711.95	279.05
712.28	278.76
712.61	277.52
712.95	278.29
713.28	278.57
713.61	277.05
713.95	275.38
714.28	274.71
714.61	273.86
714.95	272.81
715.28	272.38
715.61	271.29
715.95	270.52
716.28	269.10
716.61	269.05
716.95	268.33
717.28	268.10
717.61	267.57
717.94	267.29
718.28	264.76
718.61	264.19
718.94	263.62
719.27	263.52
719.61	263.62
719.94	262.62
720.27	261.24
720.60	261.29
720.94	261.29
721.27	261.00
721.60	261.14
721.93	261.19
722.27	261.52
722.60	262.10
722.93	261.76
723.26	262.14
723.59	261.62
723.93	261.71
724.26	261.71
724.59	261.71
724.92	261.71
725.25	262.29
725.59	262.71
725.92	262.86
726.25	262.38
726.58	262.24
726.91	261.95
727.24	262.00
727.57	261.57
727.91	261.00
728.24	261.43
728.57	261.14
728.90	261.05
729.23	260.24
729.56	261.19
729.89	261.29
730.22	261.00
730.55	260.81
730.89	260.71
731.22	260.71
731.55	260.24
731.88	260.00
732.21	259.43
732.54	259.05
732.87	258.48
733.20	258.48
733.53	258.24
733.86	258.29
734.19	257.90
734.52	257.95
734.85	259.33
735.18	258.57
735.51	259.19
735.84	259.19
736.17	259.76
736.50	258.19
736.83	260.67
737.16	260.67
737.49	260.95
737.82	260.67
738.15	260.67
738.48	260.76
738.81	260.71
739.14	260.33
739.47	259.86
739.80	259.90
740.13	260.00
740.46	259.24
740.79	258.76
741.12	258.62
741.45	258.14
741.78	256.81
742.11	257.67
742.44	256.76
742.77	256.81
743.10	256.33
743.43	256.19
743.75	253.48
744.08	256.52
744.41	256.00
744.74	255.90
745.07	254.86
745.40	255.10
745.73	255.62
746.06	255.71
746.39	256.05
746.71	255.62
747.04	255.33
747.37	255.43
747.70	255.71
748.03	255.76
748.36	256.19
748.68	256.00
749.01	255.10
749.34	255.29
749.67	255.71
750.00	255.71
750.33	257.48
750.65	257.57
750.98	254.24
751.31	254.24
751.64	254.19
751.97	255.86
752.29	255.43
752.62	254.48
752.95	254.38
753.28	253.95
753.60	253.67
753.93	254.52
754.26	254.43
754.59	253.81
754.91	253.62
755.24	253.14
755.57	253.05
755.90	253.00
756.22	252.33
756.55	251.48
756.88	251.05
757.20	249.43
757.53	248.71
757.86	248.67
758.19	249.14
758.51	249.00
758.84	247.76
759.17	247.57
759.49	247.86
759.82	248.90
760.15	249.33
760.47	249.43
760.80	248.29
761.13	249.00
761.45	248.67
761.78	248.48
762.11	248.76
762.43	248.19
762.76	248.10
763.08	248.62
763.41	248.52
763.74	248.76
764.06	248.48
764.39	248.62
764.71	248.86
765.04	248.29
765.37	247.95
765.69	247.52
766.02	247.48
766.34	247.14
766.67	246.10
767.00	246.10
767.32	247.76
767.65	249.19
767.97	249.00
768.30	249.33
768.62	249.29
768.95	248.81
769.27	249.38
769.60	249.52
769.92	248.95
770.25	248.90
770.57	248.48
770.90	248.48
771.22	248.14
771.55	248.00
771.87	248.24
772.20	248.05
772.52	250.62
772.85	253.43
773.17	253.71
773.50	253.24
773.82	252.71
774.15	251.10
774.47	249.24
774.80	249.00
775.12	248.90
775.45	248.81
775.77	249.14
776.09	249.29
776.42	249.33
776.74	250.29
777.07	249.95
777.39	249.86
777.72	249.52
778.04	250.00
778.36	249.62
778.69	249.33
779.01	249.90
779.33	247.33
779.66	244.48
779.98	244.14
780.31	244.57
780.63	245.52
780.95	246.05
781.28	246.24
781.60	245.81
781.92	245.57
782.25	245.52
782.57	245.38
782.89	244.67
783.22	244.48
783.54	243.76
783.86	243.86
784.19	243.48
784.51	244.14
784.83	244.00
785.16	243.81
785.48	243.62
785.80	243.43
786.12	243.71
786.45	243.81
786.77	243.67
787.09	243.48
787.42	242.86
787.74	242.95
788.06	243.19
788.38	243.14
788.71	242.90
789.03	243.29
789.35	243.38
789.67	243.38
789.99	243.48
790.32	243.19
790.64	243.62
790.96	246.00
791.28	245.14
791.61	244.67
791.93	245.19
792.25	245.52
792.57	247.14
792.89	246.76
793.21	246.81
793.54	246.86
793.86	246.57
