SpectraSuite Data File
++++++++++++++++++++++++++++++++++++
Date: Wed Nov 07 18:30:53 EST 2012
User: group
Dark Spectrum Present: No
Reference Spectrum Present: No
Number of Sampled Component Spectra: 1
Spectrometers: USB2E7196
Integration Time (usec): 1000000 (USB2E7196)
Spectra Averaged: 1 (USB2E7196)
Boxcar Smoothing: 10 (USB2E7196)
Correct for Electrical Dark: No (USB2E7196)
Strobe/Lamp Enabled: No (USB2E7196)
Correct for Detector Non-linearity: No (USB2E7196)
Correct for Stray Light: No (USB2E7196)
Number of Pixels in Processed Spectrum: 2048
>>>>>Begin Processed Spectral Data<<<<<
339.09	0.00
339.48	218.00
339.86	222.00
340.24	224.00
340.63	228.00
341.01	267.00
341.39	225.00
341.78	239.00
342.16	241.00
342.54	231.00
342.93	226.00
343.31	237.10
343.69	237.95
344.07	238.57
344.46	239.33
344.84	240.00
345.22	238.38
345.60	238.81
345.99	238.81
346.37	238.38
346.75	238.52
347.13	238.52
347.52	238.33
347.90	239.29
348.28	238.86
348.66	239.14
349.05	238.14
349.43	238.43
349.81	238.76
350.19	238.29
350.57	238.10
350.96	237.95
351.34	237.90
351.72	237.81
352.10	237.76
352.48	237.43
352.87	237.10
353.25	237.24
353.63	237.10
354.01	236.76
354.39	237.00
354.77	237.19
355.15	237.81
355.54	237.48
355.92	236.57
356.30	236.90
356.68	238.29
357.06	238.57
357.44	238.10
357.82	237.52
358.20	237.57
358.58	237.48
358.97	237.86
359.35	238.33
359.73	238.76
360.11	238.90
360.49	238.95
360.87	238.90
361.25	239.00
361.63	239.71
362.01	240.14
362.39	239.81
362.77	239.76
363.15	239.38
363.53	239.24
363.91	239.33
364.29	239.24
364.67	237.10
365.05	236.95
365.43	237.19
365.81	237.90
366.19	239.33
366.57	240.33
366.95	239.81
367.33	239.10
367.71	239.24
368.09	239.71
368.47	239.76
368.85	239.52
369.23	240.10
369.61	239.43
369.99	239.95
370.37	240.67
370.75	241.95
371.13	241.29
371.51	241.05
371.89	241.43
372.27	241.81
372.65	242.33
373.03	242.52
373.41	242.71
373.78	242.57
374.16	241.24
374.54	240.43
374.92	240.38
375.30	240.86
375.68	240.29
376.06	240.24
376.44	240.00
376.82	240.43
377.19	240.14
377.57	240.29
377.95	239.48
378.33	238.86
378.71	237.29
379.09	238.10
379.47	238.43
379.84	238.19
380.22	237.52
380.60	236.52
380.98	236.57
381.36	236.24
381.73	235.90
382.11	236.67
382.49	237.05
382.87	236.62
383.25	236.38
383.62	239.05
384.00	238.29
384.38	238.62
384.76	239.33
385.13	240.48
385.51	240.57
385.89	240.62
386.27	241.10
386.64	241.76
387.02	241.38
387.40	241.00
387.78	241.14
388.15	241.71
388.53	241.76
388.91	241.90
389.29	241.90
389.66	242.33
390.04	241.67
390.42	242.10
390.79	242.62
391.17	242.95
391.55	240.29
391.92	240.57
392.30	241.00
392.68	240.24
393.05	239.95
393.43	239.95
393.81	240.14
394.18	239.62
394.56	239.24
394.94	240.05
395.31	240.29
395.69	241.05
396.06	241.24
396.44	241.67
396.82	241.24
397.19	242.52
397.57	242.24
397.95	242.86
398.32	241.81
398.70	242.05
399.07	242.67
399.45	242.86
399.82	242.95
400.20	242.76
400.58	242.90
400.95	241.95
401.33	242.81
401.70	244.38
402.08	244.76
402.45	245.48
402.83	246.19
403.20	246.86
403.58	246.57
403.95	247.14
404.33	247.67
404.71	248.14
405.08	249.19
405.46	249.52
405.83	249.62
406.21	250.00
406.58	250.38
406.96	250.57
407.33	251.00
407.70	252.19
408.08	254.38
408.45	255.05
408.83	256.14
409.20	256.24
409.58	255.43
409.95	256.67
410.33	257.43
410.70	257.67
411.08	258.86
411.45	259.95
411.82	261.00
412.20	262.52
412.57	265.33
412.95	265.10
413.32	266.95
413.69	268.67
414.07	270.67
414.44	272.43
414.82	274.62
415.19	277.67
415.56	279.52
415.94	280.81
416.31	284.14
416.68	286.76
417.06	290.19
417.43	294.33
417.81	297.71
418.18	301.19
418.55	304.48
418.93	308.19
419.30	312.29
419.67	316.52
420.04	321.10
420.42	325.52
420.79	333.24
421.16	339.14
421.54	346.48
421.91	352.95
422.28	359.43
422.66	366.62
423.03	374.38
423.40	381.43
423.77	388.86
424.15	396.14
424.52	404.29
424.89	412.67
425.26	420.29
425.64	428.05
426.01	436.19
426.38	445.19
426.75	455.14
427.13	464.24
427.50	473.24
427.87	482.48
428.24	491.90
428.61	499.95
428.99	511.62
429.36	521.57
429.73	531.81
430.10	543.86
430.47	556.62
430.85	568.52
431.22	583.05
431.59	600.43
431.96	614.38
432.33	630.48
432.70	646.62
433.08	663.90
433.45	681.14
433.82	697.00
434.19	714.76
434.56	730.90
434.93	746.62
435.30	763.67
435.68	781.10
436.05	798.29
436.42	814.33
436.79	828.67
437.16	845.38
437.53	862.71
437.90	879.05
438.27	893.38
438.64	909.29
439.01	923.14
439.38	933.24
439.75	945.48
440.13	958.57
440.50	971.14
440.87	982.29
441.24	992.43
441.61	1004.48
441.98	1012.62
442.35	1023.14
442.72	1034.86
443.09	1045.95
443.46	1051.81
443.83	1055.10
444.20	1058.57
444.57	1062.24
444.94	1062.86
445.31	1065.38
445.68	1070.19
446.05	1070.52
446.42	1067.33
446.79	1065.33
447.16	1061.24
447.53	1059.00
447.90	1051.81
448.27	1043.48
448.64	1031.67
449.01	1023.62
449.37	1012.29
449.74	1000.95
450.11	989.57
450.48	973.86
450.85	957.52
451.22	945.00
451.59	932.90
451.96	920.57
452.33	906.19
452.70	892.67
453.07	876.00
453.43	855.67
453.80	840.05
454.17	824.24
454.54	808.29
454.91	793.19
455.28	777.38
455.65	762.76
456.02	753.05
456.38	742.24
456.75	727.67
457.12	715.10
457.49	702.52
457.86	687.76
458.23	678.05
458.59	666.43
458.96	655.24
459.33	645.05
459.70	635.29
460.07	627.33
460.43	618.00
460.80	609.90
461.17	602.38
461.54	594.19
461.91	586.33
462.27	578.67
462.64	571.81
463.01	564.62
463.38	558.86
463.74	547.86
464.11	541.33
464.48	536.90
464.85	531.10
465.21	527.81
465.58	523.81
465.95	517.67
466.32	513.38
466.68	508.48
467.05	503.81
467.42	499.14
467.78	494.05
468.15	489.90
468.52	486.33
468.88	482.24
469.25	478.00
469.62	476.10
469.98	472.48
470.35	469.57
470.72	466.52
471.08	462.14
471.45	459.67
471.82	457.38
472.18	453.62
472.55	451.52
472.92	447.90
473.28	445.33
473.65	443.57
474.02	441.43
474.38	439.67
474.75	438.24
475.11	436.52
475.48	435.62
475.85	433.95
476.21	432.67
476.58	431.57
476.94	430.95
477.31	429.71
477.67	429.10
478.04	428.10
478.41	427.86
478.77	429.76
479.14	429.19
479.50	429.14
479.87	430.00
480.23	430.43
480.60	430.76
480.96	431.86
481.33	433.57
481.69	435.29
482.06	437.29
482.42	439.33
482.79	441.62
483.15	443.86
483.52	446.71
483.88	448.48
484.25	451.38
484.61	453.86
484.98	455.86
485.34	459.62
485.71	462.86
486.07	465.05
486.44	465.62
486.80	467.86
487.17	469.76
487.53	472.90
487.90	475.29
488.26	478.90
488.62	481.19
488.99	482.76
489.35	484.57
489.72	486.00
490.08	487.14
490.44	488.81
490.81	490.62
491.17	491.52
491.54	493.52
491.90	494.95
492.26	496.86
492.63	499.38
492.99	499.90
493.36	501.90
493.72	504.52
494.08	506.90
494.45	509.62
494.81	512.24
495.17	513.76
495.54	516.67
495.90	518.52
496.26	521.33
496.63	524.14
496.99	526.29
497.35	529.00
497.72	532.57
498.08	535.14
498.44	538.19
498.80	542.62
499.17	546.24
499.53	549.57
499.89	553.43
500.26	556.67
500.62	561.52
500.98	565.48
501.34	569.00
501.71	573.52
502.07	577.90
502.43	582.19
502.79	585.81
503.16	589.81
503.52	593.95
503.88	597.86
504.24	602.90
504.60	609.19
504.97	614.67
505.33	619.43
505.69	624.86
506.05	629.52
506.41	633.81
506.78	638.67
507.14	643.00
507.50	647.81
507.86	653.48
508.22	658.33
508.59	663.29
508.95	668.57
509.31	674.76
509.67	680.43
510.03	685.57
510.39	691.00
510.75	695.81
511.12	701.10
511.48	705.19
511.84	709.38
512.20	713.29
512.56	717.71
512.92	722.19
513.28	727.29
513.64	731.14
514.00	736.14
514.37	740.10
514.73	745.38
515.09	750.57
515.45	754.86
515.81	758.62
516.17	762.33
516.53	765.90
516.89	767.76
517.25	770.62
517.61	774.57
517.97	777.90
518.33	781.95
518.69	786.19
519.05	790.86
519.41	794.19
519.77	797.95
520.13	801.38
520.49	804.76
520.85	806.76
521.21	812.10
521.57	815.67
521.93	818.76
522.29	821.19
522.65	822.24
523.01	824.24
523.37	826.43
523.73	829.14
524.09	832.14
524.45	834.48
524.81	835.95
525.17	838.48
525.53	841.57
525.89	842.81
526.25	843.86
526.61	845.33
526.97	847.10
527.33	848.33
527.68	851.71
528.04	853.14
528.40	855.29
528.76	854.95
529.12	855.62
529.48	857.00
529.84	858.10
530.20	860.33
530.56	862.19
530.91	863.57
531.27	865.10
531.63	866.71
531.99	868.05
532.35	870.14
532.71	871.29
533.07	872.33
533.42	877.10
533.78	878.67
534.14	880.14
534.50	882.67
534.86	885.76
535.21	886.00
535.57	889.33
535.93	892.38
536.29	898.62
536.65	903.86
537.00	909.43
537.36	917.14
537.72	925.10
538.08	935.57
538.44	946.71
538.79	958.19
539.15	968.86
539.51	980.90
539.87	993.05
540.22	1005.24
540.58	1018.00
540.94	1029.95
541.29	1044.33
541.65	1057.81
542.01	1070.43
542.37	1081.71
542.72	1091.52
543.08	1097.19
543.44	1102.95
543.79	1104.10
544.15	1106.90
544.51	1108.52
544.87	1106.67
545.22	1103.48
545.58	1097.19
545.94	1090.48
546.29	1082.43
546.65	1074.00
547.01	1063.67
547.36	1053.67
547.72	1043.19
548.07	1031.90
548.43	1017.33
548.79	1002.90
549.14	988.95
549.50	976.71
549.86	963.05
550.21	951.52
550.57	942.71
550.92	933.62
551.28	926.71
551.64	918.67
551.99	911.19
552.35	904.05
552.70	897.57
553.06	892.62
553.41	886.67
553.77	882.38
554.13	877.71
554.48	873.86
554.84	869.38
555.19	864.62
555.55	862.19
555.90	859.10
556.26	855.24
556.61	852.00
556.97	847.00
557.32	843.95
557.68	841.81
558.03	839.29
558.39	836.90
558.74	834.52
559.10	831.14
559.45	828.81
559.81	827.24
560.16	824.71
560.52	821.81
560.87	820.67
561.23	817.67
561.58	818.10
561.94	815.81
562.29	814.14
562.64	813.00
563.00	809.00
563.35	807.48
563.71	806.00
564.06	804.67
564.42	802.90
564.77	800.81
565.12	798.81
565.48	799.52
565.83	798.43
566.19	796.52
566.54	795.57
566.89	793.52
567.25	792.95
567.60	793.62
567.96	794.71
568.31	794.76
568.66	794.76
569.02	791.19
569.37	791.10
569.72	789.81
570.08	788.24
570.43	787.62
570.78	786.29
571.14	785.86
571.49	784.76
571.84	784.29
572.20	784.48
572.55	783.81
572.90	780.67
573.26	779.00
573.61	778.05
573.96	778.43
574.31	778.86
574.67	778.14
575.02	776.19
575.37	773.71
575.72	771.62
576.08	770.67
576.43	770.43
576.78	769.57
577.13	769.10
577.49	768.76
577.84	767.62
578.19	768.19
578.54	768.10
578.90	768.33
579.25	767.95
579.60	767.57
579.95	766.57
580.30	766.48
580.66	767.00
581.01	766.62
581.36	764.71
581.71	763.38
582.06	763.86
582.42	763.29
582.77	762.24
583.12	761.90
583.47	760.62
583.82	759.48
584.17	758.62
584.53	758.48
584.88	756.90
585.23	756.76
585.58	754.57
585.93	752.29
586.28	749.62
586.63	748.05
586.98	745.81
587.34	744.90
587.69	742.14
588.04	738.95
588.39	736.29
588.74	733.14
589.09	731.38
589.44	726.14
589.79	722.76
590.14	718.52
590.49	713.43
590.84	709.29
591.19	705.00
591.54	700.57
591.89	694.76
592.25	693.57
592.60	688.05
592.95	684.19
593.30	680.19
593.65	676.67
594.00	672.10
594.35	674.29
594.70	669.43
595.05	665.38
595.40	661.81
595.75	657.71
596.10	655.19
596.45	651.19
596.80	648.10
597.15	644.29
597.50	641.33
597.85	639.62
598.19	636.48
598.54	633.95
598.89	630.95
599.24	629.19
599.59	624.10
599.94	622.24
600.29	619.14
600.64	616.57
600.99	614.52
601.34	612.43
601.69	603.33
602.04	600.71
602.39	598.38
602.74	596.62
603.08	594.48
603.43	592.86
603.78	590.76
604.13	589.05
604.48	588.71
604.83	588.14
605.18	587.52
605.53	589.24
605.87	592.90
606.22	599.43
606.57	607.57
606.92	616.14
607.27	625.95
607.62	635.86
607.96	645.19
608.31	652.33
608.66	659.24
609.01	665.86
609.36	671.95
609.70	678.24
610.05	683.62
610.40	689.38
610.75	692.62
611.10	696.10
611.44	699.10
611.79	700.33
612.14	701.38
612.49	700.67
612.83	698.14
613.18	692.48
613.53	684.43
613.88	674.29
614.22	663.38
614.57	651.24
614.92	638.81
615.27	627.81
615.61	617.71
615.96	607.86
616.31	599.52
616.65	591.90
617.00	583.29
617.35	574.38
617.70	566.29
618.04	559.71
618.39	552.24
618.74	546.52
619.08	541.10
619.43	535.24
619.78	530.86
620.12	526.52
620.47	523.19
620.82	520.00
621.16	516.67
621.51	514.48
621.85	511.81
622.20	509.57
622.55	506.05
622.89	503.14
623.24	500.86
623.59	497.14
623.93	494.05
624.28	491.38
624.62	492.10
624.97	490.95
625.32	487.95
625.66	486.29
626.01	484.05
626.35	482.05
626.70	480.86
627.04	479.95
627.39	479.10
627.73	479.00
628.08	477.33
628.43	474.52
628.77	471.57
629.12	469.10
629.46	466.48
629.81	464.67
630.15	462.71
630.50	460.10
630.84	458.33
631.19	455.57
631.53	453.05
631.88	447.62
632.22	443.38
632.57	441.57
632.91	438.95
633.26	436.00
633.60	433.43
633.95	430.14
634.29	426.10
634.64	422.52
634.98	418.48
635.32	416.14
635.67	414.57
636.01	412.10
636.36	410.05
636.70	408.62
637.05	406.00
637.39	404.24
637.73	403.10
638.08	401.43
638.42	399.29
638.77	397.90
639.11	396.38
639.45	395.00
639.80	392.81
640.14	391.43
640.49	390.14
640.83	388.10
641.17	387.48
641.52	386.29
641.86	385.19
642.20	384.86
642.55	383.29
642.89	381.95
643.23	381.43
643.58	380.57
643.92	378.81
644.26	378.29
644.61	377.24
644.95	376.24
645.29	375.19
645.64	375.48
645.98	374.29
646.32	374.19
646.66	373.29
647.01	372.71
647.35	372.38
647.69	371.86
648.04	372.00
648.38	371.29
648.72	370.67
649.06	369.67
649.41	368.14
649.75	366.71
650.09	366.05
650.43	364.62
650.78	363.10
651.12	362.38
651.46	361.76
651.80	360.76
652.14	359.19
652.49	358.90
652.83	357.33
653.17	356.38
653.51	354.43
653.85	353.57
654.20	352.10
654.54	349.90
654.88	347.76
655.22	345.71
655.56	344.19
655.90	342.81
656.25	341.62
656.59	340.71
656.93	340.24
657.27	340.10
657.61	339.19
657.95	339.24
658.29	338.33
658.64	337.52
658.98	336.33
659.32	335.67
659.66	334.57
660.00	334.10
660.34	333.33
660.68	333.05
661.02	332.38
661.36	331.76
661.70	331.67
662.05	331.10
662.39	331.14
662.73	331.48
663.07	332.33
663.41	331.86
663.75	330.90
664.09	330.33
664.43	328.67
664.77	328.05
665.11	326.52
665.45	325.90
665.79	325.57
666.13	324.86
666.47	323.62
666.81	322.86
667.15	321.90
667.49	321.43
667.83	321.10
668.17	320.14
668.51	319.76
668.85	319.14
669.19	319.71
669.53	318.76
669.87	317.33
670.21	315.86
670.55	315.10
670.89	315.33
671.23	314.33
671.57	314.10
671.91	313.86
672.25	313.81
672.58	313.81
672.92	312.33
673.26	312.19
673.60	312.05
673.94	311.57
674.28	311.10
674.62	310.95
674.96	310.43
675.30	310.14
675.64	309.62
675.97	308.67
676.31	307.76
676.65	307.00
676.99	307.05
677.33	306.05
677.67	306.00
678.01	304.33
678.34	304.43
678.68	303.90
679.02	302.81
679.36	302.00
679.70	300.81
680.04	300.38
680.37	299.86
680.71	299.76
681.05	299.43
681.39	298.76
681.73	297.90
682.06	296.90
682.40	296.48
682.74	296.48
683.08	297.48
683.42	297.05
683.75	297.38
684.09	296.52
684.43	296.76
684.77	296.24
685.10	296.05
685.44	295.33
685.78	294.76
686.12	294.62
686.45	294.00
686.79	293.43
687.13	293.81
687.46	292.76
687.80	292.81
688.14	292.05
688.48	291.52
688.81	291.43
689.15	291.86
689.49	291.33
689.82	291.19
690.16	289.81
690.50	289.43
690.83	288.76
691.17	288.33
691.51	287.33
691.84	286.81
692.18	286.24
692.52	285.67
692.85	285.81
693.19	286.57
693.52	286.38
693.86	286.19
694.20	285.57
694.53	285.62
694.87	284.76
695.21	283.67
695.54	283.62
695.88	282.71
696.21	281.10
696.55	280.43
696.88	279.43
697.22	279.00
697.56	278.38
697.89	277.48
698.23	277.29
698.56	277.29
698.90	277.10
699.23	276.67
699.57	276.81
699.90	276.10
700.24	274.62
700.58	274.76
700.91	275.38
701.25	276.95
701.58	278.00
701.92	278.67
702.25	279.76
702.59	280.00
702.92	280.86
703.26	281.86
703.59	282.67
703.93	285.24
704.26	285.76
704.60	286.33
704.93	287.05
705.26	286.81
705.60	287.62
705.93	287.71
706.27	289.19
706.60	289.86
706.94	291.24
707.27	291.57
707.61	291.67
707.94	291.29
708.27	289.67
708.61	288.76
708.94	288.38
709.28	288.19
709.61	287.62
709.94	287.14
710.28	286.67
710.61	286.14
710.95	283.10
711.28	284.05
711.61	283.00
711.95	282.81
712.28	282.10
712.61	281.24
712.95	281.48
713.28	281.52
713.61	280.57
713.95	278.76
714.28	278.19
714.61	277.33
714.95	276.29
715.28	275.10
715.61	274.24
715.95	273.62
716.28	272.43
716.61	272.43
716.95	271.62
717.28	270.62
717.61	269.71
717.94	269.38
718.28	267.24
718.61	266.95
718.94	266.14
719.27	265.81
719.61	265.33
719.94	264.48
720.27	262.81
720.60	262.05
720.94	262.05
721.27	261.81
721.60	261.90
721.93	261.81
722.27	262.52
722.60	262.81
722.93	261.95
723.26	262.05
723.59	261.52
723.93	261.38
724.26	261.76
724.59	261.67
724.92	261.67
725.25	262.38
725.59	262.38
725.92	262.57
726.25	262.52
726.58	262.48
726.91	261.90
727.24	262.24
727.57	262.00
727.91	261.33
728.24	260.95
728.57	260.38
728.90	260.57
729.23	259.57
729.56	260.52
729.89	260.71
730.22	260.43
730.55	259.90
730.89	259.81
731.22	259.14
731.55	259.00
731.88	259.10
732.21	258.14
732.54	257.62
732.87	257.48
733.20	257.43
733.53	257.14
733.86	257.48
734.19	257.00
734.52	257.71
734.85	259.43
735.18	259.48
735.51	260.38
735.84	260.19
736.17	260.76
736.50	259.05
736.83	261.71
737.16	261.76
737.49	261.71
737.82	261.67
738.15	262.10
738.48	262.05
738.81	261.48
739.14	260.76
739.47	260.76
739.80	260.67
740.13	260.52
740.46	259.86
740.79	259.38
741.12	259.05
741.45	258.19
741.78	256.95
742.11	257.71
742.44	256.67
742.77	256.95
743.10	256.33
743.43	256.19
743.75	253.52
744.08	256.33
744.41	256.67
744.74	256.29
745.07	255.86
745.40	256.10
745.73	257.19
746.06	257.52
746.39	257.52
746.71	257.10
747.04	257.14
747.37	257.29
747.70	257.76
748.03	257.71
748.36	258.33
748.68	257.67
749.01	256.43
749.34	256.29
749.67	256.14
750.00	256.24
750.33	258.05
750.65	257.90
750.98	254.95
751.31	254.52
751.64	254.76
751.97	256.00
752.29	255.67
752.62	254.19
752.95	254.14
753.28	253.86
753.60	253.71
753.93	253.71
754.26	253.71
754.59	252.86
754.91	252.57
755.24	252.05
755.57	252.24
755.90	252.29
756.22	252.29
756.55	252.05
756.88	251.57
757.20	249.67
757.53	248.81
757.86	248.81
758.19	249.10
758.51	249.10
758.84	247.52
759.17	247.62
759.49	248.19
759.82	249.24
760.15	249.24
760.47	249.24
760.80	248.71
761.13	249.29
761.45	249.38
761.78	249.67
762.11	249.67
762.43	249.24
762.76	248.86
763.08	248.95
763.41	248.52
763.74	248.52
764.06	248.67
764.39	248.76
764.71	248.43
765.04	247.86
765.37	247.24
765.69	247.19
766.02	246.86
766.34	246.48
766.67	245.57
767.00	246.14
767.32	247.38
767.65	248.90
767.97	248.14
768.30	248.14
768.62	247.86
768.95	247.33
769.27	247.52
769.60	248.24
769.92	247.86
770.25	247.48
770.57	247.33
770.90	247.00
771.22	247.19
771.55	247.33
771.87	247.43
772.20	247.57
772.52	249.81
772.85	252.48
773.17	252.57
773.50	252.29
773.82	251.95
774.15	250.62
774.47	249.24
774.80	249.05
775.12	248.90
775.45	248.90
775.77	249.29
776.09	249.33
776.42	248.86
776.74	249.81
777.07	249.76
777.39	249.67
777.72	249.67
778.04	249.86
778.36	249.81
778.69	249.67
779.01	249.62
779.33	247.43
779.66	244.86
779.98	244.62
780.31	244.62
780.63	245.52
780.95	245.62
781.28	245.43
781.60	245.67
781.92	245.81
782.25	245.76
782.57	245.43
782.89	245.10
783.22	244.95
783.54	244.14
783.86	244.62
784.19	244.71
784.51	245.29
784.83	245.00
785.16	244.86
785.48	245.00
785.80	245.29
786.12	245.57
786.45	245.43
786.77	245.76
787.09	246.05
787.42	244.81
787.74	245.38
788.06	245.43
788.38	245.43
788.71	245.38
789.03	245.57
789.35	246.10
789.67	245.86
789.99	246.19
790.32	246.10
790.64	246.29
790.96	248.19
791.28	247.38
791.61	247.19
791.93	247.29
792.25	247.48
792.57	248.95
792.89	248.62
793.21	248.86
