SpectraSuite Data File
++++++++++++++++++++++++++++++++++++
Date: Wed Nov 07 18:33:00 EST 2012
User: group
Dark Spectrum Present: No
Reference Spectrum Present: No
Number of Sampled Component Spectra: 1
Spectrometers: USB2E7196
Integration Time (usec): 1000000 (USB2E7196)
Spectra Averaged: 1 (USB2E7196)
Boxcar Smoothing: 10 (USB2E7196)
Correct for Electrical Dark: No (USB2E7196)
Strobe/Lamp Enabled: No (USB2E7196)
Correct for Detector Non-linearity: No (USB2E7196)
Correct for Stray Light: No (USB2E7196)
Number of Pixels in Processed Spectrum: 2048
>>>>>Begin Processed Spectral Data<<<<<
339.09	0.00
339.48	220.00
339.86	221.00
340.24	220.00
340.63	228.00
341.01	269.00
341.39	232.00
341.78	236.00
342.16	243.00
342.54	234.00
342.93	223.86
343.31	234.90
343.69	235.33
344.07	235.90
344.46	236.57
344.84	236.90
345.22	235.10
345.60	235.57
345.99	235.48
346.37	235.05
346.75	235.05
347.13	235.19
347.52	235.43
347.90	236.00
348.28	235.90
348.66	236.38
349.05	235.90
349.43	236.29
349.81	236.48
350.19	236.48
350.57	236.38
350.96	236.00
351.34	236.19
351.72	236.48
352.10	236.76
352.48	236.86
352.87	236.71
353.25	236.90
353.63	236.62
354.01	236.86
354.39	237.05
354.77	236.90
355.15	237.38
355.54	236.57
355.92	236.10
356.30	236.24
356.68	237.67
357.06	237.86
357.44	237.33
357.82	237.24
358.20	237.48
358.58	237.57
358.97	238.19
359.35	238.62
359.73	239.24
360.11	238.86
360.49	238.76
360.87	238.90
361.25	239.10
361.63	239.71
362.01	239.48
362.39	239.38
362.77	239.71
363.15	239.76
363.53	240.05
363.91	240.10
364.29	240.14
364.67	237.95
365.05	237.57
365.43	237.95
365.81	238.43
366.19	239.81
366.57	240.81
366.95	240.52
367.33	240.29
367.71	239.86
368.09	240.43
368.47	240.52
368.85	240.57
369.23	240.90
369.61	240.29
369.99	241.43
370.37	241.76
370.75	242.90
371.13	242.10
371.51	241.71
371.89	242.10
372.27	242.05
372.65	242.29
373.03	242.86
373.41	242.81
373.78	242.52
374.16	240.95
374.54	240.43
374.92	240.33
375.30	240.05
375.68	239.81
376.06	239.86
376.44	239.57
376.82	239.76
377.19	239.76
377.57	239.67
377.95	238.67
378.33	238.29
378.71	237.05
379.09	237.38
379.47	237.95
379.84	237.62
380.22	237.81
380.60	237.38
380.98	236.95
381.36	236.90
381.73	237.00
382.11	237.38
382.49	237.71
382.87	237.62
383.25	237.67
383.62	240.38
384.00	240.24
384.38	240.24
384.76	240.76
385.13	241.71
385.51	241.86
385.89	241.52
386.27	241.62
386.64	241.67
387.02	241.62
387.40	241.57
387.78	241.90
388.15	241.71
388.53	241.86
388.91	242.24
389.29	242.10
389.66	242.38
390.04	242.14
390.42	242.10
390.79	242.33
391.17	242.33
391.55	239.90
391.92	239.43
392.30	239.76
392.68	239.14
393.05	238.67
393.43	238.62
393.81	239.10
394.18	239.00
394.56	239.19
394.94	239.57
395.31	239.14
395.69	239.86
396.06	240.38
396.44	240.52
396.82	240.14
397.19	241.76
397.57	241.52
397.95	242.10
398.32	241.43
398.70	241.52
399.07	242.05
399.45	242.00
399.82	242.43
400.20	242.57
400.58	242.52
400.95	241.81
401.33	242.29
401.70	244.24
402.08	244.57
402.45	244.76
402.83	245.52
403.20	245.90
403.58	245.48
403.95	246.10
404.33	246.71
404.71	247.05
405.08	248.10
405.46	248.48
405.83	248.86
406.21	249.43
406.58	250.10
406.96	250.38
407.33	251.24
407.70	252.14
408.08	254.67
408.45	256.00
408.83	257.00
409.20	257.24
409.58	256.29
409.95	257.43
410.33	258.33
410.70	258.90
411.08	260.57
411.45	262.10
411.82	262.76
412.20	264.43
412.57	267.38
412.95	267.00
413.32	268.76
413.69	270.00
414.07	271.90
414.44	273.33
414.82	275.43
415.19	277.86
415.56	280.10
415.94	280.67
416.31	283.29
416.68	286.43
417.06	290.38
417.43	293.76
417.81	297.57
418.18	301.52
418.55	305.29
418.93	309.05
419.30	312.76
419.67	317.29
420.04	321.48
420.42	325.57
420.79	333.19
421.16	339.38
421.54	346.71
421.91	353.57
422.28	360.43
422.66	367.29
423.03	375.38
423.40	382.29
423.77	390.33
424.15	397.62
424.52	405.52
424.89	413.71
425.26	421.43
425.64	428.62
426.01	436.86
426.38	445.33
426.75	455.14
427.13	464.14
427.50	473.81
427.87	483.52
428.24	493.38
428.61	501.00
428.99	512.19
429.36	522.57
429.73	533.29
430.10	545.14
430.47	557.00
430.85	567.71
431.22	580.43
431.59	594.90
431.96	607.57
432.33	621.57
432.70	635.52
433.08	652.43
433.45	667.67
433.82	683.14
434.19	700.14
434.56	716.52
434.93	732.14
435.30	747.57
435.68	765.57
436.05	782.19
436.42	798.57
436.79	813.43
437.16	830.29
437.53	847.10
437.90	863.43
438.27	880.52
438.64	896.95
439.01	913.67
439.38	925.95
439.75	939.76
440.13	955.10
440.50	969.43
440.87	980.67
441.24	992.57
441.61	1005.43
441.98	1014.62
442.35	1025.05
442.72	1036.71
443.09	1048.57
443.46	1054.00
443.83	1058.14
444.20	1061.57
444.57	1065.90
444.94	1066.19
445.31	1068.52
445.68	1073.29
446.05	1072.14
446.42	1069.10
446.79	1065.05
447.16	1061.57
447.53	1058.52
447.90	1050.90
448.27	1043.52
448.64	1033.67
449.01	1025.81
449.37	1012.81
449.74	1000.57
450.11	989.62
450.48	974.48
450.85	957.38
451.22	943.86
451.59	931.67
451.96	919.76
452.33	903.71
452.70	890.00
453.07	872.38
453.43	852.24
453.80	836.10
454.17	820.86
454.54	805.81
454.91	790.14
455.28	774.95
455.65	760.29
456.02	749.33
456.38	736.62
456.75	722.24
457.12	709.76
457.49	698.24
457.86	682.71
458.23	673.38
458.59	662.71
458.96	651.67
459.33	640.48
459.70	630.33
460.07	622.67
460.43	613.62
460.80	605.62
461.17	597.43
461.54	589.81
461.91	582.29
462.27	574.52
462.64	568.29
463.01	561.10
463.38	554.86
463.74	543.71
464.11	537.14
464.48	531.33
464.85	526.14
465.21	521.90
465.58	518.05
465.95	511.48
466.32	506.81
466.68	501.95
467.05	497.90
467.42	493.48
467.78	488.52
468.15	484.14
468.52	480.95
468.88	476.95
469.25	472.62
469.62	469.76
469.98	466.00
470.35	462.67
470.72	459.90
471.08	456.00
471.45	453.76
471.82	451.76
472.18	448.76
472.55	446.48
472.92	442.71
473.28	439.71
473.65	436.86
474.02	434.76
474.38	433.10
474.75	430.90
475.11	428.81
475.48	427.24
475.85	425.71
476.21	424.10
476.58	423.14
476.94	422.19
477.31	420.81
477.67	419.95
478.04	418.81
478.41	417.76
478.77	419.43
479.14	418.05
479.50	417.48
479.87	417.52
480.23	417.67
480.60	417.95
480.96	418.29
481.33	419.52
481.69	419.67
482.06	420.43
482.42	421.67
482.79	422.71
483.15	423.86
483.52	425.10
483.88	425.14
484.25	425.95
484.61	427.14
484.98	428.00
485.34	430.33
485.71	432.00
486.07	433.52
486.44	432.29
486.80	434.05
487.17	435.43
487.53	437.62
487.90	439.33
488.26	441.95
488.62	444.19
488.99	445.14
489.35	447.10
489.72	448.24
490.08	449.48
490.44	451.19
490.81	453.29
491.17	455.43
491.54	457.76
491.90	460.38
492.26	463.19
492.63	465.86
492.99	467.90
493.36	470.62
493.72	473.33
494.08	476.71
494.45	480.48
494.81	484.05
495.17	486.81
495.54	489.86
495.90	492.48
496.26	496.10
496.63	500.10
496.99	504.14
497.35	508.76
497.72	513.81
498.08	517.29
498.44	521.05
498.80	525.52
499.17	530.48
499.53	534.86
499.89	539.00
500.26	543.38
500.62	547.86
500.98	552.90
501.34	557.76
501.71	563.10
502.07	567.90
502.43	572.24
502.79	577.48
503.16	582.33
503.52	587.62
503.88	591.76
504.24	597.71
504.60	603.24
504.97	608.33
505.33	612.90
505.69	619.67
506.05	625.38
506.41	630.62
506.78	635.57
507.14	640.86
507.50	646.24
507.86	652.43
508.22	658.81
508.59	663.95
508.95	669.43
509.31	675.86
509.67	680.90
510.03	686.90
510.39	691.29
510.75	696.76
511.12	701.76
511.48	707.05
511.84	712.00
512.20	715.95
512.56	720.95
512.92	726.48
513.28	730.62
513.64	734.38
514.00	739.05
514.37	744.24
514.73	748.43
515.09	753.10
515.45	756.33
515.81	759.29
516.17	763.57
516.53	767.57
516.89	769.81
517.25	773.57
517.61	777.90
517.97	783.05
518.33	786.86
518.69	791.76
519.05	795.57
519.41	799.48
519.77	805.43
520.13	809.24
520.49	812.14
520.85	814.71
521.21	820.48
521.57	823.48
521.93	826.10
522.29	828.48
522.65	830.52
523.01	834.19
523.37	837.62
523.73	839.57
524.09	842.57
524.45	845.24
524.81	847.71
525.17	849.76
525.53	850.86
525.89	852.62
526.25	853.90
526.61	855.86
526.97	856.90
527.33	857.33
527.68	861.00
528.04	861.90
528.40	862.86
528.76	863.43
529.12	864.81
529.48	867.00
529.84	868.05
530.20	870.48
530.56	872.43
530.91	873.90
531.27	875.90
531.63	876.29
531.99	877.62
532.35	878.90
532.71	879.43
533.07	881.10
533.42	885.29
533.78	887.05
534.14	888.19
534.50	889.38
534.86	891.38
535.21	889.90
535.57	892.67
535.93	894.24
536.29	895.86
536.65	897.24
537.00	897.29
537.36	900.33
537.72	901.95
538.08	903.71
538.44	904.48
538.79	907.10
539.15	910.14
539.51	912.57
539.87	915.14
540.22	917.48
540.58	919.43
540.94	919.52
541.29	921.14
541.65	923.33
542.01	925.38
542.37	926.86
542.72	928.05
543.08	927.48
543.44	929.43
543.79	928.14
544.15	928.90
544.51	929.81
544.87	928.76
545.22	927.33
545.58	925.38
545.94	924.90
546.29	922.86
546.65	919.81
547.01	917.29
547.36	914.95
547.72	912.19
548.07	910.14
548.43	907.10
548.79	903.24
549.14	899.43
549.50	896.62
549.86	891.81
550.21	889.43
550.57	887.14
550.92	883.67
551.28	883.19
551.64	879.62
551.99	877.24
552.35	874.62
552.70	872.29
553.06	870.67
553.41	867.62
553.77	866.52
554.13	864.43
554.48	862.95
554.84	860.24
555.19	858.14
555.55	858.24
555.90	855.29
556.26	852.86
556.61	850.71
556.97	847.81
557.32	847.19
557.68	845.38
558.03	844.00
558.39	843.00
558.74	840.05
559.10	838.52
559.45	836.38
559.81	835.95
560.16	834.00
560.52	831.38
560.87	830.00
561.23	826.76
561.58	826.48
561.94	823.95
562.29	822.19
562.64	821.33
563.00	816.48
563.35	815.52
563.71	814.38
564.06	813.33
564.42	812.00
564.77	809.48
565.12	808.19
565.48	808.86
565.83	807.33
566.19	805.43
566.54	804.38
566.89	802.90
567.25	801.38
567.60	801.57
567.96	803.76
568.31	803.67
568.66	803.38
569.02	800.29
569.37	799.76
569.72	799.76
570.08	797.90
570.43	797.33
570.78	795.71
571.14	795.05
571.49	793.76
571.84	792.29
572.20	791.90
572.55	790.29
572.90	787.14
573.26	785.33
573.61	784.10
573.96	783.10
574.31	782.33
574.67	780.81
575.02	778.19
575.37	773.57
575.72	770.90
576.08	769.24
576.43	768.71
576.78	766.71
577.13	764.67
577.49	763.86
577.84	762.71
578.19	761.52
578.54	760.52
578.90	759.62
579.25	758.67
579.60	756.62
579.95	755.29
580.30	754.29
580.66	753.05
581.01	751.38
581.36	748.62
581.71	746.76
582.06	746.48
582.42	745.48
582.77	743.76
583.12	742.76
583.47	741.38
583.82	740.71
584.17	739.33
584.53	738.24
584.88	736.43
585.23	735.10
585.58	733.05
585.93	730.86
586.28	729.24
586.63	727.76
586.98	726.81
587.34	724.76
587.69	721.14
588.04	718.86
588.39	716.90
588.74	714.62
589.09	712.95
589.44	707.90
589.79	704.67
590.14	701.95
590.49	698.57
590.84	694.95
591.19	691.33
591.54	688.24
591.89	684.00
592.25	682.29
592.60	678.24
592.95	675.24
593.30	672.33
593.65	668.48
594.00	664.52
594.35	667.71
594.70	663.90
595.05	661.38
595.40	658.19
595.75	655.00
596.10	652.10
596.45	648.38
596.80	646.29
597.15	643.62
597.50	640.81
597.85	639.29
598.19	636.67
598.54	633.62
598.89	630.90
599.24	628.71
599.59	624.52
599.94	621.81
600.29	618.86
600.64	615.76
600.99	613.76
601.34	612.00
601.69	602.43
602.04	600.67
602.39	597.86
602.74	596.05
603.08	593.86
603.43	593.14
603.78	590.90
604.13	588.81
604.48	587.52
604.83	586.90
605.18	585.86
605.53	585.67
605.87	587.10
606.22	590.19
606.57	594.67
606.92	599.48
607.27	605.29
607.62	611.71
607.96	617.57
608.31	621.76
608.66	625.67
609.01	629.29
609.36	632.52
609.70	636.76
610.05	639.43
610.40	642.10
610.75	643.62
611.10	646.52
611.44	647.81
611.79	647.33
612.14	646.67
612.49	644.81
612.83	642.76
613.18	638.95
613.53	633.71
613.88	626.62
614.22	618.38
614.57	610.43
614.92	601.43
615.27	592.67
615.61	585.00
615.96	577.48
616.31	570.81
616.65	564.52
617.00	557.33
617.35	551.00
617.70	545.19
618.04	539.52
618.39	533.76
618.74	529.76
619.08	526.38
619.43	522.86
619.78	519.19
620.12	515.95
620.47	513.95
620.82	511.00
621.16	507.86
621.51	507.24
621.85	504.10
622.20	501.67
622.55	499.14
622.89	497.43
623.24	495.24
623.59	492.52
623.93	490.38
624.28	488.43
624.62	489.24
624.97	488.86
625.32	486.71
625.66	484.52
626.01	482.00
626.35	479.90
626.70	478.05
627.04	478.05
627.39	476.33
627.73	474.62
628.08	472.95
628.43	470.95
628.77	467.57
629.12	465.81
629.46	464.10
629.81	462.14
630.15	459.24
630.50	457.33
630.84	455.81
631.19	453.24
631.53	451.24
631.88	446.14
632.22	441.95
632.57	440.33
632.91	438.05
633.26	436.10
633.60	433.71
633.95	431.14
634.29	427.38
634.64	424.95
634.98	421.67
635.32	419.14
635.67	417.48
636.01	415.43
636.36	413.86
636.70	412.43
637.05	411.24
637.39	409.48
637.73	407.90
638.08	406.71
638.42	405.14
638.77	403.33
639.11	401.71
639.45	400.38
639.80	398.00
640.14	396.95
640.49	395.14
640.83	393.90
641.17	392.57
641.52	391.00
641.86	389.71
642.20	389.43
642.55	387.52
642.89	386.14
643.23	385.19
643.58	384.90
643.92	382.81
644.26	380.90
644.61	381.00
644.95	379.76
645.29	378.14
645.64	378.19
645.98	377.19
646.32	376.71
646.66	375.52
647.01	374.57
647.35	373.24
647.69	372.90
648.04	372.62
648.38	372.00
648.72	371.48
649.06	370.10
649.41	367.90
649.75	367.48
650.09	366.95
650.43	365.76
650.78	363.43
651.12	362.52
651.46	361.48
651.80	359.81
652.14	358.81
652.49	358.38
652.83	356.29
653.17	355.29
653.51	354.33
653.85	353.90
654.20	353.19
654.54	351.81
654.88	349.43
655.22	347.19
655.56	345.90
655.90	344.43
656.25	343.48
656.59	343.14
656.93	342.43
657.27	342.10
657.61	341.14
657.95	340.90
658.29	340.48
658.64	340.67
658.98	339.71
659.32	338.52
659.66	337.24
660.00	336.76
660.34	335.95
660.68	334.62
661.02	333.33
661.36	332.33
661.70	331.43
662.05	331.24
662.39	331.62
662.73	331.57
663.07	332.57
663.41	332.33
663.75	331.10
664.09	330.29
664.43	328.57
664.77	327.76
665.11	326.95
665.45	326.24
665.79	325.86
666.13	325.19
666.47	324.00
666.81	323.57
667.15	322.43
667.49	322.00
667.83	321.90
668.17	321.14
668.51	320.29
668.85	320.38
669.19	320.62
669.53	319.24
669.87	317.95
670.21	315.86
670.55	314.90
670.89	315.71
671.23	315.14
671.57	314.76
671.91	314.62
672.25	313.86
672.58	314.05
672.92	312.33
673.26	311.62
673.60	312.10
673.94	311.19
674.28	311.05
674.62	310.76
674.96	309.95
675.30	309.81
675.64	309.95
675.97	309.05
676.31	307.86
676.65	307.19
676.99	307.38
677.33	307.10
677.67	307.00
678.01	305.19
678.34	304.57
678.68	304.71
679.02	303.57
679.36	303.00
679.70	301.48
680.04	301.38
680.37	301.10
680.71	300.14
681.05	299.90
681.39	299.38
681.73	298.57
682.06	298.05
682.40	297.62
682.74	297.43
683.08	298.00
683.42	297.71
683.75	297.81
684.09	296.90
684.43	296.33
684.77	295.57
685.10	295.24
685.44	294.90
685.78	294.10
686.12	293.86
686.45	293.48
686.79	293.10
687.13	292.57
687.46	291.86
687.80	292.29
688.14	291.33
688.48	291.29
688.81	291.19
689.15	291.29
689.49	291.10
689.82	290.71
690.16	289.14
690.50	288.71
690.83	288.10
691.17	287.29
691.51	287.00
691.84	286.86
692.18	286.29
692.52	285.95
692.85	285.57
693.19	285.95
693.52	285.48
693.86	285.05
694.20	284.67
694.53	284.52
694.87	283.76
695.21	283.48
695.54	283.05
695.88	282.43
696.21	281.19
696.55	280.62
696.88	280.00
697.22	279.71
697.56	279.43
697.89	278.81
698.23	278.86
698.56	278.05
698.90	277.95
699.23	277.81
699.57	277.52
699.90	277.05
700.24	276.19
700.58	276.29
700.91	276.38
701.25	278.52
701.58	279.33
701.92	279.71
702.25	280.24
702.59	280.29
702.92	280.19
703.26	280.95
703.59	281.48
703.93	283.81
704.26	284.71
704.60	285.19
704.93	285.76
705.26	286.00
705.60	286.76
705.93	286.33
706.27	287.38
706.60	288.48
706.94	289.76
707.27	290.19
707.61	290.48
707.94	290.81
708.27	288.81
708.61	287.76
708.94	287.29
709.28	286.90
709.61	286.33
709.94	286.00
710.28	285.38
710.61	284.52
710.95	281.52
711.28	282.29
711.61	281.24
711.95	281.00
712.28	279.76
712.61	279.19
712.95	280.10
713.28	279.95
713.61	278.29
713.95	276.81
714.28	275.76
714.61	274.52
714.95	273.57
715.28	272.24
715.61	271.57
715.95	271.24
716.28	270.43
716.61	270.38
716.95	269.62
717.28	268.90
717.61	268.48
717.94	267.71
718.28	265.38
718.61	265.19
718.94	264.19
719.27	263.71
719.61	263.57
719.94	262.52
720.27	260.95
720.60	260.48
720.94	259.90
721.27	259.67
721.60	259.76
721.93	259.10
722.27	260.00
722.60	260.48
722.93	259.62
723.26	259.67
723.59	258.86
723.93	259.24
724.26	259.29
724.59	258.81
724.92	259.05
725.25	259.86
725.59	259.19
725.92	259.57
726.25	259.67
726.58	259.29
726.91	259.05
727.24	259.43
727.57	259.38
727.91	259.05
728.24	259.33
728.57	258.90
728.90	259.38
729.23	258.57
729.56	259.05
729.89	259.24
730.22	258.90
730.55	258.71
730.89	258.43
731.22	257.81
731.55	257.71
731.88	257.76
732.21	256.95
732.54	257.00
732.87	256.52
733.20	256.67
733.53	256.76
733.86	256.57
734.19	256.24
734.52	256.48
734.85	258.10
735.18	257.76
735.51	258.57
735.84	258.38
736.17	259.00
736.50	257.86
736.83	260.10
737.16	259.95
737.49	260.05
737.82	259.71
738.15	260.29
738.48	260.24
738.81	260.00
739.14	259.67
739.47	259.43
739.80	259.76
740.13	259.52
740.46	259.00
740.79	258.62
741.12	258.57
741.45	258.00
741.78	256.76
742.11	257.38
742.44	256.62
742.77	257.10
743.10	256.29
743.43	256.05
743.75	253.81
744.08	256.86
744.41	256.67
744.74	256.48
745.07	256.05
745.40	256.38
745.73	257.29
746.06	257.43
746.39	257.86
746.71	257.14
747.04	256.95
747.37	256.57
747.70	257.14
748.03	257.10
748.36	257.57
748.68	257.33
749.01	256.62
749.34	256.71
749.67	256.10
750.00	256.86
750.33	258.43
750.65	258.67
750.98	255.76
751.31	255.71
751.64	255.62
751.97	256.95
752.29	256.52
752.62	255.43
752.95	254.95
753.28	254.62
753.60	254.76
753.93	255.38
754.26	255.43
754.59	254.52
754.91	254.00
755.24	253.52
755.57	253.19
755.90	252.86
756.22	252.29
756.55	252.19
756.88	251.43
757.20	249.76
757.53	248.90
757.86	248.86
758.19	249.10
758.51	249.38
758.84	248.19
759.17	247.95
759.49	248.14
759.82	249.43
760.15	249.57
760.47	249.29
760.80	248.48
761.13	249.05
761.45	248.95
761.78	249.05
762.11	249.10
762.43	248.90
762.76	248.95
763.08	249.43
763.41	249.81
763.74	249.95
764.06	249.67
764.39	249.71
764.71	249.33
765.04	248.95
765.37	248.29
765.69	247.95
766.02	248.00
766.34	247.57
766.67	246.71
767.00	246.86
767.32	248.43
767.65	250.10
767.97	250.05
768.30	250.33
768.62	250.48
768.95	250.52
769.27	250.67
769.60	250.76
769.92	250.33
770.25	249.38
770.57	248.48
770.90	248.90
771.22	248.48
771.55	248.52
771.87	248.43
772.20	248.71
772.52	250.86
772.85	253.81
773.17	253.90
773.50	253.24
773.82	252.95
774.15	251.67
774.47	250.05
774.80	249.76
775.12	249.81
775.45	249.33
775.77	249.33
776.09	249.48
776.42	249.76
776.74	250.24
777.07	250.24
777.39	250.71
777.72	250.29
778.04	250.90
778.36	250.43
778.69	250.62
779.01	250.33
779.33	247.81
779.66	244.71
779.98	244.52
780.31	245.00
780.63	246.05
780.95	246.33
781.28	246.29
781.60	245.52
781.92	245.43
782.25	245.71
782.57	245.43
782.89	245.29
783.22	244.76
783.54	244.48
783.86	244.86
784.19	244.57
784.51	245.38
784.83	244.95
785.16	245.14
785.48	245.05
785.80	245.38
786.12	245.81
786.45	246.05
786.77	246.43
787.09	246.14
787.42	244.90
787.74	244.67
788.06	244.43
788.38	244.81
788.71	244.19
789.03	244.14
789.35	244.33
789.67	243.76
789.99	243.57
790.32	243.14
790.64	243.29
790.96	245.29
791.28	244.38
791.61	244.19
791.93	244.10
792.25	244.10
792.57	245.90
792.89	245.52
793.21	245.33
793.54	245.05
793.86	244.81
