SpectraSuite Data File
++++++++++++++++++++++++++++++++++++
Date: Wed Nov 07 18:32:24 EST 2012
User: group
Dark Spectrum Present: No
Reference Spectrum Present: No
Number of Sampled Component Spectra: 1
Spectrometers: USB2E7196
Integration Time (usec): 1000000 (USB2E7196)
Spectra Averaged: 1 (USB2E7196)
Boxcar Smoothing: 10 (USB2E7196)
Correct for Electrical Dark: No (USB2E7196)
Strobe/Lamp Enabled: No (USB2E7196)
Correct for Detector Non-linearity: No (USB2E7196)
Correct for Stray Light: No (USB2E7196)
Number of Pixels in Processed Spectrum: 2048
>>>>>Begin Processed Spectral Data<<<<<
339.09	0.00
339.48	220.00
339.86	216.00
340.24	225.00
340.63	213.00
341.01	259.00
341.39	233.00
341.78	233.00
342.16	241.00
342.54	232.00
342.93	221.90
343.31	232.95
343.69	233.48
344.07	234.24
344.46	234.76
344.84	235.95
345.22	234.71
345.60	234.90
345.99	235.14
346.37	234.86
346.75	234.90
347.13	235.14
347.52	234.95
347.90	235.90
348.28	235.95
348.66	236.57
349.05	235.52
349.43	235.71
349.81	236.10
350.19	236.24
350.57	236.57
350.96	237.43
351.34	237.62
351.72	237.90
352.10	238.19
352.48	238.48
352.87	238.43
353.25	238.67
353.63	238.76
354.01	238.67
354.39	238.76
354.77	239.00
355.15	240.05
355.54	239.95
355.92	239.29
356.30	239.38
356.68	240.86
357.06	241.43
357.44	241.33
357.82	241.19
358.20	241.10
358.58	241.24
358.97	240.86
359.35	241.43
359.73	241.52
360.11	241.43
360.49	241.24
360.87	241.00
361.25	241.24
361.63	241.86
362.01	241.90
362.39	241.95
362.77	242.05
363.15	241.67
363.53	241.81
363.91	241.76
364.29	241.71
364.67	239.38
365.05	239.62
365.43	240.05
365.81	240.38
366.19	240.95
366.57	242.33
366.95	241.90
367.33	241.33
367.71	241.43
368.09	241.95
368.47	241.81
368.85	241.95
369.23	242.38
369.61	241.43
369.99	242.43
370.37	242.62
370.75	243.86
371.13	243.43
371.51	243.14
371.89	243.29
372.27	243.33
372.65	243.76
373.03	243.52
373.41	243.00
373.78	242.76
374.16	242.19
374.54	240.90
374.92	241.05
375.30	241.33
375.68	241.10
376.06	241.10
376.44	241.19
376.82	241.43
377.19	241.29
377.57	241.43
377.95	240.52
378.33	240.33
378.71	238.90
379.09	239.43
379.47	239.71
379.84	239.48
380.22	239.43
380.60	238.62
380.98	238.33
381.36	238.05
381.73	238.00
382.11	238.43
382.49	238.48
382.87	238.24
383.25	237.76
383.62	240.81
384.00	240.19
384.38	240.05
384.76	240.52
385.13	241.43
385.51	241.24
385.89	240.95
386.27	240.95
386.64	241.19
387.02	240.57
387.40	240.43
387.78	240.71
388.15	240.48
388.53	241.00
388.91	241.29
389.29	241.48
389.66	241.90
390.04	241.43
390.42	241.86
390.79	242.19
391.17	242.29
391.55	239.19
391.92	239.33
392.30	239.57
392.68	239.00
393.05	238.43
393.43	238.52
393.81	238.81
394.18	238.52
394.56	238.38
394.94	239.19
395.31	238.81
395.69	239.33
396.06	240.24
396.44	240.19
396.82	240.00
397.19	241.52
397.57	241.10
397.95	241.43
398.32	240.67
398.70	240.71
399.07	241.43
399.45	241.71
399.82	241.76
400.20	241.57
400.58	241.71
400.95	241.29
401.33	242.14
401.70	244.00
402.08	244.48
402.45	244.81
402.83	245.10
403.20	245.81
403.58	245.62
403.95	245.95
404.33	246.57
404.71	247.14
405.08	248.43
405.46	249.05
405.83	249.29
406.21	249.71
406.58	250.19
406.96	250.52
407.33	250.95
407.70	251.67
408.08	254.29
408.45	255.10
408.83	255.95
409.20	256.24
409.58	255.52
409.95	256.57
410.33	257.43
410.70	257.24
411.08	258.48
411.45	259.57
411.82	260.33
412.20	262.05
412.57	264.81
412.95	264.10
413.32	265.62
413.69	267.29
414.07	269.05
414.44	271.14
414.82	273.05
415.19	275.67
415.56	278.10
415.94	279.33
416.31	282.38
416.68	284.90
417.06	288.00
417.43	291.86
417.81	295.05
418.18	298.76
418.55	303.62
418.93	307.52
419.30	311.86
419.67	316.76
420.04	321.48
420.42	325.43
420.79	332.81
421.16	338.67
421.54	346.05
421.91	352.52
422.28	358.95
422.66	365.86
423.03	374.00
423.40	380.62
423.77	387.86
424.15	395.14
424.52	402.67
424.89	411.67
425.26	419.19
425.64	427.14
426.01	435.29
426.38	443.86
426.75	453.52
427.13	462.71
427.50	472.05
427.87	481.48
428.24	491.14
428.61	499.38
428.99	510.33
429.36	520.38
429.73	531.67
430.10	543.10
430.47	555.19
430.85	565.76
431.22	578.71
431.59	594.62
431.96	607.43
432.33	622.76
432.70	637.05
433.08	653.05
433.45	668.62
433.82	683.43
434.19	700.19
434.56	716.38
434.93	731.86
435.30	747.33
435.68	764.62
436.05	781.86
436.42	797.90
436.79	813.90
437.16	830.29
437.53	847.33
437.90	863.62
438.27	880.71
438.64	897.67
439.01	914.48
439.38	925.52
439.75	938.81
440.13	953.81
440.50	967.81
440.87	979.52
441.24	991.19
441.61	1005.00
441.98	1014.19
442.35	1025.10
442.72	1036.76
443.09	1048.14
443.46	1053.43
443.83	1057.14
444.20	1060.71
444.57	1064.62
444.94	1066.29
445.31	1067.86
445.68	1073.29
446.05	1071.81
446.42	1068.29
446.79	1064.29
447.16	1060.95
447.53	1058.29
447.90	1049.86
448.27	1041.24
448.64	1031.14
449.01	1024.10
449.37	1011.33
449.74	999.05
450.11	986.14
450.48	970.19
450.85	954.05
451.22	941.71
451.59	928.81
451.96	916.38
452.33	900.52
452.70	886.38
453.07	868.95
453.43	848.86
453.80	832.90
454.17	818.19
454.54	802.62
454.91	786.57
455.28	771.29
455.65	757.05
456.02	746.71
456.38	734.00
456.75	718.24
457.12	705.57
457.49	693.76
457.86	680.95
458.23	672.00
458.59	660.86
458.96	649.33
459.33	639.86
459.70	629.90
460.07	622.48
460.43	613.05
460.80	605.43
461.17	597.10
461.54	589.62
461.91	581.81
462.27	575.00
462.64	568.33
463.01	561.14
463.38	556.00
463.74	545.52
464.11	539.57
464.48	535.00
464.85	529.76
465.21	525.90
465.58	521.19
465.95	514.48
466.32	510.00
466.68	504.62
467.05	499.95
467.42	495.62
467.78	490.52
468.15	486.43
468.52	483.19
468.88	479.29
469.25	474.67
469.62	471.76
469.98	468.14
470.35	465.29
470.72	461.86
471.08	456.76
471.45	454.76
471.82	452.62
472.18	449.10
472.55	447.00
472.92	443.33
473.28	440.62
473.65	437.95
474.02	435.57
474.38	434.38
474.75	432.57
475.11	430.33
475.48	428.90
475.85	427.05
476.21	425.00
476.58	423.48
476.94	422.29
477.31	421.05
477.67	420.00
478.04	419.29
478.41	418.76
478.77	420.81
479.14	419.33
479.50	418.90
479.87	419.19
480.23	419.29
480.60	419.52
480.96	419.24
481.33	421.19
481.69	421.62
482.06	422.10
482.42	423.14
482.79	424.38
483.15	424.62
483.52	426.24
483.88	427.38
484.25	428.33
484.61	429.76
484.98	430.43
485.34	432.62
485.71	434.00
486.07	435.62
486.44	434.86
486.80	436.71
487.17	437.90
487.53	439.76
487.90	441.62
488.26	443.95
488.62	446.33
488.99	446.86
489.35	448.52
489.72	450.71
490.08	452.00
490.44	453.81
490.81	456.14
491.17	457.43
491.54	459.57
491.90	462.33
492.26	464.48
492.63	467.67
492.99	469.14
493.36	471.95
493.72	474.67
494.08	477.90
494.45	480.67
494.81	484.14
495.17	486.71
495.54	490.24
495.90	492.10
496.26	495.71
496.63	499.43
496.99	503.29
497.35	506.33
497.72	509.67
498.08	513.14
498.44	517.43
498.80	522.71
499.17	526.71
499.53	531.14
499.89	536.24
500.26	540.29
500.62	545.43
500.98	550.52
501.34	554.90
501.71	560.43
502.07	565.24
502.43	569.62
502.79	575.10
503.16	579.48
503.52	585.81
503.88	589.86
504.24	595.52
504.60	600.67
504.97	606.76
505.33	612.71
505.69	618.71
506.05	624.14
506.41	628.57
506.78	634.52
507.14	638.90
507.50	644.38
507.86	650.33
508.22	655.71
508.59	660.86
508.95	666.62
509.31	671.90
509.67	677.10
510.03	682.48
510.39	687.10
510.75	691.81
511.12	696.95
511.48	702.67
511.84	706.90
512.20	711.95
512.56	716.48
512.92	721.19
513.28	725.95
513.64	730.43
514.00	735.62
514.37	740.24
514.73	745.86
515.09	749.90
515.45	753.43
515.81	757.00
516.17	760.95
516.53	764.90
516.89	767.71
517.25	772.24
517.61	777.62
517.97	781.05
518.33	785.52
518.69	789.29
519.05	793.52
519.41	797.52
519.77	802.38
520.13	805.38
520.49	808.57
520.85	811.48
521.21	816.52
521.57	819.86
521.93	821.95
522.29	825.10
522.65	827.05
523.01	829.76
523.37	832.14
523.73	834.86
524.09	837.38
524.45	839.38
524.81	841.33
525.17	842.71
525.53	845.10
525.89	846.52
526.25	848.33
526.61	848.71
526.97	850.48
527.33	851.71
527.68	855.95
528.04	858.38
528.40	860.38
528.76	859.76
529.12	860.33
529.48	862.76
529.84	863.00
530.20	864.81
530.56	866.43
530.91	868.05
531.27	868.81
531.63	870.10
531.99	871.33
532.35	872.33
532.71	873.14
533.07	874.19
533.42	878.24
533.78	879.19
534.14	881.95
534.50	883.14
534.86	884.19
535.21	883.33
535.57	884.00
535.93	884.43
536.29	886.90
536.65	889.10
537.00	890.33
537.36	892.76
537.72	894.81
538.08	897.52
538.44	899.71
538.79	902.19
539.15	903.90
539.51	907.38
539.87	910.24
540.22	912.24
540.58	914.57
540.94	913.95
541.29	916.05
541.65	916.76
542.01	919.43
542.37	920.71
542.72	922.00
543.08	923.00
543.44	924.19
543.79	922.10
544.15	922.33
544.51	922.33
544.87	920.48
545.22	919.62
545.58	916.67
545.94	915.24
546.29	913.10
546.65	910.62
547.01	906.86
547.36	904.00
547.72	900.81
548.07	898.29
548.43	895.10
548.79	891.62
549.14	888.90
549.50	885.24
549.86	881.14
550.21	878.24
550.57	875.19
550.92	872.24
551.28	871.71
551.64	868.86
551.99	866.71
552.35	864.90
552.70	862.24
553.06	860.38
553.41	856.95
553.77	855.67
554.13	854.38
554.48	853.29
554.84	851.76
555.19	849.86
555.55	849.62
555.90	847.67
556.26	846.38
556.61	844.24
556.97	841.86
557.32	840.76
557.68	838.19
558.03	836.05
558.39	834.05
558.74	831.19
559.10	829.29
559.45	827.52
559.81	825.86
560.16	824.05
560.52	822.62
560.87	823.05
561.23	820.86
561.58	821.43
561.94	818.52
562.29	816.81
562.64	816.67
563.00	813.14
563.35	812.10
563.71	810.29
564.06	808.90
564.42	807.10
564.77	805.10
565.12	804.67
565.48	805.67
565.83	804.81
566.19	803.24
566.54	801.71
566.89	799.57
567.25	799.33
567.60	799.52
567.96	801.05
568.31	800.29
568.66	800.24
569.02	796.67
569.37	796.19
569.72	794.38
570.08	791.67
570.43	790.29
570.78	788.62
571.14	787.14
571.49	785.00
571.84	784.57
572.20	783.33
572.55	781.76
572.90	778.48
573.26	776.95
573.61	776.43
573.96	775.43
574.31	774.52
574.67	772.29
575.02	769.81
575.37	766.43
575.72	763.81
576.08	761.14
576.43	759.90
576.78	758.43
577.13	756.38
577.49	755.71
577.84	754.76
578.19	754.24
578.54	753.29
578.90	753.05
579.25	750.67
579.60	749.48
579.95	748.48
580.30	747.43
580.66	746.71
581.01	745.48
581.36	743.48
581.71	741.57
582.06	742.29
582.42	741.10
582.77	738.24
583.12	736.86
583.47	735.48
583.82	733.90
584.17	733.19
584.53	733.81
584.88	731.62
585.23	730.29
585.58	727.81
585.93	724.43
586.28	722.71
586.63	720.86
586.98	719.00
587.34	716.19
587.69	713.52
588.04	710.71
588.39	707.48
588.74	705.38
589.09	702.95
589.44	698.00
589.79	694.62
590.14	692.76
590.49	689.14
590.84	685.14
591.19	681.62
591.54	678.05
591.89	673.14
592.25	672.43
592.60	668.48
592.95	666.00
593.30	664.00
593.65	660.62
594.00	657.76
594.35	661.05
594.70	658.05
595.05	655.24
595.40	652.19
595.75	649.76
596.10	647.14
596.45	644.67
596.80	642.00
597.15	639.62
597.50	636.67
597.85	635.19
598.19	632.95
598.54	630.62
598.89	627.62
599.24	625.52
599.59	621.24
599.94	619.00
600.29	615.67
600.64	613.43
600.99	611.38
601.34	609.29
601.69	600.52
602.04	598.00
602.39	595.05
602.74	593.29
603.08	590.90
603.43	589.43
603.78	587.24
604.13	585.10
604.48	583.52
604.83	582.38
605.18	581.48
605.53	582.14
605.87	583.76
606.22	586.62
606.57	590.38
606.92	594.67
607.27	600.33
607.62	606.38
607.96	611.90
608.31	615.57
608.66	619.62
609.01	623.38
609.36	626.81
609.70	631.24
610.05	633.67
610.40	636.48
610.75	637.48
611.10	639.19
611.44	641.19
611.79	641.90
612.14	641.76
612.49	639.81
612.83	637.38
613.18	633.33
613.53	628.10
613.88	621.24
614.22	614.10
614.57	605.81
614.92	597.52
615.27	589.76
615.61	582.05
615.96	575.29
616.31	568.71
616.65	563.24
617.00	556.43
617.35	550.90
617.70	545.38
618.04	540.24
618.39	535.33
618.74	530.38
619.08	526.19
619.43	522.67
619.78	519.52
620.12	516.62
620.47	514.62
620.82	511.33
621.16	508.81
621.51	507.71
621.85	505.33
622.20	503.05
622.55	500.38
622.89	498.76
623.24	496.48
623.59	494.19
623.93	492.19
624.28	490.10
624.62	489.81
624.97	488.95
625.32	486.71
625.66	485.05
626.01	483.14
626.35	481.52
626.70	479.62
627.04	478.62
627.39	476.67
627.73	475.24
628.08	474.00
628.43	471.71
628.77	468.38
629.12	465.71
629.46	463.19
629.81	460.81
630.15	458.33
630.50	455.71
630.84	453.38
631.19	450.29
631.53	448.00
631.88	443.14
632.22	439.10
632.57	437.33
632.91	435.19
633.26	433.33
633.60	430.33
633.95	428.24
634.29	424.48
634.64	422.29
634.98	419.19
635.32	417.33
635.67	415.86
636.01	413.76
636.36	412.00
636.70	410.86
637.05	408.90
637.39	407.29
637.73	406.05
638.08	404.57
638.42	402.81
638.77	401.38
639.11	400.00
639.45	398.76
639.80	396.71
640.14	394.57
640.49	392.62
640.83	391.48
641.17	389.90
641.52	388.86
641.86	387.67
642.20	387.19
642.55	385.71
642.89	384.71
643.23	383.48
643.58	383.05
643.92	381.33
644.26	380.62
644.61	379.95
644.95	378.71
645.29	377.81
645.64	377.48
645.98	376.05
646.32	375.62
646.66	374.52
647.01	373.86
647.35	373.48
647.69	373.14
648.04	372.14
648.38	371.33
648.72	370.52
649.06	369.29
649.41	367.48
649.75	366.57
650.09	365.81
650.43	364.71
650.78	363.05
651.12	362.10
651.46	361.05
651.80	359.62
652.14	358.29
652.49	357.33
652.83	356.05
653.17	354.95
653.51	353.33
653.85	352.43
654.20	351.43
654.54	349.33
654.88	347.19
655.22	345.95
655.56	344.57
655.90	343.76
656.25	342.76
656.59	341.81
656.93	340.71
657.27	340.38
657.61	339.24
657.95	338.81
658.29	337.57
658.64	336.86
658.98	336.19
659.32	335.33
659.66	334.52
660.00	334.10
660.34	333.57
660.68	332.95
661.02	332.24
661.36	331.43
661.70	331.00
662.05	330.52
662.39	330.71
662.73	330.67
663.07	331.24
663.41	331.14
663.75	330.14
664.09	329.33
664.43	327.43
664.77	327.14
665.11	325.81
665.45	325.24
665.79	324.90
666.13	323.90
666.47	323.24
666.81	322.29
667.15	321.14
667.49	320.43
667.83	320.86
668.17	320.33
668.51	319.43
668.85	318.81
669.19	319.33
669.53	318.14
669.87	317.19
670.21	315.38
670.55	314.52
670.89	315.29
671.23	314.86
671.57	314.86
671.91	314.33
672.25	313.95
672.58	314.43
672.92	312.81
673.26	312.24
673.60	312.24
673.94	311.48
674.28	310.95
674.62	310.90
674.96	309.81
675.30	308.90
675.64	308.71
675.97	308.48
676.31	307.24
676.65	306.67
676.99	306.90
677.33	306.10
677.67	305.95
678.01	304.05
678.34	303.67
678.68	303.00
679.02	301.81
679.36	301.43
679.70	300.29
680.04	299.86
680.37	299.71
680.71	299.05
681.05	298.86
681.39	298.43
681.73	297.52
682.06	296.81
682.40	296.52
682.74	296.10
683.08	296.67
683.42	296.24
683.75	296.24
684.09	294.95
684.43	294.57
684.77	293.33
685.10	293.57
685.44	293.43
685.78	293.24
686.12	293.10
686.45	292.90
686.79	292.10
687.13	292.67
687.46	292.33
687.80	292.43
688.14	291.95
688.48	291.86
688.81	291.52
689.15	292.14
689.49	291.67
689.82	291.38
690.16	290.05
690.50	289.19
690.83	288.43
691.17	287.81
691.51	287.43
691.84	287.76
692.18	286.62
692.52	285.90
692.85	285.62
693.19	286.29
693.52	285.76
693.86	285.71
694.20	285.05
694.53	284.62
694.87	283.48
695.21	282.67
695.54	281.76
695.88	280.86
696.21	279.14
696.55	279.05
696.88	278.33
697.22	278.00
697.56	278.29
697.89	277.48
698.23	277.48
698.56	277.29
698.90	276.95
699.23	277.00
699.57	276.62
699.90	276.00
700.24	275.00
700.58	274.86
700.91	275.14
701.25	276.76
701.58	277.62
701.92	278.76
702.25	279.62
702.59	280.38
702.92	281.29
703.26	282.10
703.59	282.48
703.93	285.48
704.26	286.38
704.60	286.62
704.93	287.29
705.26	287.24
705.60	287.76
705.93	287.57
706.27	288.71
706.60	289.67
706.94	291.14
707.27	291.29
707.61	291.81
707.94	291.76
708.27	290.00
708.61	289.05
708.94	288.43
709.28	287.71
709.61	286.86
709.94	286.38
710.28	285.62
710.61	284.86
710.95	281.81
711.28	282.29
711.61	281.48
711.95	281.14
712.28	280.48
712.61	279.62
712.95	280.29
713.28	280.14
713.61	278.71
713.95	276.81
714.28	276.05
714.61	274.71
714.95	273.57
715.28	272.67
715.61	272.00
715.95	271.62
716.28	271.14
716.61	271.10
716.95	270.48
717.28	269.86
717.61	269.29
717.94	268.71
718.28	266.24
718.61	265.67
718.94	264.71
719.27	264.38
719.61	264.29
719.94	263.10
720.27	261.29
720.60	261.24
720.94	261.00
721.27	260.76
721.60	261.05
721.93	260.81
722.27	261.33
722.60	261.33
722.93	260.67
723.26	260.62
723.59	259.90
723.93	259.76
724.26	260.19
724.59	260.10
724.92	260.05
725.25	260.90
725.59	261.29
725.92	261.57
726.25	261.24
726.58	260.86
726.91	260.48
727.24	260.76
727.57	260.67
727.91	260.14
728.24	260.48
728.57	259.81
728.90	259.86
729.23	259.00
729.56	259.95
729.89	259.81
730.22	259.24
730.55	258.86
730.89	258.76
731.22	258.10
731.55	257.76
731.88	257.67
732.21	256.81
732.54	256.00
732.87	256.29
733.20	256.10
733.53	256.10
733.86	256.43
734.19	256.10
734.52	256.24
734.85	257.81
735.18	257.33
735.51	258.00
735.84	258.19
736.17	258.86
736.50	257.57
736.83	260.43
737.16	260.71
737.49	261.19
737.82	261.10
738.15	261.71
738.48	261.48
738.81	261.29
739.14	261.10
739.47	261.19
739.80	260.67
740.13	261.24
740.46	260.81
740.79	260.10
741.12	260.43
741.45	259.95
741.78	258.71
742.11	259.33
742.44	259.00
742.77	259.19
743.10	258.48
743.43	258.19
743.75	255.48
744.08	258.48
744.41	258.24
744.74	258.10
745.07	257.38
745.40	258.00
745.73	258.71
746.06	258.52
746.39	258.81
746.71	258.33
747.04	257.67
747.37	257.57
747.70	257.76
748.03	257.38
748.36	257.43
748.68	257.00
749.01	256.14
749.34	255.86
749.67	255.52
750.00	255.71
750.33	257.24
750.65	257.10
750.98	253.90
751.31	253.71
751.64	253.48
751.97	254.71
752.29	254.38
752.62	253.67
752.95	253.52
753.28	252.90
753.60	252.86
753.93	253.24
754.26	253.29
754.59	252.81
754.91	252.67
755.24	252.52
755.57	252.33
755.90	251.90
756.22	251.76
756.55	251.29
756.88	250.81
757.20	249.05
757.53	248.29
757.86	248.14
758.19	248.52
758.51	248.71
758.84	247.38
759.17	246.76
759.49	246.52
759.82	247.90
760.15	248.29
760.47	248.33
760.80	247.62
761.13	248.05
761.45	248.14
761.78	247.95
762.11	248.05
762.43	248.38
762.76	248.48
763.08	248.62
763.41	249.00
763.74	249.24
764.06	249.43
764.39	249.67
764.71	249.62
765.04	248.95
765.37	248.62
765.69	248.76
766.02	249.05
766.34	248.76
766.67	247.38
767.00	247.67
767.32	249.00
767.65	250.86
767.97	250.48
768.30	250.62
768.62	250.57
768.95	249.95
769.27	249.38
769.60	249.90
769.92	249.67
770.25	248.95
770.57	248.33
770.90	248.14
771.22	247.86
771.55	247.95
771.87	248.00
772.20	247.43
772.52	249.14
772.85	251.81
773.17	252.14
773.50	252.24
773.82	251.62
774.15	250.29
774.47	248.62
774.80	248.57
775.12	248.48
775.45	248.57
775.77	248.67
776.09	249.19
776.42	248.90
776.74	249.67
777.07	249.67
777.39	249.81
777.72	249.52
778.04	250.00
778.36	249.52
778.69	249.86
779.01	250.33
779.33	248.43
779.66	245.76
779.98	245.29
780.31	245.38
780.63	246.43
780.95	246.81
781.28	246.43
781.60	246.19
781.92	246.00
782.25	246.05
782.57	246.05
782.89	245.90
783.22	245.90
783.54	245.00
783.86	244.95
784.19	244.81
784.51	245.71
784.83	245.29
785.16	245.38
785.48	245.00
785.80	245.10
786.12	244.95
786.45	244.90
786.77	245.29
787.09	245.19
787.42	244.05
787.74	244.19
788.06	244.71
788.38	244.62
788.71	244.38
789.03	244.29
789.35	244.62
789.67	243.90
789.99	243.81
790.32	244.10
790.64	244.43
790.96	246.62
791.28	245.71
791.61	245.48
791.93	245.57
792.25	245.52
792.57	247.19
792.89	246.48
793.21	247.00
793.54	246.71
793.86	246.43
