SpectraSuite Data File
++++++++++++++++++++++++++++++++++++
Date: Wed Nov 07 18:33:21 EST 2012
User: group
Dark Spectrum Present: No
Reference Spectrum Present: No
Number of Sampled Component Spectra: 1
Spectrometers: USB2E7196
Integration Time (usec): 1000000 (USB2E7196)
Spectra Averaged: 1 (USB2E7196)
Boxcar Smoothing: 10 (USB2E7196)
Correct for Electrical Dark: No (USB2E7196)
Strobe/Lamp Enabled: No (USB2E7196)
Correct for Detector Non-linearity: No (USB2E7196)
Correct for Stray Light: No (USB2E7196)
Number of Pixels in Processed Spectrum: 2048
>>>>>Begin Processed Spectral Data<<<<<
339.09	0.00
339.48	217.00
339.86	214.00
340.24	221.00
340.63	227.00
341.01	265.00
341.39	225.00
341.78	234.00
342.16	235.00
342.54	227.00
342.93	221.57
343.31	232.48
343.69	233.38
344.07	234.29
344.46	235.19
344.84	235.67
345.22	233.95
345.60	234.67
345.99	234.90
346.37	235.10
346.75	235.19
347.13	235.57
347.52	235.62
347.90	236.38
348.28	236.38
348.66	236.67
349.05	235.81
349.43	235.95
349.81	236.43
350.19	236.90
350.57	237.29
350.96	237.86
351.34	238.29
351.72	238.05
352.10	238.05
352.48	237.86
352.87	237.71
353.25	238.05
353.63	237.81
354.01	237.52
354.39	238.00
354.77	238.62
355.15	239.19
355.54	238.90
355.92	238.43
356.30	238.76
356.68	240.52
357.06	240.95
357.44	241.00
357.82	240.67
358.20	240.86
358.58	241.00
358.97	241.00
359.35	241.57
359.73	242.43
360.11	242.48
360.49	242.71
360.87	242.76
361.25	242.81
361.63	243.62
362.01	244.10
362.39	243.81
362.77	243.43
363.15	243.14
363.53	243.43
363.91	243.52
364.29	243.43
364.67	240.81
365.05	240.86
365.43	241.10
365.81	241.52
366.19	242.38
366.57	243.24
366.95	243.00
367.33	242.38
367.71	242.00
368.09	242.29
368.47	242.33
368.85	242.48
369.23	243.29
369.61	242.48
369.99	243.05
370.37	242.90
370.75	244.52
371.13	244.33
371.51	244.10
371.89	244.24
372.27	244.33
372.65	244.48
373.03	244.43
373.41	244.24
373.78	244.14
374.16	242.81
374.54	241.86
374.92	241.86
375.30	241.76
375.68	241.29
376.06	241.67
376.44	241.24
376.82	241.38
377.19	240.86
377.57	240.81
377.95	239.95
378.33	239.86
378.71	238.14
379.09	238.29
379.47	238.43
379.84	238.57
380.22	238.10
380.60	238.05
380.98	237.90
381.36	237.52
381.73	237.10
382.11	237.76
382.49	237.90
382.87	237.43
383.25	237.38
383.62	240.33
384.00	239.67
384.38	239.67
384.76	239.95
385.13	241.29
385.51	241.14
385.89	240.90
386.27	241.10
386.64	241.52
387.02	241.38
387.40	241.19
387.78	241.00
388.15	241.29
388.53	241.05
388.91	241.14
389.29	240.95
389.66	241.29
390.04	240.90
390.42	241.05
390.79	241.43
391.17	241.52
391.55	238.81
391.92	238.86
392.30	239.24
392.68	238.76
393.05	238.05
393.43	238.24
393.81	238.33
394.18	237.71
394.56	237.76
394.94	238.38
395.31	238.05
395.69	238.76
396.06	239.33
396.44	239.62
396.82	239.48
397.19	241.10
397.57	240.95
397.95	241.62
398.32	240.81
398.70	241.10
399.07	241.48
399.45	241.24
399.82	241.29
400.20	241.29
400.58	241.29
400.95	240.81
401.33	241.43
401.70	243.19
402.08	243.76
402.45	243.90
402.83	244.57
403.20	245.10
403.58	244.90
403.95	245.05
404.33	245.52
404.71	245.52
405.08	246.86
405.46	247.33
405.83	247.33
406.21	247.86
406.58	248.10
406.96	248.19
407.33	249.19
407.70	250.19
408.08	252.24
408.45	253.29
408.83	254.38
409.20	254.86
409.58	254.33
409.95	255.57
410.33	256.57
410.70	256.29
411.08	257.62
411.45	258.67
411.82	259.52
412.20	260.95
412.57	264.14
412.95	263.29
413.32	265.14
413.69	266.81
414.07	268.67
414.44	270.62
414.82	273.10
415.19	275.67
415.56	277.81
415.94	279.14
416.31	282.38
416.68	285.05
417.06	288.86
417.43	292.33
417.81	295.48
418.18	299.48
418.55	303.95
418.93	307.76
419.30	312.38
419.67	316.71
420.04	321.38
420.42	325.38
420.79	333.71
421.16	338.76
421.54	346.19
421.91	352.81
422.28	359.05
422.66	365.52
423.03	373.62
423.40	380.48
423.77	387.86
424.15	394.62
424.52	402.67
424.89	410.81
425.26	418.33
425.64	426.62
426.01	434.86
426.38	443.29
426.75	453.33
427.13	462.62
427.50	472.62
427.87	482.95
428.24	493.24
428.61	500.38
428.99	513.10
429.36	522.62
429.73	533.67
430.10	544.95
430.47	556.86
430.85	567.76
431.22	581.00
431.59	596.52
431.96	609.81
432.33	623.90
432.70	637.62
433.08	654.52
433.45	669.29
433.82	683.62
434.19	701.24
434.56	716.67
434.93	731.81
435.30	747.52
435.68	764.90
436.05	781.81
436.42	798.33
436.79	813.10
437.16	830.67
437.53	848.19
437.90	865.19
438.27	882.19
438.64	899.52
439.01	915.71
439.38	928.29
439.75	941.19
440.13	956.90
440.50	971.14
440.87	982.19
441.24	994.29
441.61	1008.62
441.98	1016.76
442.35	1028.24
442.72	1039.52
443.09	1050.90
443.46	1056.33
443.83	1059.48
444.20	1063.57
444.57	1067.62
444.94	1068.62
445.31	1070.48
445.68	1075.62
446.05	1075.57
446.42	1071.86
446.79	1068.29
447.16	1063.67
447.53	1061.33
447.90	1052.95
448.27	1045.38
448.64	1035.67
449.01	1028.05
449.37	1016.19
449.74	1004.43
450.11	991.67
450.48	976.62
450.85	960.71
451.22	946.90
451.59	934.76
451.96	921.14
452.33	905.81
452.70	891.67
453.07	874.14
453.43	853.90
453.80	837.24
454.17	821.71
454.54	806.76
454.91	790.81
455.28	775.05
455.65	760.33
456.02	750.48
456.38	738.19
456.75	722.67
457.12	709.10
457.49	697.38
457.86	684.05
458.23	674.62
458.59	663.05
458.96	652.33
459.33	642.14
459.70	633.67
460.07	625.67
460.43	616.57
460.80	608.67
461.17	601.14
461.54	593.81
461.91	586.19
462.27	578.38
462.64	572.76
463.01	565.95
463.38	559.90
463.74	548.71
464.11	542.29
464.48	537.48
464.85	531.57
465.21	526.67
465.58	522.24
465.95	515.57
466.32	510.76
466.68	506.33
467.05	501.86
467.42	496.95
467.78	491.76
468.15	486.71
468.52	483.62
468.88	479.10
469.25	474.62
469.62	472.10
469.98	468.67
470.35	465.14
470.72	462.24
471.08	458.24
471.45	455.38
471.82	453.62
472.18	451.19
472.55	448.81
472.92	446.38
473.28	443.38
473.65	440.86
474.02	439.38
474.38	437.24
474.75	435.33
475.11	433.29
475.48	431.90
475.85	430.95
476.21	429.10
476.58	428.14
476.94	426.52
477.31	424.57
477.67	422.95
478.04	421.95
478.41	421.14
478.77	423.24
479.14	422.29
479.50	421.29
479.87	420.76
480.23	421.29
480.60	421.38
480.96	421.81
481.33	423.00
481.69	422.71
482.06	422.90
482.42	423.57
482.79	424.38
483.15	425.05
483.52	425.95
483.88	426.38
484.25	426.81
484.61	427.86
484.98	429.14
485.34	431.33
485.71	433.14
486.07	433.86
486.44	432.95
486.80	434.29
487.17	435.52
487.53	438.00
487.90	439.24
488.26	441.67
488.62	443.62
488.99	444.71
489.35	446.33
489.72	447.81
490.08	449.43
490.44	450.90
490.81	452.86
491.17	454.81
491.54	457.10
491.90	459.86
492.26	462.33
492.63	464.76
492.99	466.86
493.36	469.29
493.72	472.81
494.08	475.76
494.45	478.86
494.81	483.14
495.17	485.14
495.54	488.67
495.90	491.14
496.26	494.38
496.63	498.48
496.99	502.38
497.35	506.67
497.72	510.90
498.08	515.29
498.44	519.52
498.80	523.86
499.17	528.05
499.53	532.29
499.89	537.38
500.26	542.43
500.62	547.05
500.98	551.86
501.34	557.00
501.71	562.00
502.07	566.81
502.43	570.29
502.79	575.48
503.16	580.38
503.52	585.38
503.88	590.33
504.24	595.76
504.60	600.43
504.97	606.29
505.33	611.05
505.69	617.19
506.05	622.48
506.41	627.71
506.78	632.24
507.14	637.81
507.50	643.62
507.86	648.76
508.22	654.33
508.59	659.14
508.95	664.19
509.31	671.19
509.67	676.90
510.03	682.48
510.39	687.81
510.75	693.10
511.12	699.33
511.48	704.52
511.84	709.29
512.20	714.86
512.56	719.43
512.92	725.81
513.28	729.95
513.64	733.95
514.00	738.38
514.37	744.38
514.73	749.05
515.09	753.14
515.45	757.71
515.81	762.43
516.17	767.43
516.53	771.19
516.89	773.10
517.25	777.10
517.61	782.33
517.97	786.00
518.33	789.81
518.69	793.67
519.05	797.95
519.41	801.95
519.77	807.05
520.13	811.10
520.49	812.86
520.85	816.24
521.21	821.43
521.57	825.81
521.93	828.00
522.29	830.86
522.65	833.57
523.01	836.14
523.37	837.67
523.73	840.33
524.09	842.95
524.45	846.38
524.81	848.67
525.17	849.86
525.53	851.81
525.89	853.52
526.25	854.90
526.61	855.29
526.97	856.43
527.33	857.05
527.68	859.95
528.04	862.10
528.40	863.48
528.76	863.95
529.12	864.62
529.48	866.43
529.84	867.86
530.20	868.90
530.56	871.00
530.91	873.57
531.27	874.67
531.63	875.81
531.99	876.48
532.35	877.71
532.71	879.14
533.07	880.24
533.42	884.19
533.78	885.14
534.14	887.33
534.50	888.81
534.86	890.24
535.21	889.71
535.57	891.43
535.93	892.38
536.29	894.24
536.65	894.95
537.00	896.62
537.36	897.86
537.72	899.29
538.08	900.90
538.44	900.67
538.79	902.52
539.15	903.19
539.51	905.48
539.87	906.76
540.22	908.29
540.58	910.52
540.94	909.57
541.29	910.76
541.65	912.19
542.01	914.19
542.37	914.95
542.72	914.81
543.08	914.29
543.44	914.10
543.79	911.86
544.15	912.67
544.51	912.67
544.87	911.95
545.22	911.38
545.58	909.67
545.94	909.43
546.29	907.33
546.65	906.19
547.01	903.29
547.36	901.24
547.72	899.00
548.07	897.10
548.43	894.24
548.79	891.48
549.14	888.48
549.50	885.52
549.86	882.29
550.21	880.76
550.57	878.48
550.92	876.24
551.28	875.38
551.64	872.86
551.99	870.52
552.35	868.00
552.70	865.14
553.06	863.57
553.41	861.57
553.77	861.33
554.13	860.81
554.48	859.90
554.84	859.10
555.19	857.00
555.55	856.14
555.90	855.43
556.26	854.52
556.61	852.38
556.97	849.52
557.32	848.14
557.68	846.43
558.03	844.67
558.39	843.14
558.74	841.38
559.10	839.33
559.45	837.10
559.81	836.05
560.16	834.52
560.52	832.86
560.87	830.48
561.23	827.76
561.58	826.52
561.94	823.57
562.29	821.38
562.64	819.95
563.00	815.76
563.35	813.71
563.71	811.52
564.06	810.14
564.42	809.14
564.77	806.67
565.12	804.95
565.48	805.76
565.83	805.19
566.19	803.86
566.54	802.62
566.89	801.33
567.25	799.81
567.60	799.62
567.96	799.76
568.31	799.86
568.66	799.19
569.02	796.33
569.37	794.95
569.72	794.29
570.08	793.14
570.43	792.76
570.78	790.76
571.14	789.81
571.49	788.38
571.84	786.71
572.20	786.48
572.55	785.24
572.90	781.29
573.26	779.48
573.61	778.24
573.96	776.90
574.31	775.00
574.67	772.52
575.02	770.57
575.37	766.81
575.72	765.05
576.08	762.33
576.43	761.33
576.78	760.43
577.13	758.00
577.49	756.76
577.84	754.67
578.19	753.19
578.54	750.90
578.90	749.76
579.25	748.10
579.60	746.29
579.95	744.05
580.30	743.76
580.66	741.90
581.01	740.10
581.36	737.95
581.71	737.24
582.06	738.00
582.42	735.86
582.77	733.38
583.12	732.00
583.47	730.24
583.82	728.00
584.17	726.38
584.53	725.48
584.88	722.52
585.23	722.24
585.58	719.43
585.93	716.14
586.28	713.52
586.63	711.67
586.98	709.95
587.34	708.48
587.69	705.19
588.04	702.62
588.39	699.48
588.74	697.10
589.09	694.52
589.44	690.00
589.79	687.38
590.14	685.57
590.49	681.90
590.84	678.86
591.19	676.00
591.54	672.67
591.89	668.19
592.25	667.38
592.60	663.29
592.95	661.33
593.30	660.48
593.65	657.90
594.00	654.19
594.35	658.24
594.70	654.90
595.05	651.76
595.40	648.81
595.75	645.71
596.10	643.24
596.45	640.10
596.80	637.33
597.15	634.90
597.50	631.81
597.85	630.29
598.19	627.52
598.54	625.43
598.89	622.48
599.24	620.14
599.59	616.33
599.94	613.43
600.29	610.86
600.64	608.24
600.99	606.57
601.34	604.86
601.69	594.90
602.04	592.95
602.39	590.43
602.74	589.24
603.08	587.81
603.43	586.33
603.78	584.62
604.13	583.48
604.48	581.52
604.83	580.48
605.18	578.57
605.53	578.14
605.87	578.14
606.22	579.52
606.57	582.05
606.92	583.52
607.27	587.05
607.62	590.43
607.96	593.14
608.31	594.71
608.66	596.62
609.01	598.95
609.36	600.29
609.70	602.33
610.05	603.29
610.40	605.05
610.75	605.10
611.10	605.81
611.44	605.19
611.79	604.81
612.14	604.33
612.49	602.05
612.83	600.00
613.18	596.71
613.53	593.57
613.88	588.76
614.22	583.52
614.57	577.05
614.92	570.05
615.27	564.19
615.61	559.19
615.96	554.29
616.31	548.67
616.65	544.05
617.00	539.33
617.35	534.14
617.70	528.57
618.04	524.24
618.39	519.48
618.74	516.57
619.08	513.57
619.43	509.57
619.78	507.05
620.12	504.29
620.47	501.81
620.82	498.05
621.16	494.76
621.51	493.76
621.85	491.52
622.20	490.14
622.55	487.43
622.89	484.76
623.24	482.57
623.59	480.29
623.93	478.67
624.28	476.67
624.62	477.71
624.97	478.00
625.32	475.90
625.66	474.24
626.01	471.48
626.35	469.10
626.70	467.33
627.04	466.33
627.39	464.62
627.73	463.62
628.08	462.19
628.43	460.76
628.77	457.62
629.12	456.05
629.46	454.14
629.81	452.71
630.15	450.90
630.50	448.81
630.84	447.10
631.19	445.00
631.53	443.19
631.88	438.00
632.22	434.48
632.57	433.57
632.91	431.48
633.26	430.05
633.60	428.48
633.95	426.67
634.29	423.86
634.64	421.52
634.98	418.62
635.32	417.57
635.67	416.10
636.01	414.38
636.36	412.71
636.70	411.43
637.05	409.14
637.39	407.10
637.73	405.52
638.08	404.57
638.42	402.52
638.77	400.76
639.11	399.33
639.45	397.52
639.80	395.33
640.14	393.76
640.49	392.10
640.83	390.29
641.17	389.38
641.52	387.90
641.86	386.95
642.20	386.33
642.55	384.05
642.89	382.57
643.23	381.62
643.58	380.90
643.92	378.95
644.26	378.00
644.61	377.71
644.95	376.71
645.29	374.76
645.64	374.38
645.98	373.62
646.32	373.43
646.66	372.52
647.01	371.33
647.35	370.86
647.69	370.38
648.04	369.90
648.38	369.05
648.72	368.43
649.06	367.24
649.41	366.05
649.75	365.33
650.09	364.90
650.43	363.90
650.78	362.38
651.12	361.24
651.46	360.19
651.80	358.48
652.14	356.95
652.49	356.71
652.83	355.14
653.17	354.10
653.51	352.33
653.85	351.24
654.20	350.48
654.54	348.81
654.88	347.00
655.22	345.48
655.56	343.86
655.90	343.00
656.25	342.24
656.59	340.71
656.93	339.57
657.27	338.95
657.61	337.76
657.95	337.05
658.29	336.24
658.64	336.29
658.98	335.38
659.32	334.76
659.66	333.81
660.00	333.33
660.34	332.67
660.68	332.29
661.02	331.71
661.36	330.71
661.70	330.19
662.05	329.48
662.39	329.76
662.73	329.95
663.07	330.57
663.41	329.90
663.75	329.57
664.09	329.38
664.43	327.76
664.77	327.05
665.11	325.95
665.45	325.76
665.79	324.90
666.13	324.62
666.47	324.14
666.81	323.33
667.15	321.95
667.49	321.43
667.83	321.19
668.17	320.00
668.51	319.24
668.85	318.90
669.19	319.62
669.53	318.48
669.87	317.14
670.21	315.24
670.55	314.57
670.89	315.33
671.23	314.43
671.57	313.90
671.91	313.71
672.25	313.52
672.58	313.67
672.92	312.29
673.26	311.52
673.60	311.00
673.94	310.52
674.28	310.24
674.62	309.71
674.96	308.81
675.30	308.43
675.64	308.33
675.97	307.71
676.31	306.14
676.65	305.24
676.99	305.57
677.33	304.86
677.67	304.48
678.01	302.43
678.34	301.81
678.68	301.76
679.02	300.81
679.36	299.81
679.70	298.29
680.04	298.14
680.37	297.67
680.71	296.81
681.05	296.67
681.39	296.62
681.73	296.00
682.06	295.43
682.40	295.52
682.74	294.95
683.08	295.57
683.42	295.19
683.75	295.19
684.09	294.19
684.43	294.19
684.77	293.57
685.10	293.14
685.44	293.00
685.78	292.24
686.12	291.95
686.45	291.90
686.79	291.38
687.13	291.14
687.46	290.86
687.80	291.48
688.14	290.62
688.48	290.33
688.81	290.05
689.15	290.24
689.49	289.67
689.82	289.67
690.16	288.10
690.50	287.67
690.83	287.05
691.17	285.95
691.51	285.62
691.84	285.38
692.18	285.00
692.52	284.57
692.85	284.29
693.19	284.62
693.52	284.19
693.86	283.95
694.20	283.62
694.53	283.14
694.87	282.19
695.21	281.52
695.54	280.81
695.88	280.00
696.21	278.90
696.55	278.38
696.88	277.57
697.22	277.24
697.56	277.67
697.89	277.19
698.23	277.33
698.56	276.48
698.90	276.57
699.23	276.05
699.57	275.86
699.90	275.00
700.24	274.38
700.58	274.43
700.91	274.81
701.25	276.52
701.58	277.14
701.92	277.67
702.25	278.33
702.59	278.38
702.92	278.95
703.26	279.95
703.59	280.14
703.93	282.67
704.26	283.14
704.60	283.57
704.93	283.67
705.26	283.86
705.60	284.76
705.93	284.81
706.27	286.05
706.60	286.95
706.94	288.86
707.27	288.52
707.61	288.48
707.94	288.57
708.27	286.81
708.61	286.00
708.94	285.81
709.28	285.76
709.61	285.24
709.94	284.90
710.28	284.14
710.61	284.43
710.95	281.43
711.28	282.19
711.61	280.81
711.95	281.14
712.28	280.33
712.61	279.33
712.95	279.62
713.28	279.43
713.61	277.90
713.95	276.19
714.28	275.86
714.61	274.86
714.95	273.71
715.28	272.62
715.61	272.10
715.95	271.52
716.28	270.52
716.61	270.81
716.95	269.81
717.28	269.19
717.61	268.33
717.94	268.19
718.28	266.52
718.61	266.43
718.94	265.19
719.27	264.81
719.61	264.81
719.94	263.71
720.27	262.52
720.60	262.14
720.94	262.10
721.27	262.14
721.60	262.52
721.93	262.62
722.27	263.33
722.60	263.52
722.93	263.33
723.26	263.43
723.59	262.81
723.93	263.29
724.26	263.14
724.59	262.90
724.92	262.71
725.25	262.90
725.59	262.57
725.92	263.10
726.25	262.95
726.58	262.67
726.91	262.29
727.24	262.43
727.57	262.33
727.91	261.81
728.24	261.95
728.57	261.24
728.90	261.29
729.23	260.29
729.56	261.19
729.89	261.00
730.22	260.52
730.55	260.05
730.89	259.57
731.22	259.48
731.55	259.19
731.88	259.10
732.21	258.62
732.54	257.86
732.87	257.62
733.20	257.95
733.53	257.90
733.86	258.24
734.19	257.67
734.52	258.19
734.85	259.62
735.18	258.62
735.51	259.57
735.84	259.38
736.17	260.10
736.50	258.62
736.83	260.86
737.16	260.76
737.49	260.90
737.82	260.52
738.15	260.67
738.48	260.38
738.81	260.14
739.14	259.76
739.47	259.86
739.80	259.38
740.13	258.81
740.46	258.24
740.79	257.62
741.12	257.81
741.45	257.14
741.78	255.48
742.11	256.38
742.44	255.67
742.77	256.00
743.10	255.43
743.43	255.29
743.75	252.81
744.08	255.81
744.41	255.48
744.74	255.57
745.07	254.71
745.40	255.19
745.73	256.33
746.06	256.57
746.39	257.14
746.71	257.14
747.04	257.19
747.37	257.29
747.70	257.71
748.03	257.57
748.36	257.86
748.68	257.95
749.01	257.00
749.34	256.81
749.67	256.71
750.00	257.00
750.33	258.86
750.65	258.81
750.98	255.81
751.31	255.95
751.64	256.10
751.97	257.62
752.29	256.90
752.62	255.57
752.95	255.38
753.28	254.76
753.60	254.52
753.93	255.14
754.26	255.05
754.59	254.57
754.91	254.29
755.24	254.00
755.57	253.76
755.90	253.86
756.22	253.67
756.55	253.14
756.88	252.48
757.20	250.62
757.53	250.05
757.86	250.05
758.19	250.00
758.51	249.81
758.84	248.14
759.17	248.29
759.49	248.24
759.82	249.29
760.15	249.38
760.47	249.10
760.80	248.48
761.13	248.76
761.45	248.62
761.78	248.71
762.11	248.67
762.43	248.67
762.76	248.57
763.08	248.86
763.41	248.76
763.74	249.10
764.06	249.10
764.39	249.33
764.71	248.95
765.04	248.57
765.37	248.24
765.69	248.43
766.02	248.38
766.34	248.14
766.67	246.90
767.00	247.38
767.32	248.71
767.65	250.19
767.97	250.14
768.30	250.14
768.62	249.95
768.95	249.57
769.27	249.38
769.60	249.52
769.92	249.05
770.25	248.71
770.57	248.29
770.90	247.90
771.22	247.43
771.55	247.67
771.87	247.95
772.20	247.90
772.52	249.90
772.85	252.67
773.17	252.95
773.50	252.86
773.82	252.33
774.15	250.90
774.47	249.33
774.80	248.90
775.12	248.71
775.45	248.48
775.77	248.86
776.09	248.90
776.42	249.24
776.74	250.10
777.07	250.14
777.39	250.24
777.72	250.10
778.04	250.10
778.36	249.62
778.69	249.76
779.01	249.95
779.33	247.86
779.66	245.24
779.98	244.90
780.31	245.05
780.63	246.33
780.95	247.33
781.28	247.14
781.60	247.05
781.92	247.14
782.25	247.33
782.57	247.14
782.89	247.19
783.22	246.52
783.54	245.62
783.86	245.62
784.19	245.24
784.51	246.29
784.83	246.38
785.16	246.52
785.48	246.43
785.80	246.48
786.12	246.57
786.45	246.38
786.77	246.57
787.09	246.29
787.42	245.29
787.74	244.86
788.06	244.76
788.38	244.67
788.71	244.19
789.03	244.10
789.35	244.57
789.67	244.00
789.99	244.19
790.32	244.19
790.64	244.67
790.96	246.67
791.28	245.71
791.61	245.62
791.93	245.76
792.25	245.86
792.57	247.52
792.89	247.00
793.21	247.10
793.54	247.05
793.86	247.14
