SpectraSuite Data File
++++++++++++++++++++++++++++++++++++
Date: Wed Nov 07 18:32:34 EST 2012
User: group
Dark Spectrum Present: No
Reference Spectrum Present: No
Number of Sampled Component Spectra: 1
Spectrometers: USB2E7196
Integration Time (usec): 1000000 (USB2E7196)
Spectra Averaged: 1 (USB2E7196)
Boxcar Smoothing: 10 (USB2E7196)
Correct for Electrical Dark: No (USB2E7196)
Strobe/Lamp Enabled: No (USB2E7196)
Correct for Detector Non-linearity: No (USB2E7196)
Correct for Stray Light: No (USB2E7196)
Number of Pixels in Processed Spectrum: 2048
>>>>>Begin Processed Spectral Data<<<<<
339.09	0.00
339.48	221.00
339.86	218.00
340.24	225.00
340.63	217.00
341.01	260.00
341.39	225.00
341.78	229.00
342.16	236.00
342.54	230.00
342.93	222.24
343.31	233.05
343.69	233.76
344.07	234.19
344.46	234.90
344.84	236.05
345.22	234.67
345.60	235.38
345.99	235.67
346.37	235.48
346.75	235.62
347.13	235.57
347.52	235.76
347.90	236.71
348.28	236.86
348.66	237.19
349.05	236.33
349.43	236.57
349.81	236.67
350.19	236.57
350.57	236.86
350.96	237.24
351.34	237.95
351.72	237.95
352.10	238.14
352.48	237.76
352.87	237.43
353.25	237.62
353.63	237.29
354.01	237.10
354.39	237.81
354.77	237.71
355.15	238.38
355.54	238.38
355.92	237.67
356.30	237.71
356.68	239.10
357.06	239.33
357.44	238.95
357.82	238.95
358.20	239.48
358.58	239.00
358.97	238.81
359.35	239.14
359.73	239.71
360.11	240.10
360.49	240.62
360.87	241.00
361.25	241.43
361.63	242.48
362.01	243.14
362.39	242.76
362.77	243.48
363.15	243.52
363.53	243.38
363.91	243.38
364.29	243.10
364.67	240.86
365.05	241.14
365.43	241.57
365.81	241.57
366.19	242.57
366.57	243.67
366.95	243.81
367.33	243.38
367.71	243.19
368.09	243.62
368.47	243.29
368.85	242.81
369.23	243.19
369.61	242.19
369.99	242.76
370.37	242.90
370.75	243.86
371.13	243.48
371.51	243.33
371.89	243.90
372.27	244.29
372.65	244.71
373.03	244.52
373.41	244.52
373.78	244.48
374.16	243.29
374.54	242.86
374.92	242.76
375.30	242.57
375.68	242.29
376.06	242.14
376.44	242.10
376.82	242.43
377.19	242.43
377.57	242.10
377.95	241.00
378.33	240.71
378.71	239.00
379.09	238.95
379.47	239.19
379.84	238.86
380.22	238.48
380.60	237.81
380.98	237.71
381.36	237.86
381.73	237.62
382.11	238.33
382.49	238.33
382.87	237.86
383.25	237.71
383.62	240.24
384.00	239.86
384.38	240.10
384.76	240.43
385.13	241.29
385.51	241.48
385.89	241.33
386.27	241.19
386.64	241.76
387.02	242.14
387.40	241.76
387.78	241.86
388.15	242.19
388.53	242.43
388.91	242.52
389.29	242.14
389.66	242.62
390.04	241.71
390.42	242.00
390.79	242.38
391.17	242.52
391.55	240.00
391.92	240.14
392.30	240.38
392.68	240.05
393.05	239.62
393.43	239.48
393.81	239.90
394.18	239.86
394.56	239.76
394.94	239.81
395.31	239.71
395.69	240.38
396.06	240.62
396.44	240.81
396.82	240.52
397.19	242.19
397.57	241.86
397.95	242.86
398.32	242.14
398.70	242.19
399.07	242.67
399.45	242.52
399.82	242.19
400.20	242.05
400.58	242.10
400.95	241.14
401.33	241.90
401.70	243.71
402.08	244.10
402.45	244.48
402.83	245.29
403.20	245.90
403.58	245.52
403.95	246.00
404.33	246.19
404.71	246.62
405.08	247.19
405.46	247.38
405.83	247.48
406.21	247.90
406.58	248.48
406.96	248.95
407.33	249.81
407.70	250.81
408.08	253.14
408.45	253.86
408.83	255.14
409.20	255.43
409.58	254.71
409.95	255.90
410.33	256.90
410.70	256.76
411.08	257.86
411.45	259.14
411.82	260.24
412.20	261.95
412.57	264.62
412.95	264.14
413.32	266.43
413.69	267.62
414.07	269.43
414.44	271.05
414.82	273.10
415.19	275.29
415.56	278.00
415.94	279.14
416.31	282.48
416.68	285.33
417.06	288.86
417.43	292.76
417.81	296.19
418.18	300.43
418.55	304.48
418.93	308.29
419.30	312.62
419.67	316.86
420.04	321.62
420.42	325.81
420.79	333.33
421.16	338.81
421.54	347.00
421.91	353.38
422.28	360.10
422.66	366.67
423.03	374.86
423.40	381.33
423.77	388.10
424.15	394.43
424.52	402.14
424.89	410.86
425.26	418.19
425.64	426.33
426.01	434.00
426.38	442.86
426.75	452.71
427.13	462.38
427.50	471.81
427.87	481.86
428.24	491.48
428.61	499.57
428.99	511.00
429.36	520.62
429.73	532.14
430.10	543.00
430.47	555.67
430.85	566.43
431.22	579.19
431.59	595.48
431.96	608.76
432.33	622.62
432.70	637.29
433.08	653.76
433.45	668.52
433.82	683.81
434.19	701.29
434.56	716.81
434.93	732.33
435.30	748.10
435.68	765.24
436.05	782.24
436.42	798.62
436.79	814.48
437.16	830.76
437.53	847.52
437.90	865.05
438.27	881.29
438.64	898.29
439.01	914.52
439.38	925.76
439.75	939.19
440.13	955.24
440.50	969.10
440.87	980.90
441.24	992.71
441.61	1005.19
441.98	1014.52
442.35	1025.76
442.72	1036.05
443.09	1047.95
443.46	1052.95
443.83	1057.00
444.20	1060.52
444.57	1064.48
444.94	1066.57
445.31	1068.19
445.68	1072.00
446.05	1071.29
446.42	1068.43
446.79	1065.76
447.16	1062.67
447.53	1060.52
447.90	1052.43
448.27	1043.81
448.64	1034.33
449.01	1026.48
449.37	1014.81
449.74	1002.62
450.11	991.14
450.48	975.57
450.85	959.24
451.22	946.62
451.59	933.95
451.96	921.48
452.33	905.14
452.70	890.76
453.07	873.81
453.43	854.10
453.80	838.33
454.17	822.95
454.54	807.62
454.91	791.86
455.28	776.43
455.65	761.67
456.02	752.33
456.38	738.90
456.75	724.62
457.12	711.71
457.49	698.90
457.86	684.43
458.23	675.95
458.59	664.48
458.96	653.43
459.33	643.33
459.70	633.67
460.07	625.52
460.43	616.19
460.80	608.05
461.17	600.48
461.54	592.19
461.91	584.48
462.27	576.48
462.64	569.76
463.01	562.24
463.38	556.71
463.74	545.24
464.11	539.62
464.48	534.29
464.85	528.38
465.21	525.00
465.58	520.76
465.95	514.24
466.32	510.48
466.68	505.86
467.05	501.38
467.42	496.62
467.78	492.62
468.15	488.33
468.52	485.29
468.88	480.62
469.25	476.43
469.62	473.52
469.98	470.14
470.35	466.90
470.72	464.05
471.08	459.24
471.45	456.86
471.82	454.38
472.18	451.10
472.55	449.48
472.92	446.00
473.28	443.24
473.65	440.43
474.02	437.38
474.38	435.62
474.75	433.95
475.11	431.76
475.48	430.05
475.85	428.05
476.21	426.33
476.58	425.29
476.94	424.14
477.31	422.95
477.67	422.00
478.04	421.29
478.41	420.76
478.77	422.81
479.14	422.19
479.50	421.19
479.87	421.05
480.23	420.71
480.60	420.00
480.96	419.86
481.33	421.38
481.69	421.71
482.06	421.86
482.42	422.86
482.79	424.05
483.15	424.52
483.52	426.05
483.88	426.67
484.25	427.95
484.61	429.43
484.98	429.86
485.34	431.67
485.71	433.48
486.07	434.62
486.44	434.52
486.80	435.57
487.17	436.52
487.53	438.33
487.90	440.00
488.26	442.67
488.62	445.14
488.99	445.95
489.35	447.76
489.72	449.33
490.08	450.24
490.44	452.05
490.81	454.62
491.17	456.52
491.54	459.38
491.90	462.48
492.26	464.62
492.63	467.43
492.99	468.90
493.36	471.10
493.72	473.48
494.08	475.52
494.45	478.86
494.81	482.33
495.17	485.71
495.54	489.00
495.90	491.38
496.26	494.81
496.63	499.24
496.99	503.57
497.35	507.86
497.72	512.57
498.08	515.81
498.44	519.71
498.80	524.38
499.17	528.29
499.53	532.10
499.89	537.05
500.26	541.90
500.62	546.62
500.98	551.86
501.34	557.29
501.71	563.00
502.07	567.67
502.43	573.43
502.79	578.14
503.16	583.38
503.52	589.24
503.88	593.29
504.24	598.52
504.60	603.86
504.97	609.00
505.33	613.86
505.69	620.57
506.05	625.43
506.41	630.38
506.78	636.10
507.14	641.24
507.50	646.86
507.86	652.14
508.22	657.90
508.59	662.48
508.95	668.19
509.31	674.10
509.67	679.71
510.03	684.48
510.39	689.62
510.75	694.86
511.12	699.67
511.48	705.81
511.84	710.33
512.20	714.71
512.56	719.48
512.92	724.81
513.28	729.29
513.64	734.33
514.00	739.29
514.37	743.33
514.73	747.67
515.09	752.24
515.45	756.14
515.81	759.76
516.17	763.62
516.53	767.33
516.89	770.00
517.25	773.38
517.61	778.10
517.97	782.67
518.33	786.71
518.69	791.14
519.05	794.19
519.41	798.38
519.77	804.00
520.13	808.57
520.49	811.62
520.85	814.43
521.21	819.10
521.57	822.81
521.93	825.76
522.29	828.71
522.65	829.90
523.01	832.90
523.37	835.43
523.73	838.48
524.09	840.43
524.45	843.00
524.81	845.10
525.17	846.67
525.53	848.95
525.89	849.52
526.25	851.52
526.61	853.24
526.97	853.90
527.33	853.71
527.68	856.33
528.04	857.48
528.40	859.52
528.76	859.95
529.12	860.71
529.48	862.38
529.84	864.00
530.20	866.57
530.56	868.67
530.91	871.05
531.27	872.86
531.63	875.05
531.99	876.10
532.35	878.10
532.71	878.14
533.07	878.43
533.42	883.24
533.78	883.10
534.14	884.90
534.50	885.71
534.86	887.71
535.21	887.48
535.57	889.90
535.93	890.19
536.29	892.86
536.65	894.19
537.00	895.19
537.36	896.43
537.72	898.19
538.08	900.19
538.44	902.10
538.79	904.76
539.15	906.24
539.51	909.38
539.87	911.05
540.22	914.86
540.58	917.19
540.94	917.24
541.29	919.71
541.65	921.24
542.01	924.05
542.37	924.76
542.72	924.38
543.08	923.71
543.44	925.33
543.79	922.67
544.15	922.76
544.51	922.33
544.87	921.90
545.22	920.14
545.58	917.67
545.94	915.29
546.29	913.14
546.65	910.52
547.01	907.33
547.36	904.43
547.72	901.24
548.07	898.33
548.43	894.33
548.79	891.05
549.14	888.00
549.50	885.10
549.86	882.05
550.21	880.43
550.57	878.29
550.92	874.33
551.28	873.43
551.64	870.48
551.99	867.86
552.35	865.62
552.70	863.05
553.06	861.52
553.41	859.81
553.77	858.19
554.13	856.62
554.48	854.86
554.84	853.95
555.19	851.95
555.55	852.19
555.90	850.52
556.26	848.76
556.61	845.90
556.97	843.05
557.32	840.95
557.68	838.14
558.03	837.00
558.39	836.62
558.74	834.24
559.10	833.19
559.45	832.19
559.81	830.43
560.16	828.76
560.52	826.67
560.87	825.52
561.23	822.33
561.58	822.76
561.94	820.48
562.29	818.00
562.64	816.86
563.00	812.81
563.35	811.67
563.71	810.86
564.06	809.81
564.42	808.38
564.77	807.10
565.12	806.86
565.48	807.48
565.83	805.86
566.19	804.90
566.54	801.86
566.89	800.43
567.25	799.95
567.60	799.67
567.96	800.62
568.31	800.38
568.66	800.71
569.02	797.52
569.37	796.43
569.72	795.81
570.08	793.86
570.43	792.57
570.78	790.38
571.14	788.71
571.49	787.62
571.84	786.71
572.20	785.76
572.55	784.43
572.90	780.67
573.26	778.71
573.61	776.67
573.96	776.38
574.31	774.95
574.67	772.81
575.02	771.29
575.37	767.81
575.72	764.76
576.08	762.52
576.43	760.14
576.78	759.67
577.13	757.57
577.49	756.52
577.84	755.10
578.19	754.57
578.54	752.86
578.90	752.05
579.25	751.52
579.60	749.62
579.95	748.24
580.30	747.14
580.66	746.86
581.01	746.29
581.36	745.29
581.71	743.81
582.06	743.71
582.42	742.48
582.77	741.29
583.12	740.81
583.47	739.05
583.82	738.29
584.17	736.33
584.53	736.19
584.88	733.52
585.23	732.62
585.58	730.33
585.93	728.19
586.28	726.10
586.63	723.95
586.98	722.52
587.34	720.38
587.69	716.95
588.04	713.71
588.39	710.38
588.74	707.38
589.09	705.76
589.44	701.19
589.79	698.33
590.14	695.14
590.49	691.19
590.84	687.24
591.19	683.95
591.54	680.81
591.89	676.29
592.25	675.33
592.60	671.81
592.95	669.10
593.30	667.05
593.65	663.33
594.00	659.10
594.35	662.24
594.70	658.14
595.05	656.29
595.40	653.62
595.75	650.43
596.10	647.10
596.45	643.57
596.80	641.38
597.15	638.38
597.50	635.86
597.85	634.90
598.19	633.43
598.54	631.71
598.89	628.38
599.24	626.57
599.59	622.71
599.94	619.71
600.29	617.38
600.64	614.33
600.99	613.10
601.34	611.43
601.69	602.67
602.04	600.57
602.39	597.76
602.74	596.10
603.08	594.67
603.43	594.14
603.78	592.24
604.13	590.33
604.48	588.33
604.83	587.05
605.18	585.52
605.53	585.81
605.87	586.71
606.22	590.48
606.57	594.76
606.92	599.71
607.27	606.00
607.62	611.52
607.96	616.71
608.31	620.71
608.66	624.71
609.01	628.10
609.36	631.71
609.70	635.00
610.05	637.05
610.40	639.52
610.75	640.81
611.10	642.43
611.44	643.43
611.79	644.76
612.14	645.38
612.49	643.33
612.83	640.52
613.18	636.48
613.53	630.67
613.88	623.33
614.22	615.19
614.57	606.29
614.92	597.10
615.27	589.52
615.61	581.62
615.96	574.71
616.31	568.29
616.65	563.10
617.00	556.57
617.35	549.86
617.70	543.86
618.04	538.90
618.39	533.62
618.74	529.43
619.08	525.00
619.43	520.48
619.78	516.81
620.12	513.67
620.47	511.48
620.82	508.81
621.16	506.00
621.51	504.71
621.85	501.95
622.20	500.33
622.55	497.24
622.89	495.29
623.24	492.86
623.59	490.05
623.93	487.33
624.28	485.62
624.62	486.62
624.97	485.81
625.32	482.90
625.66	480.90
626.01	478.67
626.35	476.81
626.70	474.86
627.04	474.62
627.39	473.14
627.73	471.67
628.08	469.43
628.43	467.38
628.77	464.67
629.12	463.24
629.46	461.43
629.81	459.90
630.15	457.67
630.50	455.43
630.84	453.86
631.19	451.62
631.53	449.48
631.88	444.76
632.22	441.10
632.57	439.52
632.91	437.62
633.26	436.05
633.60	433.48
633.95	430.86
634.29	426.90
634.64	424.62
634.98	421.71
635.32	420.62
635.67	418.76
636.01	416.43
636.36	414.52
636.70	412.52
637.05	410.29
637.39	408.24
637.73	406.67
638.08	405.00
638.42	403.00
638.77	401.29
639.11	400.05
639.45	398.62
639.80	396.81
640.14	395.43
640.49	393.19
640.83	391.48
641.17	390.57
641.52	389.38
641.86	387.62
642.20	387.05
642.55	384.52
642.89	383.62
643.23	382.76
643.58	382.00
643.92	380.57
644.26	379.81
644.61	379.71
644.95	379.10
645.29	377.57
645.64	377.24
645.98	376.43
646.32	376.19
646.66	375.76
647.01	375.00
647.35	374.19
647.69	374.10
648.04	373.76
648.38	372.86
648.72	371.86
649.06	370.76
649.41	369.19
649.75	368.33
650.09	367.24
650.43	365.67
650.78	363.95
651.12	363.10
651.46	362.33
651.80	360.43
652.14	358.57
652.49	358.43
652.83	357.00
653.17	355.57
653.51	353.52
653.85	352.52
654.20	351.10
654.54	349.62
654.88	347.62
655.22	345.57
655.56	344.00
655.90	343.33
656.25	342.71
656.59	342.14
656.93	341.48
657.27	341.29
657.61	340.43
657.95	339.95
658.29	338.57
658.64	337.86
658.98	336.90
659.32	336.48
659.66	334.81
660.00	334.05
660.34	333.05
660.68	332.67
661.02	331.76
661.36	330.81
661.70	329.90
662.05	329.19
662.39	329.71
662.73	329.90
663.07	330.38
663.41	329.90
663.75	328.38
664.09	328.10
664.43	327.00
664.77	326.71
665.11	325.62
665.45	325.10
665.79	324.52
666.13	323.38
666.47	322.24
666.81	321.86
667.15	320.38
667.49	320.43
667.83	320.52
668.17	319.57
668.51	319.24
668.85	319.19
669.19	319.52
669.53	318.24
669.87	316.81
670.21	314.95
670.55	314.29
670.89	315.00
671.23	314.19
671.57	313.19
671.91	312.48
672.25	312.10
672.58	312.52
672.92	311.33
673.26	311.43
673.60	311.14
673.94	310.95
674.28	311.19
674.62	310.90
674.96	309.62
675.30	309.48
675.64	308.76
675.97	307.90
676.31	306.86
676.65	306.33
676.99	306.76
677.33	306.14
677.67	305.76
678.01	304.19
678.34	303.71
678.68	304.00
679.02	303.62
679.36	303.24
679.70	302.24
680.04	301.81
680.37	301.24
680.71	300.71
681.05	300.14
681.39	299.57
681.73	298.43
682.06	298.10
682.40	297.86
682.74	297.90
683.08	298.67
683.42	297.52
683.75	297.43
684.09	296.76
684.43	296.71
684.77	296.10
685.10	295.90
685.44	295.43
685.78	294.81
686.12	294.48
686.45	294.24
686.79	293.48
687.13	293.52
687.46	293.10
687.80	293.29
688.14	292.71
688.48	292.57
688.81	292.81
689.15	293.00
689.49	292.14
689.82	292.05
690.16	290.57
690.50	291.00
690.83	290.62
691.17	289.57
691.51	289.29
691.84	289.14
692.18	288.67
692.52	288.14
692.85	287.95
693.19	288.43
693.52	287.86
693.86	287.19
694.20	286.71
694.53	286.43
694.87	285.33
695.21	284.62
695.54	284.10
695.88	283.00
696.21	281.57
696.55	281.57
696.88	280.76
697.22	280.05
697.56	279.43
697.89	278.90
698.23	279.05
698.56	278.29
698.90	278.19
699.23	277.57
699.57	277.81
699.90	277.33
700.24	276.24
700.58	276.33
700.91	276.67
701.25	278.29
701.58	279.14
701.92	280.19
702.25	281.05
702.59	281.00
702.92	281.52
703.26	282.33
703.59	282.67
703.93	285.19
704.26	285.86
704.60	286.38
704.93	286.62
705.26	286.86
705.60	287.81
705.93	287.43
706.27	288.62
706.60	289.43
706.94	290.67
707.27	290.81
707.61	290.71
707.94	290.86
708.27	289.14
708.61	288.38
708.94	287.95
709.28	287.10
709.61	286.62
709.94	286.48
710.28	285.76
710.61	284.95
710.95	282.05
711.28	283.10
711.61	282.24
711.95	282.10
712.28	280.76
712.61	279.62
712.95	280.10
713.28	280.33
713.61	278.57
713.95	276.57
714.28	275.76
714.61	274.95
714.95	274.19
715.28	273.19
715.61	272.38
715.95	271.81
716.28	271.10
716.61	270.71
716.95	269.62
717.28	269.19
717.61	268.95
717.94	268.33
718.28	265.71
718.61	265.19
718.94	264.00
719.27	263.95
719.61	263.95
719.94	262.90
720.27	260.95
720.60	260.90
720.94	260.71
721.27	260.43
721.60	260.52
721.93	260.05
722.27	260.71
722.60	260.95
722.93	260.29
723.26	260.14
723.59	259.76
723.93	259.86
724.26	260.05
724.59	259.48
724.92	259.48
725.25	260.62
725.59	260.48
725.92	260.86
726.25	260.33
726.58	259.95
726.91	259.62
727.24	259.71
727.57	259.33
727.91	259.00
728.24	259.24
728.57	258.86
728.90	259.33
729.23	258.29
729.56	259.14
729.89	259.14
730.22	259.05
730.55	258.86
730.89	258.71
731.22	258.05
731.55	257.71
731.88	257.76
732.21	256.95
732.54	256.90
732.87	256.71
733.20	257.10
733.53	257.29
733.86	257.62
734.19	257.24
734.52	257.24
734.85	259.00
735.18	258.48
735.51	259.14
735.84	258.86
736.17	259.67
736.50	258.05
736.83	261.24
737.16	261.52
737.49	261.62
737.82	261.19
738.15	261.38
738.48	261.52
738.81	261.33
739.14	261.10
739.47	260.81
739.80	260.48
740.13	260.52
740.46	260.10
740.79	259.62
741.12	259.48
741.45	259.29
741.78	257.38
742.11	257.90
742.44	257.38
742.77	257.57
743.10	256.71
743.43	256.95
743.75	253.81
744.08	256.67
744.41	256.57
744.74	256.48
745.07	256.00
745.40	256.43
745.73	257.24
746.06	257.33
746.39	257.76
746.71	257.67
747.04	257.43
747.37	257.19
747.70	257.29
748.03	257.38
748.36	257.76
748.68	257.86
749.01	257.00
749.34	256.43
749.67	256.19
750.00	256.71
750.33	258.38
750.65	258.43
750.98	255.05
751.31	254.81
751.64	255.10
751.97	256.52
752.29	255.95
752.62	254.81
752.95	254.29
753.28	253.95
753.60	253.62
753.93	253.86
754.26	254.19
754.59	253.57
754.91	253.29
755.24	252.76
755.57	252.48
755.90	252.52
756.22	252.62
756.55	252.29
756.88	251.76
757.20	249.81
757.53	249.19
757.86	249.33
758.19	249.62
758.51	249.33
758.84	248.00
759.17	248.10
759.49	248.38
759.82	249.71
760.15	249.67
760.47	249.90
760.80	249.48
761.13	249.43
761.45	249.33
761.78	249.43
762.11	249.62
762.43	249.48
762.76	249.52
763.08	249.71
763.41	250.00
763.74	250.19
764.06	250.10
764.39	250.33
764.71	250.48
765.04	249.90
765.37	249.71
765.69	249.90
766.02	249.57
766.34	249.52
766.67	248.38
767.00	248.48
767.32	249.86
767.65	251.48
767.97	251.29
768.30	251.67
768.62	251.90
768.95	251.52
769.27	251.62
769.60	251.95
769.92	251.33
770.25	250.52
770.57	249.95
770.90	250.00
771.22	249.57
771.55	249.43
771.87	250.00
772.20	250.29
772.52	252.19
772.85	255.57
773.17	255.57
773.50	255.52
773.82	255.38
774.15	253.86
774.47	251.81
774.80	251.33
775.12	250.95
775.45	250.67
775.77	250.71
776.09	250.90
776.42	250.86
776.74	251.33
777.07	251.14
777.39	251.29
777.72	251.00
778.04	251.10
778.36	250.95
778.69	250.57
779.01	250.67
779.33	248.38
779.66	245.29
779.98	244.95
780.31	244.81
780.63	245.57
780.95	246.43
781.28	246.62
781.60	246.43
781.92	246.24
782.25	246.00
782.57	245.95
782.89	245.48
783.22	245.19
783.54	244.86
783.86	245.19
784.19	244.90
784.51	245.71
784.83	245.57
785.16	245.38
785.48	245.33
785.80	245.00
786.12	244.76
786.45	244.43
786.77	244.29
787.09	244.14
787.42	243.43
787.74	243.00
788.06	243.14
788.38	243.05
788.71	242.95
789.03	242.90
789.35	243.05
789.67	242.90
789.99	243.00
790.32	242.76
790.64	243.14
790.96	245.05
791.28	244.10
791.61	243.90
791.93	243.67
792.25	243.52
792.57	245.29
792.89	245.24
793.21	245.43
793.54	245.29
793.86	245.57
