SpectraSuite Data File
++++++++++++++++++++++++++++++++++++
Date: Wed Nov 07 18:32:28 EST 2012
User: group
Dark Spectrum Present: No
Reference Spectrum Present: No
Number of Sampled Component Spectra: 1
Spectrometers: USB2E7196
Integration Time (usec): 1000000 (USB2E7196)
Spectra Averaged: 1 (USB2E7196)
Boxcar Smoothing: 10 (USB2E7196)
Correct for Electrical Dark: No (USB2E7196)
Strobe/Lamp Enabled: No (USB2E7196)
Correct for Detector Non-linearity: No (USB2E7196)
Correct for Stray Light: No (USB2E7196)
Number of Pixels in Processed Spectrum: 2048
>>>>>Begin Processed Spectral Data<<<<<
339.09	0.00
339.48	224.00
339.86	223.00
340.24	219.00
340.63	224.00
341.01	267.00
341.39	231.00
341.78	240.00
342.16	235.00
342.54	233.00
342.93	224.24
343.31	235.29
343.69	235.76
344.07	236.10
344.46	237.05
344.84	237.86
345.22	236.19
345.60	236.67
345.99	236.52
346.37	236.81
346.75	236.81
347.13	237.00
347.52	237.05
347.90	237.71
348.28	237.33
348.66	238.00
349.05	237.43
349.43	238.05
349.81	238.48
350.19	238.14
350.57	238.29
350.96	238.38
351.34	238.62
351.72	238.52
352.10	238.57
352.48	238.48
352.87	238.00
353.25	238.05
353.63	237.71
354.01	237.71
354.39	237.86
354.77	237.81
355.15	238.10
355.54	237.95
355.92	237.29
356.30	237.57
356.68	238.86
357.06	239.10
357.44	238.33
357.82	238.10
358.20	238.52
358.58	238.38
358.97	238.76
359.35	239.38
359.73	240.00
360.11	240.00
360.49	239.71
360.87	239.95
361.25	240.33
361.63	241.00
362.01	241.24
362.39	241.38
362.77	241.67
363.15	241.67
363.53	241.76
363.91	242.00
364.29	242.05
364.67	239.86
365.05	239.95
365.43	240.71
365.81	241.43
366.19	242.52
366.57	243.43
366.95	243.10
367.33	242.43
367.71	242.52
368.09	243.43
368.47	243.90
368.85	243.81
369.23	244.38
369.61	243.62
369.99	244.71
370.37	244.67
370.75	245.86
371.13	245.29
371.51	245.33
371.89	245.24
372.27	245.43
372.65	245.52
373.03	245.62
373.41	245.24
373.78	245.05
374.16	243.76
374.54	243.05
374.92	242.90
375.30	242.90
375.68	242.38
376.06	242.33
376.44	241.90
376.82	242.00
377.19	241.76
377.57	241.67
377.95	240.62
378.33	240.52
378.71	239.14
379.09	239.48
379.47	239.43
379.84	239.10
380.22	238.81
380.60	238.52
380.98	238.38
381.36	238.14
381.73	237.29
382.11	237.62
382.49	237.67
382.87	237.81
383.25	237.86
383.62	240.76
384.00	240.14
384.38	240.57
384.76	241.00
385.13	241.90
385.51	242.33
385.89	241.90
386.27	241.90
386.64	242.57
387.02	242.57
387.40	242.52
387.78	242.95
388.15	242.86
388.53	242.81
388.91	242.71
389.29	242.71
389.66	243.24
390.04	242.86
390.42	243.33
390.79	243.10
391.17	243.10
391.55	240.29
391.92	240.38
392.30	240.48
392.68	240.00
393.05	239.67
393.43	239.52
393.81	239.76
394.18	239.43
394.56	239.19
394.94	239.76
395.31	239.62
395.69	240.38
396.06	240.81
396.44	241.10
396.82	241.14
397.19	242.29
397.57	242.10
397.95	242.67
398.32	242.10
398.70	242.24
399.07	242.67
399.45	242.43
399.82	242.43
400.20	241.95
400.58	242.38
400.95	241.38
401.33	242.10
401.70	243.76
402.08	243.81
402.45	244.14
402.83	244.43
403.20	244.81
403.58	244.57
403.95	245.19
404.33	245.57
404.71	245.71
405.08	247.10
405.46	247.57
405.83	247.95
406.21	248.43
406.58	248.95
406.96	249.33
407.33	250.29
407.70	250.90
408.08	253.67
408.45	254.71
408.83	256.10
409.20	256.24
409.58	255.48
409.95	256.90
410.33	257.81
410.70	258.00
411.08	259.48
411.45	260.81
411.82	261.43
412.20	263.33
412.57	266.00
412.95	265.38
413.32	267.52
413.69	268.48
414.07	270.19
414.44	272.43
414.82	274.33
415.19	276.76
415.56	279.33
415.94	280.00
416.31	282.38
416.68	285.19
417.06	288.57
417.43	292.33
417.81	296.05
418.18	299.90
418.55	304.00
418.93	307.71
419.30	311.71
419.67	316.57
420.04	320.86
420.42	325.19
420.79	333.14
421.16	338.95
421.54	346.81
421.91	353.14
422.28	359.10
422.66	365.52
423.03	373.67
423.40	380.76
423.77	388.14
424.15	395.43
424.52	403.38
424.89	412.14
425.26	420.14
425.64	428.05
426.01	436.00
426.38	445.48
426.75	454.81
427.13	463.81
427.50	473.14
427.87	482.76
428.24	492.33
428.61	500.14
428.99	511.43
429.36	521.19
429.73	532.33
430.10	544.52
430.47	557.14
430.85	567.71
431.22	580.57
431.59	596.52
431.96	609.95
432.33	624.00
432.70	636.90
433.08	653.10
433.45	667.43
433.82	683.62
434.19	699.86
434.56	715.67
434.93	731.57
435.30	746.67
435.68	763.86
436.05	780.24
436.42	796.62
436.79	811.24
437.16	828.14
437.53	844.48
437.90	860.71
438.27	877.05
438.64	894.24
439.01	909.86
439.38	921.48
439.75	934.81
440.13	950.10
440.50	965.10
440.87	977.00
441.24	989.00
441.61	1001.33
441.98	1011.29
442.35	1022.86
442.72	1034.86
443.09	1047.19
443.46	1054.05
443.83	1058.81
444.20	1061.86
444.57	1066.38
444.94	1067.67
445.31	1069.38
445.68	1072.95
446.05	1072.48
446.42	1069.14
446.79	1066.48
447.16	1063.48
447.53	1061.57
447.90	1054.00
448.27	1046.38
448.64	1036.10
449.01	1028.24
449.37	1015.52
449.74	1002.76
450.11	991.24
450.48	974.81
450.85	958.10
451.22	944.24
451.59	931.86
451.96	919.14
452.33	903.57
452.70	889.14
453.07	872.71
453.43	853.57
453.80	837.14
454.17	821.43
454.54	806.05
454.91	789.76
455.28	772.71
455.65	757.62
456.02	747.67
456.38	734.86
456.75	720.43
457.12	707.76
457.49	695.95
457.86	680.71
458.23	671.67
458.59	661.00
458.96	649.62
459.33	639.00
459.70	629.57
460.07	621.29
460.43	612.33
460.80	603.95
461.17	596.14
461.54	588.43
461.91	580.76
462.27	572.86
462.64	566.52
463.01	560.19
463.38	554.71
463.74	543.33
464.11	537.81
464.48	532.38
464.85	527.00
465.21	522.95
465.58	518.86
465.95	512.10
466.32	507.52
466.68	502.76
467.05	498.43
467.42	494.14
467.78	489.48
468.15	485.14
468.52	483.00
468.88	478.95
469.25	475.19
469.62	472.62
469.98	469.43
470.35	465.95
470.72	462.43
471.08	458.10
471.45	456.00
471.82	453.00
472.18	449.90
472.55	447.57
472.92	444.00
473.28	441.67
473.65	439.52
474.02	437.10
474.38	435.33
474.75	433.14
475.11	430.67
475.48	429.38
475.85	427.67
476.21	425.14
476.58	424.52
476.94	423.10
477.31	422.14
477.67	421.14
478.04	420.29
478.41	419.67
478.77	421.76
479.14	420.24
479.50	420.00
479.87	419.81
480.23	419.76
480.60	419.38
480.96	419.43
481.33	420.57
481.69	420.76
482.06	421.19
482.42	422.57
482.79	423.95
483.15	424.43
483.52	426.10
483.88	426.71
484.25	427.10
484.61	428.43
484.98	429.24
485.34	431.33
485.71	433.48
486.07	435.19
486.44	433.90
486.80	435.57
487.17	436.57
487.53	438.90
487.90	440.67
488.26	443.29
488.62	445.24
488.99	446.19
489.35	448.62
489.72	450.62
490.08	451.33
490.44	452.76
490.81	455.05
491.17	456.38
491.54	459.14
491.90	461.57
492.26	463.71
492.63	465.86
492.99	467.52
493.36	469.67
493.72	472.52
494.08	476.14
494.45	479.57
494.81	483.05
495.17	485.67
495.54	488.95
495.90	491.95
496.26	495.29
496.63	498.76
496.99	501.57
497.35	504.90
497.72	509.19
498.08	513.14
498.44	517.00
498.80	521.62
499.17	525.57
499.53	529.10
499.89	534.29
500.26	539.38
500.62	543.95
500.98	548.76
501.34	553.19
501.71	558.05
502.07	562.48
502.43	567.19
502.79	572.19
503.16	577.05
503.52	581.67
503.88	586.76
504.24	592.43
504.60	598.00
504.97	604.29
505.33	609.48
505.69	616.29
506.05	621.95
506.41	627.62
506.78	633.33
507.14	639.76
507.50	644.95
507.86	649.24
508.22	655.00
508.59	660.29
508.95	665.90
509.31	671.76
509.67	677.24
510.03	682.43
510.39	687.67
510.75	692.76
511.12	698.71
511.48	703.48
511.84	708.14
512.20	713.86
512.56	717.86
512.92	723.05
513.28	727.38
513.64	731.86
514.00	736.14
514.37	741.10
514.73	744.76
515.09	749.57
515.45	754.90
515.81	758.62
516.17	762.95
516.53	766.76
516.89	769.90
517.25	774.33
517.61	778.95
517.97	782.81
518.33	786.38
518.69	790.38
519.05	794.71
519.41	799.19
519.77	803.33
520.13	807.05
520.49	810.10
520.85	813.38
521.21	818.38
521.57	822.00
521.93	823.67
522.29	827.43
522.65	828.86
523.01	832.05
523.37	834.71
523.73	837.19
524.09	839.57
524.45	841.71
524.81	843.62
525.17	845.38
525.53	848.19
525.89	850.67
526.25	852.62
526.61	854.05
526.97	854.67
527.33	854.81
527.68	858.52
528.04	859.95
528.40	860.33
528.76	860.62
529.12	861.29
529.48	864.24
529.84	864.71
530.20	867.14
530.56	868.48
530.91	869.33
531.27	870.67
531.63	872.24
531.99	872.95
532.35	874.33
532.71	875.48
533.07	876.71
533.42	880.38
533.78	880.62
534.14	881.86
534.50	882.95
534.86	885.38
535.21	884.95
535.57	887.57
535.93	889.05
536.29	890.67
536.65	892.76
537.00	893.00
537.36	894.90
537.72	896.05
538.08	898.52
538.44	900.43
538.79	902.43
539.15	904.48
539.51	907.33
539.87	909.05
540.22	911.81
540.58	913.24
540.94	914.33
541.29	916.76
541.65	918.10
542.01	920.86
542.37	922.52
542.72	922.57
543.08	922.05
543.44	922.90
543.79	922.05
544.15	922.10
544.51	922.33
544.87	921.52
545.22	920.52
545.58	917.71
545.94	915.81
546.29	914.14
546.65	910.86
547.01	907.48
547.36	905.81
547.72	902.00
548.07	900.38
548.43	896.00
548.79	893.24
549.14	890.33
549.50	887.00
549.86	882.71
550.21	880.71
550.57	878.38
550.92	875.57
551.28	874.05
551.64	870.62
551.99	867.86
552.35	865.71
552.70	862.95
553.06	861.43
553.41	859.71
553.77	858.52
554.13	857.76
554.48	856.62
554.84	854.76
555.19	852.81
555.55	851.90
555.90	850.05
556.26	847.57
556.61	846.19
556.97	843.81
557.32	842.05
557.68	840.48
558.03	839.05
558.39	837.62
558.74	834.90
559.10	833.52
559.45	832.10
559.81	830.29
560.16	829.95
560.52	828.10
560.87	826.90
561.23	824.29
561.58	824.05
561.94	822.43
562.29	819.62
562.64	818.24
563.00	814.33
563.35	813.00
563.71	811.62
564.06	809.29
564.42	807.95
564.77	806.48
565.12	805.05
565.48	805.24
565.83	804.33
566.19	803.62
566.54	801.86
566.89	800.29
567.25	799.71
567.60	799.19
567.96	799.90
568.31	800.76
568.66	800.33
569.02	797.38
569.37	796.29
569.72	795.71
570.08	795.29
570.43	794.38
570.78	791.90
571.14	789.81
571.49	789.38
571.84	788.14
572.20	787.10
572.55	785.52
572.90	782.10
573.26	779.48
573.61	777.38
573.96	776.67
574.31	775.95
574.67	774.57
575.02	772.05
575.37	768.19
575.72	764.48
576.08	761.86
576.43	760.76
576.78	759.33
577.13	757.52
577.49	755.67
577.84	754.33
578.19	754.00
578.54	753.76
578.90	752.57
579.25	751.38
579.60	750.10
579.95	748.57
580.30	747.24
580.66	746.38
581.01	745.24
581.36	743.62
581.71	741.90
582.06	741.90
582.42	740.10
582.77	739.00
583.12	738.05
583.47	736.62
583.82	735.29
584.17	734.05
584.53	733.38
584.88	731.43
585.23	730.67
585.58	728.29
585.93	725.19
586.28	722.57
586.63	720.29
586.98	717.71
587.34	715.86
587.69	713.48
588.04	711.95
588.39	709.48
588.74	706.62
589.09	704.81
589.44	700.10
589.79	697.81
590.14	694.48
590.49	690.52
590.84	687.52
591.19	684.14
591.54	680.52
591.89	676.10
592.25	675.52
592.60	670.81
592.95	668.19
593.30	665.86
593.65	663.24
594.00	659.81
594.35	663.67
594.70	660.43
595.05	657.86
595.40	654.29
595.75	650.90
596.10	648.10
596.45	645.24
596.80	642.71
597.15	639.52
597.50	636.81
597.85	635.95
598.19	633.52
598.54	630.62
598.89	628.14
599.24	626.38
599.59	622.14
599.94	620.62
600.29	617.52
600.64	615.00
600.99	613.38
601.34	611.43
601.69	602.43
602.04	599.67
602.39	596.19
602.74	594.52
603.08	592.95
603.43	592.05
603.78	589.19
604.13	587.19
604.48	585.90
604.83	585.48
605.18	584.19
605.53	583.76
605.87	585.48
606.22	588.43
606.57	592.86
606.92	597.00
607.27	602.48
607.62	608.86
607.96	614.14
608.31	617.71
608.66	621.67
609.01	625.43
609.36	629.29
609.70	633.62
610.05	635.43
610.40	637.95
610.75	639.38
611.10	641.38
611.44	642.71
611.79	642.95
612.14	642.10
612.49	639.95
612.83	638.14
613.18	634.14
613.53	628.52
613.88	620.95
614.22	613.14
614.57	603.90
614.92	595.19
615.27	587.71
615.61	580.48
615.96	573.57
616.31	566.43
616.65	560.14
617.00	553.48
617.35	547.86
617.70	542.29
618.04	537.24
618.39	531.81
618.74	527.33
619.08	522.76
619.43	519.00
619.78	515.90
620.12	512.90
620.47	510.14
620.82	506.76
621.16	504.29
621.51	503.48
621.85	501.38
622.20	499.33
622.55	496.05
622.89	493.29
623.24	490.95
623.59	489.00
623.93	487.19
624.28	485.29
624.62	485.48
624.97	484.76
625.32	482.33
625.66	480.67
626.01	478.76
626.35	477.38
626.70	476.24
627.04	475.24
627.39	473.29
627.73	472.05
628.08	470.67
628.43	468.76
628.77	464.95
629.12	462.38
629.46	460.48
629.81	459.24
630.15	457.29
630.50	454.86
630.84	452.95
631.19	450.67
631.53	448.90
631.88	444.52
632.22	440.62
632.57	438.81
632.91	436.52
633.26	434.29
633.60	431.76
633.95	429.05
634.29	425.62
634.64	423.43
634.98	420.48
635.32	418.86
635.67	416.90
636.01	415.38
636.36	413.62
636.70	412.00
637.05	409.48
637.39	407.19
637.73	406.14
638.08	404.67
638.42	402.33
638.77	400.90
639.11	399.19
639.45	397.67
639.80	395.76
640.14	394.71
640.49	393.14
640.83	391.90
641.17	390.95
641.52	389.62
641.86	388.43
642.20	388.52
642.55	386.71
642.89	385.52
643.23	384.05
643.58	383.90
643.92	381.81
644.26	380.95
644.61	380.62
644.95	379.81
645.29	378.38
645.64	378.33
645.98	377.19
646.32	376.95
646.66	376.38
647.01	375.33
647.35	373.95
647.69	373.57
648.04	373.14
648.38	372.10
648.72	371.43
649.06	370.52
649.41	368.29
649.75	367.86
650.09	367.33
650.43	366.67
650.78	365.05
651.12	364.14
651.46	363.43
651.80	362.38
652.14	360.76
652.49	360.05
652.83	358.19
653.17	356.90
653.51	355.00
653.85	353.76
654.20	352.90
654.54	351.48
654.88	349.81
655.22	347.86
655.56	346.38
655.90	346.05
656.25	345.10
656.59	344.43
656.93	343.10
657.27	342.19
657.61	341.29
657.95	341.00
658.29	340.24
658.64	339.81
658.98	338.43
659.32	337.38
659.66	336.24
660.00	335.81
660.34	335.14
660.68	334.81
661.02	334.29
661.36	333.33
661.70	332.62
662.05	331.71
662.39	332.24
662.73	332.57
663.07	332.52
663.41	331.81
663.75	330.71
664.09	329.95
664.43	328.86
664.77	327.95
665.11	326.38
665.45	325.81
665.79	325.19
666.13	324.71
666.47	323.71
666.81	323.52
667.15	322.71
667.49	321.81
667.83	321.67
668.17	320.57
668.51	319.81
668.85	319.71
669.19	320.00
669.53	318.38
669.87	316.86
670.21	315.33
670.55	314.43
670.89	315.14
671.23	314.71
671.57	313.90
671.91	313.52
672.25	313.19
672.58	313.33
672.92	312.14
673.26	311.48
673.60	311.81
673.94	311.14
674.28	310.81
674.62	310.95
674.96	310.14
675.30	310.00
675.64	309.90
675.97	309.33
676.31	308.38
676.65	307.95
676.99	308.52
677.33	307.76
677.67	307.86
678.01	306.24
678.34	305.76
678.68	305.90
679.02	305.38
679.36	304.81
679.70	304.05
680.04	303.76
680.37	303.29
680.71	302.33
681.05	301.90
681.39	301.38
681.73	300.48
682.06	299.76
682.40	299.62
682.74	299.10
683.08	299.48
683.42	299.05
683.75	299.19
684.09	297.86
684.43	297.67
684.77	296.43
685.10	296.14
685.44	296.00
685.78	295.38
686.12	295.19
686.45	294.81
686.79	293.62
687.13	293.67
687.46	293.29
687.80	293.67
688.14	293.19
688.48	292.81
688.81	292.38
689.15	292.67
689.49	291.81
689.82	291.48
690.16	289.90
690.50	289.19
690.83	288.43
691.17	287.62
691.51	287.24
691.84	287.62
692.18	287.33
692.52	286.52
692.85	286.29
693.19	286.71
693.52	286.24
693.86	286.05
694.20	285.57
694.53	285.52
694.87	284.62
695.21	284.14
695.54	283.71
695.88	283.24
696.21	282.00
696.55	281.43
696.88	280.62
697.22	280.29
697.56	280.48
697.89	279.81
698.23	280.29
698.56	279.86
698.90	279.48
699.23	278.76
699.57	278.86
699.90	278.19
700.24	276.95
700.58	277.19
700.91	277.38
701.25	278.81
701.58	279.57
701.92	280.24
702.25	280.43
702.59	280.24
702.92	280.76
703.26	281.38
703.59	281.86
703.93	284.62
704.26	285.43
704.60	285.90
704.93	286.33
705.26	286.24
705.60	286.95
705.93	286.81
706.27	288.00
706.60	288.33
706.94	289.81
707.27	290.05
707.61	290.19
707.94	290.19
708.27	288.76
708.61	287.62
708.94	287.57
709.28	287.43
709.61	287.10
709.94	286.48
710.28	285.67
710.61	285.00
710.95	282.10
711.28	282.86
711.61	281.62
711.95	281.52
712.28	280.29
712.61	279.14
712.95	279.95
713.28	279.81
713.61	278.62
713.95	276.90
714.28	276.38
714.61	275.81
714.95	274.71
715.28	273.19
715.61	272.86
715.95	271.86
716.28	270.86
716.61	270.76
716.95	269.95
717.28	269.71
717.61	269.29
717.94	268.81
718.28	266.86
718.61	266.29
718.94	265.29
719.27	265.10
719.61	264.71
719.94	263.38
720.27	262.29
720.60	262.29
720.94	261.95
721.27	261.67
721.60	261.57
721.93	261.43
722.27	262.19
722.60	262.19
722.93	261.76
723.26	261.48
723.59	261.19
723.93	261.52
724.26	261.62
724.59	261.52
724.92	261.86
725.25	262.00
725.59	262.10
725.92	262.52
726.25	262.43
726.58	262.52
726.91	262.33
727.24	262.19
727.57	261.81
727.91	261.57
728.24	261.76
728.57	261.00
728.90	261.43
729.23	260.43
729.56	261.43
729.89	261.57
730.22	261.67
730.55	261.29
730.89	260.81
731.22	260.10
731.55	260.05
731.88	259.90
732.21	259.48
732.54	259.48
732.87	259.00
733.20	258.76
733.53	258.71
733.86	258.81
734.19	258.76
734.52	259.05
734.85	260.57
735.18	259.86
735.51	260.81
735.84	260.71
736.17	261.57
736.50	259.71
736.83	262.43
737.16	262.43
737.49	262.33
737.82	262.19
738.15	262.43
738.48	262.24
738.81	261.86
739.14	261.90
739.47	261.52
739.80	261.14
740.13	261.67
740.46	261.24
740.79	260.67
741.12	260.38
741.45	260.05
741.78	258.57
742.11	259.10
742.44	258.05
742.77	258.24
743.10	257.62
743.43	257.90
743.75	255.00
744.08	258.05
744.41	257.76
744.74	257.48
745.07	257.10
745.40	257.48
745.73	258.38
746.06	258.00
746.39	258.05
746.71	258.10
747.04	257.62
747.37	257.62
747.70	258.10
748.03	257.90
748.36	258.24
748.68	258.14
749.01	257.48
749.34	257.52
749.67	257.10
750.00	257.52
750.33	259.00
750.65	259.24
750.98	256.10
751.31	256.19
751.64	256.62
751.97	257.67
752.29	257.10
752.62	255.95
752.95	255.71
753.28	255.19
753.60	255.24
753.93	256.00
754.26	255.71
754.59	254.48
754.91	254.24
755.24	254.05
755.57	253.57
755.90	253.48
756.22	253.24
756.55	252.95
756.88	251.95
757.20	250.29
757.53	249.19
757.86	249.14
758.19	249.38
758.51	248.90
758.84	247.76
759.17	247.62
759.49	247.81
759.82	249.24
760.15	249.67
760.47	249.57
760.80	248.52
761.13	249.29
761.45	249.48
761.78	249.19
762.11	249.05
762.43	249.10
762.76	248.95
763.08	248.95
763.41	249.10
763.74	249.33
764.06	249.43
764.39	249.52
764.71	249.48
765.04	249.05
765.37	249.24
765.69	249.19
766.02	249.29
766.34	249.00
766.67	247.86
767.00	248.10
767.32	249.33
767.65	250.86
767.97	250.19
768.30	250.14
768.62	250.33
768.95	250.00
769.27	249.95
769.60	250.38
769.92	250.19
770.25	249.62
770.57	249.33
770.90	249.00
771.22	248.86
771.55	248.71
771.87	248.71
772.20	248.33
772.52	250.52
772.85	253.19
773.17	253.14
773.50	252.90
773.82	252.48
774.15	251.19
774.47	249.33
774.80	249.24
775.12	249.33
775.45	249.05
775.77	249.24
776.09	249.52
776.42	249.43
776.74	250.05
777.07	250.05
777.39	250.05
777.72	249.90
778.04	250.38
778.36	250.10
778.69	250.48
779.01	250.48
779.33	248.05
779.66	244.90
779.98	244.67
780.31	244.48
780.63	245.48
780.95	245.81
781.28	246.10
781.60	245.67
781.92	245.67
782.25	245.81
782.57	245.62
782.89	244.95
783.22	244.76
783.54	244.29
783.86	244.29
784.19	244.10
784.51	245.00
784.83	244.52
785.16	244.48
785.48	244.10
785.80	244.38
786.12	244.62
786.45	245.00
786.77	245.29
787.09	245.38
787.42	244.19
787.74	244.14
788.06	244.19
788.38	244.38
788.71	243.95
789.03	243.95
789.35	244.24
789.67	244.48
789.99	244.48
790.32	244.52
790.64	244.86
790.96	246.90
791.28	246.29
791.61	246.10
791.93	246.43
792.25	246.43
792.57	247.95
792.89	247.48
793.21	247.48
793.54	247.33
793.86	247.00
