SpectraSuite Data File
++++++++++++++++++++++++++++++++++++
Date: Wed Nov 07 18:32:03 EST 2012
User: group
Dark Spectrum Present: No
Reference Spectrum Present: No
Number of Sampled Component Spectra: 1
Spectrometers: USB2E7196
Integration Time (usec): 1000000 (USB2E7196)
Spectra Averaged: 1 (USB2E7196)
Boxcar Smoothing: 10 (USB2E7196)
Correct for Electrical Dark: No (USB2E7196)
Strobe/Lamp Enabled: No (USB2E7196)
Correct for Detector Non-linearity: No (USB2E7196)
Correct for Stray Light: No (USB2E7196)
Number of Pixels in Processed Spectrum: 2048
>>>>>Begin Processed Spectral Data<<<<<
339.09	0.00
339.48	219.00
339.86	222.00
340.24	219.00
340.63	222.00
341.01	261.00
341.39	227.00
341.78	231.00
342.16	233.00
342.54	223.00
342.93	220.81
343.31	231.52
343.69	232.14
344.07	232.57
344.46	233.76
344.84	234.67
345.22	233.33
345.60	233.76
345.99	234.29
346.37	234.24
346.75	234.67
347.13	234.76
347.52	234.90
347.90	235.81
348.28	236.05
348.66	236.43
349.05	235.76
349.43	236.24
349.81	236.62
350.19	236.57
350.57	236.71
350.96	237.10
351.34	237.71
351.72	237.86
352.10	237.86
352.48	237.57
352.87	237.10
353.25	237.14
353.63	237.10
354.01	237.19
354.39	237.57
354.77	237.67
355.15	238.52
355.54	238.38
355.92	237.52
356.30	238.10
356.68	239.86
357.06	239.86
357.44	239.52
357.82	239.48
358.20	239.86
358.58	239.95
358.97	239.95
359.35	240.43
359.73	240.90
360.11	241.38
360.49	241.52
360.87	241.86
361.25	241.86
361.63	242.57
362.01	242.29
362.39	242.43
362.77	242.86
363.15	242.48
363.53	242.90
363.91	243.48
364.29	243.24
364.67	240.86
365.05	241.14
365.43	241.52
365.81	241.81
366.19	242.86
366.57	243.95
366.95	244.14
367.33	243.67
367.71	243.81
368.09	244.29
368.47	244.29
368.85	244.00
369.23	245.00
369.61	244.62
369.99	245.38
370.37	245.24
370.75	246.52
371.13	246.14
371.51	245.90
371.89	245.86
372.27	246.10
372.65	246.62
373.03	246.52
373.41	246.14
373.78	245.86
374.16	244.76
374.54	243.71
374.92	243.33
375.30	243.29
375.68	242.62
376.06	242.29
376.44	242.33
376.82	242.57
377.19	241.95
377.57	241.76
377.95	241.19
378.33	241.14
378.71	239.43
379.09	240.24
379.47	240.62
379.84	240.33
380.22	239.67
380.60	239.29
380.98	239.48
381.36	239.62
381.73	239.81
382.11	240.14
382.49	240.14
382.87	240.00
383.25	239.95
383.62	242.95
384.00	242.67
384.38	242.48
384.76	243.05
385.13	244.10
385.51	244.10
385.89	243.86
386.27	244.05
386.64	244.43
387.02	243.62
387.40	243.24
387.78	243.43
388.15	243.62
388.53	243.38
388.91	243.10
389.29	242.48
389.66	242.62
390.04	242.52
390.42	242.62
390.79	243.00
391.17	243.19
391.55	240.38
391.92	240.52
392.30	240.52
392.68	239.95
393.05	239.90
393.43	239.57
393.81	239.76
394.18	239.43
394.56	239.29
394.94	240.38
395.31	239.90
395.69	240.76
396.06	241.33
396.44	241.71
396.82	241.95
397.19	243.71
397.57	243.33
397.95	243.81
398.32	243.52
398.70	243.43
399.07	243.90
399.45	243.90
399.82	243.90
400.20	243.95
400.58	243.95
400.95	242.90
401.33	243.95
401.70	245.52
402.08	245.71
402.45	245.90
402.83	245.95
403.20	246.43
403.58	245.90
403.95	246.29
404.33	246.67
404.71	246.48
405.08	247.76
405.46	248.29
405.83	248.86
406.21	249.24
406.58	249.71
406.96	249.81
407.33	250.29
407.70	251.14
408.08	253.43
408.45	254.71
408.83	255.86
409.20	256.19
409.58	255.57
409.95	256.86
410.33	258.05
410.70	258.29
411.08	259.86
411.45	261.14
411.82	262.00
412.20	263.81
412.57	266.86
412.95	266.19
413.32	267.81
413.69	268.90
414.07	270.67
414.44	272.24
414.82	274.48
415.19	276.76
415.56	279.00
415.94	280.90
416.31	283.33
416.68	286.14
417.06	289.48
417.43	292.90
417.81	296.10
418.18	299.86
418.55	303.62
418.93	307.62
419.30	311.81
419.67	316.33
420.04	320.48
420.42	324.62
420.79	332.00
421.16	337.62
421.54	344.52
421.91	350.76
422.28	357.29
422.66	363.90
423.03	372.19
423.40	378.38
423.77	385.00
424.15	392.57
424.52	400.14
424.89	408.24
425.26	415.86
425.64	424.00
426.01	432.00
426.38	440.95
426.75	450.76
427.13	460.33
427.50	470.24
427.87	480.05
428.24	489.67
428.61	497.67
428.99	509.52
429.36	520.10
429.73	531.62
430.10	543.48
430.47	555.05
430.85	565.33
431.22	579.33
431.59	594.24
431.96	607.00
432.33	621.05
432.70	636.10
433.08	653.10
433.45	667.81
433.82	683.57
434.19	700.81
434.56	716.19
434.93	731.62
435.30	747.33
435.68	764.76
436.05	781.95
436.42	798.43
436.79	813.95
437.16	829.71
437.53	846.43
437.90	863.71
438.27	880.67
438.64	897.90
439.01	913.05
439.38	926.43
439.75	939.76
440.13	954.81
440.50	967.86
440.87	978.90
441.24	990.62
441.61	1003.43
441.98	1011.95
442.35	1021.81
442.72	1032.62
443.09	1043.67
443.46	1049.33
443.83	1052.90
444.20	1056.90
444.57	1060.43
444.94	1062.00
445.31	1064.05
445.68	1068.00
446.05	1067.38
446.42	1065.10
446.79	1062.90
447.16	1058.52
447.53	1055.86
447.90	1049.67
448.27	1041.95
448.64	1031.62
449.01	1024.71
449.37	1011.90
449.74	1000.48
450.11	990.00
450.48	974.33
450.85	957.67
451.22	945.05
451.59	933.05
451.96	920.19
452.33	904.71
452.70	890.71
453.07	873.95
453.43	853.76
453.80	837.71
454.17	822.48
454.54	806.38
454.91	790.19
455.28	774.24
455.65	759.00
456.02	749.24
456.38	737.00
456.75	721.57
457.12	709.29
457.49	696.67
457.86	682.62
458.23	673.67
458.59	663.48
458.96	652.05
459.33	641.57
459.70	631.24
460.07	622.62
460.43	613.62
460.80	605.38
461.17	598.19
461.54	589.71
461.91	581.57
462.27	574.33
462.64	568.24
463.01	561.71
463.38	555.86
463.74	544.62
464.11	538.67
464.48	533.71
464.85	527.76
465.21	524.29
465.58	519.62
465.95	513.29
466.32	508.57
466.68	503.43
467.05	498.76
467.42	494.62
467.78	490.33
468.15	486.19
468.52	483.05
468.88	478.43
469.25	475.05
469.62	471.76
469.98	468.10
470.35	465.00
470.72	462.19
471.08	457.67
471.45	454.90
471.82	452.67
472.18	449.76
472.55	448.24
472.92	444.62
473.28	442.00
473.65	439.43
474.02	437.14
474.38	435.43
474.75	433.19
475.11	430.71
475.48	429.52
475.85	427.81
476.21	425.19
476.58	424.10
476.94	422.81
477.31	421.62
477.67	420.67
478.04	419.81
478.41	418.76
478.77	420.48
479.14	419.95
479.50	419.05
479.87	418.76
480.23	418.10
480.60	417.76
480.96	417.71
481.33	419.33
481.69	419.43
482.06	419.90
482.42	421.29
482.79	422.57
483.15	423.14
483.52	424.57
483.88	426.05
484.25	426.81
484.61	427.95
484.98	429.19
485.34	431.10
485.71	433.10
486.07	434.62
486.44	433.62
486.80	435.05
487.17	436.43
487.53	438.52
487.90	440.48
488.26	443.38
488.62	445.62
488.99	446.76
489.35	448.62
489.72	450.24
490.08	451.29
490.44	453.05
490.81	455.14
491.17	457.00
491.54	459.95
491.90	463.00
492.26	465.90
492.63	468.29
492.99	469.76
493.36	471.67
493.72	474.57
494.08	478.10
494.45	481.19
494.81	485.29
495.17	488.43
495.54	491.90
495.90	494.43
496.26	498.05
496.63	501.05
496.99	503.90
497.35	507.57
497.72	512.52
498.08	516.29
498.44	520.38
498.80	524.71
499.17	528.19
499.53	531.90
499.89	536.57
500.26	541.00
500.62	546.05
500.98	551.52
501.34	556.14
501.71	561.33
502.07	566.19
502.43	569.81
502.79	573.90
503.16	578.19
503.52	583.38
503.88	587.62
504.24	593.57
504.60	599.57
504.97	605.43
505.33	609.71
505.69	616.67
506.05	621.33
506.41	625.62
506.78	630.48
507.14	635.29
507.50	640.24
507.86	645.90
508.22	651.38
508.59	656.29
508.95	662.05
509.31	668.43
509.67	674.10
510.03	680.05
510.39	685.43
510.75	690.71
511.12	695.90
511.48	701.62
511.84	706.00
512.20	711.00
512.56	716.00
512.92	721.57
513.28	725.67
513.64	730.52
514.00	736.19
514.37	740.62
514.73	745.14
515.09	750.57
515.45	755.00
515.81	758.57
516.17	762.67
516.53	766.14
516.89	768.86
517.25	772.48
517.61	776.67
517.97	780.57
518.33	784.71
518.69	788.90
519.05	792.90
519.41	797.76
519.77	803.05
520.13	806.00
520.49	808.14
520.85	811.57
521.21	816.86
521.57	820.57
521.93	823.90
522.29	827.71
522.65	829.10
523.01	831.14
523.37	833.67
523.73	835.90
524.09	838.90
524.45	841.43
524.81	843.86
525.17	846.24
525.53	848.57
525.89	850.62
526.25	852.43
526.61	853.43
526.97	853.48
527.33	853.33
527.68	857.52
528.04	859.52
528.40	859.81
528.76	859.52
529.12	860.14
529.48	861.67
529.84	862.76
530.20	863.95
530.56	865.81
530.91	868.00
531.27	869.43
531.63	870.19
531.99	870.05
532.35	870.95
532.71	871.24
533.07	871.90
533.42	875.86
533.78	876.29
534.14	878.10
534.50	879.57
534.86	881.57
535.21	880.29
535.57	882.33
535.93	884.00
536.29	886.05
536.65	887.95
537.00	888.86
537.36	890.05
537.72	891.90
538.08	894.29
538.44	896.29
538.79	898.90
539.15	901.14
539.51	904.38
539.87	906.10
540.22	909.48
540.58	912.38
540.94	912.38
541.29	914.52
541.65	915.95
542.01	918.57
542.37	920.33
542.72	921.19
543.08	920.76
543.44	922.14
543.79	921.38
544.15	921.48
544.51	922.67
544.87	922.24
545.22	921.71
545.58	920.14
545.94	917.90
546.29	914.67
546.65	911.76
547.01	908.19
547.36	906.57
547.72	902.71
548.07	899.38
548.43	895.19
548.79	891.71
549.14	888.10
549.50	884.38
549.86	880.05
550.21	877.43
550.57	876.24
550.92	872.14
551.28	869.71
551.64	866.57
551.99	863.52
552.35	860.05
552.70	857.14
553.06	854.24
553.41	852.14
553.77	852.00
554.13	851.14
554.48	850.57
554.84	848.52
555.19	847.10
555.55	847.86
555.90	845.95
556.26	844.62
556.61	843.05
556.97	840.71
557.32	839.00
557.68	837.86
558.03	835.05
558.39	834.24
558.74	832.33
559.10	830.67
559.45	828.95
559.81	828.57
560.16	826.90
560.52	825.76
560.87	824.86
561.23	821.57
561.58	821.29
561.94	818.57
562.29	816.33
562.64	814.52
563.00	810.00
563.35	808.57
563.71	807.33
564.06	805.76
564.42	803.90
564.77	802.19
565.12	800.43
565.48	800.90
565.83	799.33
566.19	797.81
566.54	796.62
566.89	794.38
567.25	794.19
567.60	794.48
567.96	794.95
568.31	794.67
568.66	794.86
569.02	791.81
569.37	791.19
569.72	789.86
570.08	787.86
570.43	787.10
570.78	785.71
571.14	783.95
571.49	783.00
571.84	782.14
572.20	781.19
572.55	779.76
572.90	777.00
573.26	775.67
573.61	774.62
573.96	772.81
574.31	772.14
574.67	769.10
575.02	766.62
575.37	763.48
575.72	760.14
576.08	757.90
576.43	756.67
576.78	754.71
577.13	753.71
577.49	752.81
577.84	751.38
578.19	749.90
578.54	748.90
578.90	747.62
579.25	746.71
579.60	745.90
579.95	744.38
580.30	743.29
580.66	742.10
581.01	740.38
581.36	738.62
581.71	737.00
582.06	736.71
582.42	735.62
582.77	733.86
583.12	733.52
583.47	731.71
583.82	730.00
584.17	728.71
584.53	728.14
584.88	726.90
585.23	725.67
585.58	724.00
585.93	721.43
586.28	718.67
586.63	716.86
586.98	714.62
587.34	712.86
587.69	709.95
588.04	706.90
588.39	705.24
588.74	702.76
589.09	700.76
589.44	696.71
589.79	694.00
590.14	691.14
590.49	688.14
590.84	684.90
591.19	681.81
591.54	679.29
591.89	674.95
592.25	673.57
592.60	669.86
592.95	666.86
593.30	665.00
593.65	662.86
594.00	659.48
594.35	663.33
594.70	659.19
595.05	656.52
595.40	654.62
595.75	651.48
596.10	648.90
596.45	646.14
596.80	644.38
597.15	641.24
597.50	638.62
597.85	636.48
598.19	634.10
598.54	631.43
598.89	628.10
599.24	625.67
599.59	621.67
599.94	619.29
600.29	617.29
600.64	614.38
600.99	612.29
601.34	610.24
601.69	601.00
602.04	599.14
602.39	597.05
602.74	594.71
603.08	592.48
603.43	591.86
603.78	589.57
604.13	587.00
604.48	585.62
604.83	584.62
605.18	583.33
605.53	583.76
605.87	585.19
606.22	588.76
606.57	593.67
606.92	598.38
607.27	604.57
607.62	610.05
607.96	615.19
608.31	619.86
608.66	624.57
609.01	627.71
609.36	631.29
609.70	634.38
610.05	636.14
610.40	639.10
610.75	640.05
611.10	641.76
611.44	642.76
611.79	643.05
612.14	643.00
612.49	641.00
612.83	638.71
613.18	634.62
613.53	629.05
613.88	621.33
614.22	612.90
614.57	604.14
614.92	595.76
615.27	588.29
615.61	579.76
615.96	571.81
616.31	565.14
616.65	559.38
617.00	552.81
617.35	547.38
617.70	541.19
618.04	535.90
618.39	530.76
618.74	527.19
619.08	523.38
619.43	519.52
619.78	516.29
620.12	513.67
620.47	511.38
620.82	508.57
621.16	505.90
621.51	505.05
621.85	502.24
622.20	499.71
622.55	496.43
622.89	494.33
623.24	492.57
623.59	489.95
623.93	488.05
624.28	486.10
624.62	486.76
624.97	486.24
625.32	483.90
625.66	481.90
626.01	479.67
626.35	477.62
626.70	475.76
627.04	474.38
627.39	472.24
627.73	471.38
628.08	469.67
628.43	467.81
628.77	464.57
629.12	462.29
629.46	460.67
629.81	458.81
630.15	457.10
630.50	454.81
630.84	452.86
631.19	450.29
631.53	447.57
631.88	442.14
632.22	437.90
632.57	436.29
632.91	433.95
633.26	431.95
633.60	429.71
633.95	426.90
634.29	424.67
634.64	421.86
634.98	418.33
635.32	416.38
635.67	414.24
636.01	412.14
636.36	410.43
636.70	409.14
637.05	407.19
637.39	405.05
637.73	403.14
638.08	402.76
638.42	400.71
638.77	399.86
639.11	398.52
639.45	397.19
639.80	395.33
640.14	394.43
640.49	392.48
640.83	390.52
641.17	389.90
641.52	388.14
641.86	387.29
642.20	387.10
642.55	384.90
642.89	383.81
643.23	383.10
643.58	382.81
643.92	380.81
644.26	380.05
644.61	379.43
644.95	378.48
645.29	376.76
645.64	377.10
645.98	376.19
646.32	376.05
646.66	375.43
647.01	374.62
647.35	373.71
647.69	373.48
648.04	373.10
648.38	372.05
648.72	371.00
649.06	369.71
649.41	368.10
649.75	367.71
650.09	367.33
650.43	366.24
650.78	364.62
651.12	362.86
651.46	361.57
651.80	359.86
652.14	358.52
652.49	358.14
652.83	355.95
653.17	354.95
653.51	353.38
653.85	352.81
654.20	351.52
654.54	349.81
654.88	347.76
655.22	346.29
655.56	344.86
655.90	344.00
656.25	342.81
656.59	341.76
656.93	340.67
657.27	340.14
657.61	338.86
657.95	338.48
658.29	338.14
658.64	338.19
658.98	337.95
659.32	337.48
659.66	336.00
660.00	335.52
660.34	334.71
660.68	333.90
661.02	332.76
661.36	331.71
661.70	330.90
662.05	330.76
662.39	331.14
662.73	331.10
663.07	332.14
663.41	331.95
663.75	331.00
664.09	330.48
664.43	329.00
664.77	328.48
665.11	327.29
665.45	326.48
665.79	325.52
666.13	324.52
666.47	323.24
666.81	322.33
667.15	321.05
667.49	320.33
667.83	320.24
668.17	319.57
668.51	319.38
668.85	319.14
669.19	319.33
669.53	317.62
669.87	316.62
670.21	314.81
670.55	314.24
670.89	314.90
671.23	314.14
671.57	313.81
671.91	313.52
672.25	312.76
672.58	313.14
672.92	312.24
673.26	311.90
673.60	311.67
673.94	311.24
674.28	311.29
674.62	310.86
674.96	310.33
675.30	309.95
675.64	309.33
675.97	308.67
676.31	307.38
676.65	306.76
676.99	306.71
677.33	305.67
677.67	305.10
678.01	303.10
678.34	302.95
678.68	302.86
679.02	302.14
679.36	301.33
679.70	300.24
680.04	299.76
680.37	299.48
680.71	299.14
681.05	299.10
681.39	298.67
681.73	297.95
682.06	296.86
682.40	296.57
682.74	296.57
683.08	297.38
683.42	296.57
683.75	296.90
684.09	296.14
684.43	296.00
684.77	295.14
685.10	295.48
685.44	294.71
685.78	293.90
686.12	293.29
686.45	293.24
686.79	292.62
687.13	292.48
687.46	291.62
687.80	291.57
688.14	290.71
688.48	290.33
688.81	290.00
689.15	290.48
689.49	289.95
689.82	289.33
690.16	287.62
690.50	287.38
690.83	286.71
691.17	285.43
691.51	284.95
691.84	284.76
692.18	283.95
692.52	283.24
692.85	283.19
693.19	284.14
693.52	283.62
693.86	282.95
694.20	282.76
694.53	282.48
694.87	281.62
695.21	281.05
695.54	280.76
695.88	280.33
696.21	279.52
696.55	279.19
696.88	278.57
697.22	278.43
697.56	278.52
697.89	277.76
698.23	278.48
698.56	277.90
698.90	277.90
699.23	277.48
699.57	277.81
699.90	277.19
700.24	276.19
700.58	276.38
700.91	276.95
701.25	278.29
701.58	279.14
701.92	280.10
702.25	280.81
702.59	280.71
702.92	281.10
703.26	281.14
703.59	281.67
703.93	284.29
704.26	285.00
704.60	285.24
704.93	285.90
705.26	286.05
705.60	287.05
705.93	287.24
706.27	288.48
706.60	289.05
706.94	290.52
707.27	290.33
707.61	290.90
707.94	290.90
708.27	289.43
708.61	288.67
708.94	288.05
709.28	287.62
709.61	286.86
709.94	286.43
710.28	286.00
710.61	285.05
710.95	282.05
711.28	282.76
711.61	281.90
711.95	281.62
712.28	280.52
712.61	279.81
712.95	280.29
713.28	280.19
713.61	279.19
713.95	277.38
714.28	276.81
714.61	275.57
714.95	274.62
715.28	273.52
715.61	272.57
715.95	271.95
716.28	271.10
716.61	271.05
716.95	270.00
717.28	269.62
717.61	269.14
717.94	268.86
718.28	266.48
718.61	266.14
718.94	265.24
719.27	264.86
719.61	264.38
719.94	263.38
720.27	262.10
720.60	261.67
720.94	261.43
721.27	261.29
721.60	261.57
721.93	261.48
722.27	261.86
722.60	262.38
722.93	261.95
723.26	262.10
723.59	261.81
723.93	262.00
724.26	261.86
724.59	261.52
724.92	261.81
725.25	262.33
725.59	262.24
725.92	262.52
726.25	262.43
726.58	262.29
726.91	261.76
727.24	261.90
727.57	261.67
727.91	260.95
728.24	260.90
728.57	260.05
728.90	260.24
729.23	259.24
729.56	259.81
729.89	259.71
730.22	259.14
730.55	258.86
730.89	258.67
731.22	258.24
731.55	258.24
731.88	258.05
732.21	257.71
732.54	257.14
732.87	256.71
733.20	256.90
733.53	256.48
733.86	256.57
734.19	255.67
734.52	255.81
734.85	257.52
735.18	257.00
735.51	257.62
735.84	257.57
736.17	258.52
736.50	257.10
736.83	259.76
737.16	259.76
737.49	259.81
737.82	260.10
738.15	260.81
738.48	260.52
738.81	260.62
739.14	260.29
739.47	260.29
739.80	260.43
740.13	260.43
740.46	260.33
740.79	259.81
741.12	260.38
741.45	259.86
741.78	258.62
742.11	259.10
742.44	258.76
742.77	258.95
743.10	258.14
743.43	258.00
743.75	255.24
744.08	258.43
744.41	258.19
744.74	257.62
745.07	256.71
745.40	257.00
745.73	257.48
746.06	257.43
746.39	257.86
746.71	257.48
747.04	256.95
747.37	256.76
747.70	257.38
748.03	257.24
748.36	257.81
748.68	257.48
749.01	256.90
749.34	256.76
749.67	256.57
750.00	256.90
750.33	258.57
750.65	258.81
750.98	255.62
751.31	255.57
751.64	256.00
751.97	257.38
752.29	257.24
752.62	256.05
752.95	255.57
753.28	255.24
753.60	254.86
753.93	255.43
754.26	255.67
754.59	254.62
754.91	254.05
755.24	253.86
755.57	253.67
755.90	253.48
756.22	253.24
756.55	252.57
756.88	251.95
757.20	250.29
757.53	249.62
757.86	249.62
758.19	249.81
758.51	249.52
758.84	248.38
759.17	248.14
759.49	248.29
759.82	250.00
760.15	249.95
760.47	249.67
760.80	249.10
761.13	249.48
761.45	249.29
761.78	249.48
762.11	249.52
762.43	249.67
762.76	249.52
763.08	249.76
763.41	250.14
763.74	250.48
764.06	250.48
764.39	250.62
764.71	250.19
765.04	249.71
765.37	249.19
765.69	249.14
766.02	249.10
766.34	248.95
766.67	247.57
767.00	248.10
767.32	249.86
767.65	251.33
767.97	251.05
768.30	251.48
768.62	251.05
768.95	250.76
769.27	250.67
769.60	251.14
769.92	250.62
770.25	250.14
770.57	249.48
770.90	249.52
771.22	249.05
771.55	249.24
771.87	249.19
772.20	249.48
772.52	251.38
772.85	254.29
773.17	254.33
773.50	254.38
773.82	253.52
774.15	252.10
774.47	250.29
774.80	249.76
775.12	249.48
775.45	249.43
775.77	249.29
776.09	249.43
776.42	249.57
776.74	250.48
777.07	250.48
777.39	250.67
777.72	250.33
778.04	251.00
778.36	250.71
778.69	250.71
779.01	250.81
779.33	248.52
779.66	245.48
779.98	245.24
780.31	245.14
780.63	246.67
780.95	247.24
781.28	247.29
781.60	247.24
781.92	247.62
782.25	248.00
782.57	248.05
782.89	247.57
783.22	247.00
783.54	246.38
783.86	246.57
784.19	246.33
784.51	246.95
784.83	246.48
785.16	246.43
785.48	246.52
785.80	246.38
786.12	246.81
786.45	247.00
786.77	246.95
787.09	247.00
787.42	245.76
787.74	245.57
788.06	245.38
788.38	245.38
788.71	244.81
789.03	244.81
789.35	245.24
789.67	245.14
789.99	245.57
790.32	245.14
790.64	245.00
790.96	246.95
791.28	246.14
791.61	246.05
791.93	246.14
792.25	245.95
792.57	247.43
792.89	246.48
793.21	246.62
793.54	246.52
793.86	245.57
