SpectraSuite Data File
++++++++++++++++++++++++++++++++++++
Date: Wed Nov 07 18:31:11 EST 2012
User: group
Dark Spectrum Present: No
Reference Spectrum Present: No
Number of Sampled Component Spectra: 1
Spectrometers: USB2E7196
Integration Time (usec): 1000000 (USB2E7196)
Spectra Averaged: 1 (USB2E7196)
Boxcar Smoothing: 10 (USB2E7196)
Correct for Electrical Dark: No (USB2E7196)
Strobe/Lamp Enabled: No (USB2E7196)
Correct for Detector Non-linearity: No (USB2E7196)
Correct for Stray Light: No (USB2E7196)
Number of Pixels in Processed Spectrum: 2048
>>>>>Begin Processed Spectral Data<<<<<
339.09	0.00
339.48	215.00
339.86	219.00
340.24	220.00
340.63	221.00
341.01	260.00
341.39	222.00
341.78	234.00
342.16	237.00
342.54	229.00
342.93	221.24
343.31	232.57
343.69	233.24
344.07	233.86
344.46	234.95
344.84	235.76
345.22	234.38
345.60	235.33
345.99	235.52
346.37	235.62
346.75	235.81
347.13	236.29
347.52	236.52
347.90	237.38
348.28	237.62
348.66	238.29
349.05	237.95
349.43	238.52
349.81	238.95
350.19	239.05
350.57	239.38
350.96	239.95
351.34	239.86
351.72	240.05
352.10	240.29
352.48	239.90
352.87	239.95
353.25	240.24
353.63	240.05
354.01	240.14
354.39	240.29
354.77	240.48
355.15	241.38
355.54	241.14
355.92	240.81
356.30	240.95
356.68	242.14
357.06	242.14
357.44	241.57
357.82	241.52
358.20	241.76
358.58	241.57
358.97	241.62
359.35	242.38
359.73	243.10
360.11	243.29
360.49	243.57
360.87	243.62
361.25	244.10
361.63	244.86
362.01	244.86
362.39	244.76
362.77	244.86
363.15	244.29
363.53	244.05
363.91	244.19
364.29	244.14
364.67	241.81
365.05	241.95
365.43	242.33
365.81	242.86
366.19	243.71
366.57	244.76
366.95	244.90
367.33	244.33
367.71	244.24
368.09	244.33
368.47	244.29
368.85	244.29
369.23	244.33
369.61	243.29
369.99	243.86
370.37	244.19
370.75	245.29
371.13	244.95
371.51	244.81
371.89	244.95
372.27	244.71
372.65	244.95
373.03	244.67
373.41	244.48
373.78	243.90
374.16	242.48
374.54	241.43
374.92	240.90
375.30	240.71
375.68	240.10
376.06	240.00
376.44	239.57
376.82	239.57
377.19	239.24
377.57	239.38
377.95	238.67
378.33	238.19
378.71	237.19
379.09	237.43
379.47	237.90
379.84	237.67
380.22	237.86
380.60	237.67
380.98	237.57
381.36	237.57
381.73	237.29
382.11	238.05
382.49	238.52
382.87	238.05
383.25	238.05
383.62	241.10
384.00	240.52
384.38	240.81
384.76	241.33
385.13	242.48
385.51	242.24
385.89	241.57
386.27	241.90
386.64	241.95
387.02	241.38
387.40	241.24
387.78	241.19
388.15	241.33
388.53	241.43
388.91	241.48
389.29	241.33
389.66	241.95
390.04	241.81
390.42	241.76
390.79	242.14
391.17	242.19
391.55	239.48
391.92	239.71
392.30	240.05
392.68	239.24
393.05	239.24
393.43	239.62
393.81	240.43
394.18	239.67
394.56	239.57
394.94	240.57
395.31	240.48
395.69	241.43
396.06	241.52
396.44	241.57
396.82	241.52
397.19	242.62
397.57	242.29
397.95	242.71
398.32	242.19
398.70	242.33
399.07	243.05
399.45	242.90
399.82	243.48
400.20	243.38
400.58	243.86
400.95	243.14
401.33	243.57
401.70	245.24
402.08	245.90
402.45	246.14
402.83	246.67
403.20	246.76
403.58	246.43
403.95	247.00
404.33	247.48
404.71	247.86
405.08	249.52
405.46	249.76
405.83	250.00
406.21	250.62
406.58	251.29
406.96	251.57
407.33	252.38
407.70	252.62
408.08	254.76
408.45	255.57
408.83	256.62
409.20	256.90
409.58	256.43
409.95	257.62
410.33	258.71
410.70	258.90
411.08	260.52
411.45	261.38
411.82	262.14
412.20	264.05
412.57	266.52
412.95	265.38
413.32	267.33
413.69	269.05
414.07	270.86
414.44	272.52
414.82	274.38
415.19	276.62
415.56	279.00
415.94	280.29
416.31	283.48
416.68	286.24
417.06	289.86
417.43	293.29
417.81	297.00
418.18	300.86
418.55	304.52
418.93	308.48
419.30	312.76
419.67	317.29
420.04	321.67
420.42	326.19
420.79	334.38
421.16	340.38
421.54	347.43
421.91	353.29
422.28	359.52
422.66	366.33
423.03	374.76
423.40	382.05
423.77	389.33
424.15	396.19
424.52	403.81
424.89	412.67
425.26	420.76
425.64	427.95
426.01	435.76
426.38	444.86
426.75	454.19
427.13	463.38
427.50	472.81
427.87	482.62
428.24	492.33
428.61	500.48
428.99	511.19
429.36	521.52
429.73	533.52
430.10	546.05
430.47	559.14
430.85	570.62
431.22	584.86
431.59	601.81
431.96	615.71
432.33	631.19
432.70	645.86
433.08	663.29
433.45	679.48
433.82	695.48
434.19	713.62
434.56	730.00
434.93	745.71
435.30	762.33
435.68	780.10
436.05	796.90
436.42	812.67
436.79	827.86
437.16	844.33
437.53	861.14
437.90	877.43
438.27	893.48
438.64	908.62
439.01	923.00
439.38	933.14
439.75	945.90
440.13	959.48
440.50	972.52
440.87	982.86
441.24	993.71
441.61	1006.57
441.98	1014.48
442.35	1024.57
442.72	1035.76
443.09	1046.67
443.46	1052.33
443.83	1055.86
444.20	1059.38
444.57	1064.05
444.94	1064.76
445.31	1066.38
445.68	1070.33
446.05	1068.57
446.42	1066.43
446.79	1063.43
447.16	1059.81
447.53	1057.38
447.90	1050.57
448.27	1042.90
448.64	1032.19
449.01	1024.67
449.37	1012.43
449.74	999.90
450.11	988.95
450.48	973.76
450.85	956.81
451.22	942.90
451.59	930.57
451.96	918.52
452.33	902.71
452.70	888.76
453.07	871.43
453.43	851.81
453.80	836.33
454.17	821.14
454.54	806.19
454.91	791.00
455.28	775.33
455.65	760.29
456.02	750.76
456.38	739.10
456.75	724.52
457.12	711.76
457.49	700.10
457.86	685.71
458.23	676.24
458.59	665.43
458.96	655.05
459.33	644.90
459.70	635.05
460.07	627.33
460.43	618.19
460.80	611.14
461.17	603.29
461.54	595.19
461.91	587.52
462.27	579.33
462.64	572.81
463.01	565.29
463.38	559.48
463.74	547.48
464.11	541.33
464.48	536.29
464.85	530.38
465.21	526.76
465.58	522.33
465.95	516.10
466.32	512.24
466.68	506.52
467.05	502.10
467.42	497.86
467.78	492.29
468.15	488.05
468.52	484.43
468.88	480.67
469.25	476.90
469.62	474.29
469.98	471.24
470.35	468.14
470.72	465.24
471.08	460.62
471.45	458.90
471.82	456.48
472.18	453.24
472.55	451.19
472.92	447.76
473.28	445.29
473.65	443.14
474.02	440.71
474.38	438.90
474.75	437.62
475.11	435.43
475.48	434.71
475.85	433.52
476.21	431.76
476.58	430.90
476.94	430.48
477.31	428.33
477.67	427.48
478.04	426.67
478.41	426.10
478.77	429.00
479.14	428.10
479.50	427.76
479.87	428.38
480.23	428.48
480.60	429.29
480.96	430.00
481.33	432.43
481.69	434.10
482.06	436.95
482.42	438.33
482.79	440.48
483.15	442.67
483.52	445.48
483.88	447.38
484.25	449.33
484.61	451.19
484.98	454.29
485.34	457.48
485.71	460.29
486.07	463.05
486.44	463.14
486.80	465.19
487.17	467.57
487.53	470.43
487.90	473.33
488.26	476.10
488.62	479.00
488.99	480.43
489.35	481.90
489.72	482.52
490.08	484.05
490.44	485.05
490.81	486.67
491.17	487.76
491.54	489.62
491.90	491.81
492.26	494.00
492.63	495.81
492.99	496.43
493.36	497.76
493.72	499.95
494.08	501.71
494.45	504.14
494.81	506.81
495.17	509.00
495.54	511.67
495.90	513.43
496.26	515.71
496.63	518.14
496.99	520.95
497.35	524.10
497.72	527.86
498.08	531.86
498.44	535.67
498.80	539.48
499.17	542.43
499.53	545.24
499.89	548.81
500.26	552.57
500.62	557.33
500.98	562.43
501.34	566.14
501.71	571.38
502.07	575.86
502.43	579.62
502.79	583.43
503.16	587.33
503.52	591.90
503.88	595.57
504.24	600.48
504.60	605.19
504.97	611.00
505.33	615.48
505.69	620.95
506.05	625.95
506.41	631.43
506.78	636.71
507.14	641.95
507.50	647.14
507.86	652.38
508.22	658.00
508.59	662.24
508.95	667.57
509.31	673.71
509.67	679.10
510.03	684.67
510.39	689.24
510.75	694.57
511.12	700.00
511.48	705.90
511.84	710.52
512.20	715.43
512.56	720.29
512.92	725.00
513.28	729.48
513.64	733.62
514.00	737.43
514.37	743.19
514.73	747.24
515.09	751.76
515.45	755.90
515.81	759.48
516.17	763.43
516.53	766.76
516.89	768.33
517.25	771.95
517.61	776.52
517.97	781.14
518.33	784.57
518.69	788.52
519.05	792.14
519.41	795.67
519.77	800.71
520.13	803.10
520.49	805.43
520.85	808.38
521.21	812.33
521.57	815.86
521.93	817.52
522.29	820.67
522.65	821.90
523.01	824.24
523.37	826.00
523.73	828.24
524.09	830.95
524.45	833.19
524.81	835.10
525.17	836.29
525.53	838.62
525.89	840.43
526.25	841.95
526.61	842.90
526.97	844.19
527.33	844.48
527.68	848.10
528.04	850.05
528.40	851.24
528.76	851.95
529.12	852.95
529.48	854.90
529.84	855.86
530.20	858.52
530.56	860.76
530.91	862.48
531.27	864.29
531.63	866.14
531.99	868.14
532.35	869.67
532.71	870.86
533.07	871.86
533.42	876.29
533.78	877.19
534.14	879.95
534.50	882.05
534.86	884.81
535.21	885.62
535.57	889.52
535.93	891.90
536.29	896.43
536.65	901.24
537.00	906.86
537.36	914.24
537.72	921.67
538.08	930.33
538.44	939.90
538.79	951.57
539.15	962.29
539.51	974.10
539.87	985.76
540.22	998.19
540.58	1011.00
540.94	1021.86
541.29	1034.86
541.65	1046.86
542.01	1059.14
542.37	1070.19
542.72	1078.38
543.08	1083.71
543.44	1089.48
543.79	1091.43
544.15	1094.19
544.51	1095.24
544.87	1094.57
545.22	1092.67
545.58	1087.38
545.94	1080.95
546.29	1072.57
546.65	1063.90
547.01	1053.38
547.36	1043.52
547.72	1032.86
548.07	1021.67
548.43	1008.62
548.79	995.95
549.14	983.33
549.50	971.24
549.86	958.00
550.21	948.00
550.57	939.43
550.92	930.00
551.28	923.76
551.64	915.86
551.99	907.52
552.35	899.38
552.70	891.76
553.06	886.24
553.41	881.19
553.77	877.76
554.13	873.86
554.48	870.67
554.84	866.14
555.19	861.62
555.55	859.29
555.90	855.29
556.26	852.48
556.61	848.00
556.97	843.38
557.32	840.57
557.68	837.33
558.03	834.10
558.39	832.57
558.74	829.10
559.10	826.48
559.45	824.76
559.81	823.52
560.16	821.57
560.52	819.38
560.87	817.24
561.23	813.67
561.58	812.81
561.94	810.48
562.29	809.10
562.64	807.43
563.00	802.76
563.35	802.10
563.71	800.00
564.06	798.62
564.42	797.24
564.77	795.67
565.12	794.71
565.48	796.10
565.83	795.48
566.19	794.19
566.54	792.19
566.89	790.67
567.25	789.90
567.60	790.29
567.96	792.48
568.31	793.05
568.66	792.52
569.02	789.29
569.37	788.19
569.72	787.10
570.08	787.00
570.43	786.67
570.78	784.62
571.14	782.95
571.49	782.57
571.84	782.29
572.20	781.43
572.55	780.38
572.90	777.29
573.26	775.57
573.61	774.71
573.96	774.24
574.31	774.29
574.67	772.95
575.02	771.24
575.37	767.00
575.72	765.57
576.08	764.76
576.43	765.00
576.78	764.00
577.13	763.76
577.49	762.14
577.84	761.81
578.19	762.05
578.54	762.48
578.90	761.90
579.25	761.10
579.60	760.29
579.95	759.19
580.30	758.76
580.66	758.38
581.01	758.29
581.36	757.43
581.71	756.19
582.06	757.57
582.42	756.67
582.77	756.57
583.12	755.48
583.47	754.43
583.82	753.24
584.17	752.19
584.53	751.00
584.88	750.19
585.23	749.14
585.58	746.48
585.93	743.90
586.28	742.10
586.63	740.43
586.98	738.19
587.34	736.38
587.69	733.57
588.04	730.52
588.39	727.10
588.74	723.86
589.09	721.86
589.44	715.95
589.79	712.48
590.14	708.52
590.49	704.62
590.84	700.86
591.19	697.10
591.54	693.10
591.89	688.90
592.25	686.95
592.60	681.86
592.95	678.86
593.30	675.95
593.65	671.86
594.00	666.86
594.35	670.48
594.70	666.62
595.05	662.76
595.40	659.76
595.75	656.48
596.10	654.14
596.45	649.90
596.80	647.29
597.15	644.14
597.50	640.48
597.85	637.95
598.19	635.10
598.54	632.05
598.89	628.95
599.24	626.14
599.59	621.19
599.94	618.86
600.29	616.19
600.64	613.52
600.99	612.00
601.34	610.38
601.69	600.57
602.04	597.57
602.39	595.38
602.74	593.19
603.08	590.67
603.43	589.38
603.78	587.86
604.13	585.76
604.48	584.19
604.83	583.57
605.18	583.29
605.53	584.10
605.87	587.29
606.22	593.62
606.57	600.95
606.92	608.86
607.27	617.95
607.62	627.90
607.96	636.76
608.31	643.67
608.66	650.52
609.01	656.62
609.36	663.29
609.70	669.19
610.05	674.14
610.40	679.57
610.75	682.71
611.10	685.29
611.44	688.00
611.79	689.19
612.14	690.19
612.49	688.67
612.83	685.76
613.18	681.24
613.53	673.43
613.88	664.10
614.22	653.71
614.57	642.19
614.92	629.38
615.27	618.14
615.61	607.90
615.96	598.71
616.31	590.10
616.65	581.86
617.00	573.43
617.35	565.33
617.70	557.71
618.04	550.81
618.39	544.38
618.74	539.10
619.08	534.71
619.43	530.33
619.78	526.95
620.12	524.10
620.47	520.86
620.82	517.90
621.16	514.71
621.51	513.38
621.85	510.76
622.20	508.62
622.55	505.29
622.89	502.62
623.24	499.95
623.59	496.90
623.93	494.05
624.28	491.43
624.62	491.76
624.97	490.57
625.32	487.86
625.66	486.62
626.01	484.43
626.35	482.62
626.70	480.52
627.04	478.71
627.39	476.43
627.73	474.81
628.08	472.81
628.43	470.86
628.77	467.19
629.12	465.05
629.46	462.81
629.81	461.00
630.15	458.71
630.50	456.14
630.84	454.24
631.19	451.81
631.53	449.62
631.88	444.19
632.22	440.48
632.57	438.95
632.91	435.33
633.26	433.05
633.60	429.95
633.95	426.81
634.29	423.81
634.64	421.76
634.98	418.62
635.32	416.86
635.67	414.24
636.01	412.76
636.36	410.24
636.70	408.76
637.05	407.24
637.39	405.19
637.73	403.48
638.08	402.76
638.42	401.00
638.77	399.81
639.11	398.38
639.45	396.48
639.80	394.29
640.14	393.14
640.49	390.86
640.83	389.43
641.17	388.24
641.52	387.19
641.86	385.86
642.20	385.48
642.55	383.52
642.89	382.57
643.23	381.33
643.58	381.67
643.92	380.05
644.26	378.76
644.61	378.52
644.95	377.67
645.29	375.48
645.64	375.00
645.98	373.90
646.32	373.67
646.66	372.81
647.01	371.86
647.35	371.14
647.69	370.62
648.04	369.95
648.38	369.43
648.72	368.00
649.06	366.48
649.41	364.62
649.75	363.67
650.09	363.33
650.43	362.43
650.78	360.24
651.12	359.14
651.46	357.62
651.80	355.95
652.14	354.86
652.49	354.81
652.83	353.29
653.17	351.95
653.51	350.05
653.85	349.38
654.20	348.05
654.54	346.62
654.88	345.00
655.22	343.52
655.56	342.19
655.90	341.48
656.25	340.57
656.59	339.76
656.93	339.33
657.27	338.95
657.61	337.62
657.95	337.38
658.29	336.43
658.64	336.62
658.98	335.90
659.32	334.95
659.66	334.10
660.00	333.95
660.34	333.29
660.68	333.00
661.02	332.19
661.36	331.57
661.70	331.00
662.05	330.90
662.39	331.33
662.73	331.29
663.07	332.10
663.41	331.43
663.75	330.33
664.09	329.43
664.43	327.67
664.77	326.90
665.11	325.57
665.45	325.14
665.79	324.52
666.13	323.48
666.47	322.76
666.81	321.90
667.15	320.62
667.49	319.90
667.83	320.24
668.17	319.43
668.51	318.76
668.85	318.38
669.19	318.57
669.53	316.90
669.87	315.71
670.21	313.71
670.55	313.24
670.89	313.81
671.23	312.95
671.57	312.24
671.91	311.95
672.25	311.67
672.58	311.57
672.92	310.10
673.26	309.67
673.60	309.14
673.94	308.48
674.28	308.52
674.62	308.38
674.96	307.29
675.30	306.71
675.64	306.52
675.97	306.33
676.31	305.05
676.65	304.62
676.99	305.33
677.33	304.67
677.67	304.52
678.01	302.57
678.34	302.38
678.68	302.76
679.02	302.29
679.36	301.90
679.70	300.76
680.04	300.67
680.37	300.52
680.71	300.05
681.05	300.05
681.39	299.10
681.73	298.52
682.06	297.76
682.40	297.67
682.74	297.38
683.08	297.67
683.42	297.00
683.75	297.43
684.09	296.10
684.43	296.33
684.77	295.33
685.10	295.76
685.44	295.29
685.78	294.48
686.12	293.43
686.45	293.10
686.79	292.71
687.13	292.62
687.46	292.29
687.80	292.57
688.14	291.76
688.48	291.57
688.81	291.29
689.15	291.57
689.49	290.76
689.82	290.48
690.16	289.00
690.50	288.81
690.83	287.57
691.17	286.95
691.51	286.29
691.84	286.19
692.18	285.67
692.52	285.14
692.85	284.90
693.19	285.95
693.52	285.19
693.86	284.86
694.20	284.19
694.53	283.90
694.87	282.76
695.21	282.19
695.54	281.90
695.88	281.19
696.21	280.10
696.55	279.95
696.88	279.00
697.22	278.43
697.56	278.19
697.89	277.81
698.23	277.90
698.56	277.19
698.90	277.24
699.23	276.71
699.57	276.62
699.90	276.00
700.24	274.62
700.58	274.95
700.91	275.62
701.25	277.24
701.58	277.71
701.92	278.71
702.25	278.86
702.59	278.90
702.92	279.48
703.26	279.95
703.59	280.38
703.93	283.05
704.26	284.05
704.60	284.71
704.93	285.29
705.26	285.38
705.60	286.24
705.93	285.95
706.27	287.24
706.60	288.05
706.94	289.48
707.27	290.00
707.61	290.19
707.94	289.90
708.27	288.29
708.61	287.76
708.94	287.29
709.28	287.24
709.61	286.38
709.94	285.90
710.28	285.29
710.61	284.71
710.95	281.90
711.28	282.24
711.61	281.14
711.95	280.90
712.28	279.76
712.61	278.81
712.95	279.57
713.28	279.62
713.61	278.29
713.95	276.62
714.28	276.05
714.61	274.86
714.95	273.57
715.28	272.57
715.61	271.43
715.95	270.76
716.28	269.90
716.61	269.71
716.95	268.76
717.28	268.05
717.61	267.14
717.94	266.48
718.28	264.52
718.61	264.00
718.94	263.05
719.27	262.90
719.61	262.62
719.94	261.43
720.27	259.76
720.60	259.14
720.94	259.10
721.27	258.76
721.60	259.33
721.93	259.10
722.27	259.95
722.60	260.48
722.93	259.90
723.26	259.67
723.59	259.48
723.93	259.71
724.26	260.00
724.59	259.62
724.92	259.90
725.25	260.62
725.59	260.67
725.92	261.14
726.25	261.05
726.58	261.43
726.91	261.24
727.24	261.57
727.57	261.71
727.91	260.81
728.24	260.76
728.57	260.05
728.90	260.29
729.23	259.29
729.56	259.95
729.89	260.05
730.22	260.05
730.55	259.81
730.89	260.00
731.22	259.57
731.55	259.76
731.88	259.95
732.21	259.38
732.54	259.05
732.87	258.29
733.20	258.43
733.53	258.05
733.86	257.95
734.19	256.86
734.52	257.24
734.85	259.43
735.18	258.95
735.51	259.71
735.84	259.71
736.17	260.33
736.50	258.95
736.83	261.19
737.16	261.48
737.49	261.81
737.82	261.24
738.15	261.43
738.48	261.52
738.81	260.95
739.14	260.43
739.47	260.43
739.80	260.48
740.13	260.33
740.46	259.76
740.79	259.76
741.12	260.29
741.45	259.71
741.78	258.00
742.11	258.81
742.44	257.95
742.77	258.33
743.10	257.76
743.43	257.52
743.75	255.05
744.08	257.86
744.41	257.38
744.74	257.00
745.07	256.38
745.40	256.62
745.73	257.57
746.06	257.81
746.39	257.95
746.71	257.90
747.04	257.67
747.37	257.57
747.70	257.52
748.03	257.57
748.36	257.71
748.68	257.57
749.01	256.67
749.34	256.71
749.67	255.95
750.00	256.38
750.33	258.19
750.65	258.71
750.98	255.52
751.31	255.38
751.64	255.62
751.97	257.05
752.29	256.67
752.62	255.43
752.95	255.05
753.28	254.76
753.60	254.48
753.93	254.71
754.26	254.76
754.59	253.86
754.91	253.33
755.24	253.19
755.57	253.14
755.90	253.10
756.22	252.90
756.55	252.81
756.88	252.14
757.20	250.33
757.53	249.29
757.86	248.86
758.19	249.19
758.51	249.10
758.84	247.81
759.17	247.24
759.49	247.71
759.82	249.05
760.15	249.00
760.47	248.86
760.80	248.33
761.13	248.71
761.45	249.00
761.78	249.05
762.11	249.19
762.43	249.05
762.76	248.71
763.08	248.76
763.41	249.10
763.74	248.71
764.06	248.48
764.39	248.48
764.71	248.38
765.04	247.86
765.37	247.76
765.69	247.48
766.02	247.76
766.34	246.90
766.67	245.67
767.00	246.14
767.32	247.43
767.65	249.05
767.97	248.86
768.30	248.95
768.62	248.90
768.95	248.48
769.27	248.29
769.60	249.24
769.92	248.90
770.25	248.10
770.57	248.05
770.90	248.24
771.22	248.05
771.55	248.00
771.87	248.05
772.20	247.71
772.52	249.76
772.85	252.62
773.17	253.00
773.50	252.52
773.82	251.67
774.15	250.38
774.47	248.90
774.80	248.57
775.12	248.29
775.45	248.10
775.77	248.05
776.09	248.10
776.42	247.48
776.74	248.19
777.07	248.29
777.39	248.43
777.72	248.24
778.04	248.81
778.36	248.76
778.69	249.00
779.01	248.95
779.33	247.10
779.66	244.52
779.98	244.29
780.31	244.67
780.63	246.05
780.95	246.57
781.28	246.38
781.60	246.14
781.92	246.10
782.25	246.14
782.57	246.05
782.89	246.29
783.22	246.10
783.54	245.43
783.86	245.57
784.19	245.52
784.51	246.48
784.83	245.90
785.16	246.14
785.48	246.00
785.80	246.29
786.12	246.43
786.45	246.10
786.77	246.00
787.09	246.24
787.42	245.10
787.74	245.24
788.06	245.29
788.38	245.33
788.71	245.14
789.03	245.43
789.35	245.95
789.67	245.43
789.99	245.62
790.32	245.10
790.64	245.52
790.96	247.29
791.28	246.29
791.61	246.33
791.93	246.24
792.25	246.19
792.57	247.90
792.89	247.19
793.21	247.29
