SpectraSuite Data File
++++++++++++++++++++++++++++++++++++
Date: Wed Nov 07 18:31:39 EST 2012
User: group
Dark Spectrum Present: No
Reference Spectrum Present: No
Number of Sampled Component Spectra: 1
Spectrometers: USB2E7196
Integration Time (usec): 1000000 (USB2E7196)
Spectra Averaged: 1 (USB2E7196)
Boxcar Smoothing: 10 (USB2E7196)
Correct for Electrical Dark: No (USB2E7196)
Strobe/Lamp Enabled: No (USB2E7196)
Correct for Detector Non-linearity: No (USB2E7196)
Correct for Stray Light: No (USB2E7196)
Number of Pixels in Processed Spectrum: 2048
>>>>>Begin Processed Spectral Data<<<<<
339.09	0.00
339.48	218.00
339.86	221.00
340.24	219.00
340.63	223.00
341.01	262.00
341.39	228.00
341.78	233.00
342.16	240.00
342.54	232.00
342.93	222.24
343.31	233.29
343.69	234.24
344.07	234.67
344.46	235.57
344.84	236.33
345.22	235.05
345.60	235.57
345.99	235.71
346.37	235.52
346.75	235.48
347.13	235.86
347.52	236.00
347.90	237.24
348.28	237.71
348.66	238.24
349.05	237.48
349.43	237.76
349.81	237.95
350.19	237.95
350.57	238.00
350.96	238.33
351.34	238.52
351.72	238.24
352.10	238.62
352.48	238.62
352.87	238.29
353.25	238.43
353.63	238.43
354.01	238.57
354.39	238.95
354.77	239.10
355.15	239.95
355.54	239.71
355.92	238.86
356.30	239.00
356.68	240.48
357.06	241.14
357.44	240.81
357.82	240.81
358.20	241.14
358.58	241.24
358.97	241.52
359.35	242.33
359.73	242.81
360.11	242.67
360.49	242.76
360.87	243.19
361.25	243.67
361.63	244.33
362.01	244.43
362.39	244.05
362.77	244.19
363.15	244.10
363.53	244.57
363.91	244.90
364.29	244.71
364.67	242.62
365.05	242.62
365.43	243.05
365.81	243.62
366.19	244.57
366.57	245.62
366.95	245.24
367.33	244.57
367.71	244.76
368.09	245.62
368.47	245.57
368.85	245.57
369.23	245.67
369.61	245.10
369.99	245.90
370.37	246.24
370.75	247.76
371.13	246.90
371.51	246.33
371.89	246.48
372.27	246.48
372.65	246.71
373.03	246.62
373.41	246.57
373.78	246.10
374.16	244.86
374.54	244.10
374.92	243.86
375.30	243.81
375.68	243.24
376.06	242.81
376.44	242.52
376.82	242.48
377.19	242.24
377.57	241.95
377.95	241.19
378.33	241.14
378.71	239.48
379.09	240.29
379.47	240.57
379.84	239.90
380.22	239.62
380.60	239.14
380.98	238.81
381.36	238.52
381.73	238.24
382.11	238.33
382.49	238.19
382.87	237.95
383.25	238.10
383.62	241.00
384.00	240.62
384.38	240.86
384.76	241.52
385.13	242.57
385.51	242.52
385.89	242.43
386.27	242.57
386.64	242.76
387.02	241.76
387.40	241.52
387.78	241.90
388.15	242.10
388.53	242.10
388.91	242.00
389.29	242.00
389.66	242.52
390.04	242.62
390.42	243.38
390.79	243.76
391.17	243.57
391.55	240.57
391.92	240.57
392.30	240.57
392.68	239.67
393.05	239.43
393.43	239.48
393.81	239.29
394.18	238.95
394.56	239.10
394.94	240.29
395.31	240.10
395.69	240.67
396.06	240.95
396.44	241.10
396.82	240.95
397.19	241.86
397.57	241.33
397.95	241.76
398.32	240.62
398.70	240.95
399.07	241.33
399.45	241.52
399.82	241.67
400.20	241.57
400.58	241.62
400.95	240.52
401.33	241.10
401.70	242.81
402.08	243.19
402.45	243.10
402.83	243.14
403.20	243.48
403.58	243.38
403.95	243.81
404.33	244.48
404.71	244.90
405.08	246.48
405.46	247.24
405.83	247.95
406.21	248.43
406.58	248.76
406.96	249.19
407.33	250.00
407.70	250.71
408.08	253.62
408.45	254.90
408.83	256.19
409.20	256.71
409.58	256.43
409.95	257.62
410.33	259.14
410.70	259.57
411.08	261.48
411.45	262.86
411.82	263.71
412.20	265.38
412.57	268.43
412.95	268.10
413.32	269.86
413.69	270.95
414.07	272.86
414.44	275.00
414.82	277.05
415.19	279.48
415.56	281.95
415.94	282.52
416.31	285.33
416.68	288.24
417.06	291.81
417.43	295.43
417.81	298.86
418.18	302.81
418.55	306.90
418.93	310.57
419.30	314.48
419.67	319.33
420.04	323.57
420.42	327.48
420.79	334.90
421.16	340.90
421.54	347.95
421.91	354.29
422.28	360.48
422.66	367.38
423.03	376.14
423.40	382.76
423.77	390.57
424.15	397.67
424.52	405.29
424.89	413.57
425.26	420.86
425.64	428.24
426.01	436.00
426.38	444.57
426.75	453.76
427.13	462.86
427.50	472.95
427.87	482.48
428.24	492.48
428.61	500.57
428.99	511.48
429.36	522.38
429.73	532.67
430.10	544.14
430.47	556.52
430.85	566.57
431.22	580.14
431.59	595.90
431.96	609.76
432.33	624.71
432.70	638.81
433.08	655.19
433.45	670.38
433.82	686.19
434.19	703.00
434.56	719.67
434.93	735.52
435.30	749.86
435.68	767.29
436.05	784.33
436.42	800.81
436.79	816.05
437.16	832.76
437.53	850.81
437.90	867.76
438.27	883.43
438.64	900.57
439.01	916.19
439.38	927.24
439.75	939.19
440.13	954.05
440.50	968.14
440.87	979.05
441.24	991.76
441.61	1003.95
441.98	1013.62
442.35	1023.38
442.72	1033.24
443.09	1045.95
443.46	1052.05
443.83	1055.14
444.20	1057.90
444.57	1061.76
444.94	1062.52
445.31	1064.10
445.68	1067.43
446.05	1067.62
446.42	1064.43
446.79	1062.00
447.16	1058.71
447.53	1056.00
447.90	1048.14
448.27	1040.00
448.64	1030.43
449.01	1021.81
449.37	1009.57
449.74	996.90
450.11	985.48
450.48	970.67
450.85	953.00
451.22	939.52
451.59	927.29
451.96	915.10
452.33	899.38
452.70	884.90
453.07	867.67
453.43	848.00
453.80	831.29
454.17	815.38
454.54	798.71
454.91	783.05
455.28	767.62
455.65	752.43
456.02	742.48
456.38	730.33
456.75	715.76
457.12	703.43
457.49	692.05
457.86	678.43
458.23	669.71
458.59	659.24
458.96	647.86
459.33	637.29
459.70	627.90
460.07	620.38
460.43	611.29
460.80	603.57
461.17	596.38
461.54	588.67
461.91	580.81
462.27	573.48
462.64	566.67
463.01	560.81
463.38	555.38
463.74	544.14
464.11	537.62
464.48	532.14
464.85	526.24
465.21	522.38
465.58	517.62
465.95	510.81
466.32	506.33
466.68	501.38
467.05	497.38
467.42	492.95
467.78	488.48
468.15	483.86
468.52	481.00
468.88	476.29
469.25	472.24
469.62	470.29
469.98	467.00
470.35	463.86
470.72	460.00
471.08	455.57
471.45	453.33
471.82	451.19
472.18	448.38
472.55	446.71
472.92	442.43
473.28	439.62
473.65	437.38
474.02	434.95
474.38	433.71
474.75	431.71
475.11	429.76
475.48	428.29
475.85	426.67
476.21	424.24
476.58	423.86
476.94	422.71
477.31	420.90
477.67	419.81
478.04	418.90
478.41	418.48
478.77	420.71
479.14	419.86
479.50	419.29
479.87	419.29
480.23	418.71
480.60	418.62
480.96	419.10
481.33	420.67
481.69	421.19
482.06	422.05
482.42	422.95
482.79	423.57
483.15	423.90
483.52	426.00
483.88	427.29
484.25	427.86
484.61	428.90
484.98	429.95
485.34	432.14
485.71	434.62
486.07	436.24
486.44	435.43
486.80	437.19
487.17	438.71
487.53	440.48
487.90	442.71
488.26	446.24
488.62	448.95
488.99	450.14
489.35	451.90
489.72	453.57
490.08	455.24
490.44	456.86
490.81	459.52
491.17	461.00
491.54	462.90
491.90	465.76
492.26	468.48
492.63	471.00
492.99	473.38
493.36	475.38
493.72	478.10
494.08	480.57
494.45	483.24
494.81	486.86
495.17	490.00
495.54	493.29
495.90	495.24
496.26	497.57
496.63	501.38
496.99	505.24
497.35	508.52
497.72	512.71
498.08	516.48
498.44	520.29
498.80	525.00
499.17	529.43
499.53	533.62
499.89	538.14
500.26	542.62
500.62	546.81
500.98	551.90
501.34	556.76
501.71	562.48
502.07	566.86
502.43	571.19
502.79	575.05
503.16	579.57
503.52	584.86
503.88	589.76
504.24	594.38
504.60	599.29
504.97	604.19
505.33	608.62
505.69	614.95
506.05	619.90
506.41	624.71
506.78	629.67
507.14	634.38
507.50	639.71
507.86	645.38
508.22	650.86
508.59	655.10
508.95	660.05
509.31	666.43
509.67	671.95
510.03	677.33
510.39	682.86
510.75	688.00
511.12	693.24
511.48	698.19
511.84	703.43
512.20	708.24
512.56	713.95
512.92	719.10
513.28	723.29
513.64	727.10
514.00	731.95
514.37	736.57
514.73	741.57
515.09	746.00
515.45	750.00
515.81	753.67
516.17	757.62
516.53	761.14
516.89	763.81
517.25	768.00
517.61	772.48
517.97	776.76
518.33	781.00
518.69	785.05
519.05	789.14
519.41	793.29
519.77	798.81
520.13	801.10
520.49	804.38
520.85	807.33
521.21	812.67
521.57	816.00
521.93	818.95
522.29	821.29
522.65	822.62
523.01	825.48
523.37	827.95
523.73	830.76
524.09	832.95
524.45	834.10
524.81	836.29
525.17	838.24
525.53	840.33
525.89	841.05
526.25	842.38
526.61	843.52
526.97	844.29
527.33	843.76
527.68	848.48
528.04	850.33
528.40	851.52
528.76	851.67
529.12	852.71
529.48	854.57
529.84	855.81
530.20	858.86
530.56	860.67
530.91	862.67
531.27	863.67
531.63	864.90
531.99	866.57
532.35	867.48
532.71	868.71
533.07	869.43
533.42	873.62
533.78	874.19
534.14	875.76
534.50	876.81
534.86	879.00
535.21	877.48
535.57	879.05
535.93	879.81
536.29	883.19
536.65	885.24
537.00	886.90
537.36	889.81
537.72	892.00
538.08	894.95
538.44	897.19
538.79	901.71
539.15	905.86
539.51	909.86
539.87	913.24
540.22	915.43
540.58	919.67
540.94	920.95
541.29	925.48
541.65	928.19
542.01	931.86
542.37	933.90
542.72	936.10
543.08	936.95
543.44	939.33
543.79	937.33
544.15	937.19
544.51	936.71
544.87	935.33
545.22	933.14
545.58	930.52
545.94	927.62
546.29	924.33
546.65	920.81
547.01	916.52
547.36	912.62
547.72	909.24
548.07	905.00
548.43	900.43
548.79	895.71
549.14	891.43
549.50	886.38
549.86	881.71
550.21	878.38
550.57	875.57
550.92	871.43
551.28	869.86
551.64	866.95
551.99	864.43
552.35	860.95
552.70	858.48
553.06	856.10
553.41	853.62
553.77	852.52
554.13	850.48
554.48	848.62
554.84	847.48
555.19	845.48
555.55	845.10
555.90	843.38
556.26	840.81
556.61	838.29
556.97	835.71
557.32	834.48
557.68	831.90
558.03	828.86
558.39	827.29
558.74	824.86
559.10	822.05
559.45	819.62
559.81	818.38
560.16	816.43
560.52	814.86
560.87	815.00
561.23	812.19
561.58	811.90
561.94	809.48
562.29	807.52
562.64	806.19
563.00	802.48
563.35	801.05
563.71	799.38
564.06	798.05
564.42	796.62
564.77	794.48
565.12	793.57
565.48	794.76
565.83	793.81
566.19	791.76
566.54	791.05
566.89	789.19
567.25	788.95
567.60	788.57
567.96	789.57
568.31	788.52
568.66	787.71
569.02	784.67
569.37	784.57
569.72	782.95
570.08	781.48
570.43	780.62
570.78	777.90
571.14	775.90
571.49	774.95
571.84	773.90
572.20	772.76
572.55	771.86
572.90	768.19
573.26	766.52
573.61	765.10
573.96	764.43
574.31	763.24
574.67	761.00
575.02	758.71
575.37	755.00
575.72	752.29
576.08	749.76
576.43	748.52
576.78	746.29
577.13	744.57
577.49	742.76
577.84	741.38
578.19	740.67
578.54	741.00
578.90	739.19
579.25	738.67
579.60	737.33
579.95	734.71
580.30	734.05
580.66	732.81
581.01	731.86
581.36	729.71
581.71	728.86
582.06	728.33
582.42	727.57
582.77	726.00
583.12	724.90
583.47	723.38
583.82	722.43
584.17	722.24
584.53	721.52
584.88	719.67
585.23	717.62
585.58	715.76
585.93	713.05
586.28	711.76
586.63	709.24
586.98	707.52
587.34	706.00
587.69	703.33
588.04	700.62
588.39	697.71
588.74	694.71
589.09	693.00
589.44	688.81
589.79	685.71
590.14	682.19
590.49	678.19
590.84	674.71
591.19	670.52
591.54	666.48
591.89	662.52
592.25	661.90
592.60	658.76
592.95	656.48
593.30	653.90
593.65	650.14
594.00	646.95
594.35	649.48
594.70	646.05
595.05	643.10
595.40	639.95
595.75	637.10
596.10	634.86
596.45	631.71
596.80	629.24
597.15	625.90
597.50	623.38
597.85	622.05
598.19	619.86
598.54	617.90
598.89	615.24
599.24	613.52
599.59	608.67
599.94	606.38
600.29	603.52
600.64	600.71
600.99	599.43
601.34	597.52
601.69	589.52
602.04	587.62
602.39	585.19
602.74	583.90
603.08	582.33
603.43	581.10
603.78	579.10
604.13	577.24
604.48	576.38
604.83	575.05
605.18	573.86
605.53	573.67
605.87	574.24
606.22	576.76
606.57	579.90
606.92	584.62
607.27	589.00
607.62	593.43
607.96	598.19
608.31	601.57
608.66	604.86
609.01	607.38
609.36	610.24
609.70	612.71
610.05	614.76
610.40	616.86
610.75	617.95
611.10	619.38
611.44	620.38
611.79	620.19
612.14	620.10
612.49	618.38
612.83	616.38
613.18	613.05
613.53	608.24
613.88	602.05
614.22	594.67
614.57	587.14
614.92	579.76
615.27	572.67
615.61	565.57
615.96	559.48
616.31	553.57
616.65	547.95
617.00	542.67
617.35	537.19
617.70	531.57
618.04	526.33
618.39	521.57
618.74	518.10
619.08	514.86
619.43	511.33
619.78	508.00
620.12	505.14
620.47	502.52
620.82	499.33
621.16	496.71
621.51	496.24
621.85	493.62
622.20	491.71
622.55	488.38
622.89	487.00
623.24	484.76
623.59	482.48
623.93	480.62
624.28	478.57
624.62	478.81
624.97	478.52
625.32	476.33
625.66	474.05
626.01	471.76
626.35	469.67
626.70	467.67
627.04	466.90
627.39	465.10
627.73	464.38
628.08	463.14
628.43	461.19
628.77	457.52
629.12	455.76
629.46	453.95
629.81	452.33
630.15	449.86
630.50	447.71
630.84	446.10
631.19	443.67
631.53	441.71
631.88	436.57
632.22	432.81
632.57	431.43
632.91	429.48
633.26	427.14
633.60	425.29
633.95	423.43
634.29	420.38
634.64	418.52
634.98	415.24
635.32	413.43
635.67	411.57
636.01	409.90
636.36	407.71
636.70	405.71
637.05	403.95
637.39	402.24
637.73	401.10
638.08	400.14
638.42	398.10
638.77	396.67
639.11	395.57
639.45	393.71
639.80	391.57
640.14	389.81
640.49	388.52
640.83	386.71
641.17	385.38
641.52	384.14
641.86	382.57
642.20	382.29
642.55	380.57
642.89	379.29
643.23	378.19
643.58	377.71
643.92	376.24
644.26	375.43
644.61	374.76
644.95	373.24
645.29	371.48
645.64	371.52
645.98	370.52
646.32	370.33
646.66	369.67
647.01	368.62
647.35	368.14
647.69	367.81
648.04	367.10
648.38	366.33
648.72	365.62
649.06	364.67
649.41	363.05
649.75	362.19
650.09	361.90
650.43	360.95
650.78	359.90
651.12	359.14
651.46	357.81
651.80	356.43
652.14	354.95
652.49	354.24
652.83	352.33
653.17	350.86
653.51	349.10
653.85	348.52
654.20	347.62
654.54	346.10
654.88	344.33
655.22	342.90
655.56	341.14
655.90	340.00
656.25	339.19
656.59	338.24
656.93	337.10
657.27	336.19
657.61	334.67
657.95	333.86
658.29	332.43
658.64	332.48
658.98	331.71
659.32	331.05
659.66	330.14
660.00	330.00
660.34	329.62
660.68	329.14
661.02	328.29
661.36	327.67
661.70	326.95
662.05	326.24
662.39	326.29
662.73	326.95
663.07	327.38
663.41	326.95
663.75	326.14
664.09	325.76
664.43	324.38
664.77	324.14
665.11	323.33
665.45	322.95
665.79	322.62
666.13	321.62
666.47	320.71
666.81	320.19
667.15	318.95
667.49	318.14
667.83	318.14
668.17	317.24
668.51	316.33
668.85	315.95
669.19	316.24
669.53	315.14
669.87	313.67
670.21	312.52
670.55	311.71
670.89	312.43
671.23	311.90
671.57	311.62
671.91	311.19
672.25	310.67
672.58	310.81
672.92	309.38
673.26	309.05
673.60	308.90
673.94	308.00
674.28	308.10
674.62	307.95
674.96	307.14
675.30	307.38
675.64	307.19
675.97	306.86
676.31	305.67
676.65	305.33
676.99	305.52
677.33	304.33
677.67	303.86
678.01	302.29
678.34	301.81
678.68	301.76
679.02	301.14
679.36	300.33
679.70	299.57
680.04	299.00
680.37	298.86
680.71	298.19
681.05	298.29
681.39	297.52
681.73	296.67
682.06	295.86
682.40	294.95
682.74	294.71
683.08	295.19
683.42	294.52
683.75	294.14
684.09	293.05
684.43	293.14
684.77	292.38
685.10	292.10
685.44	291.48
685.78	290.71
686.12	290.14
686.45	290.05
686.79	289.29
687.13	289.71
687.46	289.00
687.80	288.81
688.14	287.95
688.48	287.90
688.81	287.38
689.15	287.71
689.49	286.90
689.82	286.48
690.16	284.95
690.50	284.76
690.83	284.14
691.17	283.52
691.51	282.81
691.84	283.19
692.18	282.52
692.52	281.95
692.85	281.90
693.19	282.52
693.52	282.29
693.86	281.62
694.20	280.57
694.53	280.38
694.87	279.86
695.21	279.71
695.54	279.29
695.88	279.00
696.21	277.86
696.55	277.86
696.88	277.52
697.22	277.10
697.56	277.00
697.89	276.81
698.23	277.10
698.56	276.86
698.90	276.19
699.23	276.10
699.57	276.29
699.90	275.86
700.24	274.76
700.58	274.81
700.91	275.62
701.25	277.86
701.58	278.43
701.92	279.52
702.25	279.67
702.59	279.67
702.92	280.38
703.26	281.14
703.59	281.29
703.93	283.38
704.26	284.29
704.60	284.71
704.93	284.81
705.26	284.67
705.60	285.52
705.93	285.43
706.27	286.24
706.60	287.29
706.94	288.43
707.27	288.71
707.61	288.71
707.94	288.62
708.27	286.52
708.61	285.90
708.94	285.38
709.28	285.38
709.61	284.95
709.94	284.57
710.28	284.10
710.61	283.86
710.95	281.38
711.28	282.19
711.61	281.19
711.95	281.29
712.28	280.29
712.61	279.71
712.95	280.67
713.28	281.00
713.61	279.43
713.95	277.62
714.28	277.19
714.61	276.29
714.95	275.14
715.28	274.24
715.61	273.67
715.95	273.10
716.28	272.33
716.61	272.00
716.95	271.00
717.28	270.10
717.61	269.48
717.94	269.10
718.28	266.62
718.61	266.38
718.94	265.62
719.27	265.57
719.61	265.19
719.94	263.95
720.27	262.24
720.60	261.76
720.94	261.71
721.27	261.62
721.60	261.95
721.93	262.29
722.27	262.67
722.60	262.67
722.93	262.19
723.26	261.86
723.59	261.52
723.93	261.81
724.26	262.10
724.59	261.90
724.92	262.00
725.25	262.90
725.59	262.67
725.92	262.67
726.25	262.29
726.58	261.95
726.91	261.81
727.24	262.05
727.57	262.14
727.91	261.76
728.24	261.76
728.57	261.19
728.90	261.14
729.23	260.81
729.56	261.71
729.89	261.67
730.22	261.67
730.55	261.29
730.89	261.24
731.22	260.76
731.55	260.24
731.88	260.29
732.21	259.57
732.54	259.48
732.87	259.52
733.20	259.52
733.53	259.33
733.86	259.38
734.19	259.00
734.52	259.10
734.85	260.76
735.18	260.05
735.51	260.38
735.84	260.48
736.17	260.86
736.50	259.14
736.83	261.95
737.16	261.86
737.49	261.95
737.82	261.62
738.15	261.71
738.48	262.05
738.81	261.67
739.14	261.24
739.47	261.29
739.80	260.76
740.13	261.19
740.46	260.86
740.79	260.29
741.12	259.95
741.45	259.38
741.78	257.90
742.11	258.52
742.44	258.38
742.77	258.10
743.10	257.57
743.43	257.38
743.75	254.52
744.08	257.52
744.41	257.48
744.74	257.19
745.07	256.76
745.40	257.10
745.73	258.19
746.06	258.29
746.39	258.29
746.71	257.81
747.04	257.24
747.37	257.00
747.70	257.38
748.03	257.52
748.36	258.10
748.68	257.76
749.01	256.76
749.34	256.52
749.67	256.67
750.00	257.10
750.33	259.00
750.65	259.29
750.98	255.81
751.31	255.71
751.64	255.71
751.97	256.90
752.29	256.38
752.62	255.14
752.95	254.86
753.28	254.33
753.60	254.67
753.93	255.38
754.26	255.52
754.59	254.90
754.91	254.43
755.24	253.90
755.57	253.95
755.90	253.86
756.22	253.19
756.55	252.71
756.88	252.05
757.20	250.57
757.53	249.57
757.86	249.67
758.19	249.76
758.51	249.90
758.84	248.57
759.17	248.10
759.49	247.86
759.82	248.81
760.15	248.95
760.47	248.52
760.80	247.52
761.13	247.76
761.45	247.71
761.78	247.67
762.11	247.76
762.43	247.43
762.76	247.67
763.08	248.00
763.41	247.95
763.74	248.00
764.06	247.86
764.39	248.05
764.71	247.86
765.04	247.57
765.37	247.00
765.69	247.00
766.02	247.05
766.34	246.48
766.67	245.71
767.00	245.95
767.32	247.71
767.65	249.48
767.97	249.38
768.30	249.29
768.62	249.57
768.95	249.14
769.27	248.81
769.60	249.19
769.92	248.95
770.25	248.62
770.57	248.00
770.90	248.05
771.22	247.57
771.55	247.76
771.87	247.86
772.20	248.10
772.52	249.86
772.85	252.95
773.17	253.29
773.50	253.05
773.82	252.71
774.15	251.24
774.47	249.38
774.80	249.10
775.12	249.10
775.45	248.67
775.77	248.81
776.09	249.48
776.42	249.57
776.74	250.38
777.07	250.38
777.39	250.43
777.72	250.00
778.04	250.52
778.36	250.24
778.69	250.05
779.01	249.71
779.33	247.95
779.66	245.00
779.98	244.76
780.31	244.95
780.63	245.71
780.95	246.19
781.28	246.43
781.60	246.05
781.92	245.90
782.25	246.05
782.57	246.14
782.89	245.86
783.22	245.19
783.54	244.38
783.86	244.52
784.19	244.48
784.51	245.10
784.83	244.62
785.16	244.43
785.48	244.67
785.80	244.76
786.12	245.10
786.45	245.14
786.77	245.57
787.09	245.43
787.42	244.81
787.74	244.67
788.06	244.81
788.38	245.05
788.71	244.90
789.03	244.90
789.35	244.86
789.67	244.24
789.99	244.38
790.32	243.95
790.64	243.86
790.96	245.57
791.28	244.71
791.61	244.52
791.93	244.90
792.25	244.43
792.57	246.19
792.89	245.62
793.21	245.76
793.54	245.19
793.86	244.81
