SpectraSuite Data File
++++++++++++++++++++++++++++++++++++
Date: Wed Nov 07 18:33:37 EST 2012
User: group
Dark Spectrum Present: No
Reference Spectrum Present: No
Number of Sampled Component Spectra: 1
Spectrometers: USB2E7196
Integration Time (usec): 1000000 (USB2E7196)
Spectra Averaged: 1 (USB2E7196)
Boxcar Smoothing: 10 (USB2E7196)
Correct for Electrical Dark: No (USB2E7196)
Strobe/Lamp Enabled: No (USB2E7196)
Correct for Detector Non-linearity: No (USB2E7196)
Correct for Stray Light: No (USB2E7196)
Number of Pixels in Processed Spectrum: 2048
>>>>>Begin Processed Spectral Data<<<<<
339.09	0.00
339.48	227.00
339.86	220.00
340.24	223.00
340.63	223.00
341.01	264.00
341.39	232.00
341.78	230.00
342.16	240.00
342.54	236.00
342.93	224.10
343.31	235.19
343.69	235.38
344.07	236.05
344.46	236.86
344.84	237.62
345.22	236.05
345.60	236.14
345.99	236.43
346.37	236.19
346.75	235.90
347.13	235.76
347.52	235.71
347.90	236.33
348.28	236.19
348.66	236.67
349.05	235.76
349.43	236.00
349.81	235.90
350.19	235.95
350.57	236.00
350.96	236.71
351.34	236.62
351.72	236.76
352.10	236.81
352.48	236.48
352.87	236.19
353.25	236.00
353.63	235.90
354.01	236.00
354.39	236.14
354.77	236.33
355.15	237.10
355.54	236.86
355.92	236.48
356.30	236.71
356.68	238.10
357.06	238.33
357.44	238.10
357.82	238.43
358.20	238.67
358.58	238.57
358.97	238.48
359.35	239.19
359.73	239.86
360.11	239.71
360.49	239.76
360.87	240.05
361.25	240.52
361.63	241.71
362.01	241.71
362.39	241.62
362.77	241.81
363.15	241.62
363.53	242.00
363.91	242.05
364.29	242.29
364.67	240.19
365.05	239.95
365.43	240.19
365.81	240.48
366.19	241.33
366.57	242.52
366.95	242.24
367.33	241.62
367.71	241.48
368.09	242.29
368.47	242.57
368.85	242.38
369.23	243.29
369.61	242.24
369.99	243.19
370.37	243.62
370.75	244.90
371.13	244.57
371.51	244.19
371.89	244.43
372.27	244.29
372.65	244.76
373.03	245.24
373.41	245.24
373.78	245.00
374.16	244.10
374.54	243.48
374.92	243.52
375.30	243.76
375.68	243.10
376.06	242.95
376.44	242.67
376.82	243.14
377.19	242.76
377.57	242.76
377.95	241.81
378.33	241.71
378.71	240.57
379.09	241.00
379.47	241.14
379.84	240.81
380.22	240.95
380.60	240.38
380.98	240.24
381.36	240.29
381.73	240.05
382.11	240.62
382.49	240.57
382.87	240.48
383.25	240.33
383.62	243.67
384.00	243.14
384.38	243.57
384.76	243.95
385.13	244.67
385.51	244.57
385.89	244.38
386.27	244.05
386.64	244.10
387.02	243.81
387.40	243.57
387.78	243.71
388.15	243.86
388.53	243.90
388.91	243.57
389.29	243.10
389.66	243.24
390.04	242.71
390.42	243.05
390.79	243.05
391.17	243.10
391.55	240.10
391.92	240.14
392.30	240.24
392.68	239.33
393.05	239.38
393.43	239.43
393.81	239.52
394.18	239.24
394.56	239.38
394.94	239.90
395.31	239.57
395.69	240.33
396.06	240.43
396.44	240.62
396.82	240.81
397.19	242.29
397.57	241.76
397.95	242.05
398.32	240.95
398.70	241.24
399.07	241.90
399.45	241.95
399.82	242.05
400.20	241.71
400.58	241.90
400.95	240.67
401.33	241.43
401.70	243.29
402.08	243.81
402.45	243.90
402.83	244.24
403.20	244.33
403.58	244.05
403.95	244.76
404.33	245.19
404.71	245.48
405.08	246.71
405.46	247.57
405.83	247.81
406.21	248.62
406.58	249.14
406.96	249.38
407.33	250.00
407.70	251.05
408.08	253.76
408.45	254.48
408.83	255.81
409.20	256.38
409.58	255.62
409.95	256.76
410.33	257.67
410.70	258.14
411.08	259.71
411.45	261.33
411.82	261.90
412.20	263.57
412.57	266.38
412.95	265.95
413.32	267.90
413.69	269.43
414.07	271.14
414.44	273.14
414.82	275.14
415.19	277.76
415.56	280.05
415.94	280.62
416.31	284.14
416.68	286.86
417.06	290.14
417.43	294.29
417.81	297.71
418.18	301.86
418.55	305.81
418.93	310.48
419.30	314.43
419.67	319.24
420.04	323.57
420.42	327.57
420.79	335.19
421.16	340.52
421.54	347.71
421.91	354.00
422.28	359.90
422.66	366.71
423.03	375.10
423.40	381.57
423.77	389.52
424.15	395.81
424.52	403.57
424.89	412.24
425.26	420.00
425.64	428.00
426.01	436.29
426.38	444.62
426.75	453.86
427.13	463.38
427.50	472.38
427.87	482.19
428.24	491.81
428.61	499.62
428.99	511.71
429.36	522.38
429.73	534.14
430.10	546.48
430.47	558.29
430.85	568.95
431.22	582.19
431.59	597.57
431.96	611.38
432.33	626.10
432.70	639.14
433.08	654.86
433.45	669.67
433.82	684.62
434.19	702.05
434.56	718.33
434.93	733.52
435.30	749.86
435.68	766.62
436.05	783.10
436.42	799.71
436.79	814.71
437.16	831.00
437.53	848.10
437.90	864.10
438.27	881.05
438.64	897.43
439.01	913.57
439.38	924.76
439.75	938.19
440.13	953.48
440.50	967.71
440.87	978.43
441.24	990.62
441.61	1003.71
441.98	1011.90
442.35	1022.71
442.72	1034.62
443.09	1045.33
443.46	1051.38
443.83	1055.52
444.20	1059.81
444.57	1063.76
444.94	1064.95
445.31	1066.10
445.68	1071.29
446.05	1070.43
446.42	1067.48
446.79	1064.81
447.16	1062.24
447.53	1060.14
447.90	1051.86
448.27	1044.57
448.64	1035.10
449.01	1026.57
449.37	1013.76
449.74	1003.33
450.11	991.10
450.48	974.48
450.85	958.14
451.22	945.86
451.59	933.95
451.96	920.95
452.33	904.86
452.70	891.29
453.07	874.19
453.43	853.81
453.80	837.57
454.17	821.86
454.54	805.43
454.91	789.19
455.28	772.67
455.65	758.19
456.02	748.19
456.38	736.52
456.75	722.48
457.12	710.24
457.49	697.48
457.86	683.43
458.23	675.00
458.59	664.14
458.96	652.24
459.33	641.76
459.70	631.57
460.07	623.90
460.43	614.29
460.80	606.62
461.17	598.86
461.54	591.67
461.91	584.43
462.27	577.10
462.64	570.67
463.01	563.76
463.38	558.38
463.74	547.24
464.11	540.57
464.48	535.67
464.85	529.10
465.21	525.00
465.58	521.00
465.95	514.38
466.32	510.29
466.68	505.71
467.05	501.29
467.42	496.48
467.78	491.76
468.15	487.48
468.52	484.29
468.88	479.57
469.25	474.90
469.62	472.24
469.98	468.86
470.35	465.38
470.72	462.00
471.08	457.67
471.45	455.00
471.82	452.71
472.18	449.05
472.55	447.81
472.92	444.38
473.28	441.33
473.65	438.48
474.02	436.33
474.38	434.62
474.75	432.95
475.11	431.48
475.48	429.57
475.85	427.62
476.21	425.52
476.58	424.71
476.94	423.86
477.31	422.10
477.67	421.29
478.04	420.29
478.41	420.10
478.77	421.86
479.14	421.24
479.50	420.67
479.87	420.81
480.23	420.29
480.60	420.29
480.96	420.29
481.33	421.86
481.69	421.48
482.06	421.67
482.42	422.10
482.79	422.57
483.15	423.48
483.52	425.05
483.88	425.57
484.25	426.71
484.61	427.90
484.98	429.24
485.34	431.67
485.71	433.95
486.07	435.38
486.44	434.33
486.80	435.86
487.17	437.05
487.53	438.76
487.90	440.76
488.26	443.38
488.62	445.67
488.99	446.86
489.35	449.05
489.72	450.81
490.08	452.33
490.44	454.14
490.81	456.24
491.17	458.10
491.54	460.57
491.90	462.86
492.26	464.48
492.63	467.19
492.99	468.57
493.36	470.95
493.72	473.43
494.08	475.95
494.45	479.24
494.81	483.38
495.17	486.29
495.54	489.33
495.90	492.14
496.26	495.19
496.63	498.86
496.99	502.67
497.35	507.10
497.72	511.29
498.08	515.48
498.44	520.19
498.80	524.95
499.17	529.29
499.53	533.86
499.89	539.52
500.26	544.38
500.62	548.71
500.98	553.71
501.34	558.90
501.71	564.76
502.07	569.43
502.43	573.24
502.79	578.24
503.16	584.05
503.52	589.05
503.88	594.33
504.24	600.05
504.60	605.86
504.97	610.76
505.33	616.10
505.69	621.76
506.05	626.48
506.41	631.43
506.78	636.90
507.14	641.67
507.50	646.90
507.86	652.10
508.22	658.71
508.59	663.19
508.95	668.62
509.31	674.76
509.67	679.81
510.03	685.48
510.39	690.86
510.75	695.62
511.12	701.10
511.48	706.05
511.84	709.90
512.20	714.67
512.56	719.57
512.92	724.62
513.28	729.48
513.64	734.67
514.00	739.43
514.37	744.33
514.73	749.19
515.09	754.33
515.45	757.90
515.81	761.33
516.17	766.19
516.53	769.81
516.89	771.90
517.25	775.62
517.61	780.33
517.97	784.29
518.33	788.24
518.69	791.52
519.05	796.00
519.41	800.81
519.77	806.29
520.13	809.95
520.49	813.57
520.85	815.81
521.21	820.05
521.57	824.05
521.93	826.48
522.29	829.90
522.65	830.86
523.01	833.71
523.37	835.29
523.73	837.29
524.09	839.52
524.45	842.43
524.81	844.95
525.17	846.10
525.53	848.81
525.89	850.38
526.25	851.95
526.61	852.62
526.97	853.38
527.33	853.76
527.68	857.57
528.04	858.38
528.40	860.67
528.76	861.90
529.12	861.95
529.48	863.95
529.84	864.86
530.20	868.05
530.56	870.43
530.91	872.71
531.27	874.76
531.63	876.90
531.99	878.67
532.35	880.10
532.71	882.48
533.07	882.57
533.42	886.81
533.78	888.29
534.14	890.76
534.50	892.29
534.86	893.52
535.21	892.48
535.57	894.52
535.93	894.90
536.29	896.38
536.65	897.95
537.00	898.90
537.36	900.62
537.72	900.90
538.08	903.19
538.44	905.52
538.79	908.05
539.15	909.43
539.51	912.29
539.87	914.29
540.22	916.10
540.58	919.29
540.94	919.95
541.29	922.33
541.65	922.86
542.01	925.05
542.37	926.29
542.72	927.19
543.08	927.71
543.44	929.29
543.79	928.48
544.15	929.38
544.51	929.52
544.87	928.81
545.22	928.48
545.58	926.10
545.94	923.57
546.29	921.29
546.65	918.86
547.01	914.71
547.36	913.05
547.72	910.52
548.07	908.10
548.43	903.29
548.79	900.14
549.14	897.14
549.50	894.10
549.86	890.14
550.21	889.05
550.57	885.95
550.92	883.10
551.28	880.67
551.64	877.48
551.99	875.00
552.35	873.00
552.70	870.19
553.06	868.24
553.41	866.86
553.77	865.81
554.13	864.95
554.48	863.86
554.84	861.29
555.19	858.43
555.55	858.48
555.90	857.52
556.26	855.76
556.61	853.86
556.97	851.10
557.32	850.05
557.68	846.71
558.03	845.67
558.39	843.76
558.74	842.62
559.10	840.95
559.45	839.10
559.81	837.24
560.16	836.19
560.52	834.71
560.87	832.95
561.23	829.71
561.58	829.57
561.94	827.33
562.29	825.33
562.64	824.71
563.00	820.00
563.35	818.86
563.71	816.14
564.06	815.24
564.42	814.00
564.77	811.71
565.12	811.62
565.48	812.62
565.83	811.81
566.19	810.00
566.54	808.43
566.89	807.10
567.25	805.81
567.60	805.90
567.96	806.86
568.31	807.00
568.66	807.14
569.02	804.10
569.37	803.52
569.72	802.62
570.08	801.33
570.43	800.10
570.78	797.62
571.14	796.90
571.49	795.71
571.84	794.71
572.20	793.95
572.55	791.57
572.90	787.10
573.26	785.57
573.61	783.62
573.96	783.05
574.31	781.86
574.67	780.33
575.02	777.48
575.37	773.67
575.72	770.86
576.08	768.81
576.43	767.24
576.78	765.48
577.13	764.19
577.49	762.19
577.84	761.33
578.19	760.90
578.54	760.33
578.90	759.05
579.25	757.76
579.60	756.62
579.95	756.24
580.30	755.52
580.66	754.29
581.01	753.19
581.36	750.81
581.71	750.24
582.06	749.86
582.42	748.71
582.77	746.81
583.12	746.05
583.47	744.33
583.82	742.76
584.17	741.62
584.53	740.81
584.88	738.90
585.23	737.38
585.58	734.95
585.93	732.14
586.28	729.76
586.63	727.71
586.98	725.19
587.34	722.81
587.69	720.57
588.04	718.19
588.39	715.52
588.74	713.24
589.09	710.57
589.44	706.29
589.79	703.29
590.14	701.05
590.49	697.05
590.84	693.38
591.19	690.00
591.54	686.57
591.89	682.76
592.25	682.52
592.60	678.95
592.95	676.10
593.30	673.81
593.65	671.71
594.00	668.48
594.35	672.10
594.70	667.57
595.05	664.29
595.40	661.48
595.75	658.14
596.10	655.14
596.45	651.90
596.80	650.05
597.15	646.90
597.50	643.52
597.85	642.48
598.19	640.24
598.54	637.57
598.89	634.05
599.24	632.14
599.59	627.29
599.94	624.67
600.29	621.86
600.64	619.19
600.99	616.43
601.34	614.52
601.69	605.57
602.04	603.24
602.39	601.05
602.74	599.29
603.08	597.76
603.43	596.57
603.78	594.48
604.13	592.33
604.48	590.90
604.83	589.67
605.18	588.05
605.53	587.86
605.87	589.19
606.22	593.33
606.57	597.19
606.92	601.76
607.27	607.10
607.62	612.67
607.96	617.76
608.31	621.95
608.66	625.67
609.01	628.95
609.36	632.71
609.70	635.86
610.05	638.14
610.40	641.00
610.75	642.29
611.10	643.95
611.44	644.71
611.79	645.43
612.14	645.62
612.49	643.67
612.83	641.76
613.18	638.57
613.53	633.29
613.88	626.00
614.22	618.24
614.57	609.62
614.92	601.24
615.27	593.33
615.61	585.19
615.96	578.57
616.31	572.33
616.65	566.71
617.00	559.81
617.35	553.67
617.70	547.29
618.04	542.24
618.39	536.71
618.74	533.38
619.08	529.33
619.43	525.24
619.78	521.95
620.12	518.90
620.47	515.81
620.82	512.57
621.16	509.43
621.51	508.05
621.85	505.57
622.20	503.10
622.55	500.10
622.89	497.86
623.24	495.38
623.59	492.95
623.93	490.71
624.28	489.67
624.62	489.67
624.97	489.33
625.32	487.00
625.66	485.29
626.01	482.48
626.35	480.67
626.70	478.86
627.04	478.05
627.39	475.81
627.73	474.81
628.08	473.05
628.43	471.24
628.77	468.43
629.12	467.14
629.46	465.52
629.81	464.24
630.15	462.76
630.50	460.57
630.84	458.57
631.19	455.67
631.53	452.95
631.88	447.67
632.22	443.67
632.57	442.00
632.91	439.76
633.26	437.67
633.60	435.00
633.95	432.86
634.29	429.86
634.64	427.62
634.98	424.52
635.32	422.90
635.67	421.24
636.01	419.05
636.36	416.95
636.70	414.81
637.05	412.38
637.39	409.86
637.73	407.95
638.08	406.57
638.42	404.71
638.77	403.24
639.11	402.00
639.45	400.33
639.80	398.33
640.14	396.71
640.49	394.76
640.83	392.90
641.17	391.76
641.52	390.52
641.86	389.00
642.20	388.52
642.55	385.95
642.89	384.52
643.23	383.62
643.58	382.71
643.92	381.52
644.26	380.71
644.61	380.14
644.95	379.29
645.29	377.76
645.64	377.95
645.98	376.48
646.32	376.43
646.66	375.90
647.01	375.48
647.35	375.00
647.69	374.90
648.04	374.81
648.38	373.86
648.72	372.81
649.06	371.86
649.41	370.43
649.75	369.81
650.09	369.00
650.43	367.86
650.78	366.52
651.12	365.14
651.46	363.81
651.80	362.33
652.14	360.67
652.49	360.48
652.83	358.81
653.17	357.71
653.51	355.76
653.85	354.86
654.20	353.76
654.54	351.95
654.88	350.05
655.22	348.33
655.56	346.81
655.90	345.76
656.25	345.00
656.59	343.90
656.93	343.29
657.27	342.86
657.61	341.48
657.95	341.00
658.29	340.43
658.64	340.62
658.98	340.29
659.32	339.76
659.66	338.62
660.00	337.95
660.34	337.48
660.68	337.10
661.02	335.90
661.36	334.52
661.70	334.14
662.05	334.10
662.39	333.95
662.73	333.95
663.07	334.76
663.41	334.05
663.75	332.95
664.09	332.33
664.43	331.43
664.77	331.10
665.11	329.76
665.45	329.29
665.79	328.38
666.13	327.19
666.47	326.38
666.81	325.43
667.15	324.62
667.49	324.05
667.83	324.05
668.17	323.24
668.51	322.43
668.85	321.76
669.19	321.52
669.53	320.29
669.87	319.14
670.21	317.24
670.55	316.67
670.89	317.43
671.23	316.48
671.57	315.67
671.91	315.43
672.25	314.95
672.58	315.19
672.92	314.19
673.26	313.76
673.60	313.52
673.94	312.86
674.28	312.14
674.62	311.62
674.96	310.76
675.30	310.81
675.64	310.62
675.97	309.95
676.31	308.81
676.65	308.05
676.99	308.38
677.33	307.10
677.67	306.48
678.01	304.62
678.34	304.05
678.68	303.95
679.02	302.86
679.36	302.29
679.70	300.95
680.04	300.57
680.37	300.29
680.71	299.33
681.05	298.95
681.39	298.57
681.73	298.00
682.06	296.95
682.40	296.14
682.74	296.05
683.08	296.81
683.42	296.10
683.75	296.19
684.09	295.00
684.43	295.24
684.77	294.86
685.10	294.52
685.44	294.19
685.78	293.81
686.12	293.00
686.45	292.76
686.79	292.24
687.13	291.90
687.46	291.48
687.80	291.57
688.14	291.14
688.48	291.10
688.81	291.00
689.15	291.67
689.49	291.43
689.82	291.00
690.16	289.05
690.50	288.71
690.83	288.10
691.17	287.48
691.51	286.81
691.84	286.76
692.18	286.52
692.52	286.00
692.85	285.43
693.19	286.57
693.52	286.19
693.86	285.43
694.20	284.71
694.53	284.43
694.87	283.90
695.21	283.14
695.54	282.43
695.88	281.43
696.21	280.14
696.55	279.86
696.88	279.24
697.22	279.10
697.56	279.05
697.89	278.52
698.23	278.67
698.56	278.33
698.90	278.10
699.23	277.62
699.57	277.57
699.90	277.14
700.24	276.00
700.58	276.00
700.91	276.57
701.25	279.00
701.58	279.76
701.92	280.43
702.25	280.86
702.59	281.38
702.92	281.95
703.26	282.76
703.59	283.33
703.93	285.76
704.26	286.71
704.60	287.14
704.93	287.81
705.26	287.86
705.60	288.76
705.93	288.43
706.27	289.57
706.60	290.43
706.94	291.90
707.27	292.19
707.61	292.29
707.94	292.43
708.27	291.00
708.61	290.19
708.94	289.86
709.28	289.52
709.61	288.33
709.94	288.05
710.28	287.43
710.61	286.38
710.95	283.52
711.28	284.05
711.61	283.24
711.95	282.57
712.28	281.52
712.61	280.24
712.95	281.05
713.28	281.19
713.61	279.90
713.95	277.62
714.28	276.76
714.61	275.62
714.95	274.33
715.28	272.86
715.61	272.05
715.95	271.48
716.28	270.67
716.61	270.71
716.95	269.95
717.28	269.24
717.61	269.00
717.94	268.62
718.28	266.48
718.61	265.67
718.94	265.10
719.27	264.95
719.61	264.95
719.94	263.86
720.27	262.05
720.60	261.86
720.94	261.81
721.27	261.57
721.60	261.86
721.93	261.81
722.27	262.10
722.60	262.29
722.93	261.71
723.26	261.86
723.59	261.33
723.93	261.38
724.26	261.19
724.59	260.95
724.92	260.86
725.25	261.57
725.59	261.62
725.92	261.67
726.25	261.48
726.58	261.33
726.91	261.10
727.24	261.38
727.57	261.14
727.91	260.71
728.24	260.81
728.57	260.48
728.90	260.62
729.23	259.71
729.56	260.38
729.89	260.19
730.22	259.71
730.55	259.57
730.89	259.52
731.22	259.57
731.55	259.14
731.88	259.10
732.21	258.24
732.54	257.86
732.87	257.81
733.20	257.81
733.53	257.86
733.86	257.57
734.19	257.14
734.52	257.24
734.85	258.90
735.18	258.62
735.51	259.24
735.84	259.29
736.17	260.00
736.50	259.00
736.83	261.95
737.16	262.14
737.49	262.00
737.82	261.62
738.15	261.57
738.48	261.57
738.81	261.33
739.14	260.95
739.47	261.00
739.80	260.86
740.13	260.76
740.46	260.14
740.79	259.86
741.12	259.57
741.45	259.33
741.78	258.00
742.11	258.24
742.44	257.33
742.77	257.29
743.10	256.71
743.43	256.24
743.75	253.48
744.08	256.48
744.41	256.43
744.74	256.10
745.07	255.52
745.40	255.81
745.73	256.81
746.06	257.33
746.39	257.57
746.71	256.90
747.04	256.62
747.37	256.48
747.70	256.95
748.03	256.95
748.36	257.24
748.68	256.90
749.01	256.48
749.34	256.57
749.67	256.33
750.00	256.62
750.33	258.48
750.65	258.67
750.98	255.48
751.31	255.48
751.64	255.38
751.97	256.81
752.29	256.38
752.62	255.05
752.95	254.57
753.28	254.29
753.60	254.33
753.93	254.67
754.26	254.71
754.59	253.95
754.91	253.95
755.24	253.52
755.57	253.62
755.90	253.62
756.22	253.14
756.55	252.86
756.88	252.38
757.20	250.81
757.53	249.76
757.86	250.14
758.19	250.33
758.51	250.52
758.84	249.43
759.17	249.33
759.49	249.86
759.82	250.90
760.15	250.86
760.47	251.14
760.80	250.67
761.13	251.29
761.45	251.05
761.78	250.71
762.11	250.67
762.43	250.19
762.76	249.81
763.08	250.29
763.41	250.67
763.74	250.71
764.06	250.48
764.39	250.52
764.71	250.19
765.04	249.57
765.37	249.48
765.69	249.29
766.02	249.33
766.34	248.86
766.67	248.10
767.00	248.81
767.32	249.81
767.65	251.29
767.97	250.86
768.30	251.19
768.62	251.24
768.95	251.14
769.27	251.24
769.60	251.57
769.92	251.43
770.25	250.95
770.57	250.52
770.90	250.48
771.22	250.33
771.55	250.48
771.87	250.86
772.20	250.95
772.52	252.86
772.85	255.57
773.17	255.48
773.50	255.19
773.82	254.43
774.15	253.67
774.47	252.10
774.80	251.86
775.12	251.62
775.45	251.43
775.77	251.24
776.09	251.24
776.42	251.33
776.74	251.95
777.07	251.67
777.39	251.67
777.72	251.24
778.04	251.62
778.36	250.76
778.69	250.52
779.01	250.57
779.33	248.38
779.66	245.62
779.98	245.48
780.31	245.48
780.63	246.62
780.95	246.86
781.28	246.43
781.60	246.24
781.92	246.14
782.25	246.52
782.57	246.81
782.89	246.62
783.22	246.19
783.54	245.38
783.86	245.71
784.19	245.76
784.51	246.52
784.83	246.10
785.16	245.95
785.48	245.86
785.80	245.57
786.12	245.86
786.45	245.76
786.77	245.71
787.09	245.52
787.42	244.52
787.74	244.52
788.06	245.00
788.38	244.95
788.71	244.95
789.03	244.76
789.35	244.95
789.67	244.62
789.99	244.71
790.32	244.38
790.64	244.43
790.96	246.14
791.28	245.10
791.61	245.05
791.93	245.38
792.25	245.38
792.57	247.14
792.89	246.52
793.21	246.76
793.54	246.67
793.86	246.48
