SpectraSuite Data File
++++++++++++++++++++++++++++++++++++
Date: Wed Nov 07 18:32:40 EST 2012
User: group
Dark Spectrum Present: No
Reference Spectrum Present: No
Number of Sampled Component Spectra: 1
Spectrometers: USB2E7196
Integration Time (usec): 1000000 (USB2E7196)
Spectra Averaged: 1 (USB2E7196)
Boxcar Smoothing: 10 (USB2E7196)
Correct for Electrical Dark: No (USB2E7196)
Strobe/Lamp Enabled: No (USB2E7196)
Correct for Detector Non-linearity: No (USB2E7196)
Correct for Stray Light: No (USB2E7196)
Number of Pixels in Processed Spectrum: 2048
>>>>>Begin Processed Spectral Data<<<<<
339.09	0.00
339.48	217.00
339.86	222.00
340.24	220.00
340.63	224.00
341.01	269.00
341.39	225.00
341.78	235.00
342.16	244.00
342.54	231.00
342.93	222.00
343.31	233.14
343.69	233.90
344.07	234.38
344.46	235.19
344.84	235.76
345.22	233.81
345.60	234.14
345.99	234.24
346.37	234.10
346.75	234.19
347.13	234.43
347.52	235.00
347.90	235.90
348.28	236.38
348.66	237.19
349.05	236.48
349.43	236.95
349.81	237.48
350.19	237.57
350.57	237.43
350.96	237.95
351.34	238.19
351.72	238.14
352.10	238.38
352.48	238.24
352.87	238.10
353.25	238.52
353.63	238.57
354.01	238.71
354.39	238.71
354.77	239.10
355.15	239.95
355.54	240.00
355.92	239.33
356.30	239.19
356.68	240.57
357.06	241.05
357.44	240.95
357.82	240.90
358.20	241.24
358.58	241.43
358.97	241.29
359.35	241.62
359.73	241.95
360.11	241.86
360.49	242.24
360.87	242.29
361.25	242.67
361.63	243.43
362.01	243.33
362.39	243.05
362.77	243.19
363.15	242.67
363.53	242.43
363.91	242.76
364.29	242.76
364.67	240.62
365.05	240.62
365.43	240.76
365.81	240.86
366.19	241.95
366.57	243.10
366.95	242.57
367.33	242.29
367.71	242.52
368.09	243.05
368.47	242.43
368.85	242.62
369.23	243.10
369.61	242.29
369.99	243.10
370.37	243.33
370.75	244.19
371.13	243.86
371.51	243.57
371.89	243.33
372.27	243.76
372.65	243.76
373.03	243.62
373.41	243.05
373.78	243.00
374.16	241.52
374.54	240.48
374.92	240.62
375.30	240.57
375.68	240.10
376.06	240.29
376.44	240.33
376.82	240.33
377.19	239.90
377.57	239.86
377.95	239.05
378.33	238.86
378.71	237.38
379.09	237.67
379.47	237.95
379.84	238.05
380.22	237.24
380.60	236.86
380.98	236.71
381.36	237.05
381.73	237.00
382.11	237.52
382.49	237.71
382.87	237.33
383.25	237.43
383.62	240.05
384.00	239.29
384.38	239.71
384.76	240.38
385.13	241.57
385.51	241.62
385.89	241.38
386.27	241.81
386.64	242.48
387.02	242.14
387.40	241.86
387.78	241.95
388.15	242.67
388.53	242.62
388.91	242.76
389.29	242.48
389.66	242.62
390.04	242.76
390.42	243.10
390.79	243.43
391.17	243.52
391.55	241.24
391.92	241.52
392.30	241.62
392.68	241.10
393.05	240.90
393.43	241.19
393.81	241.29
394.18	240.67
394.56	240.62
394.94	241.19
395.31	240.95
395.69	241.71
396.06	242.05
396.44	242.48
396.82	241.95
397.19	243.14
397.57	242.81
397.95	242.90
398.32	242.57
398.70	242.81
399.07	243.10
399.45	243.10
399.82	243.00
400.20	242.76
400.58	242.76
400.95	241.76
401.33	242.24
401.70	244.00
402.08	244.29
402.45	244.43
402.83	245.05
403.20	245.38
403.58	245.19
403.95	245.38
404.33	245.38
404.71	246.19
405.08	247.71
405.46	248.24
405.83	248.05
406.21	248.43
406.58	248.90
406.96	249.24
407.33	249.76
407.70	250.57
408.08	253.10
408.45	253.86
408.83	254.86
409.20	255.10
409.58	254.57
409.95	255.81
410.33	256.86
410.70	257.19
411.08	258.76
411.45	259.67
411.82	260.33
412.20	262.76
412.57	265.05
412.95	264.52
413.32	266.52
413.69	268.24
414.07	270.00
414.44	272.05
414.82	273.95
415.19	276.43
415.56	278.33
415.94	279.52
416.31	282.67
416.68	285.52
417.06	289.24
417.43	293.14
417.81	296.86
418.18	300.38
418.55	304.24
418.93	308.00
419.30	312.33
419.67	317.19
420.04	321.33
420.42	325.48
420.79	332.86
421.16	338.43
421.54	346.00
421.91	352.57
422.28	358.67
422.66	365.48
423.03	373.71
423.40	380.81
423.77	388.10
424.15	395.38
424.52	403.29
424.89	411.71
425.26	419.05
425.64	426.10
426.01	433.95
426.38	442.81
426.75	453.24
427.13	462.67
427.50	471.90
427.87	481.19
428.24	491.05
428.61	499.48
428.99	510.67
429.36	521.00
429.73	531.62
430.10	543.76
430.47	556.00
430.85	566.29
431.22	580.05
431.59	596.81
431.96	609.33
432.33	623.76
432.70	637.86
433.08	655.19
433.45	671.14
433.82	687.29
434.19	703.95
434.56	719.48
434.93	734.81
435.30	750.62
435.68	768.10
436.05	785.71
436.42	801.86
436.79	818.24
437.16	835.05
437.53	852.48
437.90	868.05
438.27	884.00
438.64	901.57
439.01	916.95
439.38	927.33
439.75	941.43
440.13	956.10
440.50	969.95
440.87	980.00
441.24	991.76
441.61	1003.48
441.98	1013.29
442.35	1023.95
442.72	1035.29
443.09	1046.33
443.46	1051.71
443.83	1054.86
444.20	1057.90
444.57	1061.00
444.94	1061.62
445.31	1064.00
445.68	1069.86
446.05	1069.81
446.42	1067.05
446.79	1063.81
447.16	1061.05
447.53	1057.81
447.90	1050.14
448.27	1042.76
448.64	1033.38
449.01	1026.10
449.37	1014.81
449.74	1002.52
450.11	991.33
450.48	976.29
450.85	960.52
451.22	949.05
451.59	936.86
451.96	925.48
452.33	910.81
452.70	897.10
453.07	879.48
453.43	858.86
453.80	842.38
454.17	826.43
454.54	810.81
454.91	794.10
455.28	778.57
455.65	764.00
456.02	753.43
456.38	741.14
456.75	726.05
457.12	713.19
457.49	701.10
457.86	686.43
458.23	677.10
458.59	666.00
458.96	653.90
459.33	643.76
459.70	633.67
460.07	625.24
460.43	615.76
460.80	607.52
461.17	599.90
461.54	592.38
461.91	584.71
462.27	577.71
462.64	571.38
463.01	564.67
463.38	558.76
463.74	547.67
464.11	541.43
464.48	536.19
464.85	530.52
465.21	526.33
465.58	522.24
465.95	515.48
466.32	510.81
466.68	505.95
467.05	501.67
467.42	496.67
467.78	491.29
468.15	487.05
468.52	483.52
468.88	479.24
469.25	475.00
469.62	472.38
469.98	468.71
470.35	465.95
470.72	462.95
471.08	459.00
471.45	456.33
471.82	453.67
472.18	450.43
472.55	448.05
472.92	444.48
473.28	441.43
473.65	438.90
474.02	436.52
474.38	434.86
474.75	432.33
475.11	430.24
475.48	429.10
475.85	427.67
476.21	425.71
476.58	424.52
476.94	423.71
477.31	421.81
477.67	420.86
478.04	419.57
478.41	419.10
478.77	420.81
479.14	420.10
479.50	419.90
479.87	419.81
480.23	419.90
480.60	419.95
480.96	420.10
481.33	421.29
481.69	421.48
482.06	421.95
482.42	422.90
482.79	423.90
483.15	424.24
483.52	425.43
483.88	426.52
484.25	427.38
484.61	427.90
484.98	429.14
485.34	431.38
485.71	433.19
486.07	434.00
486.44	432.95
486.80	435.10
487.17	435.76
487.53	437.86
487.90	439.95
488.26	442.71
488.62	444.48
488.99	446.14
489.35	448.24
489.72	449.48
490.08	451.19
490.44	453.00
490.81	455.76
491.17	457.52
491.54	460.05
491.90	462.29
492.26	465.10
492.63	467.81
492.99	469.62
493.36	472.29
493.72	475.38
494.08	478.48
494.45	481.38
494.81	485.48
495.17	488.29
495.54	491.62
495.90	494.81
496.26	498.43
496.63	502.38
496.99	505.48
497.35	509.81
497.72	514.05
498.08	517.48
498.44	521.05
498.80	525.76
499.17	530.33
499.53	534.38
499.89	538.95
500.26	543.48
500.62	548.00
500.98	552.95
501.34	557.29
501.71	563.33
502.07	567.90
502.43	572.29
502.79	577.38
503.16	582.52
503.52	587.19
503.88	592.33
504.24	597.14
504.60	602.43
504.97	608.43
505.33	613.38
505.69	620.29
506.05	625.43
506.41	631.24
506.78	636.67
507.14	642.00
507.50	647.62
507.86	653.10
508.22	658.43
508.59	663.10
508.95	668.67
509.31	673.62
509.67	679.33
510.03	684.57
510.39	689.81
510.75	694.67
511.12	699.43
511.48	704.71
511.84	709.57
512.20	715.48
512.56	720.33
512.92	725.29
513.28	729.48
513.64	734.57
514.00	739.14
514.37	743.71
514.73	748.71
515.09	753.14
515.45	757.19
515.81	761.95
516.17	766.24
516.53	770.86
516.89	774.10
517.25	777.81
517.61	783.00
517.97	786.81
518.33	790.48
518.69	795.05
519.05	798.67
519.41	802.86
519.77	807.67
520.13	810.67
520.49	814.10
520.85	817.76
521.21	822.52
521.57	825.52
521.93	827.86
522.29	830.90
522.65	832.67
523.01	835.76
523.37	837.52
523.73	840.33
524.09	842.33
524.45	845.24
524.81	847.62
525.17	849.38
525.53	851.10
525.89	852.52
526.25	854.95
526.61	856.14
526.97	856.95
527.33	857.76
527.68	861.62
528.04	862.86
528.40	863.76
528.76	864.71
529.12	865.10
529.48	867.62
529.84	868.76
530.20	870.57
530.56	872.24
530.91	874.71
531.27	876.05
531.63	877.29
531.99	877.29
532.35	878.14
532.71	878.19
533.07	879.67
533.42	883.81
533.78	883.71
534.14	885.43
534.50	886.43
534.86	887.76
535.21	886.43
535.57	888.10
535.93	888.52
536.29	889.76
536.65	891.62
537.00	892.24
537.36	894.05
537.72	896.86
538.08	898.14
538.44	899.33
538.79	901.81
539.15	904.62
539.51	907.62
539.87	909.48
540.22	912.24
540.58	914.29
540.94	914.67
541.29	918.33
541.65	920.19
542.01	923.57
542.37	925.14
542.72	925.95
543.08	926.33
543.44	927.52
543.79	925.67
544.15	926.67
544.51	927.48
544.87	927.33
545.22	925.52
545.58	924.19
545.94	922.19
546.29	919.33
546.65	916.38
547.01	913.57
547.36	911.14
547.72	908.76
548.07	906.00
548.43	902.10
548.79	898.00
549.14	895.05
549.50	892.05
549.86	888.10
550.21	885.76
550.57	883.52
550.92	880.81
551.28	880.19
551.64	876.76
551.99	873.52
552.35	870.86
552.70	868.33
553.06	866.43
553.41	864.71
553.77	864.43
554.13	862.67
554.48	862.19
554.84	861.10
555.19	858.90
555.55	858.71
555.90	857.24
556.26	854.71
556.61	851.62
556.97	847.52
557.32	845.38
557.68	843.48
558.03	841.67
558.39	840.24
558.74	836.95
559.10	835.33
559.45	832.95
559.81	830.71
560.16	828.67
560.52	826.76
560.87	825.24
561.23	822.38
561.58	822.76
561.94	819.57
562.29	817.67
562.64	815.90
563.00	812.52
563.35	810.90
563.71	809.71
564.06	808.57
564.42	807.10
564.77	806.24
565.12	805.05
565.48	805.05
565.83	804.00
566.19	803.86
566.54	802.48
566.89	800.81
567.25	801.05
567.60	801.33
567.96	801.76
568.31	802.43
568.66	802.14
569.02	798.14
569.37	797.14
569.72	795.76
570.08	793.76
570.43	791.90
570.78	790.81
571.14	789.33
571.49	788.14
571.84	788.24
572.20	786.71
572.55	785.71
572.90	782.62
573.26	780.57
573.61	779.05
573.96	777.71
574.31	776.90
574.67	774.24
575.02	772.24
575.37	769.43
575.72	766.10
576.08	763.90
576.43	763.10
576.78	761.90
577.13	760.19
577.49	759.86
577.84	758.90
578.19	757.38
578.54	757.00
578.90	755.95
579.25	753.76
579.60	753.71
579.95	751.10
580.30	750.00
580.66	749.05
581.01	747.71
581.36	745.29
581.71	744.05
582.06	744.57
582.42	743.29
582.77	741.43
583.12	740.24
583.47	739.29
583.82	738.00
584.17	736.43
584.53	736.29
584.88	733.67
585.23	733.24
585.58	731.10
585.93	728.71
586.28	726.57
586.63	725.43
586.98	722.29
587.34	721.14
587.69	718.86
588.04	716.52
588.39	713.48
588.74	711.52
589.09	709.62
589.44	705.24
589.79	702.33
590.14	698.95
590.49	696.14
590.84	692.29
591.19	689.29
591.54	686.57
591.89	681.90
592.25	681.48
592.60	676.86
592.95	673.95
593.30	671.05
593.65	668.05
594.00	664.33
594.35	668.81
594.70	665.29
595.05	662.38
595.40	659.24
595.75	656.05
596.10	653.33
596.45	649.95
596.80	647.14
597.15	643.67
597.50	641.67
597.85	639.62
598.19	636.90
598.54	634.05
598.89	630.62
599.24	628.67
599.59	624.67
599.94	622.52
600.29	620.00
600.64	617.33
600.99	615.67
601.34	613.71
601.69	603.52
602.04	600.81
602.39	598.24
602.74	596.67
603.08	595.33
603.43	594.90
603.78	593.29
604.13	590.81
604.48	589.62
604.83	588.48
605.18	587.48
605.53	587.71
605.87	589.76
606.22	593.14
606.57	597.19
606.92	601.90
607.27	607.57
607.62	613.05
607.96	618.33
608.31	622.67
608.66	626.81
609.01	630.48
609.36	633.81
609.70	637.86
610.05	640.14
610.40	643.05
610.75	643.95
611.10	645.33
611.44	646.71
611.79	646.95
612.14	647.38
612.49	645.38
612.83	643.43
613.18	638.95
613.53	634.00
613.88	627.14
614.22	618.76
614.57	610.19
614.92	601.52
615.27	593.71
615.61	585.86
615.96	578.38
616.31	571.71
616.65	566.86
617.00	560.10
617.35	553.86
617.70	547.38
618.04	542.29
618.39	537.38
618.74	534.05
619.08	530.14
619.43	525.29
619.78	521.95
620.12	518.43
620.47	515.67
620.82	512.19
621.16	509.14
621.51	508.29
621.85	505.67
622.20	504.00
622.55	501.00
622.89	498.62
623.24	496.33
623.59	493.71
623.93	491.14
624.28	489.00
624.62	489.71
624.97	488.86
625.32	485.95
625.66	483.71
626.01	481.10
626.35	479.67
626.70	478.24
627.04	477.00
627.39	475.29
627.73	474.19
628.08	472.14
628.43	470.14
628.77	466.81
629.12	464.86
629.46	462.67
629.81	461.14
630.15	459.10
630.50	457.10
630.84	455.48
631.19	452.71
631.53	450.33
631.88	445.19
632.22	441.38
632.57	440.14
632.91	438.05
633.26	435.67
633.60	432.90
633.95	430.62
634.29	426.95
634.64	424.62
634.98	421.14
635.32	419.14
635.67	417.67
636.01	416.10
636.36	413.67
636.70	412.19
637.05	410.05
637.39	408.33
637.73	406.67
638.08	405.48
638.42	403.67
638.77	401.86
639.11	400.10
639.45	398.57
639.80	395.90
640.14	394.24
640.49	392.43
640.83	390.57
641.17	388.95
641.52	388.24
641.86	386.90
642.20	386.86
642.55	385.52
642.89	384.10
643.23	382.71
643.58	383.05
643.92	381.10
644.26	379.76
644.61	378.86
644.95	377.57
645.29	375.86
645.64	375.95
645.98	375.43
646.32	375.24
646.66	374.38
647.01	373.76
647.35	373.14
647.69	372.86
648.04	372.57
648.38	371.43
648.72	370.19
649.06	369.24
649.41	367.48
649.75	366.67
650.09	366.05
650.43	364.86
650.78	362.43
651.12	361.71
651.46	360.71
651.80	359.57
652.14	358.48
652.49	357.90
652.83	356.10
653.17	354.43
653.51	352.81
653.85	352.10
654.20	351.00
654.54	349.19
654.88	347.33
655.22	345.43
655.56	344.62
655.90	343.52
656.25	342.24
656.59	341.24
656.93	340.05
657.27	339.38
657.61	338.43
657.95	338.57
658.29	338.00
658.64	337.71
658.98	336.57
659.32	335.67
659.66	334.62
660.00	333.90
660.34	333.76
660.68	333.24
661.02	332.71
661.36	332.24
661.70	331.76
662.05	330.86
662.39	331.71
662.73	331.86
663.07	332.86
663.41	332.71
663.75	331.86
664.09	331.52
664.43	330.19
664.77	329.62
665.11	328.33
665.45	327.10
665.79	326.86
666.13	326.38
666.47	325.67
666.81	324.95
667.15	324.00
667.49	323.24
667.83	323.48
668.17	322.24
668.51	321.29
668.85	320.57
669.19	321.19
669.53	319.33
669.87	318.00
670.21	316.14
670.55	315.76
670.89	316.10
671.23	315.52
671.57	315.05
671.91	314.33
672.25	314.00
672.58	314.33
672.92	313.00
673.26	312.67
673.60	312.19
673.94	311.57
674.28	311.38
674.62	311.00
674.96	309.95
675.30	309.71
675.64	309.76
675.97	309.76
676.31	308.48
676.65	308.52
676.99	308.86
677.33	308.29
677.67	307.52
678.01	305.95
678.34	305.48
678.68	305.19
679.02	304.57
679.36	303.95
679.70	303.24
680.04	302.29
680.37	301.71
680.71	301.38
681.05	301.00
681.39	300.48
681.73	299.71
682.06	299.33
682.40	299.19
682.74	298.38
683.08	298.86
683.42	298.57
683.75	298.67
684.09	297.95
684.43	297.95
684.77	297.29
685.10	297.10
685.44	296.76
685.78	296.14
686.12	295.76
686.45	295.57
686.79	294.57
687.13	294.86
687.46	294.33
687.80	294.43
688.14	294.05
688.48	294.14
688.81	294.19
689.15	294.33
689.49	293.90
689.82	294.14
690.16	292.52
690.50	291.71
690.83	290.86
691.17	289.76
691.51	289.14
691.84	288.90
692.18	288.38
692.52	287.71
692.85	287.86
693.19	288.38
693.52	287.71
693.86	287.14
694.20	286.52
694.53	286.14
694.87	285.57
695.21	285.05
695.54	284.14
695.88	283.38
696.21	281.86
696.55	281.33
696.88	280.57
697.22	280.05
697.56	280.00
697.89	279.00
698.23	279.10
698.56	278.29
698.90	278.19
699.23	277.90
699.57	278.10
699.90	277.29
700.24	276.52
700.58	276.71
700.91	277.14
701.25	278.86
701.58	279.76
701.92	280.43
702.25	280.95
702.59	280.86
702.92	281.29
703.26	282.05
703.59	282.43
703.93	284.90
704.26	285.67
704.60	286.33
704.93	287.14
705.26	287.38
705.60	288.52
705.93	288.81
706.27	289.76
706.60	290.24
706.94	291.62
707.27	291.43
707.61	291.43
707.94	291.67
708.27	290.14
708.61	289.00
708.94	288.71
709.28	288.19
709.61	287.81
709.94	287.38
710.28	286.52
710.61	285.81
710.95	282.67
711.28	283.43
711.61	282.38
711.95	281.71
712.28	280.57
712.61	279.57
712.95	280.00
713.28	279.95
713.61	278.71
713.95	277.00
714.28	276.57
714.61	275.67
714.95	274.43
715.28	273.10
715.61	272.38
715.95	271.29
716.28	270.19
716.61	269.81
716.95	268.81
717.28	268.57
717.61	268.05
717.94	267.38
718.28	265.05
718.61	264.71
718.94	264.24
719.27	264.10
719.61	263.71
719.94	262.10
720.27	260.81
720.60	260.57
720.94	260.48
721.27	260.43
721.60	260.71
721.93	260.71
722.27	261.48
722.60	261.62
722.93	261.43
723.26	261.71
723.59	261.14
723.93	261.38
724.26	261.52
724.59	261.10
724.92	261.52
725.25	262.29
725.59	262.10
725.92	262.10
726.25	261.67
726.58	261.52
726.91	261.67
727.24	262.14
727.57	261.95
727.91	261.38
728.24	261.10
728.57	260.62
728.90	260.43
729.23	259.81
729.56	260.90
729.89	260.52
730.22	260.10
730.55	259.95
730.89	259.90
731.22	259.10
731.55	259.24
731.88	259.19
732.21	258.29
732.54	257.86
732.87	257.67
733.20	257.38
733.53	257.38
733.86	257.57
734.19	256.67
734.52	256.81
734.85	258.52
735.18	258.19
735.51	258.48
735.84	258.90
736.17	259.00
736.50	257.76
736.83	260.62
737.16	260.90
737.49	261.33
737.82	260.52
738.15	260.86
738.48	260.43
738.81	259.67
739.14	259.81
739.47	259.86
739.80	259.62
740.13	260.14
740.46	259.81
740.79	259.10
741.12	258.95
741.45	258.52
741.78	257.24
742.11	258.14
742.44	257.43
742.77	257.52
743.10	257.14
743.43	256.71
743.75	253.81
744.08	256.48
744.41	256.19
744.74	256.43
745.07	255.86
745.40	256.14
745.73	257.29
746.06	257.14
746.39	257.14
746.71	257.24
747.04	256.76
747.37	256.24
747.70	256.67
748.03	256.95
748.36	256.81
748.68	256.33
749.01	255.00
749.34	255.38
749.67	255.29
750.00	255.48
750.33	257.48
750.65	257.67
750.98	254.67
751.31	254.62
751.64	254.62
751.97	256.14
752.29	256.10
752.62	255.05
752.95	254.81
753.28	254.38
753.60	253.67
753.93	254.10
754.26	254.29
754.59	253.19
754.91	252.71
755.24	252.48
755.57	252.43
755.90	252.29
756.22	251.76
756.55	251.00
756.88	250.48
757.20	248.38
757.53	247.67
757.86	247.48
758.19	247.43
758.51	247.33
758.84	245.86
759.17	245.43
759.49	245.81
759.82	246.86
760.15	247.43
760.47	247.48
760.80	246.81
761.13	247.24
761.45	247.43
761.78	247.38
762.11	247.86
762.43	247.67
762.76	247.86
763.08	248.14
763.41	248.38
763.74	248.62
764.06	248.38
764.39	248.14
764.71	248.29
765.04	248.33
765.37	248.48
765.69	248.33
766.02	248.33
766.34	247.90
766.67	246.81
767.00	246.95
767.32	248.43
767.65	250.00
767.97	249.76
768.30	249.71
768.62	249.90
768.95	249.57
769.27	249.29
769.60	249.33
769.92	248.90
770.25	248.57
770.57	248.10
770.90	248.14
771.22	248.29
771.55	248.19
771.87	248.14
772.20	247.95
772.52	250.05
772.85	253.43
773.17	253.29
773.50	253.29
773.82	252.81
774.15	251.52
774.47	249.71
774.80	249.62
775.12	249.86
775.45	249.38
775.77	249.43
776.09	249.86
776.42	249.86
776.74	250.33
777.07	249.95
777.39	250.10
777.72	250.05
778.04	250.43
778.36	250.05
778.69	249.81
779.01	249.76
779.33	247.71
779.66	244.38
779.98	244.00
780.31	244.10
780.63	244.95
780.95	245.43
781.28	245.62
781.60	245.29
781.92	245.05
782.25	245.33
782.57	245.24
782.89	244.81
783.22	244.86
783.54	244.48
783.86	244.52
784.19	244.14
784.51	244.95
784.83	243.90
785.16	243.90
785.48	244.05
785.80	244.05
786.12	244.29
786.45	244.48
786.77	244.95
787.09	244.90
787.42	244.14
787.74	243.95
788.06	244.05
788.38	243.86
788.71	243.52
789.03	243.38
789.35	243.71
789.67	243.62
789.99	243.62
790.32	243.62
790.64	244.00
790.96	246.10
791.28	245.43
791.61	245.90
791.93	246.00
792.25	245.86
792.57	247.48
792.89	246.90
793.21	246.67
793.54	246.48
793.86	246.10
