SpectraSuite Data File
++++++++++++++++++++++++++++++++++++
Date: Wed Nov 07 18:31:41 EST 2012
User: group
Dark Spectrum Present: No
Reference Spectrum Present: No
Number of Sampled Component Spectra: 1
Spectrometers: USB2E7196
Integration Time (usec): 1000000 (USB2E7196)
Spectra Averaged: 1 (USB2E7196)
Boxcar Smoothing: 10 (USB2E7196)
Correct for Electrical Dark: No (USB2E7196)
Strobe/Lamp Enabled: No (USB2E7196)
Correct for Detector Non-linearity: No (USB2E7196)
Correct for Stray Light: No (USB2E7196)
Number of Pixels in Processed Spectrum: 2048
>>>>>Begin Processed Spectral Data<<<<<
339.09	0.00
339.48	217.00
339.86	216.00
340.24	217.00
340.63	225.00
341.01	263.00
341.39	223.00
341.78	232.00
342.16	239.00
342.54	232.00
342.93	221.48
343.31	232.48
343.69	233.19
344.07	233.67
344.46	234.86
344.84	235.43
345.22	234.14
345.60	234.71
345.99	234.52
346.37	234.38
346.75	234.57
347.13	234.86
347.52	235.33
347.90	236.43
348.28	236.71
348.66	237.57
349.05	237.14
349.43	237.67
349.81	237.71
350.19	237.81
350.57	238.14
350.96	238.33
351.34	238.52
351.72	238.76
352.10	239.19
352.48	238.90
352.87	238.81
353.25	238.81
353.63	238.76
354.01	239.33
354.39	239.71
354.77	239.57
355.15	240.05
355.54	239.81
355.92	238.86
356.30	239.10
356.68	240.76
357.06	240.67
357.44	240.33
357.82	240.48
358.20	240.86
358.58	240.57
358.97	240.67
359.35	241.48
359.73	241.71
360.11	241.71
360.49	241.86
360.87	241.95
361.25	242.29
361.63	243.29
362.01	243.38
362.39	242.90
362.77	243.10
363.15	243.05
363.53	242.86
363.91	243.05
364.29	243.14
364.67	240.38
365.05	241.05
365.43	241.14
365.81	241.19
366.19	241.95
366.57	242.95
366.95	242.76
367.33	241.86
367.71	242.24
368.09	242.76
368.47	242.86
368.85	243.00
369.23	243.29
369.61	242.05
369.99	242.81
370.37	243.29
370.75	244.67
371.13	244.29
371.51	243.86
371.89	244.00
372.27	243.86
372.65	244.10
373.03	243.76
373.41	243.76
373.78	243.90
374.16	243.05
374.54	242.33
374.92	242.14
375.30	242.29
375.68	241.43
376.06	241.33
376.44	240.81
376.82	240.52
377.19	240.33
377.57	240.43
377.95	239.43
378.33	239.24
378.71	237.95
379.09	238.24
379.47	238.76
379.84	238.05
380.22	237.86
380.60	237.57
380.98	237.29
381.36	237.14
381.73	236.95
382.11	237.52
382.49	237.57
382.87	237.19
383.25	237.24
383.62	240.19
384.00	239.86
384.38	240.14
384.76	241.00
385.13	242.05
385.51	241.95
385.89	241.76
386.27	241.86
386.64	241.86
387.02	241.76
387.40	241.43
387.78	242.19
388.15	242.38
388.53	242.29
388.91	242.52
389.29	242.48
389.66	242.67
390.04	242.05
390.42	242.38
390.79	242.76
391.17	242.90
391.55	240.24
391.92	240.24
392.30	240.57
392.68	239.76
393.05	239.52
393.43	239.95
393.81	240.24
394.18	239.76
394.56	240.05
394.94	240.38
395.31	240.33
395.69	241.05
396.06	241.29
396.44	241.67
396.82	241.43
397.19	242.76
397.57	242.24
397.95	242.90
398.32	242.24
398.70	242.38
399.07	242.71
399.45	242.33
399.82	242.24
400.20	242.00
400.58	242.38
400.95	241.52
401.33	242.24
401.70	243.95
402.08	244.29
402.45	244.52
402.83	244.95
403.20	245.38
403.58	245.10
403.95	245.52
404.33	245.86
404.71	246.14
405.08	247.29
405.46	247.76
405.83	247.95
406.21	248.43
406.58	249.05
406.96	249.38
407.33	250.57
407.70	251.52
408.08	254.10
408.45	255.14
408.83	256.33
409.20	256.38
409.58	255.71
409.95	257.05
410.33	257.76
410.70	257.81
411.08	259.05
411.45	260.38
411.82	261.33
412.20	263.10
412.57	265.86
412.95	265.38
413.32	267.48
413.69	268.90
414.07	270.81
414.44	272.67
414.82	274.86
415.19	277.29
415.56	279.48
415.94	280.43
416.31	282.90
416.68	285.95
417.06	289.43
417.43	293.24
417.81	296.52
418.18	300.33
418.55	304.90
418.93	309.14
419.30	312.90
419.67	317.33
420.04	321.81
420.42	326.29
420.79	334.14
421.16	339.38
421.54	346.48
421.91	352.33
422.28	358.86
422.66	365.10
423.03	373.33
423.40	380.76
423.77	388.52
424.15	396.24
424.52	403.57
424.89	412.38
425.26	419.43
425.64	427.33
426.01	435.38
426.38	444.19
426.75	453.71
427.13	463.05
427.50	472.81
427.87	482.71
428.24	492.24
428.61	499.81
428.99	511.67
429.36	522.52
429.73	534.05
430.10	546.05
430.47	558.05
430.85	568.33
431.22	581.00
431.59	596.05
431.96	608.57
432.33	623.05
432.70	636.76
433.08	653.33
433.45	668.14
433.82	683.95
434.19	700.19
434.56	716.00
434.93	730.95
435.30	746.90
435.68	764.14
436.05	781.24
436.42	797.71
436.79	812.95
437.16	828.76
437.53	845.57
437.90	861.86
438.27	878.67
438.64	894.76
439.01	910.81
439.38	921.95
439.75	935.76
440.13	951.38
440.50	964.90
440.87	976.90
441.24	989.05
441.61	1002.10
441.98	1011.76
442.35	1022.19
442.72	1034.29
443.09	1045.81
443.46	1051.33
443.83	1054.86
444.20	1058.48
444.57	1062.00
444.94	1062.90
445.31	1064.48
445.68	1069.00
446.05	1068.05
446.42	1065.43
446.79	1062.19
447.16	1059.57
447.53	1056.10
447.90	1047.90
448.27	1041.14
448.64	1030.90
449.01	1023.52
449.37	1010.10
449.74	997.48
450.11	986.81
450.48	970.90
450.85	953.95
451.22	940.76
451.59	928.48
451.96	916.33
452.33	901.52
452.70	888.05
453.07	871.52
453.43	851.19
453.80	835.10
454.17	820.33
454.54	805.00
454.91	788.43
455.28	773.19
455.65	757.90
456.02	747.19
456.38	733.95
456.75	718.57
457.12	706.48
457.49	694.71
457.86	680.24
458.23	671.29
458.59	660.19
458.96	649.14
459.33	638.57
459.70	628.05
460.07	619.62
460.43	610.38
460.80	602.14
461.17	594.29
461.54	586.57
461.91	579.10
462.27	571.14
462.64	564.76
463.01	557.29
463.38	552.19
463.74	540.90
464.11	535.81
464.48	531.48
464.85	526.14
465.21	522.86
465.58	518.43
465.95	511.81
466.32	507.05
466.68	502.48
467.05	498.48
467.42	494.10
467.78	489.62
468.15	484.81
468.52	481.48
468.88	477.62
469.25	473.57
469.62	470.43
469.98	467.14
470.35	464.38
470.72	462.00
471.08	457.38
471.45	455.48
471.82	452.76
472.18	448.86
472.55	446.24
472.92	442.52
473.28	439.29
473.65	437.05
474.02	435.05
474.38	433.43
474.75	431.48
475.11	429.43
475.48	427.81
475.85	426.57
476.21	424.86
476.58	423.76
476.94	422.71
477.31	421.00
477.67	419.76
478.04	418.81
478.41	418.00
478.77	420.05
479.14	418.52
479.50	417.95
479.87	418.48
480.23	418.14
480.60	417.38
480.96	417.62
481.33	418.86
481.69	419.19
482.06	419.52
482.42	419.71
482.79	420.71
483.15	421.33
483.52	422.81
483.88	423.33
484.25	423.62
484.61	424.62
484.98	426.14
485.34	428.29
485.71	429.52
486.07	430.33
486.44	429.52
486.80	431.52
487.17	432.81
487.53	434.29
487.90	436.71
488.26	439.57
488.62	442.14
488.99	443.19
489.35	444.86
489.72	446.48
490.08	448.43
490.44	449.57
490.81	451.38
491.17	453.00
491.54	455.76
491.90	458.81
492.26	461.38
492.63	463.76
492.99	465.48
493.36	468.38
493.72	471.43
494.08	474.33
494.45	477.24
494.81	480.57
495.17	483.19
495.54	486.33
495.90	489.10
496.26	492.33
496.63	496.67
496.99	500.29
497.35	503.81
497.72	508.71
498.08	513.29
498.44	517.76
498.80	522.81
499.17	527.24
499.53	531.24
499.89	535.95
500.26	540.24
500.62	545.48
500.98	550.10
501.34	555.10
501.71	560.48
502.07	565.29
502.43	569.90
502.79	574.95
503.16	579.38
503.52	584.05
503.88	588.67
504.24	593.00
504.60	597.71
504.97	603.33
505.33	607.14
505.69	613.14
506.05	617.86
506.41	622.00
506.78	626.95
507.14	632.05
507.50	637.10
507.86	643.05
508.22	648.76
508.59	654.19
508.95	660.00
509.31	665.67
509.67	671.00
510.03	676.00
510.39	681.43
510.75	686.90
511.12	691.52
511.48	696.38
511.84	701.48
512.20	707.57
512.56	712.24
512.92	717.86
513.28	722.48
513.64	726.95
514.00	731.71
514.37	736.67
514.73	741.38
515.09	746.43
515.45	749.52
515.81	753.29
516.17	756.76
516.53	759.62
516.89	762.05
517.25	766.19
517.61	771.57
517.97	775.19
518.33	778.71
518.69	783.24
519.05	787.38
519.41	790.76
519.77	795.24
520.13	798.67
520.49	801.29
520.85	804.67
521.21	809.90
521.57	813.24
521.93	815.19
522.29	818.10
522.65	819.81
523.01	822.95
523.37	824.95
523.73	827.81
524.09	830.90
524.45	833.48
524.81	835.14
525.17	835.90
525.53	837.62
525.89	839.52
526.25	841.76
526.61	842.71
526.97	844.10
527.33	844.19
527.68	848.62
528.04	850.19
528.40	851.00
528.76	851.10
529.12	852.62
529.48	854.62
529.84	855.05
530.20	856.95
530.56	858.86
530.91	860.33
531.27	861.38
531.63	862.81
531.99	863.90
532.35	865.19
532.71	865.90
533.07	867.86
533.42	871.57
533.78	872.14
534.14	873.43
534.50	874.57
534.86	876.86
535.21	874.24
535.57	875.76
535.93	876.10
536.29	878.00
536.65	879.24
537.00	879.62
537.36	880.95
537.72	881.90
538.08	883.24
538.44	884.43
538.79	886.14
539.15	887.33
539.51	889.00
539.87	890.24
540.22	892.48
540.58	894.33
540.94	894.10
541.29	895.71
541.65	895.90
542.01	897.24
542.37	897.29
542.72	897.38
543.08	897.24
543.44	897.95
543.79	896.19
544.15	896.00
544.51	896.33
544.87	896.24
545.22	895.57
545.58	894.10
545.94	892.24
546.29	890.52
546.65	888.14
547.01	886.10
547.36	883.76
547.72	881.76
548.07	878.71
548.43	875.29
548.79	872.33
549.14	870.24
549.50	867.81
549.86	864.33
550.21	863.24
550.57	861.14
550.92	858.33
551.28	857.43
551.64	855.19
551.99	853.57
552.35	851.10
552.70	848.05
553.06	845.76
553.41	844.19
553.77	843.67
554.13	842.57
554.48	841.05
554.84	840.43
555.19	838.05
555.55	837.52
555.90	836.19
556.26	834.67
556.61	833.24
556.97	831.10
557.32	829.62
557.68	827.90
558.03	826.38
558.39	824.86
558.74	821.67
559.10	819.05
559.45	817.14
559.81	815.43
560.16	814.19
560.52	812.24
560.87	810.86
561.23	808.24
561.58	807.19
561.94	805.00
562.29	802.86
562.64	801.62
563.00	797.86
563.35	795.90
563.71	794.33
564.06	792.00
564.42	789.86
564.77	788.52
565.12	787.10
565.48	786.95
565.83	785.90
566.19	785.24
566.54	784.62
566.89	782.43
567.25	781.81
567.60	781.76
567.96	783.62
568.31	783.38
568.66	782.76
569.02	781.10
569.37	779.71
569.72	777.95
570.08	776.19
570.43	775.38
570.78	773.81
571.14	771.86
571.49	770.86
571.84	769.76
572.20	768.00
572.55	766.48
572.90	763.48
573.26	761.76
573.61	760.05
573.96	758.10
574.31	756.90
574.67	755.10
575.02	752.24
575.37	748.19
575.72	745.24
576.08	742.90
576.43	740.52
576.78	739.19
577.13	737.95
577.49	735.95
577.84	734.19
578.19	732.52
578.54	731.76
578.90	730.71
579.25	729.43
579.60	727.86
579.95	725.33
580.30	724.24
580.66	722.86
581.01	722.05
581.36	720.05
581.71	718.38
582.06	718.24
582.42	717.00
582.77	715.38
583.12	714.33
583.47	712.24
583.82	711.29
584.17	709.86
584.53	708.81
584.88	707.33
585.23	706.43
585.58	703.57
585.93	700.24
586.28	698.29
586.63	696.95
586.98	695.24
587.34	694.00
587.69	691.14
588.04	689.14
588.39	686.19
588.74	683.43
589.09	681.05
589.44	676.43
589.79	674.14
590.14	671.43
590.49	668.71
590.84	665.86
591.19	662.43
591.54	660.29
591.89	655.95
592.25	655.76
592.60	651.38
592.95	650.00
593.30	648.67
593.65	645.62
594.00	641.57
594.35	645.14
594.70	641.95
595.05	639.43
595.40	636.62
595.75	633.76
596.10	631.62
596.45	629.24
596.80	626.71
597.15	623.48
597.50	620.86
597.85	619.10
598.19	616.48
598.54	613.90
598.89	610.48
599.24	608.38
599.59	603.52
599.94	601.95
600.29	599.14
600.64	596.19
600.99	594.76
601.34	593.48
601.69	584.57
602.04	582.76
602.39	580.10
602.74	577.67
603.08	576.00
603.43	575.14
603.78	572.95
604.13	571.38
604.48	570.10
604.83	568.52
605.18	566.43
605.53	566.48
605.87	566.95
606.22	568.57
606.57	570.76
606.92	572.67
607.27	575.48
607.62	578.57
607.96	581.29
608.31	582.38
608.66	583.67
609.01	585.10
609.36	586.38
609.70	588.29
610.05	589.10
610.40	589.86
610.75	589.62
611.10	590.24
611.44	590.19
611.79	589.57
612.14	588.62
612.49	586.38
612.83	583.62
613.18	580.14
613.53	575.33
613.88	570.05
614.22	564.86
614.57	558.57
614.92	552.29
615.27	546.76
615.61	541.24
615.96	536.57
616.31	531.67
616.65	527.71
617.00	523.48
617.35	519.38
617.70	514.81
618.04	510.95
618.39	506.67
618.74	503.38
619.08	500.14
619.43	497.19
619.78	494.86
620.12	492.43
620.47	490.33
620.82	487.86
621.16	485.38
621.51	484.14
621.85	481.67
622.20	480.33
622.55	477.57
622.89	476.43
623.24	474.81
623.59	473.57
623.93	471.29
624.28	468.81
624.62	469.43
624.97	469.24
625.32	467.14
625.66	465.71
626.01	463.90
626.35	462.33
626.70	460.62
627.04	459.38
627.39	457.71
627.73	456.71
628.08	455.71
628.43	453.81
628.77	451.10
629.12	449.90
629.46	447.48
629.81	445.52
630.15	443.19
630.50	440.38
630.84	437.57
631.19	435.57
631.53	433.76
631.88	428.90
632.22	425.00
632.57	423.62
632.91	421.33
633.26	419.52
633.60	417.52
633.95	415.62
634.29	413.10
634.64	411.14
634.98	408.52
635.32	406.29
635.67	404.95
636.01	403.14
636.36	401.14
636.70	400.19
637.05	399.29
637.39	397.76
637.73	396.48
638.08	396.43
638.42	394.52
638.77	393.19
639.11	392.05
639.45	391.00
639.80	389.57
640.14	388.48
640.49	387.10
640.83	385.43
641.17	384.19
641.52	382.67
641.86	381.81
642.20	381.57
642.55	380.29
642.89	379.24
643.23	378.33
643.58	378.00
643.92	376.10
644.26	375.00
644.61	374.19
644.95	373.43
645.29	371.48
645.64	371.05
645.98	369.90
646.32	369.86
646.66	368.90
647.01	367.48
647.35	367.00
647.69	366.67
648.04	366.43
648.38	365.67
648.72	365.57
649.06	364.33
649.41	362.19
649.75	361.43
650.09	361.05
650.43	360.29
650.78	358.86
651.12	358.10
651.46	356.76
651.80	355.57
652.14	354.14
652.49	353.71
652.83	352.71
653.17	351.67
653.51	349.62
653.85	348.67
654.20	347.62
654.54	345.86
654.88	343.90
655.22	342.38
655.56	340.67
655.90	339.52
656.25	339.05
656.59	338.48
656.93	337.67
657.27	337.33
657.61	336.10
657.95	335.38
658.29	334.43
658.64	334.19
658.98	333.52
659.32	333.05
659.66	332.33
660.00	331.62
660.34	331.05
660.68	330.76
661.02	330.19
661.36	329.33
661.70	328.86
662.05	328.67
662.39	328.71
662.73	329.05
663.07	329.57
663.41	328.43
663.75	327.57
664.09	326.81
664.43	325.29
664.77	324.86
665.11	323.81
665.45	323.52
665.79	323.29
666.13	322.29
666.47	321.29
666.81	320.67
667.15	319.52
667.49	319.43
667.83	319.52
668.17	318.52
668.51	318.43
668.85	317.81
669.19	317.95
669.53	316.62
669.87	315.57
670.21	313.57
670.55	312.95
670.89	313.43
671.23	312.81
671.57	312.33
671.91	312.00
672.25	311.90
672.58	311.86
672.92	310.33
673.26	310.10
673.60	310.00
673.94	309.29
674.28	309.29
674.62	308.86
674.96	307.95
675.30	307.76
675.64	307.19
675.97	306.81
676.31	305.67
676.65	305.10
676.99	305.33
677.33	304.86
677.67	304.71
678.01	303.24
678.34	302.52
678.68	302.19
679.02	301.48
679.36	300.52
679.70	299.38
680.04	299.43
680.37	298.81
680.71	298.14
681.05	297.76
681.39	297.24
681.73	296.24
682.06	295.57
682.40	295.52
682.74	295.19
683.08	295.48
683.42	294.86
683.75	294.76
684.09	293.90
684.43	293.67
684.77	292.90
685.10	292.52
685.44	292.57
685.78	292.10
686.12	291.24
686.45	291.05
686.79	290.71
687.13	290.29
687.46	289.95
687.80	290.00
688.14	289.43
688.48	288.76
688.81	288.43
689.15	288.48
689.49	287.38
689.82	287.24
690.16	286.00
690.50	285.67
690.83	285.29
691.17	284.52
691.51	284.14
691.84	284.52
692.18	284.00
692.52	283.71
692.85	283.57
693.19	284.43
693.52	284.14
693.86	284.00
694.20	283.62
694.53	283.67
694.87	283.29
695.21	282.71
695.54	283.00
695.88	282.57
696.21	281.38
696.55	281.33
696.88	280.57
697.22	280.43
697.56	280.38
697.89	280.19
698.23	280.38
698.56	279.76
698.90	279.24
699.23	279.19
699.57	278.90
699.90	278.48
700.24	277.71
700.58	277.67
700.91	277.76
701.25	279.81
701.58	280.10
701.92	280.71
702.25	281.24
702.59	280.86
702.92	281.24
703.26	282.24
703.59	282.52
703.93	285.05
704.26	285.52
704.60	285.95
704.93	286.24
705.26	286.19
705.60	287.10
705.93	286.95
706.27	288.00
706.60	289.10
706.94	289.95
707.27	290.05
707.61	290.29
707.94	290.48
708.27	288.57
708.61	287.86
708.94	287.24
709.28	286.90
709.61	286.48
709.94	286.10
710.28	285.43
710.61	284.90
710.95	282.05
711.28	283.00
711.61	282.29
711.95	281.86
712.28	281.00
712.61	280.19
712.95	280.95
713.28	280.95
713.61	279.24
713.95	278.05
714.28	277.10
714.61	276.05
714.95	274.67
715.28	273.71
715.61	273.14
715.95	272.81
716.28	272.10
716.61	271.81
716.95	270.81
717.28	270.00
717.61	269.67
717.94	269.33
718.28	267.24
718.61	266.43
718.94	265.62
719.27	265.00
719.61	264.86
719.94	263.86
720.27	262.19
720.60	261.76
720.94	261.29
721.27	261.43
721.60	261.90
721.93	261.71
722.27	262.33
722.60	262.33
722.93	261.33
723.26	261.05
723.59	260.81
723.93	260.95
724.26	261.14
724.59	260.71
724.92	260.67
725.25	261.00
725.59	260.76
725.92	261.19
726.25	261.14
726.58	260.81
726.91	260.48
727.24	261.10
727.57	261.00
727.91	260.81
728.24	260.57
728.57	260.14
728.90	260.19
729.23	259.05
729.56	259.95
729.89	260.14
730.22	259.71
730.55	259.33
730.89	259.00
731.22	259.10
731.55	258.90
731.88	258.81
732.21	258.10
732.54	258.00
732.87	257.62
733.20	258.00
733.53	258.00
733.86	258.05
734.19	257.38
734.52	257.71
734.85	259.19
735.18	258.81
735.51	259.29
735.84	259.48
736.17	260.05
736.50	258.33
736.83	261.00
737.16	261.57
737.49	261.76
737.82	261.57
738.15	261.19
738.48	261.05
738.81	260.71
739.14	260.48
739.47	260.43
739.80	260.19
740.13	259.95
740.46	259.48
740.79	258.86
741.12	258.29
741.45	257.81
741.78	256.19
742.11	256.71
742.44	256.05
742.77	256.29
743.10	255.86
743.43	255.90
743.75	253.10
744.08	255.86
744.41	255.14
744.74	255.10
745.07	254.67
745.40	254.90
745.73	255.71
746.06	255.67
746.39	255.62
746.71	255.67
747.04	255.43
747.37	255.14
747.70	255.52
748.03	256.00
748.36	256.52
748.68	256.38
749.01	255.57
749.34	255.48
749.67	255.14
750.00	255.33
750.33	257.33
750.65	257.67
750.98	254.29
751.31	254.76
751.64	254.52
751.97	256.14
752.29	256.29
752.62	255.19
752.95	255.00
753.28	254.67
753.60	254.19
753.93	254.76
754.26	254.95
754.59	254.29
754.91	253.71
755.24	252.86
755.57	252.67
755.90	252.67
756.22	252.00
756.55	251.52
756.88	251.00
757.20	249.33
757.53	248.57
757.86	248.38
758.19	248.38
758.51	248.81
758.84	247.29
759.17	246.90
759.49	247.19
759.82	248.62
760.15	248.52
760.47	248.48
760.80	247.52
761.13	247.90
761.45	247.57
761.78	247.67
762.11	247.76
762.43	247.76
762.76	247.57
763.08	248.05
763.41	248.14
763.74	248.05
764.06	247.95
764.39	248.05
764.71	247.95
765.04	247.24
765.37	246.81
765.69	246.48
766.02	246.29
766.34	246.05
766.67	244.81
767.00	245.33
767.32	246.43
767.65	248.14
767.97	247.67
768.30	247.90
768.62	247.71
768.95	247.52
769.27	247.62
769.60	248.10
769.92	247.43
770.25	247.00
770.57	246.48
770.90	245.81
771.22	245.33
771.55	245.52
771.87	246.10
772.20	246.24
772.52	248.43
772.85	251.38
773.17	251.14
773.50	250.90
773.82	250.52
774.15	249.57
774.47	247.67
774.80	247.67
775.12	247.71
775.45	247.81
775.77	248.05
776.09	247.90
776.42	247.90
776.74	248.71
777.07	248.71
777.39	249.05
777.72	249.38
778.04	249.86
778.36	249.62
778.69	249.29
779.01	249.05
779.33	246.90
779.66	244.14
779.98	244.05
780.31	244.10
780.63	245.05
780.95	244.95
781.28	245.10
781.60	244.76
781.92	244.76
782.25	244.71
782.57	244.76
782.89	244.57
783.22	244.48
783.54	244.00
783.86	244.33
784.19	244.19
784.51	244.62
784.83	244.29
785.16	244.24
785.48	244.38
785.80	244.38
786.12	244.43
786.45	244.00
786.77	244.19
787.09	244.29
787.42	243.57
787.74	244.05
788.06	244.10
788.38	243.86
788.71	243.48
789.03	243.52
789.35	243.43
789.67	243.43
789.99	243.48
790.32	243.24
790.64	243.10
790.96	245.10
791.28	244.14
791.61	244.19
791.93	244.33
792.25	244.29
792.57	246.52
792.89	246.29
793.21	246.81
793.54	246.71
793.86	246.29
