SpectraSuite Data File
++++++++++++++++++++++++++++++++++++
Date: Wed Nov 07 18:31:49 EST 2012
User: group
Dark Spectrum Present: No
Reference Spectrum Present: No
Number of Sampled Component Spectra: 1
Spectrometers: USB2E7196
Integration Time (usec): 1000000 (USB2E7196)
Spectra Averaged: 1 (USB2E7196)
Boxcar Smoothing: 10 (USB2E7196)
Correct for Electrical Dark: No (USB2E7196)
Strobe/Lamp Enabled: No (USB2E7196)
Correct for Detector Non-linearity: No (USB2E7196)
Correct for Stray Light: No (USB2E7196)
Number of Pixels in Processed Spectrum: 2048
>>>>>Begin Processed Spectral Data<<<<<
339.09	0.00
339.48	224.00
339.86	220.00
340.24	222.00
340.63	225.00
341.01	263.00
341.39	219.00
341.78	239.00
342.16	243.00
342.54	231.00
342.93	223.52
343.31	234.48
343.69	234.81
344.07	235.38
344.46	236.00
344.84	236.29
345.22	234.67
345.60	235.38
345.99	235.33
346.37	234.67
346.75	234.81
347.13	234.67
347.52	234.62
347.90	235.71
348.28	235.81
348.66	236.10
349.05	235.19
349.43	235.19
349.81	235.19
350.19	235.14
350.57	235.24
350.96	235.38
351.34	235.52
351.72	235.67
352.10	235.81
352.48	235.71
352.87	235.71
353.25	236.05
353.63	235.67
354.01	235.52
354.39	235.67
354.77	235.62
355.15	236.38
355.54	236.05
355.92	234.95
356.30	234.71
356.68	236.33
357.06	236.67
357.44	236.62
357.82	236.52
358.20	236.90
358.58	236.81
358.97	236.86
359.35	237.48
359.73	238.00
360.11	238.00
360.49	238.48
360.87	238.67
361.25	238.90
361.63	240.10
362.01	240.29
362.39	240.62
362.77	240.76
363.15	240.67
363.53	240.86
363.91	241.57
364.29	241.81
364.67	239.86
365.05	239.90
365.43	240.05
365.81	240.33
366.19	241.33
366.57	242.62
366.95	242.38
367.33	241.95
367.71	242.05
368.09	242.76
368.47	242.76
368.85	242.81
369.23	243.19
369.61	242.67
369.99	243.57
370.37	243.81
370.75	245.67
371.13	245.43
371.51	245.48
371.89	245.57
372.27	246.10
372.65	246.24
373.03	246.38
373.41	246.38
373.78	246.38
374.16	245.05
374.54	244.00
374.92	244.10
375.30	244.33
375.68	243.71
376.06	243.33
376.44	243.00
376.82	243.19
377.19	243.29
377.57	243.10
377.95	242.14
378.33	242.00
378.71	240.05
379.09	240.24
379.47	240.38
379.84	240.19
380.22	239.81
380.60	239.29
380.98	239.10
381.36	239.00
381.73	238.86
382.11	239.57
382.49	240.14
382.87	240.14
383.25	239.86
383.62	242.67
384.00	242.29
384.38	242.43
384.76	242.76
385.13	243.38
385.51	243.33
385.89	243.10
386.27	243.19
386.64	243.57
387.02	243.48
387.40	243.19
387.78	243.33
388.15	243.33
388.53	243.43
388.91	243.67
389.29	243.57
389.66	243.90
390.04	243.48
390.42	243.48
390.79	243.24
391.17	243.43
391.55	240.81
391.92	241.00
392.30	241.05
392.68	240.57
393.05	240.29
393.43	240.29
393.81	240.43
394.18	240.10
394.56	240.38
394.94	240.71
395.31	240.48
395.69	241.10
396.06	241.48
396.44	241.57
396.82	241.33
397.19	242.62
397.57	242.33
397.95	242.67
398.32	242.14
398.70	242.76
399.07	243.00
399.45	243.05
399.82	243.00
400.20	242.95
400.58	242.62
400.95	241.95
401.33	242.43
401.70	244.19
402.08	244.33
402.45	244.19
402.83	244.86
403.20	245.24
403.58	244.95
403.95	245.52
404.33	246.19
404.71	246.52
405.08	247.76
405.46	248.14
405.83	248.62
406.21	249.33
406.58	249.62
406.96	250.00
407.33	250.62
407.70	251.57
408.08	253.81
408.45	255.14
408.83	256.24
409.20	256.52
409.58	256.19
409.95	257.24
410.33	258.10
410.70	258.05
411.08	259.43
411.45	260.71
411.82	261.19
412.20	263.00
412.57	265.81
412.95	265.10
413.32	266.71
413.69	267.95
414.07	269.48
414.44	271.33
414.82	273.52
415.19	276.05
415.56	278.33
415.94	279.76
416.31	282.62
416.68	285.29
417.06	288.81
417.43	292.29
417.81	295.71
418.18	299.67
418.55	303.67
418.93	307.81
419.30	312.05
419.67	316.71
420.04	320.52
420.42	324.10
420.79	332.10
421.16	337.90
421.54	345.10
421.91	351.81
422.28	358.00
422.66	364.52
423.03	372.76
423.40	379.71
423.77	387.00
424.15	394.43
424.52	402.33
424.89	411.33
425.26	418.67
425.64	427.05
426.01	435.14
426.38	443.90
426.75	453.43
427.13	462.95
427.50	472.67
427.87	483.14
428.24	493.14
428.61	501.00
428.99	513.00
429.36	523.00
429.73	533.43
430.10	544.86
430.47	556.43
430.85	566.43
431.22	579.00
431.59	594.10
431.96	607.14
432.33	621.76
432.70	635.71
433.08	651.95
433.45	666.67
433.82	682.24
434.19	699.90
434.56	715.81
434.93	730.33
435.30	745.48
435.68	761.90
436.05	779.19
436.42	794.81
436.79	808.81
437.16	826.00
437.53	843.14
437.90	860.67
438.27	877.76
438.64	895.33
439.01	911.52
439.38	924.00
439.75	937.48
440.13	952.71
440.50	965.90
440.87	977.48
441.24	989.19
441.61	1001.43
441.98	1009.62
442.35	1020.71
442.72	1032.81
443.09	1045.00
443.46	1051.14
443.83	1055.81
444.20	1060.52
444.57	1064.81
444.94	1065.29
445.31	1067.24
445.68	1071.43
446.05	1071.14
446.42	1068.33
446.79	1065.10
447.16	1061.10
447.53	1058.10
447.90	1049.33
448.27	1041.81
448.64	1031.62
449.01	1025.19
449.37	1013.57
449.74	1002.05
450.11	990.24
450.48	974.24
450.85	957.10
451.22	943.95
451.59	929.86
451.96	917.00
452.33	901.71
452.70	888.10
453.07	870.95
453.43	850.95
453.80	834.14
454.17	817.67
454.54	802.10
454.91	786.38
455.28	771.43
455.65	756.29
456.02	746.90
456.38	734.95
456.75	718.95
457.12	706.05
457.49	694.19
457.86	680.05
458.23	671.10
458.59	660.62
458.96	649.24
459.33	639.76
459.70	628.95
460.07	621.00
460.43	612.10
460.80	604.62
461.17	596.29
461.54	588.81
461.91	582.05
462.27	574.62
462.64	568.33
463.01	560.48
463.38	556.62
463.74	545.00
464.11	538.86
464.48	533.90
464.85	528.10
465.21	524.19
465.58	519.62
465.95	513.19
466.32	508.52
466.68	504.14
467.05	499.57
467.42	495.57
467.78	490.38
468.15	485.86
468.52	482.38
468.88	478.57
469.25	474.29
469.62	471.43
469.98	468.48
470.35	465.10
470.72	462.19
471.08	457.24
471.45	455.10
471.82	452.52
472.18	449.33
472.55	447.33
472.92	443.86
473.28	440.90
473.65	438.57
474.02	436.24
474.38	434.76
474.75	433.33
475.11	431.52
475.48	430.62
475.85	428.81
476.21	426.86
476.58	425.38
476.94	424.52
477.31	423.05
477.67	421.76
478.04	420.71
478.41	420.24
478.77	421.95
479.14	421.43
479.50	420.62
479.87	420.48
480.23	420.24
480.60	419.95
480.96	420.05
481.33	421.48
481.69	421.90
482.06	422.10
482.42	423.10
482.79	424.52
483.15	425.38
483.52	427.10
483.88	427.62
484.25	428.71
484.61	430.00
484.98	431.05
485.34	433.29
485.71	435.33
486.07	436.48
486.44	435.48
486.80	435.90
487.17	437.67
487.53	440.19
487.90	442.10
488.26	444.67
488.62	447.38
488.99	447.95
489.35	449.67
489.72	451.67
490.08	452.71
490.44	454.00
490.81	456.48
491.17	457.67
491.54	460.14
491.90	463.19
492.26	464.95
492.63	467.52
492.99	468.95
493.36	471.19
493.72	474.52
494.08	477.24
494.45	480.81
494.81	484.38
495.17	486.76
495.54	490.10
495.90	492.71
496.26	495.48
496.63	499.24
496.99	503.38
497.35	506.43
497.72	509.81
498.08	513.33
498.44	516.90
498.80	521.57
499.17	525.90
499.53	529.57
499.89	534.62
500.26	538.95
500.62	544.29
500.98	549.62
501.34	554.24
501.71	560.00
502.07	564.24
502.43	568.81
502.79	574.29
503.16	579.52
503.52	584.67
503.88	589.90
504.24	595.57
504.60	600.24
504.97	606.10
505.33	611.62
505.69	618.05
506.05	623.52
506.41	628.10
506.78	632.86
507.14	637.86
507.50	643.76
507.86	648.95
508.22	653.52
508.59	657.43
508.95	662.67
509.31	669.14
509.67	675.00
510.03	680.00
510.39	684.86
510.75	689.52
511.12	694.52
511.48	699.19
511.84	703.90
512.20	708.57
512.56	713.81
512.92	719.52
513.28	723.90
513.64	728.19
514.00	732.90
514.37	738.19
514.73	743.38
515.09	747.71
515.45	751.71
515.81	756.10
516.17	761.10
516.53	764.90
516.89	767.86
517.25	771.71
517.61	776.14
517.97	779.86
518.33	784.43
518.69	787.86
519.05	792.43
519.41	795.62
519.77	801.00
520.13	803.43
520.49	805.81
520.85	808.81
521.21	812.95
521.57	817.67
521.93	819.81
522.29	822.48
522.65	824.52
523.01	827.48
523.37	829.67
523.73	831.86
524.09	834.10
524.45	835.48
524.81	837.57
525.17	840.14
525.53	841.86
525.89	843.24
526.25	845.90
526.61	846.62
526.97	848.33
527.33	848.62
527.68	852.57
528.04	854.19
528.40	855.90
528.76	857.29
529.12	857.05
529.48	858.90
529.84	859.95
530.20	861.43
530.56	863.05
530.91	865.14
531.27	866.38
531.63	867.67
531.99	868.95
532.35	869.90
532.71	870.14
533.07	872.43
533.42	875.95
533.78	876.33
534.14	877.19
534.50	878.67
534.86	881.05
535.21	880.19
535.57	881.19
535.93	881.71
536.29	883.71
536.65	885.81
537.00	887.67
537.36	889.14
537.72	891.62
538.08	894.48
538.44	895.81
538.79	899.00
539.15	901.48
539.51	904.05
539.87	906.38
540.22	908.86
540.58	909.90
540.94	909.62
541.29	912.43
541.65	914.86
542.01	917.19
542.37	918.48
542.72	919.57
543.08	920.67
543.44	921.38
543.79	919.67
544.15	920.29
544.51	920.43
544.87	920.24
545.22	918.43
545.58	916.33
545.94	914.48
546.29	911.52
546.65	908.81
547.01	905.48
547.36	903.14
547.72	900.24
548.07	897.52
548.43	893.90
548.79	889.90
549.14	886.81
549.50	882.57
549.86	878.24
550.21	875.71
550.57	872.86
550.92	870.05
551.28	868.62
551.64	865.43
551.99	862.48
552.35	859.14
552.70	856.52
553.06	853.90
553.41	852.52
553.77	852.19
554.13	850.57
554.48	850.52
554.84	848.95
555.19	846.76
555.55	846.57
555.90	844.67
556.26	843.05
556.61	840.33
556.97	838.38
557.32	836.10
557.68	834.38
558.03	833.10
558.39	831.52
558.74	828.52
559.10	825.95
559.45	824.90
559.81	823.14
560.16	821.33
560.52	819.76
560.87	818.43
561.23	815.29
561.58	815.29
561.94	812.00
562.29	810.76
562.64	809.71
563.00	805.90
563.35	805.33
563.71	803.38
564.06	802.14
564.42	800.38
564.77	799.43
565.12	798.33
565.48	798.81
565.83	797.43
566.19	797.05
566.54	796.76
566.89	793.95
567.25	794.05
567.60	794.05
567.96	795.00
568.31	793.71
568.66	792.95
569.02	789.05
569.37	788.19
569.72	785.86
570.08	784.57
570.43	783.48
570.78	781.48
571.14	780.57
571.49	779.52
571.84	778.57
572.20	777.38
572.55	775.38
572.90	772.14
573.26	771.19
573.61	769.14
573.96	767.57
574.31	766.81
574.67	764.76
575.02	762.43
575.37	758.48
575.72	756.81
576.08	754.81
576.43	753.71
576.78	751.76
577.13	750.48
577.49	749.10
577.84	747.38
578.19	746.57
578.54	745.00
578.90	743.48
579.25	742.14
579.60	741.10
579.95	739.24
580.30	737.81
580.66	736.00
581.01	735.10
581.36	733.67
581.71	732.24
582.06	732.00
582.42	730.90
582.77	729.52
583.12	728.00
583.47	727.05
583.82	726.19
584.17	726.00
584.53	725.57
584.88	723.81
585.23	723.57
585.58	721.48
585.93	719.81
586.28	718.52
586.63	717.29
586.98	715.24
587.34	713.43
587.69	710.76
588.04	709.00
588.39	706.76
588.74	703.62
589.09	701.67
589.44	697.76
589.79	695.00
590.14	692.19
590.49	688.52
590.84	684.57
591.19	681.43
591.54	677.57
591.89	673.81
592.25	672.29
592.60	667.76
592.95	665.00
593.30	662.38
593.65	658.95
594.00	655.33
594.35	658.76
594.70	656.00
595.05	653.19
595.40	649.71
595.75	646.38
596.10	644.38
596.45	641.33
596.80	638.29
597.15	635.24
597.50	632.10
597.85	630.76
598.19	628.33
598.54	626.24
598.89	623.24
599.24	620.52
599.59	616.43
599.94	614.14
600.29	611.38
600.64	608.48
600.99	606.29
601.34	604.62
601.69	595.76
602.04	593.19
602.39	590.76
602.74	589.19
603.08	587.14
603.43	585.90
603.78	583.48
604.13	582.29
604.48	580.57
604.83	579.95
605.18	578.95
605.53	579.19
605.87	580.38
606.22	583.71
606.57	588.10
606.92	592.19
607.27	598.05
607.62	603.57
607.96	609.48
608.31	613.71
608.66	617.24
609.01	620.81
609.36	624.67
609.70	628.71
610.05	631.38
610.40	634.33
610.75	636.10
611.10	638.52
611.44	639.38
611.79	640.14
612.14	640.24
612.49	638.19
612.83	636.43
613.18	632.19
613.53	626.48
613.88	619.14
614.22	612.10
614.57	603.57
614.92	595.38
615.27	587.00
615.61	579.86
615.96	572.90
616.31	566.24
616.65	560.00
617.00	552.67
617.35	546.71
617.70	540.29
618.04	534.38
618.39	528.86
618.74	524.81
619.08	520.62
619.43	516.57
619.78	513.62
620.12	510.52
620.47	508.19
620.82	505.76
621.16	502.81
621.51	501.48
621.85	499.38
622.20	497.33
622.55	494.57
622.89	491.90
623.24	490.05
623.59	487.43
623.93	485.19
624.28	483.57
624.62	483.95
624.97	483.95
625.32	481.90
625.66	479.57
626.01	477.48
626.35	476.05
626.70	474.10
627.04	473.00
627.39	471.24
627.73	469.95
628.08	468.14
628.43	466.57
628.77	463.52
629.12	461.19
629.46	459.19
629.81	457.52
630.15	455.62
630.50	453.24
630.84	451.38
631.19	449.48
631.53	447.43
631.88	442.86
632.22	438.62
632.57	436.62
632.91	434.57
633.26	432.52
633.60	429.90
633.95	427.57
634.29	424.24
634.64	421.67
634.98	418.76
635.32	417.33
635.67	415.86
636.01	414.14
636.36	411.95
636.70	410.00
637.05	408.10
637.39	406.38
637.73	404.95
638.08	404.24
638.42	402.14
638.77	401.14
639.11	399.05
639.45	397.62
639.80	396.05
640.14	394.76
640.49	392.86
640.83	391.29
641.17	390.57
641.52	389.33
641.86	388.38
642.20	388.43
642.55	386.24
642.89	385.19
643.23	383.86
643.58	383.71
643.92	382.05
644.26	380.71
644.61	380.10
644.95	378.90
645.29	377.24
645.64	377.24
645.98	375.48
646.32	375.24
646.66	374.38
647.01	373.10
647.35	372.67
647.69	372.29
648.04	371.76
648.38	370.43
648.72	369.71
649.06	368.48
649.41	366.10
649.75	364.86
650.09	363.90
650.43	362.90
650.78	361.14
651.12	360.00
651.46	359.00
651.80	357.57
652.14	356.24
652.49	355.67
652.83	353.43
653.17	352.33
653.51	350.57
653.85	349.62
654.20	348.67
654.54	346.76
654.88	345.10
655.22	343.67
655.56	342.24
655.90	341.29
656.25	339.95
656.59	339.33
656.93	338.67
657.27	338.00
657.61	336.95
657.95	336.57
658.29	336.05
658.64	335.95
658.98	335.10
659.32	334.48
659.66	333.33
660.00	333.19
660.34	332.67
660.68	332.05
661.02	331.29
661.36	330.52
661.70	330.14
662.05	329.67
662.39	329.71
662.73	330.05
663.07	330.90
663.41	330.57
663.75	329.52
664.09	329.05
664.43	327.76
664.77	327.38
665.11	326.76
665.45	325.86
665.79	324.95
666.13	324.57
666.47	323.71
666.81	323.14
667.15	322.14
667.49	321.86
667.83	321.95
668.17	320.71
668.51	320.05
668.85	319.48
669.19	319.67
669.53	318.29
669.87	316.95
670.21	314.71
670.55	314.29
670.89	315.10
671.23	314.52
671.57	313.71
671.91	313.10
672.25	312.67
672.58	313.29
672.92	312.29
673.26	311.62
673.60	311.10
673.94	310.14
674.28	309.62
674.62	309.24
674.96	308.24
675.30	308.62
675.64	308.33
675.97	308.05
676.31	307.00
676.65	306.29
676.99	306.90
677.33	306.14
677.67	305.29
678.01	303.48
678.34	302.95
678.68	303.38
679.02	302.67
679.36	301.67
679.70	300.48
680.04	300.33
680.37	300.00
680.71	299.14
681.05	299.14
681.39	299.00
681.73	297.90
682.06	297.86
682.40	297.24
682.74	296.95
683.08	297.57
683.42	297.10
683.75	297.71
684.09	296.29
684.43	296.48
684.77	295.86
685.10	295.48
685.44	295.10
685.78	294.33
686.12	294.00
686.45	293.86
686.79	293.29
687.13	293.19
687.46	292.57
687.80	293.29
688.14	292.57
688.48	292.10
688.81	292.14
689.15	292.14
689.49	291.67
689.82	291.33
690.16	289.52
690.50	288.57
690.83	287.48
691.17	287.19
691.51	286.52
691.84	286.81
692.18	286.19
692.52	285.71
692.85	285.10
693.19	285.33
693.52	285.05
693.86	284.71
694.20	284.05
694.53	283.71
694.87	282.71
695.21	282.43
695.54	281.71
695.88	280.81
696.21	279.52
696.55	279.38
696.88	278.76
697.22	278.38
697.56	278.52
697.89	278.14
698.23	278.05
698.56	277.43
698.90	277.19
699.23	277.10
699.57	277.38
699.90	276.76
700.24	276.00
700.58	275.81
700.91	275.76
701.25	277.71
701.58	278.95
701.92	279.86
702.25	279.95
702.59	280.29
702.92	280.62
703.26	281.48
703.59	281.67
703.93	283.81
704.26	285.00
704.60	285.76
704.93	286.19
705.26	286.43
705.60	287.71
705.93	287.57
706.27	288.57
706.60	289.14
706.94	290.76
707.27	290.95
707.61	291.52
707.94	291.95
708.27	290.38
708.61	289.33
708.94	288.67
709.28	288.67
709.61	288.14
709.94	287.90
710.28	287.19
710.61	286.67
710.95	284.19
711.28	285.19
711.61	284.29
711.95	283.95
712.28	282.57
712.61	281.24
712.95	281.86
713.28	282.05
713.61	280.62
713.95	279.14
714.28	278.48
714.61	277.19
714.95	275.95
715.28	274.62
715.61	273.38
715.95	272.48
716.28	271.19
716.61	271.29
716.95	270.71
717.28	270.05
717.61	269.57
717.94	268.71
718.28	266.00
718.61	265.29
718.94	264.67
719.27	264.76
719.61	264.57
719.94	263.52
720.27	261.67
720.60	261.38
720.94	260.81
721.27	260.62
721.60	260.90
721.93	260.86
722.27	261.62
722.60	262.24
722.93	261.76
723.26	261.76
723.59	261.00
723.93	261.24
724.26	261.24
724.59	260.95
724.92	261.48
725.25	262.14
725.59	261.86
725.92	261.90
726.25	261.90
726.58	261.76
726.91	261.24
727.24	261.71
727.57	261.57
727.91	261.48
728.24	261.29
728.57	260.48
728.90	260.48
729.23	259.62
729.56	260.14
729.89	260.48
730.22	260.52
730.55	260.43
730.89	259.81
731.22	259.57
731.55	259.33
731.88	259.14
732.21	258.19
732.54	257.95
732.87	257.71
733.20	257.24
733.53	256.90
733.86	257.33
734.19	256.43
734.52	256.81
734.85	258.14
735.18	257.95
735.51	258.62
735.84	258.67
736.17	259.29
736.50	257.86
736.83	260.62
737.16	260.29
737.49	260.38
737.82	260.24
738.15	260.57
738.48	260.57
738.81	260.05
739.14	259.95
739.47	259.86
739.80	259.38
740.13	259.76
740.46	259.52
740.79	258.67
741.12	258.76
741.45	258.29
741.78	256.95
742.11	257.62
742.44	256.95
742.77	257.10
743.10	256.33
743.43	256.43
743.75	253.57
744.08	256.57
744.41	256.19
744.74	255.86
745.07	254.95
745.40	255.10
745.73	256.24
746.06	256.00
746.39	256.33
746.71	256.38
747.04	255.95
747.37	255.95
747.70	256.67
748.03	256.67
748.36	256.71
748.68	256.62
749.01	255.38
749.34	255.43
749.67	255.14
750.00	255.62
750.33	256.90
750.65	256.81
750.98	253.95
751.31	253.76
751.64	254.10
751.97	255.33
752.29	255.14
752.62	253.95
752.95	253.81
753.28	253.19
753.60	253.19
753.93	253.86
754.26	254.10
754.59	253.10
754.91	252.86
755.24	252.52
755.57	252.38
755.90	252.52
756.22	252.24
756.55	251.62
756.88	250.86
757.20	249.43
757.53	248.81
757.86	248.52
758.19	248.86
758.51	248.52
758.84	247.48
759.17	246.95
759.49	247.33
759.82	248.43
760.15	248.57
760.47	248.57
760.80	247.48
761.13	248.00
761.45	247.67
761.78	247.52
762.11	247.24
762.43	247.00
762.76	246.52
763.08	246.71
763.41	247.05
763.74	247.14
764.06	247.00
764.39	246.90
764.71	246.67
765.04	246.05
765.37	245.62
765.69	245.24
766.02	245.43
766.34	245.00
766.67	244.00
767.00	244.48
767.32	245.33
767.65	247.33
767.97	246.76
768.30	246.95
768.62	246.90
768.95	246.81
769.27	246.95
769.60	247.90
769.92	247.43
770.25	247.14
770.57	246.81
770.90	246.57
771.22	246.43
771.55	246.86
771.87	247.10
772.20	247.33
772.52	249.43
772.85	252.19
773.17	252.19
773.50	252.24
773.82	251.86
774.15	250.86
774.47	248.76
774.80	248.71
775.12	248.90
775.45	249.10
775.77	249.05
776.09	248.76
776.42	248.29
776.74	249.14
777.07	249.00
777.39	248.76
777.72	248.90
778.04	249.38
778.36	248.95
778.69	249.29
779.01	249.62
779.33	247.57
779.66	244.62
779.98	244.62
780.31	244.33
780.63	245.48
780.95	245.81
781.28	245.86
781.60	245.10
781.92	245.05
782.25	244.86
782.57	245.24
782.89	245.33
783.22	245.05
783.54	244.14
783.86	244.10
784.19	244.19
784.51	244.81
784.83	244.33
785.16	244.24
785.48	244.00
785.80	244.05
786.12	244.24
786.45	244.38
786.77	244.52
787.09	244.86
787.42	243.81
787.74	243.90
788.06	244.10
788.38	244.24
788.71	243.81
789.03	243.76
789.35	243.71
789.67	243.00
789.99	243.48
790.32	243.38
790.64	243.81
790.96	246.00
791.28	245.29
791.61	245.29
791.93	245.29
792.25	245.24
792.57	246.86
792.89	246.48
793.21	246.67
793.54	246.00
793.86	245.71
