SpectraSuite Data File
++++++++++++++++++++++++++++++++++++
Date: Wed Nov 07 18:32:15 EST 2012
User: group
Dark Spectrum Present: No
Reference Spectrum Present: No
Number of Sampled Component Spectra: 1
Spectrometers: USB2E7196
Integration Time (usec): 1000000 (USB2E7196)
Spectra Averaged: 1 (USB2E7196)
Boxcar Smoothing: 10 (USB2E7196)
Correct for Electrical Dark: No (USB2E7196)
Strobe/Lamp Enabled: No (USB2E7196)
Correct for Detector Non-linearity: No (USB2E7196)
Correct for Stray Light: No (USB2E7196)
Number of Pixels in Processed Spectrum: 2048
>>>>>Begin Processed Spectral Data<<<<<
339.09	0.00
339.48	217.00
339.86	216.00
340.24	215.00
340.63	224.00
341.01	254.00
341.39	223.00
341.78	231.00
342.16	238.00
342.54	228.00
342.93	220.48
343.31	231.57
343.69	231.90
344.07	232.43
344.46	233.57
344.84	234.00
345.22	233.00
345.60	234.00
345.99	234.67
346.37	234.71
346.75	234.81
347.13	235.00
347.52	235.24
347.90	236.19
348.28	236.19
348.66	236.81
349.05	236.19
349.43	236.48
349.81	236.67
350.19	236.71
350.57	237.10
350.96	237.57
351.34	237.90
351.72	238.33
352.10	238.86
352.48	238.86
352.87	238.95
353.25	239.19
353.63	238.90
354.01	238.52
354.39	238.76
354.77	239.33
355.15	240.38
355.54	240.00
355.92	239.67
356.30	239.67
356.68	241.52
357.06	241.71
357.44	241.57
357.82	241.48
358.20	241.95
358.58	242.24
358.97	242.38
359.35	242.95
359.73	243.43
360.11	243.43
360.49	243.48
360.87	243.52
361.25	243.71
361.63	244.62
362.01	244.81
362.39	244.29
362.77	244.24
363.15	243.52
363.53	243.62
363.91	243.33
364.29	243.29
364.67	240.95
365.05	241.10
365.43	241.29
365.81	241.67
366.19	242.52
366.57	243.24
366.95	242.86
367.33	242.29
367.71	242.14
368.09	242.67
368.47	242.38
368.85	242.29
369.23	242.76
369.61	241.67
369.99	242.29
370.37	242.67
370.75	243.81
371.13	243.43
371.51	243.05
371.89	243.52
372.27	243.81
372.65	243.62
373.03	243.57
373.41	243.38
373.78	243.14
374.16	241.95
374.54	241.10
374.92	241.24
375.30	240.95
375.68	240.71
376.06	240.43
376.44	240.33
376.82	240.57
377.19	240.33
377.57	240.24
377.95	239.52
378.33	239.24
378.71	237.71
379.09	237.95
379.47	238.48
379.84	238.00
380.22	237.62
380.60	237.24
380.98	237.05
381.36	237.19
381.73	236.86
382.11	237.10
382.49	237.24
382.87	236.71
383.25	236.90
383.62	239.95
384.00	239.71
384.38	239.81
384.76	240.00
385.13	241.05
385.51	241.38
385.89	241.10
386.27	241.62
386.64	241.90
387.02	241.95
387.40	241.71
387.78	242.05
388.15	242.52
388.53	242.62
388.91	242.57
389.29	242.24
389.66	242.67
390.04	242.57
390.42	243.14
390.79	243.62
391.17	243.57
391.55	240.43
391.92	240.24
392.30	240.95
392.68	240.52
393.05	240.00
393.43	239.86
393.81	240.05
394.18	239.38
394.56	239.67
394.94	240.10
395.31	239.86
395.69	240.52
396.06	240.95
396.44	241.24
396.82	241.33
397.19	242.67
397.57	242.43
397.95	242.81
398.32	241.71
398.70	241.62
399.07	242.10
399.45	242.24
399.82	242.48
400.20	242.29
400.58	242.33
400.95	241.76
401.33	242.33
401.70	244.10
402.08	244.52
402.45	244.38
402.83	245.19
403.20	245.86
403.58	245.57
403.95	245.71
404.33	246.33
404.71	246.62
405.08	248.00
405.46	248.43
405.83	248.81
406.21	249.52
406.58	250.33
406.96	250.48
407.33	251.29
407.70	252.19
408.08	254.29
408.45	255.52
408.83	256.33
409.20	256.62
409.58	255.86
409.95	256.86
410.33	257.71
410.70	257.57
411.08	258.52
411.45	259.81
411.82	260.29
412.20	261.90
412.57	264.43
412.95	264.19
413.32	266.24
413.69	267.67
414.07	269.62
414.44	271.38
414.82	273.81
415.19	276.14
415.56	278.19
415.94	279.24
416.31	282.05
416.68	285.05
417.06	288.76
417.43	292.57
417.81	296.10
418.18	300.14
418.55	303.95
418.93	308.14
419.30	312.24
419.67	317.29
420.04	321.86
420.42	326.43
420.79	333.48
421.16	338.90
421.54	346.38
421.91	352.48
422.28	358.67
422.66	364.62
423.03	373.33
423.40	380.57
423.77	388.05
424.15	395.24
424.52	403.19
424.89	411.52
425.26	419.43
425.64	426.90
426.01	435.33
426.38	443.95
426.75	453.57
427.13	462.71
427.50	471.76
427.87	482.05
428.24	491.29
428.61	499.14
428.99	510.67
429.36	520.57
429.73	531.24
430.10	542.90
430.47	555.67
430.85	565.81
431.22	579.00
431.59	594.62
431.96	607.33
432.33	621.33
432.70	635.05
433.08	651.19
433.45	666.14
433.82	681.00
434.19	698.67
434.56	715.43
434.93	730.62
435.30	746.86
435.68	763.62
436.05	780.95
436.42	797.86
436.79	812.76
437.16	829.43
437.53	847.95
437.90	865.00
438.27	881.57
438.64	898.24
439.01	913.52
439.38	925.52
439.75	939.43
440.13	954.38
440.50	968.71
440.87	980.76
441.24	993.86
441.61	1007.52
441.98	1016.71
442.35	1026.90
442.72	1037.62
443.09	1048.62
443.46	1055.10
443.83	1058.76
444.20	1062.29
444.57	1065.86
444.94	1067.29
445.31	1068.19
445.68	1072.67
446.05	1071.81
446.42	1068.67
446.79	1066.57
447.16	1062.90
447.53	1059.67
447.90	1052.38
448.27	1044.29
448.64	1033.90
449.01	1025.76
449.37	1012.71
449.74	1000.05
450.11	987.38
450.48	972.76
450.85	956.67
451.22	942.86
451.59	930.38
451.96	918.00
452.33	903.14
452.70	888.76
453.07	871.71
453.43	851.19
453.80	835.19
454.17	819.76
454.54	803.62
454.91	787.24
455.28	772.10
455.65	757.48
456.02	747.62
456.38	734.81
456.75	719.81
457.12	707.76
457.49	696.10
457.86	682.57
458.23	673.24
458.59	662.24
458.96	651.10
459.33	640.24
459.70	630.19
460.07	621.86
460.43	612.57
460.80	604.67
461.17	597.29
461.54	589.24
461.91	582.10
462.27	574.57
462.64	568.38
463.01	561.29
463.38	555.48
463.74	544.57
464.11	538.19
464.48	533.00
464.85	526.86
465.21	522.76
465.58	518.38
465.95	512.29
466.32	507.57
466.68	502.67
467.05	498.95
467.42	494.57
467.78	489.90
468.15	485.57
468.52	482.29
468.88	477.86
469.25	473.86
469.62	470.95
469.98	467.19
470.35	463.90
470.72	460.33
471.08	455.48
471.45	453.29
471.82	450.95
472.18	448.10
472.55	446.00
472.92	442.62
473.28	440.24
473.65	437.52
474.02	435.62
474.38	433.48
474.75	431.67
475.11	429.33
475.48	427.95
475.85	426.19
476.21	424.29
476.58	423.29
476.94	422.62
477.31	420.86
477.67	419.86
478.04	419.10
478.41	418.95
478.77	421.05
479.14	419.33
479.50	419.24
479.87	418.86
480.23	418.86
480.60	418.71
480.96	418.33
481.33	419.57
481.69	419.76
482.06	420.62
482.42	421.52
482.79	422.52
483.15	423.05
483.52	425.00
483.88	425.52
484.25	426.57
484.61	427.24
484.98	428.52
485.34	430.38
485.71	431.86
486.07	432.90
486.44	432.57
486.80	433.95
487.17	434.90
487.53	437.00
487.90	438.62
488.26	441.43
488.62	443.57
488.99	444.81
489.35	446.43
489.72	448.24
490.08	449.48
490.44	451.24
490.81	453.86
491.17	455.71
491.54	458.14
491.90	461.05
492.26	463.19
492.63	466.10
492.99	468.19
493.36	470.81
493.72	474.14
494.08	476.81
494.45	480.90
494.81	484.57
495.17	486.95
495.54	490.00
495.90	492.52
496.26	496.00
496.63	499.57
496.99	502.90
497.35	506.33
497.72	510.81
498.08	514.57
498.44	518.38
498.80	522.33
499.17	526.43
499.53	529.86
499.89	535.14
500.26	539.52
500.62	544.43
500.98	549.48
501.34	553.81
501.71	559.24
502.07	563.29
502.43	568.10
502.79	573.10
503.16	579.00
503.52	584.29
503.88	589.24
504.24	594.71
504.60	600.14
504.97	606.14
505.33	610.90
505.69	617.52
506.05	622.95
506.41	628.76
506.78	634.38
507.14	640.00
507.50	646.05
507.86	652.43
508.22	657.57
508.59	662.62
508.95	668.33
509.31	674.90
509.67	680.43
510.03	685.86
510.39	691.71
510.75	695.90
511.12	700.48
511.48	705.57
511.84	710.29
512.20	715.19
512.56	719.86
512.92	724.95
513.28	729.10
513.64	733.81
514.00	737.86
514.37	742.62
514.73	746.52
515.09	750.00
515.45	752.95
515.81	756.90
516.17	760.81
516.53	764.90
516.89	767.05
517.25	771.43
517.61	776.24
517.97	779.95
518.33	784.48
518.69	789.00
519.05	793.43
519.41	797.67
519.77	802.90
520.13	806.05
520.49	809.33
520.85	811.90
521.21	815.86
521.57	819.33
521.93	821.52
522.29	825.10
522.65	827.10
523.01	829.76
523.37	832.29
523.73	835.14
524.09	837.10
524.45	839.71
524.81	842.00
525.17	843.43
525.53	845.38
525.89	846.81
526.25	849.00
526.61	849.90
526.97	851.38
527.33	852.38
527.68	856.05
528.04	856.90
528.40	858.05
528.76	858.67
529.12	860.05
529.48	861.90
529.84	863.00
530.20	864.86
530.56	866.90
530.91	868.81
531.27	869.29
531.63	870.71
531.99	872.57
532.35	872.57
532.71	873.71
533.07	874.48
533.42	878.00
533.78	878.86
534.14	880.38
534.50	881.52
534.86	883.00
535.21	882.33
535.57	884.95
535.93	886.48
536.29	889.29
536.65	890.33
537.00	891.67
537.36	893.38
537.72	894.81
538.08	897.48
538.44	899.14
538.79	902.29
539.15	904.00
539.51	904.81
539.87	906.81
540.22	908.71
540.58	911.90
540.94	912.19
541.29	914.00
541.65	915.57
542.01	917.33
542.37	918.33
542.72	919.43
543.08	919.00
543.44	919.86
543.79	918.52
544.15	918.81
544.51	918.86
544.87	918.29
545.22	917.76
545.58	916.05
545.94	915.19
546.29	913.43
546.65	911.71
547.01	909.67
547.36	908.05
547.72	904.95
548.07	902.24
548.43	899.00
548.79	895.67
549.14	892.33
549.50	889.29
549.86	884.52
550.21	882.05
550.57	879.52
550.92	876.67
551.28	874.76
551.64	872.10
551.99	869.86
552.35	866.81
552.70	864.19
553.06	860.71
553.41	857.29
553.77	856.10
554.13	854.29
554.48	853.10
554.84	851.90
555.19	850.38
555.55	849.90
555.90	848.14
556.26	846.48
556.61	844.71
556.97	842.19
557.32	841.52
557.68	840.14
558.03	838.48
558.39	835.43
558.74	833.05
559.10	831.29
559.45	829.52
559.81	828.38
560.16	827.33
560.52	826.10
560.87	825.57
561.23	822.57
561.58	822.95
561.94	820.14
562.29	818.10
562.64	816.10
563.00	812.14
563.35	810.38
563.71	808.67
564.06	807.19
564.42	806.29
564.77	804.81
565.12	803.24
565.48	804.29
565.83	804.86
566.19	803.33
566.54	801.38
566.89	799.67
567.25	799.33
567.60	798.95
567.96	800.05
568.31	800.00
568.66	800.05
569.02	796.76
569.37	796.00
569.72	794.10
570.08	792.81
570.43	792.05
570.78	790.52
571.14	788.67
571.49	787.76
571.84	785.43
572.20	784.10
572.55	782.43
572.90	779.00
573.26	777.10
573.61	776.24
573.96	775.33
574.31	775.00
574.67	772.95
575.02	770.81
575.37	767.00
575.72	763.00
576.08	760.76
576.43	758.95
576.78	756.95
577.13	755.90
577.49	754.90
577.84	754.05
578.19	752.71
578.54	752.10
578.90	750.62
579.25	750.24
579.60	749.90
579.95	748.62
580.30	747.52
580.66	746.38
581.01	745.43
581.36	743.95
581.71	741.43
582.06	740.81
582.42	739.48
582.77	738.43
583.12	738.52
583.47	736.62
583.82	735.05
584.17	734.48
584.53	733.48
584.88	731.57
585.23	729.95
585.58	728.52
585.93	727.19
586.28	725.52
586.63	723.05
586.98	719.90
587.34	717.43
587.69	715.14
588.04	712.62
588.39	709.00
588.74	706.29
589.09	705.10
589.44	701.33
589.79	697.90
590.14	694.71
590.49	691.00
590.84	687.52
591.19	684.71
591.54	681.95
591.89	678.14
592.25	677.33
592.60	672.24
592.95	669.52
593.30	665.29
593.65	662.05
594.00	659.14
594.35	663.24
594.70	660.19
595.05	656.52
595.40	654.29
595.75	651.19
596.10	649.19
596.45	645.29
596.80	642.29
597.15	639.33
597.50	636.57
597.85	634.43
598.19	632.00
598.54	629.52
598.89	626.00
599.24	623.38
599.59	618.90
599.94	616.90
600.29	614.00
600.64	611.86
600.99	609.95
601.34	607.48
601.69	598.24
602.04	596.10
602.39	593.71
602.74	591.52
603.08	589.24
603.43	587.71
603.78	585.24
604.13	583.43
604.48	582.33
604.83	581.10
605.18	580.62
605.53	581.10
605.87	582.71
606.22	586.10
606.57	590.67
606.92	595.43
607.27	601.71
607.62	607.19
607.96	613.33
608.31	617.05
608.66	621.76
609.01	624.71
609.36	627.05
609.70	631.00
610.05	633.10
610.40	635.90
610.75	636.95
611.10	639.19
611.44	640.10
611.79	640.57
612.14	640.67
612.49	638.43
612.83	636.38
613.18	632.24
613.53	626.52
613.88	619.90
614.22	611.86
614.57	603.19
614.92	594.76
615.27	586.24
615.61	579.10
615.96	571.76
616.31	565.62
616.65	560.57
617.00	554.10
617.35	548.33
617.70	543.10
618.04	538.05
618.39	533.19
618.74	529.43
619.08	525.38
619.43	521.81
619.78	518.43
620.12	514.86
620.47	512.19
620.82	509.38
621.16	506.05
621.51	505.14
621.85	502.76
622.20	500.62
622.55	497.90
622.89	495.33
623.24	493.52
623.59	490.62
623.93	487.90
624.28	485.90
624.62	486.57
624.97	485.33
625.32	483.19
625.66	480.81
626.01	478.62
626.35	476.86
626.70	474.57
627.04	473.76
627.39	472.14
627.73	471.29
628.08	469.62
628.43	467.71
628.77	464.24
629.12	462.00
629.46	460.00
629.81	458.29
630.15	456.14
630.50	453.57
630.84	452.19
631.19	450.00
631.53	447.62
631.88	442.14
632.22	438.90
632.57	437.33
632.91	435.52
633.26	433.52
633.60	430.29
633.95	428.05
634.29	424.62
634.64	422.14
634.98	419.00
635.32	417.57
635.67	415.76
636.01	413.76
636.36	412.00
636.70	410.48
637.05	408.38
637.39	406.33
637.73	404.76
638.08	403.62
638.42	401.67
638.77	400.33
639.11	398.67
639.45	397.05
639.80	395.00
640.14	393.14
640.49	391.38
640.83	390.10
641.17	389.29
641.52	388.62
641.86	387.95
642.20	387.14
642.55	384.57
642.89	383.52
643.23	382.86
643.58	382.81
643.92	380.71
644.26	379.33
644.61	378.95
644.95	377.90
645.29	376.33
645.64	376.62
645.98	375.38
646.32	375.62
646.66	375.05
647.01	373.95
647.35	373.67
647.69	373.00
648.04	372.62
648.38	371.00
648.72	369.81
649.06	367.86
649.41	366.38
649.75	365.62
650.09	364.67
650.43	363.52
650.78	361.52
651.12	360.62
651.46	360.29
651.80	358.86
652.14	357.38
652.49	357.00
652.83	355.14
653.17	354.19
653.51	352.57
653.85	351.52
654.20	350.38
654.54	348.43
654.88	346.90
655.22	345.29
655.56	344.00
655.90	343.29
656.25	342.76
656.59	342.00
656.93	341.24
657.27	340.95
657.61	339.71
657.95	339.29
658.29	338.71
658.64	337.90
658.98	337.19
659.32	336.48
659.66	335.29
660.00	335.05
660.34	334.24
660.68	333.38
661.02	332.67
661.36	331.71
661.70	331.33
662.05	330.71
662.39	331.29
662.73	332.10
663.07	332.52
663.41	332.33
663.75	331.24
664.09	330.95
664.43	329.76
664.77	329.29
665.11	328.24
665.45	327.57
665.79	327.62
666.13	326.90
666.47	326.33
666.81	325.38
667.15	323.81
667.49	323.19
667.83	323.19
668.17	322.52
668.51	322.14
668.85	321.81
669.19	322.71
669.53	321.19
669.87	319.95
670.21	318.57
670.55	317.48
670.89	318.00
671.23	316.95
671.57	316.43
671.91	316.29
672.25	315.71
672.58	315.90
672.92	314.38
673.26	313.76
673.60	313.10
673.94	313.14
674.28	313.10
674.62	313.05
674.96	312.48
675.30	312.19
675.64	311.76
675.97	311.00
676.31	309.14
676.65	308.86
676.99	308.90
677.33	307.90
677.67	307.76
678.01	306.10
678.34	305.90
678.68	305.95
679.02	305.24
679.36	304.67
679.70	303.62
680.04	303.05
680.37	302.67
680.71	302.43
681.05	301.71
681.39	301.19
681.73	300.71
682.06	299.86
682.40	299.05
682.74	299.05
683.08	299.81
683.42	299.29
683.75	299.52
684.09	298.29
684.43	298.05
684.77	297.48
685.10	297.43
685.44	297.10
685.78	296.14
686.12	296.05
686.45	295.62
686.79	294.86
687.13	295.10
687.46	294.38
687.80	294.19
688.14	293.86
688.48	293.62
688.81	292.86
689.15	293.00
689.49	292.48
689.82	292.00
690.16	290.33
690.50	290.00
690.83	289.19
691.17	288.19
691.51	287.86
691.84	287.57
692.18	286.95
692.52	286.67
692.85	286.19
693.19	286.10
693.52	285.67
693.86	285.43
694.20	284.62
694.53	284.52
694.87	283.95
695.21	283.14
695.54	282.81
695.88	282.10
696.21	280.90
696.55	280.62
696.88	279.90
697.22	279.62
697.56	279.62
697.89	278.57
698.23	278.67
698.56	278.24
698.90	278.24
699.23	278.05
699.57	277.62
699.90	277.19
700.24	276.10
700.58	276.10
700.91	276.38
701.25	278.24
701.58	279.00
701.92	279.76
702.25	280.38
702.59	280.29
702.92	280.76
703.26	281.57
703.59	282.10
703.93	284.57
704.26	285.33
704.60	285.95
704.93	286.43
705.26	286.71
705.60	287.14
705.93	287.14
706.27	288.05
706.60	289.14
706.94	290.67
707.27	290.67
707.61	290.90
707.94	290.76
708.27	289.00
708.61	288.43
708.94	288.05
709.28	287.38
709.61	286.62
709.94	286.29
710.28	285.33
710.61	284.48
710.95	281.33
711.28	282.10
711.61	280.81
711.95	280.81
712.28	279.67
712.61	278.90
712.95	279.24
713.28	279.05
713.61	277.48
713.95	276.00
714.28	275.57
714.61	274.43
714.95	273.43
715.28	272.10
715.61	271.10
715.95	270.48
716.28	269.95
716.61	270.33
716.95	269.57
717.28	269.52
717.61	269.14
717.94	269.14
718.28	267.00
718.61	266.67
718.94	265.62
719.27	265.52
719.61	265.43
719.94	264.24
720.27	262.57
720.60	262.10
720.94	261.67
721.27	261.43
721.60	261.90
721.93	261.67
722.27	262.62
722.60	262.43
722.93	261.81
723.26	261.57
723.59	260.62
723.93	260.48
724.26	260.43
724.59	260.48
724.92	260.19
725.25	260.24
725.59	260.24
725.92	260.71
726.25	260.43
726.58	259.86
726.91	259.76
727.24	260.24
727.57	260.00
727.91	259.29
728.24	259.48
728.57	259.10
728.90	259.14
729.23	257.86
729.56	259.14
729.89	258.95
730.22	258.86
730.55	258.90
730.89	259.05
731.22	258.48
731.55	257.95
731.88	258.24
732.21	258.05
732.54	257.43
732.87	256.86
733.20	257.00
733.53	257.86
733.86	257.86
734.19	257.29
734.52	257.76
734.85	259.81
735.18	259.38
735.51	259.76
735.84	259.76
736.17	260.67
736.50	259.19
736.83	261.81
737.16	261.71
737.49	261.52
737.82	261.38
738.15	261.57
738.48	261.57
738.81	261.19
739.14	260.90
739.47	260.76
739.80	260.62
740.13	260.86
740.46	259.95
740.79	259.62
741.12	260.19
741.45	259.76
741.78	258.10
742.11	258.62
742.44	257.81
742.77	258.33
743.10	257.86
743.43	257.76
743.75	255.52
744.08	258.38
744.41	258.29
744.74	258.05
745.07	257.52
745.40	257.90
745.73	258.48
746.06	258.76
746.39	259.33
746.71	259.24
747.04	258.95
747.37	258.81
747.70	259.29
748.03	258.57
748.36	258.86
748.68	259.14
749.01	258.38
749.34	258.71
749.67	258.43
750.00	258.81
750.33	260.48
750.65	260.33
750.98	257.38
751.31	257.67
751.64	257.71
751.97	259.52
752.29	259.33
752.62	258.48
752.95	258.33
753.28	257.57
753.60	257.52
753.93	257.57
754.26	257.29
754.59	256.24
754.91	255.95
755.24	255.29
755.57	254.52
755.90	254.52
756.22	254.05
756.55	253.57
756.88	252.76
757.20	251.19
757.53	250.24
757.86	250.10
758.19	249.81
758.51	249.57
758.84	248.10
759.17	247.67
759.49	248.10
759.82	249.24
760.15	249.48
760.47	249.43
760.80	248.95
761.13	249.57
761.45	249.29
761.78	249.67
762.11	249.90
762.43	249.95
762.76	249.71
763.08	249.76
763.41	249.90
763.74	249.76
764.06	249.67
764.39	249.71
764.71	249.67
765.04	249.24
765.37	248.67
765.69	248.48
766.02	248.52
766.34	247.81
766.67	246.48
767.00	247.10
767.32	248.43
767.65	250.10
767.97	249.76
768.30	250.10
768.62	249.90
768.95	249.48
769.27	249.33
769.60	249.76
769.92	249.29
770.25	248.67
770.57	248.24
770.90	248.00
771.22	247.62
771.55	247.57
771.87	247.71
772.20	247.76
772.52	249.19
772.85	251.76
773.17	251.67
773.50	251.38
773.82	250.62
774.15	249.00
774.47	247.29
774.80	247.19
775.12	247.10
775.45	247.00
775.77	247.48
776.09	247.67
776.42	247.67
776.74	248.43
777.07	248.52
777.39	248.76
777.72	248.76
778.04	249.24
778.36	249.10
778.69	249.38
779.01	249.76
779.33	247.52
779.66	244.86
779.98	245.14
780.31	245.24
780.63	246.38
780.95	246.67
781.28	246.38
781.60	246.24
781.92	246.14
782.25	246.24
782.57	245.95
782.89	245.86
783.22	245.57
783.54	245.38
783.86	245.52
784.19	245.57
784.51	246.00
784.83	245.67
785.16	245.52
785.48	245.43
785.80	245.38
786.12	246.05
786.45	246.29
786.77	246.00
787.09	245.86
787.42	244.90
787.74	245.52
788.06	245.67
788.38	245.48
788.71	245.19
789.03	244.86
789.35	245.38
789.67	244.95
789.99	245.19
790.32	244.67
790.64	245.14
790.96	247.10
791.28	246.38
791.61	246.67
791.93	246.76
792.25	246.67
792.57	248.57
792.89	248.19
793.21	248.38
793.54	248.48
793.86	248.24
