SpectraSuite Data File
++++++++++++++++++++++++++++++++++++
Date: Wed Nov 07 18:32:12 EST 2012
User: group
Dark Spectrum Present: No
Reference Spectrum Present: No
Number of Sampled Component Spectra: 1
Spectrometers: USB2E7196
Integration Time (usec): 1000000 (USB2E7196)
Spectra Averaged: 1 (USB2E7196)
Boxcar Smoothing: 10 (USB2E7196)
Correct for Electrical Dark: No (USB2E7196)
Strobe/Lamp Enabled: No (USB2E7196)
Correct for Detector Non-linearity: No (USB2E7196)
Correct for Stray Light: No (USB2E7196)
Number of Pixels in Processed Spectrum: 2048
>>>>>Begin Processed Spectral Data<<<<<
339.09	0.00
339.48	221.00
339.86	220.00
340.24	225.00
340.63	223.00
341.01	258.00
341.39	230.00
341.78	238.00
342.16	238.00
342.54	237.00
342.93	224.14
343.31	235.14
343.69	235.57
344.07	236.33
344.46	237.62
344.84	238.29
345.22	237.38
345.60	238.19
345.99	238.52
346.37	238.48
346.75	238.33
347.13	238.43
347.52	238.38
347.90	239.52
348.28	239.52
348.66	240.33
349.05	239.38
349.43	239.76
349.81	239.95
350.19	240.24
350.57	240.38
350.96	240.81
351.34	241.48
351.72	241.86
352.10	241.86
352.48	241.33
352.87	241.43
353.25	241.33
353.63	240.90
354.01	240.43
354.39	240.57
354.77	240.38
355.15	241.48
355.54	241.38
355.92	240.71
356.30	240.52
356.68	241.86
357.06	242.05
357.44	241.90
357.82	241.86
358.20	242.10
358.58	242.05
358.97	241.90
359.35	242.14
359.73	242.71
360.11	242.95
360.49	242.67
360.87	242.71
361.25	243.10
361.63	243.67
362.01	244.00
362.39	243.95
362.77	244.48
363.15	243.81
363.53	243.57
363.91	243.62
364.29	243.71
364.67	241.38
365.05	241.57
365.43	241.52
365.81	241.81
366.19	242.62
366.57	243.33
366.95	242.62
367.33	241.90
367.71	241.76
368.09	241.81
368.47	241.95
368.85	241.57
369.23	241.71
369.61	240.95
369.99	241.62
370.37	241.76
370.75	242.90
371.13	242.29
371.51	242.43
371.89	242.67
372.27	242.90
372.65	243.05
373.03	242.81
373.41	242.71
373.78	242.43
374.16	241.38
374.54	240.62
374.92	241.19
375.30	241.33
375.68	240.81
376.06	240.76
376.44	240.33
376.82	240.48
377.19	240.29
377.57	240.10
377.95	239.05
378.33	238.71
378.71	237.38
379.09	237.86
379.47	237.86
379.84	237.33
380.22	237.10
380.60	237.05
380.98	236.90
381.36	237.14
381.73	237.00
382.11	237.24
382.49	237.76
382.87	236.90
383.25	237.00
383.62	240.00
384.00	239.57
384.38	239.90
384.76	240.76
385.13	241.76
385.51	241.90
385.89	241.67
386.27	241.81
386.64	242.38
387.02	242.14
387.40	241.67
387.78	242.05
388.15	242.10
388.53	241.67
388.91	241.57
389.29	241.19
389.66	241.76
390.04	241.76
390.42	241.86
390.79	242.14
391.17	241.95
391.55	238.95
391.92	239.00
392.30	239.33
392.68	238.48
393.05	238.29
393.43	238.38
393.81	238.67
394.18	238.33
394.56	237.86
394.94	238.33
395.31	238.57
395.69	239.24
396.06	239.76
396.44	239.95
396.82	240.14
397.19	241.62
397.57	240.76
397.95	240.90
398.32	239.86
398.70	240.19
399.07	241.00
399.45	240.95
399.82	241.14
400.20	240.95
400.58	241.29
400.95	240.48
401.33	241.33
401.70	243.24
402.08	243.52
402.45	243.86
402.83	244.52
403.20	245.05
403.58	244.48
403.95	244.76
404.33	245.24
404.71	245.33
405.08	246.52
405.46	247.19
405.83	247.67
406.21	248.43
406.58	248.71
406.96	248.57
407.33	249.52
407.70	250.10
408.08	252.71
408.45	253.71
408.83	254.71
409.20	254.81
409.58	254.00
409.95	255.19
410.33	256.00
410.70	256.48
411.08	257.62
411.45	259.14
411.82	260.14
412.20	261.90
412.57	264.62
412.95	264.00
413.32	266.00
413.69	267.38
414.07	269.24
414.44	271.10
414.82	273.33
415.19	275.62
415.56	278.19
415.94	279.19
416.31	282.05
416.68	284.90
417.06	288.43
417.43	292.24
417.81	295.62
418.18	299.62
418.55	302.95
418.93	307.10
419.30	311.52
419.67	315.90
420.04	320.19
420.42	324.29
420.79	332.14
421.16	337.81
421.54	345.00
421.91	351.19
422.28	357.71
422.66	364.48
423.03	373.05
423.40	380.14
423.77	387.24
424.15	394.19
424.52	402.38
424.89	410.71
425.26	418.52
425.64	426.62
426.01	435.05
426.38	444.10
426.75	453.48
427.13	463.14
427.50	472.57
427.87	482.76
428.24	492.43
428.61	500.43
428.99	512.10
429.36	522.76
429.73	533.90
430.10	546.05
430.47	558.71
430.85	569.43
431.22	582.43
431.59	598.24
431.96	611.62
432.33	625.90
432.70	640.24
433.08	656.24
433.45	671.33
433.82	685.95
434.19	702.95
434.56	718.90
434.93	734.29
435.30	749.95
435.68	767.29
436.05	783.95
436.42	800.57
436.79	815.43
437.16	831.81
437.53	849.14
437.90	865.67
438.27	882.05
438.64	898.52
439.01	914.10
439.38	926.10
439.75	939.14
440.13	953.62
440.50	967.48
440.87	978.43
441.24	990.43
441.61	1004.24
441.98	1013.14
442.35	1024.43
442.72	1035.33
443.09	1046.86
443.46	1052.48
443.83	1056.67
444.20	1059.67
444.57	1063.24
444.94	1064.29
445.31	1065.14
445.68	1069.43
446.05	1069.19
446.42	1065.95
446.79	1063.29
447.16	1058.95
447.53	1055.86
447.90	1048.14
448.27	1039.90
448.64	1031.05
449.01	1023.52
449.37	1011.00
449.74	999.90
450.11	988.19
450.48	972.57
450.85	956.14
451.22	943.33
451.59	931.14
451.96	918.81
452.33	903.48
452.70	889.67
453.07	873.14
453.43	853.38
453.80	836.33
454.17	820.48
454.54	804.95
454.91	789.81
455.28	773.86
455.65	759.67
456.02	749.81
456.38	737.05
456.75	721.43
457.12	708.52
457.49	695.76
457.86	681.05
458.23	671.76
458.59	660.57
458.96	648.71
459.33	638.76
459.70	628.57
460.07	620.57
460.43	611.48
460.80	604.10
461.17	596.62
461.54	589.33
461.91	582.29
462.27	574.43
462.64	567.90
463.01	561.38
463.38	555.62
463.74	544.57
464.11	538.33
464.48	534.29
464.85	528.62
465.21	524.52
465.58	520.38
465.95	514.76
466.32	511.10
466.68	506.43
467.05	501.29
467.42	497.24
467.78	492.86
468.15	488.19
468.52	484.33
468.88	479.38
469.25	474.95
469.62	472.24
469.98	469.05
470.35	465.57
470.72	463.14
471.08	458.43
471.45	456.10
471.82	453.71
472.18	450.00
472.55	448.29
472.92	444.86
473.28	442.10
473.65	438.86
474.02	435.95
474.38	434.10
474.75	432.38
475.11	430.62
475.48	429.00
475.85	427.76
476.21	426.10
476.58	424.81
476.94	423.81
477.31	422.71
477.67	421.76
478.04	421.38
478.41	420.52
478.77	422.86
479.14	421.33
479.50	420.76
479.87	420.86
480.23	420.52
480.60	420.19
480.96	420.38
481.33	421.81
481.69	422.67
482.06	423.62
482.42	424.86
482.79	425.38
483.15	426.05
483.52	426.29
483.88	427.62
484.25	429.19
484.61	430.62
484.98	431.14
485.34	432.62
485.71	433.95
486.07	435.24
486.44	434.43
486.80	436.57
487.17	438.05
487.53	439.95
487.90	441.71
488.26	444.90
488.62	447.05
488.99	448.48
489.35	449.71
489.72	451.43
490.08	452.76
490.44	454.48
490.81	457.10
491.17	459.62
491.54	461.76
491.90	464.43
492.26	466.29
492.63	468.81
492.99	471.14
493.36	473.57
493.72	476.48
494.08	479.62
494.45	482.52
494.81	486.14
495.17	489.10
495.54	492.33
495.90	495.14
496.26	498.10
496.63	501.14
496.99	504.86
497.35	508.81
497.72	513.05
498.08	516.62
498.44	520.57
498.80	525.00
499.17	528.86
499.53	532.67
499.89	537.38
500.26	541.43
500.62	545.71
500.98	551.29
501.34	555.76
501.71	560.33
502.07	565.38
502.43	569.24
502.79	573.57
503.16	578.14
503.52	582.48
503.88	587.48
504.24	592.71
504.60	598.48
504.97	604.38
505.33	609.57
505.69	615.62
506.05	620.71
506.41	625.29
506.78	630.90
507.14	635.67
507.50	640.52
507.86	646.95
508.22	652.52
508.59	656.43
508.95	662.52
509.31	668.71
509.67	674.43
510.03	680.00
510.39	685.67
510.75	691.76
511.12	697.62
511.48	703.05
511.84	708.43
512.20	712.52
512.56	716.52
512.92	721.33
513.28	726.29
513.64	730.67
514.00	735.90
514.37	740.48
514.73	745.62
515.09	750.52
515.45	754.62
515.81	758.71
516.17	763.48
516.53	767.19
516.89	770.29
517.25	773.67
517.61	778.43
517.97	782.14
518.33	785.38
518.69	789.62
519.05	794.05
519.41	798.14
519.77	804.05
520.13	807.71
520.49	810.24
520.85	813.10
521.21	817.71
521.57	821.76
521.93	824.00
522.29	826.81
522.65	829.10
523.01	831.10
523.37	832.95
523.73	835.48
524.09	837.76
524.45	839.95
524.81	842.24
525.17	844.19
525.53	846.05
525.89	847.62
526.25	849.00
526.61	849.86
526.97	851.10
527.33	852.00
527.68	855.29
528.04	856.71
528.40	858.10
528.76	858.24
529.12	858.24
529.48	859.67
529.84	860.86
530.20	862.90
530.56	865.29
530.91	867.10
531.27	868.29
531.63	869.38
531.99	870.86
532.35	871.81
532.71	872.52
533.07	874.38
533.42	878.14
533.78	878.29
534.14	878.76
534.50	879.33
534.86	880.19
535.21	879.95
535.57	882.14
535.93	883.00
536.29	885.76
536.65	888.19
537.00	889.76
537.36	891.43
537.72	892.90
538.08	895.05
538.44	896.86
538.79	899.10
539.15	901.24
539.51	903.76
539.87	905.76
540.22	908.14
540.58	910.05
540.94	910.57
541.29	914.62
541.65	917.33
542.01	920.52
542.37	922.33
542.72	922.52
543.08	923.00
543.44	924.48
543.79	923.10
544.15	922.00
544.51	922.71
544.87	921.76
545.22	920.57
545.58	918.48
545.94	916.95
546.29	915.05
546.65	912.48
547.01	909.48
547.36	907.71
547.72	904.33
548.07	902.14
548.43	898.71
548.79	894.33
549.14	891.14
549.50	887.71
549.86	883.76
550.21	881.48
550.57	879.48
550.92	875.76
551.28	873.76
551.64	872.00
551.99	868.86
552.35	866.29
552.70	863.62
553.06	861.29
553.41	859.24
553.77	858.05
554.13	856.52
554.48	854.52
554.84	852.62
555.19	851.52
555.55	850.71
555.90	848.62
556.26	846.90
556.61	845.33
556.97	843.05
557.32	840.38
557.68	839.00
558.03	836.81
558.39	835.33
558.74	833.52
559.10	832.05
559.45	830.71
559.81	828.90
560.16	827.86
560.52	826.29
560.87	824.71
561.23	822.00
561.58	822.19
561.94	820.24
562.29	817.90
562.64	816.38
563.00	812.67
563.35	811.52
563.71	809.76
564.06	808.10
564.42	806.00
564.77	804.81
565.12	802.95
565.48	803.76
565.83	802.95
566.19	800.86
566.54	798.76
566.89	797.05
567.25	796.62
567.60	796.24
567.96	797.10
568.31	797.48
568.66	797.57
569.02	794.19
569.37	792.71
569.72	791.29
570.08	788.90
570.43	788.05
570.78	786.19
571.14	784.57
571.49	783.29
571.84	782.24
572.20	781.57
572.55	780.14
572.90	775.95
573.26	774.19
573.61	773.33
573.96	772.76
574.31	771.38
574.67	769.57
575.02	767.57
575.37	763.90
575.72	761.19
576.08	758.38
576.43	757.62
576.78	756.90
577.13	756.62
577.49	755.76
577.84	754.05
578.19	752.76
578.54	752.43
578.90	750.95
579.25	749.52
579.60	747.90
579.95	746.43
580.30	746.19
580.66	745.05
581.01	744.24
581.36	742.19
581.71	740.81
582.06	740.24
582.42	738.29
582.77	737.10
583.12	736.10
583.47	735.14
583.82	733.57
584.17	731.57
584.53	730.57
584.88	729.14
585.23	728.33
585.58	726.48
585.93	723.95
586.28	722.10
586.63	720.52
586.98	718.43
587.34	716.90
587.69	713.38
588.04	711.10
588.39	707.95
588.74	705.29
589.09	703.38
589.44	699.67
589.79	696.90
590.14	694.19
590.49	690.29
590.84	686.52
591.19	683.43
591.54	680.67
591.89	676.48
592.25	675.14
592.60	671.24
592.95	668.38
593.30	665.81
593.65	663.14
594.00	659.05
594.35	662.52
594.70	659.05
595.05	656.95
595.40	654.48
595.75	651.14
596.10	648.95
596.45	645.24
596.80	642.67
597.15	639.86
597.50	636.57
597.85	635.05
598.19	632.95
598.54	629.86
598.89	627.24
599.24	624.57
599.59	620.19
599.94	617.29
600.29	614.14
600.64	611.24
600.99	609.19
601.34	607.48
601.69	598.57
602.04	596.48
602.39	593.57
602.74	591.05
603.08	589.05
603.43	588.10
603.78	586.24
604.13	584.43
604.48	583.33
604.83	582.76
605.18	582.33
605.53	582.52
605.87	584.76
606.22	587.24
606.57	591.76
606.92	597.33
607.27	603.38
607.62	609.33
607.96	615.62
608.31	619.86
608.66	623.90
609.01	627.43
609.36	630.48
609.70	634.86
610.05	637.48
610.40	641.33
610.75	641.95
611.10	643.86
611.44	645.38
611.79	645.52
612.14	645.29
612.49	643.00
612.83	640.57
613.18	636.24
613.53	631.48
613.88	624.43
614.22	615.76
614.57	607.19
614.92	598.52
615.27	589.76
615.61	581.67
615.96	574.62
616.31	568.29
616.65	561.90
617.00	554.95
617.35	549.19
617.70	542.67
618.04	537.86
618.39	532.29
618.74	527.62
619.08	523.19
619.43	519.19
619.78	515.43
620.12	511.67
620.47	509.05
620.82	505.90
621.16	502.81
621.51	502.24
621.85	499.71
622.20	498.10
622.55	495.14
622.89	492.62
623.24	490.67
623.59	488.10
623.93	486.57
624.28	484.52
624.62	484.57
624.97	483.62
625.32	481.33
625.66	480.19
626.01	478.10
626.35	476.38
626.70	474.62
627.04	473.95
627.39	472.05
627.73	470.81
628.08	469.57
628.43	468.24
628.77	465.10
629.12	463.00
629.46	460.52
629.81	458.52
630.15	456.48
630.50	454.00
630.84	452.19
631.19	449.43
631.53	446.95
631.88	442.43
632.22	438.76
632.57	436.57
632.91	434.05
633.26	432.48
633.60	429.90
633.95	427.29
634.29	424.62
634.64	423.33
634.98	419.95
635.32	417.71
635.67	415.62
636.01	413.71
636.36	411.48
636.70	410.33
637.05	408.95
637.39	407.05
637.73	405.76
638.08	404.33
638.42	402.86
638.77	401.71
639.11	400.24
639.45	398.67
639.80	396.67
640.14	395.29
640.49	393.33
640.83	392.05
641.17	391.14
641.52	389.05
641.86	387.43
642.20	387.48
642.55	385.57
642.89	384.10
643.23	382.43
643.58	382.19
643.92	379.95
644.26	378.90
644.61	378.62
644.95	377.71
645.29	376.67
645.64	376.67
645.98	375.57
646.32	375.33
646.66	374.67
647.01	373.90
647.35	373.14
647.69	372.43
648.04	371.95
648.38	370.71
648.72	370.19
649.06	368.95
649.41	367.19
649.75	366.00
650.09	365.43
650.43	364.57
650.78	362.90
651.12	362.05
651.46	360.43
651.80	358.38
652.14	356.57
652.49	355.43
652.83	353.10
653.17	351.86
653.51	349.67
653.85	348.52
654.20	347.67
654.54	346.05
654.88	344.76
655.22	343.38
655.56	342.33
655.90	341.48
656.25	340.81
656.59	339.71
656.93	339.33
657.27	339.38
657.61	338.67
657.95	338.19
658.29	337.67
658.64	337.86
658.98	337.10
659.32	336.71
659.66	335.95
660.00	335.81
660.34	335.29
660.68	334.90
661.02	334.29
661.36	333.29
661.70	333.05
662.05	332.24
662.39	332.29
662.73	332.71
663.07	333.67
663.41	333.29
663.75	332.90
664.09	332.43
664.43	330.62
664.77	329.86
665.11	329.05
665.45	328.38
665.79	328.00
666.13	327.52
666.47	326.52
666.81	325.71
667.15	324.29
667.49	323.86
667.83	323.86
668.17	323.10
668.51	322.67
668.85	321.86
669.19	322.10
669.53	321.00
669.87	319.14
670.21	317.29
670.55	316.48
670.89	316.52
671.23	315.76
671.57	315.14
671.91	314.76
672.25	314.10
672.58	314.38
672.92	312.76
673.26	312.33
673.60	312.10
673.94	311.76
674.28	311.57
674.62	311.52
674.96	310.57
675.30	310.29
675.64	309.62
675.97	309.05
676.31	307.76
676.65	307.05
676.99	307.57
677.33	306.48
677.67	306.14
678.01	304.52
678.34	303.86
678.68	303.95
679.02	302.81
679.36	302.00
679.70	300.67
680.04	300.29
680.37	299.90
680.71	299.24
681.05	298.76
681.39	298.33
681.73	296.86
682.06	296.33
682.40	295.81
682.74	295.67
683.08	296.62
683.42	296.24
683.75	296.62
684.09	295.38
684.43	295.33
684.77	294.48
685.10	294.29
685.44	294.52
685.78	293.81
686.12	293.71
686.45	293.71
686.79	293.19
687.13	293.14
687.46	292.71
687.80	292.67
688.14	292.33
688.48	292.14
688.81	292.43
689.15	292.57
689.49	291.86
689.82	291.76
690.16	290.10
690.50	289.57
690.83	288.33
691.17	287.67
691.51	287.24
691.84	287.33
692.18	286.86
692.52	285.81
692.85	285.76
693.19	286.24
693.52	286.29
693.86	285.95
694.20	285.24
694.53	285.00
694.87	284.48
695.21	283.38
695.54	283.00
695.88	281.76
696.21	280.05
696.55	279.86
696.88	279.00
697.22	278.24
697.56	278.24
697.89	278.10
698.23	278.19
698.56	277.86
698.90	277.67
699.23	277.14
699.57	277.29
699.90	276.38
700.24	275.14
700.58	274.95
700.91	275.19
701.25	277.19
701.58	278.10
701.92	278.62
702.25	279.33
702.59	279.19
702.92	280.10
703.26	281.00
703.59	281.76
703.93	284.14
704.26	285.33
704.60	285.86
704.93	285.95
705.26	286.24
705.60	287.05
705.93	287.24
706.27	288.67
706.60	289.67
706.94	291.38
707.27	292.00
707.61	292.24
707.94	292.38
708.27	290.86
708.61	289.86
708.94	289.81
709.28	289.52
709.61	289.10
709.94	288.43
710.28	288.24
710.61	287.48
710.95	284.95
711.28	285.19
711.61	283.95
711.95	283.86
712.28	282.76
712.61	281.90
712.95	282.14
713.28	281.86
713.61	280.10
713.95	278.29
714.28	277.43
714.61	276.19
714.95	275.00
715.28	273.62
715.61	272.62
715.95	271.86
716.28	271.24
716.61	271.24
716.95	270.33
717.28	269.57
717.61	268.95
717.94	268.10
718.28	266.38
718.61	266.00
718.94	265.05
719.27	264.62
719.61	263.95
719.94	262.57
720.27	261.14
720.60	261.00
720.94	260.71
721.27	260.76
721.60	260.86
721.93	260.67
722.27	261.57
722.60	261.76
722.93	260.86
723.26	261.00
723.59	260.24
723.93	260.52
724.26	260.38
724.59	260.24
724.92	260.48
725.25	261.19
725.59	260.90
725.92	261.10
726.25	261.24
726.58	261.57
726.91	261.52
727.24	261.86
727.57	261.67
727.91	261.19
728.24	260.67
728.57	260.38
728.90	260.67
729.23	259.52
729.56	260.57
729.89	260.81
730.22	260.24
730.55	260.14
730.89	260.19
731.22	259.95
731.55	259.76
731.88	259.71
732.21	258.95
732.54	259.00
732.87	258.81
733.20	259.00
733.53	258.62
733.86	258.52
734.19	257.71
734.52	257.62
734.85	259.24
735.18	259.05
735.51	259.52
735.84	259.38
736.17	259.81
736.50	258.19
736.83	260.67
737.16	260.81
737.49	261.10
737.82	260.76
738.15	261.05
738.48	260.90
738.81	260.62
739.14	260.43
739.47	260.14
739.80	259.95
740.13	259.81
740.46	259.38
740.79	258.90
741.12	259.00
741.45	258.90
741.78	257.29
742.11	257.90
742.44	257.33
742.77	257.67
743.10	257.33
743.43	257.43
743.75	254.81
744.08	257.67
744.41	257.33
744.74	257.05
745.07	256.38
745.40	256.62
745.73	257.48
746.06	257.14
746.39	257.29
746.71	256.95
747.04	256.57
747.37	256.62
747.70	256.86
748.03	256.67
748.36	256.86
748.68	256.62
749.01	255.76
749.34	255.86
749.67	255.52
750.00	255.76
750.33	257.33
750.65	257.43
750.98	254.14
751.31	254.00
751.64	253.95
751.97	255.24
752.29	254.81
752.62	253.90
752.95	253.52
753.28	253.29
753.60	253.19
753.93	253.81
754.26	253.62
754.59	252.81
754.91	252.43
755.24	251.67
755.57	251.71
755.90	251.57
756.22	250.95
756.55	250.52
756.88	250.10
757.20	248.76
757.53	248.00
757.86	248.24
758.19	248.52
758.51	248.76
758.84	247.48
759.17	247.48
759.49	247.33
759.82	248.43
760.15	248.14
760.47	248.00
760.80	247.10
761.13	247.57
761.45	248.05
761.78	248.52
762.11	249.00
762.43	248.86
762.76	248.81
763.08	249.38
763.41	249.43
763.74	249.76
764.06	249.24
764.39	249.29
764.71	249.10
765.04	248.76
765.37	248.52
765.69	248.57
766.02	248.43
766.34	248.29
766.67	247.57
767.00	248.24
767.32	249.71
767.65	251.38
767.97	250.81
768.30	251.05
768.62	250.62
768.95	250.05
769.27	249.62
769.60	250.29
769.92	249.62
770.25	249.29
770.57	248.43
770.90	248.48
771.22	248.33
771.55	248.19
771.87	248.10
772.20	248.05
772.52	250.19
772.85	253.24
773.17	253.14
773.50	252.90
773.82	252.81
774.15	251.71
774.47	249.90
774.80	249.48
775.12	249.24
775.45	249.29
775.77	249.76
776.09	250.24
776.42	249.62
776.74	250.43
777.07	250.38
777.39	250.43
777.72	250.14
778.04	250.24
778.36	249.90
778.69	250.05
779.01	249.81
779.33	247.33
779.66	244.48
779.98	244.24
780.31	244.67
780.63	245.52
780.95	245.52
781.28	245.62
781.60	245.90
781.92	245.90
782.25	246.05
782.57	245.76
782.89	245.52
783.22	245.62
783.54	245.24
783.86	245.19
784.19	245.05
784.51	245.95
784.83	245.76
785.16	245.62
785.48	245.38
785.80	245.48
786.12	246.00
786.45	245.48
786.77	245.71
787.09	245.43
787.42	244.62
787.74	244.76
788.06	244.71
788.38	244.52
788.71	244.19
789.03	243.86
789.35	244.29
789.67	244.05
789.99	244.10
790.32	243.43
790.64	243.86
790.96	246.00
791.28	244.95
791.61	245.00
791.93	245.43
792.25	245.43
792.57	247.19
792.89	246.57
793.21	247.57
793.54	247.19
793.86	246.76
