SpectraSuite Data File
++++++++++++++++++++++++++++++++++++
Date: Wed Nov 07 18:32:22 EST 2012
User: group
Dark Spectrum Present: No
Reference Spectrum Present: No
Number of Sampled Component Spectra: 1
Spectrometers: USB2E7196
Integration Time (usec): 1000000 (USB2E7196)
Spectra Averaged: 1 (USB2E7196)
Boxcar Smoothing: 10 (USB2E7196)
Correct for Electrical Dark: No (USB2E7196)
Strobe/Lamp Enabled: No (USB2E7196)
Correct for Detector Non-linearity: No (USB2E7196)
Correct for Stray Light: No (USB2E7196)
Number of Pixels in Processed Spectrum: 2048
>>>>>Begin Processed Spectral Data<<<<<
339.09	0.00
339.48	222.00
339.86	217.00
340.24	220.00
340.63	229.00
341.01	264.00
341.39	221.00
341.78	234.00
342.16	237.00
342.54	227.00
342.93	222.43
343.31	233.71
343.69	234.24
344.07	235.05
344.46	236.19
344.84	236.62
345.22	235.24
345.60	236.00
345.99	236.10
346.37	236.00
346.75	236.57
347.13	236.71
347.52	236.90
347.90	237.76
348.28	237.90
348.66	238.38
349.05	237.81
349.43	238.10
349.81	238.24
350.19	238.86
350.57	238.95
350.96	239.43
351.34	239.62
351.72	239.67
352.10	239.90
352.48	239.81
352.87	239.81
353.25	239.71
353.63	239.62
354.01	239.57
354.39	240.00
354.77	239.81
355.15	240.86
355.54	240.71
355.92	240.38
356.30	240.10
356.68	242.10
357.06	242.10
357.44	241.86
357.82	241.95
358.20	242.14
358.58	241.76
358.97	241.57
359.35	242.10
359.73	242.67
360.11	242.71
360.49	242.57
360.87	242.38
361.25	242.76
361.63	243.71
362.01	244.05
362.39	243.86
362.77	244.38
363.15	243.48
363.53	243.48
363.91	243.38
364.29	243.48
364.67	240.57
365.05	240.62
365.43	241.05
365.81	241.29
366.19	242.19
366.57	243.48
366.95	243.57
367.33	242.86
367.71	242.81
368.09	243.14
368.47	243.24
368.85	243.24
369.23	243.71
369.61	242.81
369.99	243.52
370.37	243.43
370.75	244.43
371.13	244.00
371.51	243.62
371.89	243.67
372.27	243.76
372.65	244.29
373.03	244.33
373.41	243.90
373.78	243.57
374.16	242.10
374.54	241.10
374.92	240.86
375.30	241.05
375.68	240.71
376.06	240.57
376.44	240.33
376.82	240.48
377.19	240.38
377.57	240.24
377.95	239.33
378.33	239.33
378.71	237.90
379.09	238.43
379.47	238.86
379.84	238.81
380.22	238.33
380.60	238.14
380.98	238.05
381.36	238.00
381.73	237.95
382.11	238.57
382.49	238.52
382.87	238.33
383.25	237.86
383.62	240.67
384.00	240.33
384.38	240.71
384.76	240.95
385.13	241.76
385.51	241.81
385.89	241.43
386.27	241.43
386.64	241.71
387.02	241.76
387.40	241.57
387.78	241.71
388.15	242.24
388.53	242.29
388.91	242.19
389.29	242.00
389.66	242.29
390.04	242.14
390.42	242.52
390.79	242.48
391.17	242.90
391.55	240.14
391.92	240.29
392.30	240.29
392.68	240.19
393.05	239.90
393.43	240.05
393.81	240.43
394.18	240.29
394.56	240.00
394.94	240.33
395.31	240.43
395.69	241.48
396.06	241.81
396.44	241.71
396.82	241.52
397.19	242.86
397.57	242.62
397.95	243.24
398.32	242.48
398.70	243.00
399.07	243.52
399.45	243.52
399.82	243.33
400.20	243.10
400.58	243.14
400.95	242.10
401.33	242.57
401.70	244.52
402.08	244.76
402.45	245.29
402.83	245.71
403.20	245.76
403.58	245.05
403.95	245.29
404.33	245.90
404.71	246.24
405.08	247.76
405.46	248.10
405.83	248.05
406.21	248.57
406.58	249.05
406.96	249.14
407.33	249.86
407.70	250.86
408.08	253.57
408.45	254.52
408.83	255.95
409.20	256.57
409.58	255.62
409.95	256.67
410.33	257.57
410.70	257.67
411.08	258.90
411.45	259.95
411.82	260.86
412.20	262.43
412.57	264.86
412.95	264.19
413.32	266.33
413.69	267.57
414.07	269.81
414.44	271.67
414.82	273.86
415.19	276.62
415.56	278.52
415.94	279.38
416.31	282.38
416.68	285.33
417.06	288.86
417.43	292.86
417.81	296.90
418.18	300.67
418.55	304.86
418.93	309.48
419.30	314.57
419.67	318.86
420.04	323.48
420.42	327.90
420.79	335.86
421.16	341.38
421.54	349.00
421.91	354.86
422.28	361.24
422.66	368.05
423.03	376.19
423.40	383.62
423.77	391.05
424.15	398.43
424.52	405.76
424.89	414.05
425.26	422.14
425.64	429.76
426.01	438.14
426.38	447.19
426.75	456.48
427.13	464.71
427.50	474.62
427.87	484.33
428.24	494.57
428.61	502.00
428.99	513.24
429.36	523.38
429.73	534.38
430.10	545.76
430.47	557.48
430.85	567.43
431.22	580.29
431.59	595.86
431.96	608.71
432.33	623.43
432.70	637.67
433.08	652.95
433.45	668.05
433.82	682.76
434.19	700.24
434.56	716.52
434.93	732.57
435.30	747.81
435.68	765.33
436.05	781.71
436.42	797.81
436.79	813.14
437.16	829.76
437.53	847.48
437.90	864.43
438.27	881.57
438.64	898.52
439.01	914.00
439.38	925.90
439.75	938.81
440.13	954.43
440.50	967.76
440.87	979.62
441.24	991.90
441.61	1005.95
441.98	1014.38
442.35	1025.24
442.72	1035.95
443.09	1047.71
443.46	1052.67
443.83	1056.76
444.20	1059.95
444.57	1064.14
444.94	1065.76
445.31	1067.86
445.68	1072.14
446.05	1071.52
446.42	1069.38
446.79	1066.57
447.16	1062.19
447.53	1059.38
447.90	1050.90
448.27	1043.95
448.64	1033.71
449.01	1025.48
449.37	1012.19
449.74	1000.05
450.11	987.67
450.48	972.90
450.85	955.95
451.22	942.76
451.59	930.29
451.96	918.62
452.33	902.81
452.70	887.95
453.07	870.38
453.43	850.86
453.80	834.76
454.17	818.24
454.54	802.76
454.91	787.43
455.28	772.10
455.65	757.10
456.02	746.62
456.38	733.90
456.75	718.38
457.12	705.43
457.49	692.86
457.86	679.05
458.23	669.38
458.59	659.33
458.96	649.05
459.33	638.38
459.70	628.67
460.07	620.57
460.43	612.29
460.80	604.24
461.17	596.29
461.54	588.71
461.91	581.38
462.27	574.05
462.64	567.00
463.01	559.62
463.38	554.24
463.74	542.76
464.11	537.14
464.48	532.43
464.85	527.33
465.21	524.14
465.58	519.52
465.95	512.71
466.32	507.52
466.68	502.19
467.05	497.76
467.42	492.86
467.78	488.33
468.15	483.00
468.52	479.57
468.88	474.90
469.25	470.10
469.62	468.19
469.98	464.81
470.35	462.48
470.72	459.86
471.08	455.33
471.45	453.24
471.82	450.52
472.18	447.81
472.55	445.57
472.92	441.76
473.28	438.81
473.65	437.10
474.02	435.10
474.38	433.48
474.75	432.10
475.11	430.24
475.48	428.71
475.85	427.10
476.21	425.43
476.58	424.33
476.94	423.14
477.31	421.14
477.67	419.76
478.04	418.33
478.41	417.90
478.77	419.86
479.14	418.57
479.50	418.57
479.87	418.33
480.23	418.52
480.60	418.43
480.96	418.24
481.33	419.19
481.69	419.57
482.06	420.14
482.42	421.14
482.79	422.38
483.15	423.24
483.52	424.76
483.88	425.24
484.25	426.43
484.61	427.95
484.98	428.57
485.34	430.71
485.71	433.05
486.07	434.38
486.44	433.86
486.80	435.62
487.17	436.19
487.53	438.29
487.90	439.81
488.26	442.81
488.62	445.67
488.99	446.24
489.35	448.52
489.72	450.33
490.08	451.62
490.44	452.95
490.81	455.43
491.17	457.57
491.54	460.14
491.90	462.38
492.26	464.33
492.63	466.57
492.99	468.57
493.36	470.57
493.72	473.19
494.08	476.00
494.45	478.90
494.81	482.86
495.17	485.57
495.54	488.95
495.90	491.62
496.26	494.86
496.63	498.57
496.99	502.00
497.35	505.95
497.72	509.90
498.08	514.43
498.44	518.00
498.80	522.38
499.17	526.86
499.53	530.76
499.89	536.10
500.26	540.76
500.62	545.67
500.98	551.29
501.34	556.14
501.71	561.43
502.07	566.86
502.43	571.43
502.79	575.95
503.16	581.05
503.52	585.52
503.88	589.71
504.24	596.00
504.60	601.71
504.97	607.33
505.33	612.52
505.69	618.19
506.05	622.90
506.41	627.71
506.78	632.52
507.14	638.05
507.50	642.67
507.86	648.43
508.22	654.57
508.59	658.57
508.95	664.10
509.31	671.05
509.67	675.81
510.03	681.48
510.39	686.95
510.75	691.95
511.12	697.62
511.48	703.24
511.84	707.38
512.20	711.71
512.56	716.19
512.92	721.67
513.28	725.90
513.64	730.43
514.00	735.57
514.37	740.29
514.73	745.67
515.09	751.67
515.45	755.48
515.81	758.62
516.17	763.38
516.53	767.52
516.89	769.24
517.25	773.19
517.61	777.24
517.97	781.14
518.33	785.67
518.69	789.76
519.05	793.76
519.41	797.76
519.77	802.81
520.13	807.10
520.49	810.10
520.85	813.33
521.21	819.00
521.57	821.95
521.93	824.52
522.29	827.05
522.65	827.95
523.01	831.00
523.37	833.00
523.73	835.10
524.09	837.33
524.45	839.24
524.81	841.76
525.17	844.67
525.53	846.67
525.89	847.19
526.25	849.38
526.61	849.86
526.97	851.48
527.33	851.95
527.68	855.10
528.04	856.76
528.40	857.71
528.76	857.67
529.12	859.33
529.48	861.43
529.84	862.76
530.20	864.81
530.56	866.19
530.91	868.05
531.27	869.95
531.63	870.86
531.99	872.57
532.35	873.62
532.71	874.19
533.07	874.81
533.42	879.33
533.78	879.38
534.14	881.19
534.50	881.19
534.86	883.33
535.21	882.33
535.57	883.71
535.93	885.00
536.29	886.95
536.65	888.57
537.00	889.90
537.36	891.90
537.72	893.76
538.08	896.67
538.44	898.71
538.79	901.76
539.15	903.48
539.51	906.95
539.87	908.57
540.22	910.19
540.58	913.00
540.94	913.57
541.29	916.29
541.65	918.19
542.01	920.95
542.37	921.95
542.72	921.95
543.08	922.57
543.44	923.57
543.79	923.14
544.15	923.14
544.51	923.67
544.87	922.43
545.22	920.71
545.58	919.00
545.94	916.81
546.29	913.86
546.65	911.86
547.01	908.00
547.36	906.67
547.72	903.67
548.07	900.76
548.43	896.62
548.79	893.95
549.14	890.90
549.50	888.38
549.86	884.86
550.21	883.29
550.57	880.29
550.92	877.24
551.28	875.67
551.64	872.29
551.99	869.29
552.35	866.24
552.70	863.52
553.06	861.33
553.41	859.43
553.77	858.71
554.13	857.57
554.48	856.29
554.84	854.95
555.19	852.86
555.55	853.43
555.90	851.67
556.26	849.71
556.61	847.62
556.97	844.81
557.32	843.24
557.68	841.29
558.03	839.48
558.39	837.95
558.74	835.14
559.10	833.29
559.45	831.76
559.81	830.14
560.16	829.00
560.52	826.90
560.87	826.00
561.23	823.52
561.58	823.90
561.94	821.43
562.29	819.33
562.64	818.95
563.00	815.00
563.35	813.24
563.71	811.14
564.06	809.95
564.42	808.81
564.77	806.14
565.12	805.24
565.48	806.43
565.83	805.43
566.19	804.38
566.54	803.48
566.89	801.48
567.25	801.24
567.60	801.19
567.96	802.05
568.31	801.29
568.66	799.95
569.02	796.10
569.37	795.24
569.72	793.14
570.08	791.10
570.43	790.00
570.78	788.29
571.14	786.29
571.49	785.52
571.84	784.19
572.20	783.05
572.55	781.67
572.90	778.29
573.26	776.71
573.61	775.00
573.96	774.86
574.31	773.90
574.67	771.62
575.02	770.10
575.37	767.76
575.72	765.48
576.08	763.81
576.43	762.38
576.78	760.86
577.13	760.19
577.49	758.76
577.84	757.52
578.19	756.43
578.54	755.43
578.90	753.24
579.25	752.57
579.60	752.05
579.95	750.38
580.30	748.90
580.66	747.67
581.01	746.43
581.36	743.81
581.71	742.00
582.06	742.52
582.42	740.48
582.77	737.43
583.12	736.19
583.47	734.48
583.82	732.76
584.17	731.57
584.53	729.86
584.88	727.57
585.23	726.48
585.58	724.81
585.93	723.00
586.28	721.19
586.63	719.10
586.98	716.29
587.34	714.00
587.69	711.43
588.04	709.19
588.39	706.76
588.74	702.95
589.09	701.90
589.44	697.43
589.79	694.57
590.14	692.67
590.49	689.38
590.84	686.38
591.19	683.71
591.54	681.00
591.89	677.00
592.25	676.95
592.60	673.05
592.95	671.14
593.30	668.62
593.65	666.00
594.00	661.86
594.35	666.19
594.70	662.81
595.05	660.10
595.40	656.81
595.75	653.71
596.10	652.62
596.45	648.48
596.80	646.24
597.15	642.76
597.50	639.19
597.85	637.38
598.19	634.95
598.54	632.48
598.89	629.43
599.24	627.19
599.59	622.05
599.94	619.57
600.29	615.62
600.64	613.29
600.99	611.19
601.34	609.90
601.69	600.57
602.04	598.00
602.39	595.33
602.74	593.19
603.08	590.48
603.43	588.86
603.78	586.95
604.13	585.05
604.48	583.71
604.83	583.19
605.18	582.29
605.53	582.48
605.87	583.90
606.22	587.38
606.57	591.90
606.92	597.38
607.27	602.62
607.62	608.48
607.96	613.52
608.31	618.19
608.66	621.90
609.01	625.67
609.36	630.00
609.70	633.19
610.05	636.90
610.40	640.48
610.75	642.05
611.10	643.81
611.44	645.14
611.79	646.05
612.14	645.95
612.49	644.00
612.83	641.38
613.18	638.19
613.53	631.90
613.88	624.76
614.22	616.90
614.57	608.81
614.92	600.00
615.27	592.10
615.61	583.90
615.96	576.52
616.31	569.62
616.65	563.14
617.00	556.67
617.35	550.00
617.70	543.95
618.04	538.14
618.39	533.43
618.74	528.95
619.08	524.95
619.43	520.90
619.78	518.14
620.12	514.67
620.47	511.43
620.82	508.90
621.16	506.29
621.51	505.19
621.85	502.43
622.20	501.05
622.55	497.90
622.89	495.76
623.24	493.62
623.59	490.57
623.93	488.57
624.28	487.05
624.62	487.57
624.97	486.76
625.32	484.90
625.66	482.86
626.01	480.67
626.35	478.81
626.70	476.71
627.04	475.10
627.39	473.71
627.73	472.67
628.08	471.29
628.43	469.29
628.77	466.00
629.12	463.86
629.46	461.14
629.81	459.76
630.15	457.57
630.50	455.10
630.84	453.86
631.19	451.10
631.53	448.19
631.88	443.14
632.22	439.43
632.57	437.81
632.91	435.52
633.26	433.48
633.60	430.86
633.95	428.52
634.29	425.43
634.64	423.48
634.98	420.43
635.32	418.33
635.67	416.81
636.01	414.76
636.36	412.48
636.70	411.86
637.05	409.67
637.39	408.33
637.73	407.00
638.08	406.10
638.42	404.10
638.77	403.00
639.11	401.14
639.45	399.86
639.80	397.71
640.14	395.95
640.49	394.00
640.83	392.19
641.17	391.52
641.52	389.95
641.86	388.67
642.20	387.90
642.55	385.95
642.89	384.57
643.23	383.43
643.58	383.33
643.92	380.67
644.26	379.71
644.61	378.52
644.95	377.67
645.29	375.95
645.64	376.38
645.98	375.62
646.32	375.48
646.66	374.00
647.01	372.95
647.35	372.33
647.69	371.67
648.04	371.43
648.38	370.29
648.72	370.05
649.06	368.43
649.41	366.67
649.75	365.57
650.09	364.86
650.43	363.95
650.78	362.43
651.12	361.76
651.46	360.67
651.80	359.67
652.14	358.29
652.49	358.24
652.83	356.05
653.17	354.71
653.51	353.00
653.85	352.71
654.20	351.62
654.54	350.29
654.88	348.90
655.22	347.19
655.56	345.52
655.90	344.19
656.25	343.05
656.59	342.14
656.93	341.71
657.27	341.43
657.61	339.86
657.95	339.24
658.29	338.48
658.64	338.00
658.98	336.76
659.32	335.86
659.66	334.38
660.00	333.95
660.34	333.14
660.68	332.33
661.02	331.33
661.36	330.81
661.70	330.14
662.05	329.43
662.39	330.10
662.73	330.14
663.07	330.67
663.41	330.19
663.75	329.19
664.09	328.24
664.43	326.62
664.77	326.43
665.11	325.62
665.45	325.05
665.79	324.62
666.13	323.81
666.47	323.05
666.81	322.52
667.15	321.33
667.49	321.10
667.83	321.52
668.17	320.57
668.51	319.52
668.85	319.43
669.19	319.71
669.53	318.05
669.87	316.71
670.21	314.95
670.55	314.33
670.89	314.81
671.23	314.38
671.57	313.71
671.91	313.05
672.25	312.57
672.58	312.67
672.92	311.10
673.26	310.52
673.60	310.57
673.94	309.67
674.28	309.43
674.62	308.86
674.96	307.52
675.30	307.10
675.64	306.76
675.97	305.57
676.31	304.29
676.65	303.14
676.99	303.43
677.33	302.76
677.67	302.43
678.01	301.14
678.34	300.48
678.68	300.48
679.02	299.90
679.36	299.57
679.70	298.52
680.04	298.48
680.37	298.38
680.71	297.43
681.05	296.90
681.39	296.71
681.73	295.90
682.06	295.81
682.40	295.67
682.74	295.43
683.08	295.67
683.42	295.33
683.75	295.95
684.09	295.43
684.43	295.29
684.77	294.57
685.10	294.19
685.44	293.76
685.78	293.29
686.12	292.95
686.45	292.48
686.79	291.62
687.13	291.29
687.46	290.57
687.80	290.62
688.14	290.52
688.48	290.05
688.81	290.14
689.15	290.29
689.49	289.76
689.82	289.76
690.16	288.76
690.50	288.24
690.83	287.43
691.17	286.29
691.51	285.67
691.84	285.90
692.18	285.14
692.52	284.62
692.85	284.29
693.19	284.81
693.52	283.71
693.86	283.33
694.20	283.05
694.53	282.95
694.87	282.48
695.21	281.62
695.54	281.29
695.88	280.33
696.21	278.57
696.55	278.14
696.88	277.38
697.22	276.86
697.56	276.95
697.89	276.29
698.23	276.67
698.56	276.48
698.90	276.38
699.23	276.10
699.57	276.10
699.90	275.48
700.24	274.62
700.58	275.19
700.91	275.90
701.25	277.71
701.58	278.57
701.92	279.19
702.25	279.71
702.59	279.67
702.92	280.00
703.26	281.29
703.59	281.48
703.93	284.00
704.26	284.67
704.60	285.38
704.93	286.10
705.26	286.10
705.60	287.05
705.93	286.67
706.27	288.14
706.60	289.29
706.94	290.86
707.27	291.19
707.61	291.71
707.94	291.43
708.27	289.95
708.61	288.90
708.94	288.43
709.28	288.43
709.61	288.00
709.94	287.86
710.28	286.81
710.61	286.29
710.95	283.19
711.28	284.14
711.61	282.95
711.95	282.95
712.28	281.76
712.61	280.57
712.95	281.19
713.28	281.00
713.61	279.48
713.95	277.57
714.28	276.52
714.61	275.00
714.95	274.10
715.28	272.52
715.61	271.76
715.95	271.19
716.28	270.10
716.61	269.76
716.95	268.67
717.28	268.14
717.61	267.62
717.94	267.57
718.28	265.14
718.61	264.29
718.94	263.24
719.27	263.00
719.61	262.86
719.94	261.86
720.27	260.38
720.60	260.10
720.94	259.86
721.27	259.71
721.60	260.00
721.93	259.71
722.27	260.48
722.60	260.38
722.93	259.81
723.26	259.81
723.59	259.52
723.93	259.81
724.26	259.67
724.59	259.48
724.92	259.33
725.25	260.29
725.59	260.67
725.92	261.10
726.25	261.00
726.58	260.81
726.91	260.62
727.24	260.90
727.57	260.52
727.91	260.14
728.24	260.33
728.57	259.52
728.90	259.95
729.23	259.10
729.56	260.38
729.89	260.62
730.22	260.33
730.55	259.90
730.89	259.86
731.22	259.76
731.55	259.57
731.88	259.24
732.21	258.38
732.54	257.81
732.87	257.14
733.20	257.33
733.53	257.14
733.86	256.90
734.19	256.38
734.52	256.86
734.85	258.48
735.18	257.90
735.51	258.90
735.84	258.76
736.17	259.43
736.50	257.95
736.83	260.48
737.16	260.48
737.49	260.90
737.82	260.48
738.15	260.62
738.48	260.57
738.81	260.38
739.14	260.19
739.47	260.24
739.80	260.24
740.13	260.43
740.46	260.05
740.79	259.86
741.12	259.67
741.45	259.05
741.78	257.76
742.11	258.76
742.44	258.29
742.77	258.52
743.10	258.33
743.43	258.43
743.75	255.86
744.08	259.29
744.41	258.67
744.74	258.52
745.07	258.24
745.40	258.57
745.73	259.90
746.06	259.86
746.39	260.19
746.71	259.81
747.04	259.29
747.37	258.95
747.70	259.48
748.03	259.71
748.36	260.19
748.68	259.62
749.01	258.52
749.34	258.24
749.67	257.95
750.00	258.05
750.33	259.67
750.65	259.52
750.98	255.76
751.31	255.62
751.64	255.90
751.97	257.10
752.29	256.67
752.62	255.38
752.95	254.95
753.28	254.62
753.60	254.67
753.93	254.95
754.26	255.05
754.59	253.86
754.91	253.19
755.24	252.71
755.57	252.71
755.90	252.52
756.22	252.19
756.55	252.00
756.88	251.33
757.20	249.38
757.53	248.86
757.86	248.95
758.19	249.19
758.51	249.24
758.84	248.00
759.17	248.00
759.49	247.81
759.82	249.10
760.15	249.33
760.47	249.05
760.80	248.19
761.13	249.00
761.45	249.05
761.78	249.10
762.11	249.38
762.43	249.10
762.76	249.00
763.08	249.38
763.41	249.33
763.74	249.29
764.06	248.95
764.39	249.00
764.71	249.00
765.04	248.57
765.37	247.90
765.69	247.52
766.02	247.29
766.34	247.05
766.67	246.00
767.00	246.33
767.32	247.86
767.65	249.62
767.97	249.10
768.30	249.19
768.62	249.38
768.95	248.95
769.27	249.24
769.60	249.52
769.92	249.05
770.25	248.67
770.57	248.38
770.90	248.43
771.22	248.14
771.55	247.95
771.87	248.24
772.20	248.33
772.52	250.67
772.85	253.57
773.17	253.86
773.50	253.95
773.82	253.24
774.15	251.81
774.47	250.14
774.80	249.76
775.12	249.52
775.45	249.10
775.77	249.10
776.09	248.95
776.42	249.00
776.74	249.90
777.07	249.76
777.39	249.67
777.72	249.76
778.04	249.90
778.36	249.86
778.69	249.71
779.01	249.90
779.33	247.52
779.66	244.67
779.98	244.52
780.31	244.38
780.63	245.24
780.95	245.67
781.28	245.71
781.60	245.76
781.92	245.95
782.25	246.14
782.57	245.95
782.89	245.86
783.22	245.57
783.54	244.81
783.86	245.00
784.19	245.14
784.51	245.57
784.83	245.43
785.16	245.05
785.48	245.29
785.80	245.19
786.12	245.62
786.45	245.86
786.77	245.76
787.09	245.67
787.42	244.86
787.74	244.81
788.06	244.86
788.38	244.57
788.71	244.48
789.03	244.43
789.35	244.67
789.67	244.29
789.99	244.24
790.32	244.24
790.64	244.52
790.96	246.43
791.28	245.67
791.61	245.71
791.93	246.14
792.25	245.90
792.57	247.52
792.89	246.81
793.21	246.86
793.54	246.86
793.86	246.71
