SpectraSuite Data File
++++++++++++++++++++++++++++++++++++
Date: Wed Nov 07 18:31:58 EST 2012
User: group
Dark Spectrum Present: No
Reference Spectrum Present: No
Number of Sampled Component Spectra: 1
Spectrometers: USB2E7196
Integration Time (usec): 1000000 (USB2E7196)
Spectra Averaged: 1 (USB2E7196)
Boxcar Smoothing: 10 (USB2E7196)
Correct for Electrical Dark: No (USB2E7196)
Strobe/Lamp Enabled: No (USB2E7196)
Correct for Detector Non-linearity: No (USB2E7196)
Correct for Stray Light: No (USB2E7196)
Number of Pixels in Processed Spectrum: 2048
>>>>>Begin Processed Spectral Data<<<<<
339.09	0.00
339.48	220.00
339.86	220.00
340.24	221.00
340.63	224.00
341.01	263.00
341.39	224.00
341.78	234.00
342.16	237.00
342.54	234.00
342.93	224.71
343.31	235.76
343.69	236.29
344.07	237.05
344.46	238.14
344.84	238.76
345.22	237.43
345.60	238.38
345.99	239.00
346.37	239.29
346.75	239.24
347.13	239.05
347.52	239.19
347.90	240.38
348.28	240.67
348.66	241.29
349.05	240.71
349.43	240.67
349.81	241.00
350.19	240.67
350.57	240.67
350.96	241.00
351.34	241.14
351.72	241.24
352.10	241.24
352.48	240.76
352.87	240.67
353.25	240.76
353.63	240.29
354.01	239.81
354.39	239.71
354.77	239.90
355.15	240.57
355.54	240.29
355.92	239.29
356.30	239.43
356.68	240.76
357.06	240.76
357.44	240.62
357.82	240.57
358.20	240.62
358.58	240.38
358.97	240.38
359.35	241.24
359.73	241.67
360.11	241.67
360.49	241.90
360.87	242.19
361.25	242.43
361.63	243.24
362.01	243.52
362.39	243.29
362.77	243.43
363.15	243.33
363.53	243.05
363.91	243.29
364.29	243.24
364.67	240.90
365.05	240.95
365.43	241.19
365.81	241.48
366.19	242.62
366.57	243.52
366.95	243.29
367.33	242.48
367.71	242.81
368.09	243.43
368.47	243.24
368.85	243.14
369.23	243.86
369.61	243.33
369.99	243.86
370.37	244.33
370.75	245.71
371.13	244.90
371.51	245.00
371.89	244.95
372.27	244.52
372.65	244.71
373.03	244.90
373.41	244.38
373.78	244.24
374.16	243.10
374.54	242.52
374.92	242.10
375.30	242.19
375.68	241.57
376.06	241.43
376.44	241.19
376.82	241.00
377.19	240.43
377.57	239.95
377.95	239.38
378.33	238.90
378.71	237.05
379.09	237.81
379.47	237.76
379.84	237.62
380.22	237.76
380.60	237.29
380.98	237.10
381.36	237.19
381.73	236.86
382.11	237.24
382.49	237.29
382.87	237.10
383.25	237.00
383.62	239.86
384.00	239.33
384.38	239.76
384.76	240.48
385.13	241.57
385.51	241.81
385.89	241.29
386.27	241.52
386.64	242.10
387.02	241.67
387.40	241.71
387.78	241.95
388.15	242.10
388.53	241.95
388.91	242.05
389.29	241.95
389.66	242.48
390.04	242.29
390.42	242.81
390.79	242.86
391.17	243.00
391.55	240.10
391.92	240.24
392.30	240.52
392.68	239.81
393.05	239.76
393.43	239.90
393.81	240.10
394.18	239.67
394.56	239.67
394.94	240.48
395.31	240.19
395.69	241.14
396.06	241.57
396.44	242.29
396.82	242.29
397.19	243.90
397.57	243.33
397.95	243.67
398.32	242.76
398.70	243.48
399.07	243.86
399.45	243.71
399.82	243.71
400.20	243.24
400.58	243.43
400.95	242.19
401.33	242.67
401.70	244.43
402.08	244.67
402.45	244.67
402.83	244.62
403.20	245.05
403.58	244.57
403.95	244.71
404.33	244.90
404.71	244.95
405.08	246.10
405.46	246.52
405.83	246.86
406.21	247.38
406.58	247.57
406.96	247.76
407.33	248.62
407.70	249.57
408.08	252.19
408.45	253.29
408.83	254.43
409.20	254.48
409.58	254.05
409.95	255.52
410.33	256.67
410.70	257.48
411.08	258.86
411.45	259.95
411.82	261.10
412.20	263.05
412.57	266.19
412.95	265.43
413.32	267.71
413.69	268.95
414.07	270.95
414.44	272.86
414.82	275.24
415.19	277.71
415.56	279.76
415.94	281.10
416.31	283.71
416.68	286.71
417.06	290.52
417.43	294.29
417.81	297.76
418.18	301.57
418.55	305.29
418.93	308.95
419.30	313.33
419.67	317.90
420.04	321.95
420.42	326.05
420.79	334.10
421.16	339.48
421.54	347.10
421.91	353.57
422.28	360.14
422.66	366.81
423.03	375.24
423.40	381.76
423.77	388.67
424.15	395.67
424.52	403.24
424.89	412.10
425.26	419.52
425.64	427.10
426.01	435.62
426.38	444.33
426.75	454.38
427.13	463.52
427.50	472.67
427.87	482.52
428.24	492.14
428.61	499.76
428.99	511.05
429.36	521.14
429.73	532.24
430.10	544.19
430.47	556.29
430.85	566.71
431.22	580.71
431.59	596.29
431.96	610.10
432.33	624.71
432.70	639.05
433.08	655.95
433.45	671.33
433.82	686.14
434.19	702.86
434.56	718.10
434.93	733.90
435.30	750.24
435.68	768.67
436.05	785.38
436.42	801.43
436.79	816.43
437.16	833.05
437.53	849.57
437.90	865.52
438.27	882.10
438.64	900.05
439.01	916.38
439.38	928.33
439.75	941.10
440.13	956.24
440.50	968.81
440.87	979.05
441.24	990.43
441.61	1003.76
441.98	1012.43
442.35	1023.24
442.72	1034.29
443.09	1045.57
443.46	1050.52
443.83	1053.33
444.20	1056.90
444.57	1061.29
444.94	1062.29
445.31	1064.76
445.68	1069.67
446.05	1069.38
446.42	1065.33
446.79	1061.38
447.16	1057.19
447.53	1054.81
447.90	1046.62
448.27	1038.81
448.64	1029.38
449.01	1022.71
449.37	1010.33
449.74	999.05
450.11	987.86
450.48	972.71
450.85	955.24
451.22	942.05
451.59	930.48
451.96	917.43
452.33	901.52
452.70	887.24
453.07	869.76
453.43	849.33
453.80	832.76
454.17	816.95
454.54	802.14
454.91	786.95
455.28	770.81
455.65	755.86
456.02	746.48
456.38	734.43
456.75	719.10
457.12	706.29
457.49	694.38
457.86	680.00
458.23	670.29
458.59	660.05
458.96	648.33
459.33	638.05
459.70	628.90
460.07	621.14
460.43	611.67
460.80	603.76
461.17	595.95
461.54	588.19
461.91	581.14
462.27	572.90
462.64	565.90
463.01	559.38
463.38	553.90
463.74	542.76
464.11	536.86
464.48	531.38
464.85	525.86
465.21	522.05
465.58	518.14
465.95	511.57
466.32	507.43
466.68	503.00
467.05	498.62
467.42	494.10
467.78	489.05
468.15	485.38
468.52	482.33
468.88	478.29
469.25	474.67
469.62	471.24
469.98	467.71
470.35	465.14
470.72	462.00
471.08	457.90
471.45	455.24
471.82	452.67
472.18	449.76
472.55	447.43
472.92	443.52
473.28	440.19
473.65	438.57
474.02	436.00
474.38	434.67
474.75	433.14
475.11	431.43
475.48	430.48
475.85	428.71
476.21	426.67
476.58	425.76
476.94	424.14
477.31	422.76
477.67	422.10
478.04	421.29
478.41	420.62
478.77	423.24
479.14	422.48
479.50	421.67
479.87	421.29
480.23	421.24
480.60	421.52
480.96	421.71
481.33	422.38
481.69	422.71
482.06	422.90
482.42	423.71
482.79	424.52
483.15	425.00
483.52	426.62
483.88	427.52
484.25	428.29
484.61	429.24
484.98	430.38
485.34	431.71
485.71	433.38
486.07	434.33
486.44	432.57
486.80	434.24
487.17	435.38
487.53	437.86
487.90	439.43
488.26	441.95
488.62	444.43
488.99	445.71
489.35	447.48
489.72	449.43
490.08	450.48
490.44	451.86
490.81	453.95
491.17	455.19
491.54	457.38
491.90	460.05
492.26	462.33
492.63	464.76
492.99	466.81
493.36	469.52
493.72	473.24
494.08	476.57
494.45	480.10
494.81	484.00
495.17	486.67
495.54	490.29
495.90	493.14
496.26	496.33
496.63	499.81
496.99	503.29
497.35	506.76
497.72	511.33
498.08	515.43
498.44	519.52
498.80	524.76
499.17	529.14
499.53	533.29
499.89	538.10
500.26	542.90
500.62	547.48
500.98	551.95
501.34	556.00
501.71	560.71
502.07	565.71
502.43	570.86
502.79	575.67
503.16	580.71
503.52	585.19
503.88	590.43
504.24	596.05
504.60	601.62
504.97	607.62
505.33	612.05
505.69	618.05
506.05	623.57
506.41	629.00
506.78	634.14
507.14	639.33
507.50	644.86
507.86	650.24
508.22	655.95
508.59	660.43
508.95	666.10
509.31	672.76
509.67	677.71
510.03	682.00
510.39	687.05
510.75	691.29
511.12	696.81
511.48	701.90
511.84	706.05
512.20	710.38
512.56	714.48
512.92	719.95
513.28	724.19
513.64	728.33
514.00	732.33
514.37	737.10
514.73	742.29
515.09	747.05
515.45	751.81
515.81	756.38
516.17	760.81
516.53	764.71
516.89	767.24
517.25	770.57
517.61	775.67
517.97	779.67
518.33	784.52
518.69	788.24
519.05	792.24
519.41	796.62
519.77	802.05
520.13	805.86
520.49	809.00
520.85	812.62
521.21	816.52
521.57	820.86
521.93	822.57
522.29	825.10
522.65	826.81
523.01	828.81
523.37	830.57
523.73	834.29
524.09	836.57
524.45	838.90
524.81	841.24
525.17	842.62
525.53	844.57
525.89	846.43
526.25	848.81
526.61	849.67
526.97	851.10
527.33	851.67
527.68	855.95
528.04	857.57
528.40	858.52
528.76	859.52
529.12	859.57
529.48	862.19
529.84	863.67
530.20	865.38
530.56	867.05
530.91	868.33
531.27	868.81
531.63	869.81
531.99	871.24
532.35	872.38
532.71	872.90
533.07	874.67
533.42	877.62
533.78	878.38
534.14	879.52
534.50	880.67
534.86	882.00
535.21	880.33
535.57	882.76
535.93	883.14
536.29	885.76
536.65	887.43
537.00	888.33
537.36	889.05
537.72	891.48
538.08	894.71
538.44	897.43
538.79	899.38
539.15	901.71
539.51	903.57
539.87	905.62
540.22	908.57
540.58	910.86
540.94	911.57
541.29	913.86
541.65	916.14
542.01	918.24
542.37	919.52
542.72	920.33
543.08	919.95
543.44	921.43
543.79	920.24
544.15	920.43
544.51	921.48
544.87	921.29
545.22	918.95
545.58	915.43
545.94	912.76
546.29	911.24
546.65	908.71
547.01	906.00
547.36	903.86
547.72	901.19
548.07	897.14
548.43	892.95
548.79	889.19
549.14	885.81
549.50	882.71
549.86	879.19
550.21	877.33
550.57	874.67
550.92	871.57
551.28	870.33
551.64	867.76
551.99	864.62
552.35	861.67
552.70	859.52
553.06	858.48
553.41	856.62
553.77	855.95
554.13	854.48
554.48	852.43
554.84	850.57
555.19	848.24
555.55	849.14
555.90	848.00
556.26	845.57
556.61	842.86
556.97	840.10
557.32	837.76
557.68	835.10
558.03	832.81
558.39	831.81
558.74	829.29
559.10	826.57
559.45	824.48
559.81	823.43
560.16	821.29
560.52	819.62
560.87	818.62
561.23	814.71
561.58	814.62
561.94	812.71
562.29	810.76
562.64	809.29
563.00	805.48
563.35	803.95
563.71	803.67
564.06	802.67
564.42	800.62
564.77	799.05
565.12	797.57
565.48	798.76
565.83	797.05
566.19	795.38
566.54	794.43
566.89	793.57
567.25	792.71
567.60	793.29
567.96	793.52
568.31	792.76
568.66	793.43
569.02	790.38
569.37	789.48
569.72	788.14
570.08	786.76
570.43	785.19
570.78	783.10
571.14	780.76
571.49	779.67
571.84	778.67
572.20	778.29
572.55	776.90
572.90	773.14
573.26	771.00
573.61	769.14
573.96	768.38
574.31	766.67
574.67	764.90
575.02	762.95
575.37	760.29
575.72	758.24
576.08	755.57
576.43	753.24
576.78	751.95
577.13	750.52
577.49	748.52
577.84	747.52
578.19	746.67
578.54	745.71
578.90	744.52
579.25	743.95
579.60	742.57
579.95	740.86
580.30	740.00
580.66	739.33
581.01	738.24
581.36	735.81
581.71	733.62
582.06	733.38
582.42	731.86
582.77	729.43
583.12	728.24
583.47	727.43
583.82	727.10
584.17	726.24
584.53	725.81
584.88	724.86
585.23	724.33
585.58	722.52
585.93	720.05
586.28	718.14
586.63	716.10
586.98	714.14
587.34	712.29
587.69	709.67
588.04	707.14
588.39	704.24
588.74	701.38
589.09	699.71
589.44	695.29
589.79	692.38
590.14	689.48
590.49	685.86
590.84	681.81
591.19	679.33
591.54	675.95
591.89	672.29
592.25	670.71
592.60	666.24
592.95	662.90
593.30	660.86
593.65	657.76
594.00	654.14
594.35	657.38
594.70	654.38
595.05	651.29
595.40	648.43
595.75	646.48
596.10	644.52
596.45	641.33
596.80	639.57
597.15	636.90
597.50	634.52
597.85	633.05
598.19	630.52
598.54	627.00
598.89	623.52
599.24	621.24
599.59	616.81
599.94	613.81
600.29	611.90
600.64	609.10
600.99	607.90
601.34	605.81
601.69	597.33
602.04	594.90
602.39	592.57
602.74	590.90
603.08	588.81
603.43	587.71
603.78	586.33
604.13	583.71
604.48	582.43
604.83	582.10
605.18	580.76
605.53	580.76
605.87	583.14
606.22	587.48
606.57	591.29
606.92	596.29
607.27	602.57
607.62	607.67
607.96	612.76
608.31	616.14
608.66	620.38
609.01	623.95
609.36	627.52
609.70	631.67
610.05	634.10
610.40	636.00
610.75	637.67
611.10	639.10
611.44	640.48
611.79	640.24
612.14	639.57
612.49	638.29
612.83	636.67
613.18	632.19
613.53	626.24
613.88	619.62
614.22	611.81
614.57	603.10
614.92	594.19
615.27	586.86
615.61	579.71
615.96	572.67
616.31	565.48
616.65	560.24
617.00	553.90
617.35	548.05
617.70	542.81
618.04	537.05
618.39	532.14
618.74	527.52
619.08	523.29
619.43	519.24
619.78	515.52
620.12	511.62
620.47	509.05
620.82	506.00
621.16	502.81
621.51	501.62
621.85	499.19
622.20	497.67
622.55	494.52
622.89	491.71
623.24	489.76
623.59	487.90
623.93	485.05
624.28	482.14
624.62	482.57
624.97	482.19
625.32	480.00
625.66	477.95
626.01	476.24
626.35	474.67
626.70	472.76
627.04	472.48
627.39	471.38
627.73	470.24
628.08	468.95
628.43	466.62
628.77	463.81
629.12	461.57
629.46	459.38
629.81	457.86
630.15	456.33
630.50	453.90
630.84	451.90
631.19	449.33
631.53	447.52
631.88	443.00
632.22	438.90
632.57	437.48
632.91	435.24
633.26	433.00
633.60	430.62
633.95	428.14
634.29	424.29
634.64	422.05
634.98	418.95
635.32	416.90
635.67	415.33
636.01	413.48
636.36	411.62
636.70	410.52
637.05	408.43
637.39	406.24
637.73	404.95
638.08	403.67
638.42	402.19
638.77	400.52
639.11	398.05
639.45	396.67
639.80	394.38
640.14	393.29
640.49	391.76
640.83	390.29
641.17	389.76
641.52	388.48
641.86	386.90
642.20	386.76
642.55	384.48
642.89	383.29
643.23	381.71
643.58	381.57
643.92	379.43
644.26	378.00
644.61	377.24
644.95	376.00
645.29	374.48
645.64	374.05
645.98	373.19
646.32	373.43
646.66	372.57
647.01	371.33
647.35	370.05
647.69	369.76
648.04	369.67
648.38	368.43
648.72	367.62
649.06	366.52
649.41	364.43
649.75	363.95
650.09	363.57
650.43	362.62
650.78	360.71
651.12	359.76
651.46	359.24
651.80	357.62
652.14	356.81
652.49	356.29
652.83	354.38
653.17	353.33
653.51	351.81
653.85	350.76
654.20	349.71
654.54	348.71
654.88	346.90
655.22	345.00
655.56	343.81
655.90	342.67
656.25	342.19
656.59	341.57
656.93	340.62
657.27	340.57
657.61	339.67
657.95	339.29
658.29	338.62
658.64	338.24
658.98	337.62
659.32	336.29
659.66	334.95
660.00	334.76
660.34	333.90
660.68	333.33
661.02	332.95
661.36	332.29
661.70	331.38
662.05	330.81
662.39	331.24
662.73	331.29
663.07	332.29
663.41	331.33
663.75	330.57
664.09	330.33
664.43	328.10
664.77	327.57
665.11	326.29
665.45	325.67
665.79	325.29
666.13	324.43
666.47	323.52
666.81	323.14
667.15	322.14
667.49	321.71
667.83	322.00
668.17	320.19
668.51	319.76
668.85	319.33
669.19	319.29
669.53	317.62
669.87	316.14
670.21	314.29
670.55	313.76
670.89	314.24
671.23	313.48
671.57	313.10
671.91	312.67
672.25	312.29
672.58	312.67
672.92	311.05
673.26	310.76
673.60	310.81
673.94	310.38
674.28	309.90
674.62	309.76
674.96	308.38
675.30	308.48
675.64	307.90
675.97	307.29
676.31	306.48
676.65	306.00
676.99	306.33
677.33	305.38
677.67	304.95
678.01	302.71
678.34	302.24
678.68	302.38
679.02	301.52
679.36	301.38
679.70	300.19
680.04	300.19
680.37	299.81
680.71	298.71
681.05	297.95
681.39	297.81
681.73	296.90
682.06	296.43
682.40	296.24
682.74	296.29
683.08	296.81
683.42	296.24
683.75	296.43
684.09	295.57
684.43	295.43
684.77	294.67
685.10	294.57
685.44	294.05
685.78	293.29
686.12	292.81
686.45	292.14
686.79	291.52
687.13	291.29
687.46	290.52
687.80	290.90
688.14	290.48
688.48	290.33
688.81	290.43
689.15	290.76
689.49	290.05
689.82	289.76
690.16	288.52
690.50	287.86
690.83	287.24
691.17	286.38
691.51	285.95
691.84	286.57
692.18	286.67
692.52	286.10
692.85	286.10
693.19	287.05
693.52	286.62
693.86	285.81
694.20	285.29
694.53	285.24
694.87	284.62
695.21	283.95
695.54	283.48
695.88	282.14
696.21	280.76
696.55	280.29
696.88	279.86
697.22	279.24
697.56	279.05
697.89	278.33
698.23	278.71
698.56	278.52
698.90	277.90
699.23	276.90
699.57	277.29
699.90	276.52
700.24	275.57
700.58	275.81
700.91	276.52
701.25	278.71
701.58	279.52
701.92	280.43
702.25	280.76
702.59	280.57
702.92	281.43
703.26	282.24
703.59	282.67
703.93	284.62
704.26	285.52
704.60	286.29
704.93	286.71
705.26	286.57
705.60	287.29
705.93	286.90
706.27	288.05
706.60	288.38
706.94	289.81
707.27	289.33
707.61	289.38
707.94	289.19
708.27	287.24
708.61	286.62
708.94	285.76
709.28	286.05
709.61	285.62
709.94	285.29
710.28	284.62
710.61	284.19
710.95	281.62
711.28	282.67
711.61	281.38
711.95	281.38
712.28	280.67
712.61	279.10
712.95	279.48
713.28	279.67
713.61	278.24
713.95	276.71
714.28	276.43
714.61	275.38
714.95	274.62
715.28	273.29
715.61	272.19
715.95	271.86
716.28	270.81
716.61	270.67
716.95	269.71
717.28	269.10
717.61	268.24
717.94	267.86
718.28	265.48
718.61	265.52
718.94	264.52
719.27	264.10
719.61	264.38
719.94	263.52
720.27	262.14
720.60	261.76
720.94	261.29
721.27	261.19
721.60	261.48
721.93	261.00
722.27	261.57
722.60	262.00
722.93	261.57
723.26	261.48
723.59	260.86
723.93	261.38
724.26	261.67
724.59	261.81
724.92	261.86
725.25	262.33
725.59	262.24
725.92	262.71
726.25	262.19
726.58	261.81
726.91	261.62
727.24	261.62
727.57	261.76
727.91	261.38
728.24	261.48
728.57	261.24
728.90	261.33
729.23	260.71
729.56	261.43
729.89	260.71
730.22	260.33
730.55	260.29
730.89	260.00
731.22	259.52
731.55	259.57
731.88	259.38
732.21	258.57
732.54	258.05
732.87	257.67
733.20	257.67
733.53	257.62
733.86	257.76
734.19	257.43
734.52	257.86
734.85	259.24
735.18	258.71
735.51	259.33
735.84	259.48
736.17	260.00
736.50	258.62
736.83	261.38
737.16	261.62
737.49	261.52
737.82	260.67
738.15	260.81
738.48	260.43
738.81	260.14
739.14	259.90
739.47	259.95
739.80	259.33
740.13	259.86
740.46	259.76
740.79	259.24
741.12	259.10
741.45	258.52
741.78	257.14
742.11	257.67
742.44	256.71
742.77	257.10
743.10	256.57
743.43	256.48
743.75	253.86
744.08	256.38
744.41	256.05
744.74	256.43
745.07	255.71
745.40	255.71
745.73	256.62
746.06	256.71
746.39	256.95
746.71	257.00
747.04	256.29
747.37	256.10
747.70	256.62
748.03	256.67
748.36	256.76
748.68	256.81
749.01	256.05
749.34	256.14
749.67	255.90
750.00	256.10
750.33	257.90
750.65	258.29
750.98	255.62
751.31	255.95
751.64	255.95
751.97	257.48
752.29	257.33
752.62	256.43
752.95	256.14
753.28	255.57
753.60	255.29
753.93	256.14
754.26	256.14
754.59	255.05
754.91	254.76
755.24	254.29
755.57	254.00
755.90	253.62
756.22	253.24
756.55	252.43
756.88	251.62
757.20	249.81
757.53	249.05
757.86	248.76
758.19	248.52
758.51	248.57
758.84	247.33
759.17	247.14
759.49	246.95
759.82	248.43
760.15	248.62
760.47	248.81
760.80	247.71
761.13	248.24
761.45	248.19
761.78	247.95
762.11	248.19
762.43	248.14
762.76	248.48
763.08	248.95
763.41	249.10
763.74	249.33
764.06	249.00
764.39	249.14
764.71	249.10
765.04	248.67
765.37	247.90
765.69	247.76
766.02	247.81
766.34	247.67
766.67	246.33
767.00	246.67
767.32	247.86
767.65	249.33
767.97	248.76
768.30	248.95
768.62	249.33
768.95	249.10
769.27	248.86
769.60	248.71
769.92	247.90
770.25	247.43
770.57	246.95
770.90	247.10
771.22	246.76
771.55	246.90
771.87	246.76
772.20	247.05
772.52	249.24
772.85	252.29
773.17	252.38
773.50	252.33
773.82	252.00
774.15	250.52
774.47	249.14
774.80	249.29
775.12	249.29
775.45	248.95
775.77	249.00
776.09	249.43
776.42	249.71
776.74	250.52
777.07	250.57
777.39	250.76
777.72	250.52
778.04	250.81
778.36	250.33
778.69	250.71
779.01	250.90
779.33	248.48
779.66	245.71
779.98	245.67
780.31	245.90
780.63	246.76
780.95	247.48
781.28	247.43
781.60	247.00
781.92	246.76
782.25	246.62
782.57	246.62
782.89	246.10
783.22	246.14
783.54	245.62
783.86	245.76
784.19	245.95
784.51	246.67
784.83	246.67
785.16	246.86
785.48	247.00
785.80	247.00
786.12	247.14
786.45	246.71
786.77	246.67
787.09	246.33
787.42	245.43
787.74	245.19
788.06	245.19
788.38	244.90
788.71	244.86
789.03	245.24
789.35	245.62
789.67	245.48
789.99	245.52
790.32	245.00
790.64	245.14
790.96	246.76
791.28	246.10
791.61	245.67
791.93	245.62
792.25	245.43
792.57	247.00
792.89	246.76
793.21	246.90
793.54	246.48
793.86	246.05
