SpectraSuite Data File
++++++++++++++++++++++++++++++++++++
Date: Wed Nov 07 18:32:50 EST 2012
User: group
Dark Spectrum Present: No
Reference Spectrum Present: No
Number of Sampled Component Spectra: 1
Spectrometers: USB2E7196
Integration Time (usec): 1000000 (USB2E7196)
Spectra Averaged: 1 (USB2E7196)
Boxcar Smoothing: 10 (USB2E7196)
Correct for Electrical Dark: No (USB2E7196)
Strobe/Lamp Enabled: No (USB2E7196)
Correct for Detector Non-linearity: No (USB2E7196)
Correct for Stray Light: No (USB2E7196)
Number of Pixels in Processed Spectrum: 2048
>>>>>Begin Processed Spectral Data<<<<<
339.09	0.00
339.48	221.00
339.86	220.00
340.24	221.00
340.63	224.00
341.01	264.00
341.39	228.00
341.78	230.00
342.16	240.00
342.54	228.00
342.93	222.10
343.31	233.19
343.69	233.71
344.07	234.38
344.46	235.33
344.84	235.76
345.22	234.14
345.60	234.76
345.99	235.19
346.37	235.14
346.75	235.48
347.13	235.95
347.52	235.95
347.90	237.05
348.28	237.38
348.66	237.95
349.05	237.10
349.43	237.71
349.81	238.14
350.19	238.48
350.57	238.71
350.96	239.24
351.34	239.67
351.72	239.81
352.10	240.14
352.48	239.86
352.87	240.10
353.25	240.33
353.63	240.43
354.01	240.29
354.39	240.48
354.77	240.67
355.15	241.24
355.54	241.19
355.92	240.67
356.30	240.52
356.68	242.24
357.06	242.48
357.44	242.00
357.82	241.67
358.20	242.24
358.58	242.38
358.97	242.43
359.35	242.86
359.73	243.57
360.11	243.29
360.49	243.48
360.87	243.33
361.25	243.71
361.63	244.38
362.01	244.86
362.39	244.62
362.77	244.81
363.15	244.76
363.53	244.86
363.91	244.76
364.29	244.95
364.67	242.29
365.05	242.38
365.43	242.71
365.81	243.19
366.19	244.14
366.57	245.00
366.95	244.90
367.33	244.19
367.71	243.90
368.09	244.33
368.47	244.14
368.85	244.24
369.23	244.52
369.61	243.33
369.99	243.90
370.37	244.14
370.75	245.33
371.13	244.81
371.51	244.43
371.89	244.57
372.27	244.52
372.65	245.00
373.03	245.05
373.41	244.90
373.78	244.48
374.16	243.24
374.54	242.48
374.92	242.29
375.30	242.24
375.68	241.38
376.06	241.67
376.44	241.43
376.82	241.38
377.19	241.00
377.57	241.14
377.95	240.14
378.33	240.14
378.71	238.43
379.09	238.67
379.47	239.05
379.84	238.90
380.22	238.81
380.60	238.71
380.98	238.48
381.36	238.29
381.73	238.19
382.11	238.33
382.49	238.52
382.87	238.48
383.25	238.76
383.62	241.95
384.00	241.33
384.38	241.62
384.76	242.14
385.13	243.38
385.51	243.38
385.89	243.19
386.27	243.14
386.64	243.71
387.02	243.33
387.40	243.00
387.78	243.05
388.15	243.05
388.53	242.24
388.91	242.38
389.29	242.24
389.66	242.76
390.04	242.48
390.42	242.81
390.79	242.71
391.17	242.71
391.55	239.90
391.92	239.95
392.30	240.14
392.68	240.05
393.05	239.67
393.43	240.14
393.81	240.67
394.18	240.38
394.56	240.43
394.94	241.29
395.31	241.05
395.69	241.62
396.06	242.00
396.44	242.52
396.82	242.33
397.19	243.67
397.57	243.00
397.95	243.48
398.32	242.71
398.70	243.00
399.07	243.24
399.45	243.33
399.82	243.48
400.20	243.52
400.58	243.29
400.95	242.57
401.33	242.67
401.70	244.33
402.08	244.57
402.45	244.57
402.83	244.90
403.20	245.38
403.58	245.29
403.95	245.71
404.33	246.33
404.71	246.81
405.08	248.14
405.46	248.86
405.83	249.33
406.21	249.86
406.58	250.19
406.96	250.57
407.33	251.57
407.70	252.29
408.08	254.48
408.45	255.52
408.83	256.90
409.20	257.14
409.58	256.29
409.95	257.38
410.33	258.62
410.70	258.71
411.08	260.24
411.45	261.57
411.82	262.14
412.20	263.67
412.57	265.95
412.95	265.38
413.32	267.05
413.69	268.33
414.07	270.14
414.44	272.14
414.82	273.86
415.19	276.14
415.56	278.29
415.94	279.62
416.31	282.29
416.68	284.86
417.06	288.57
417.43	292.19
417.81	296.00
418.18	299.52
418.55	303.81
418.93	307.71
419.30	311.86
419.67	317.00
420.04	321.19
420.42	325.81
420.79	333.67
421.16	340.10
421.54	347.48
421.91	353.81
422.28	360.29
422.66	367.52
423.03	375.81
423.40	382.95
423.77	389.90
424.15	397.48
424.52	405.14
424.89	413.95
425.26	421.76
425.64	429.81
426.01	438.24
426.38	446.90
426.75	456.43
427.13	465.71
427.50	475.29
427.87	485.52
428.24	495.14
428.61	503.24
428.99	513.81
429.36	523.86
429.73	534.76
430.10	546.48
430.47	559.33
430.85	569.67
431.22	582.29
431.59	598.10
431.96	611.38
432.33	626.38
432.70	640.29
433.08	656.33
433.45	670.67
433.82	685.76
434.19	702.48
434.56	719.14
434.93	734.48
435.30	750.24
435.68	766.86
436.05	783.48
436.42	799.43
436.79	815.67
437.16	832.19
437.53	850.29
437.90	866.81
438.27	883.52
438.64	900.29
439.01	916.33
439.38	928.19
439.75	941.81
440.13	956.10
440.50	969.57
440.87	981.48
441.24	994.05
441.61	1007.67
441.98	1016.90
442.35	1027.19
442.72	1039.19
443.09	1050.33
443.46	1056.71
443.83	1061.24
444.20	1065.00
444.57	1068.14
444.94	1069.95
445.31	1070.76
445.68	1076.29
446.05	1075.33
446.42	1072.19
446.79	1069.62
447.16	1066.14
447.53	1062.86
447.90	1055.19
448.27	1047.57
448.64	1037.29
449.01	1029.38
449.37	1016.33
449.74	1004.43
450.11	992.71
450.48	976.86
450.85	960.33
451.22	947.14
451.59	934.00
451.96	921.52
452.33	905.71
452.70	890.86
453.07	874.24
453.43	853.43
453.80	836.10
454.17	820.90
454.54	805.14
454.91	789.14
455.28	773.43
455.65	759.24
456.02	749.48
456.38	737.00
456.75	722.24
457.12	709.52
457.49	697.43
457.86	682.57
458.23	673.43
458.59	662.38
458.96	650.38
459.33	640.05
459.70	630.43
460.07	622.48
460.43	613.29
460.80	604.86
461.17	597.00
461.54	590.00
461.91	582.52
462.27	574.95
462.64	568.52
463.01	561.67
463.38	555.57
463.74	543.86
464.11	537.81
464.48	532.48
464.85	526.62
465.21	522.29
465.58	518.14
465.95	511.43
466.32	506.95
466.68	502.62
467.05	498.05
467.42	493.14
467.78	488.62
468.15	484.29
468.52	481.19
468.88	476.95
469.25	472.43
469.62	469.52
469.98	466.29
470.35	463.19
470.72	459.62
471.08	455.10
471.45	452.81
471.82	450.62
472.18	447.57
472.55	445.76
472.92	442.76
473.28	440.19
473.65	437.67
474.02	435.33
474.38	433.86
474.75	432.38
475.11	430.24
475.48	429.19
475.85	427.62
476.21	425.86
476.58	424.86
476.94	424.05
477.31	422.81
477.67	421.29
478.04	420.43
478.41	419.95
478.77	422.00
479.14	421.14
479.50	420.48
479.87	420.24
480.23	420.05
480.60	419.76
480.96	419.71
481.33	420.90
481.69	421.24
482.06	421.81
482.42	422.90
482.79	424.29
483.15	424.57
483.52	426.57
483.88	427.38
484.25	427.95
484.61	429.05
484.98	430.14
485.34	432.52
485.71	434.10
486.07	435.43
486.44	434.76
486.80	436.33
487.17	438.00
487.53	440.38
487.90	442.33
488.26	445.38
488.62	447.33
488.99	448.57
489.35	450.52
489.72	452.10
490.08	453.19
490.44	454.24
490.81	456.43
491.17	457.81
491.54	460.48
491.90	463.48
492.26	465.90
492.63	468.62
492.99	470.57
493.36	473.76
493.72	477.05
494.08	480.38
494.45	483.57
494.81	487.19
495.17	489.33
495.54	492.48
495.90	494.48
496.26	498.90
496.63	503.38
496.99	506.81
497.35	510.95
497.72	515.62
498.08	519.76
498.44	524.33
498.80	528.90
499.17	533.24
499.53	536.90
499.89	541.52
500.26	545.90
500.62	550.52
500.98	555.62
501.34	560.29
501.71	565.71
502.07	570.86
502.43	574.71
502.79	579.71
503.16	585.05
503.52	590.71
503.88	594.00
504.24	598.48
504.60	604.05
504.97	609.81
505.33	614.81
505.69	621.33
506.05	626.38
506.41	631.43
506.78	636.38
507.14	641.05
507.50	646.33
507.86	651.76
508.22	657.86
508.59	662.48
508.95	668.10
509.31	674.05
509.67	678.71
510.03	684.10
510.39	689.24
510.75	694.14
511.12	699.43
511.48	705.24
511.84	710.14
512.20	714.76
512.56	719.29
512.92	724.43
513.28	728.48
513.64	732.76
514.00	737.57
514.37	741.62
514.73	746.95
515.09	751.48
515.45	756.14
515.81	759.86
516.17	763.48
516.53	766.67
516.89	768.67
517.25	773.19
517.61	777.90
517.97	781.71
518.33	784.95
518.69	789.00
519.05	793.95
519.41	798.19
519.77	803.86
520.13	807.86
520.49	810.71
520.85	813.48
521.21	818.76
521.57	822.48
521.93	825.48
522.29	828.71
522.65	830.81
523.01	833.48
523.37	835.95
523.73	838.86
524.09	842.29
524.45	845.05
524.81	847.19
525.17	849.86
525.53	852.90
525.89	855.67
526.25	856.95
526.61	857.43
526.97	858.10
527.33	858.29
527.68	861.14
528.04	863.38
528.40	865.52
528.76	865.81
529.12	866.81
529.48	869.24
529.84	870.52
530.20	872.67
530.56	873.95
530.91	875.14
531.27	876.48
531.63	877.95
531.99	878.86
532.35	880.52
532.71	880.43
533.07	880.71
533.42	885.05
533.78	886.43
534.14	887.90
534.50	889.29
534.86	889.62
535.21	888.71
535.57	889.33
535.93	890.24
536.29	892.10
536.65	894.10
537.00	895.48
537.36	897.33
537.72	899.14
538.08	901.57
538.44	904.14
538.79	906.95
539.15	908.19
539.51	911.05
539.87	912.67
540.22	914.38
540.58	916.76
540.94	916.62
541.29	918.86
541.65	921.52
542.01	924.90
542.37	928.48
542.72	930.14
543.08	930.67
543.44	931.67
543.79	929.86
544.15	929.71
544.51	929.19
544.87	927.19
545.22	926.00
545.58	922.76
545.94	920.43
546.29	917.57
546.65	915.48
547.01	912.90
547.36	910.24
547.72	908.43
548.07	905.76
548.43	901.62
548.79	898.43
549.14	894.90
549.50	891.86
549.86	886.29
550.21	883.33
550.57	882.05
550.92	878.81
551.28	877.76
551.64	875.29
551.99	872.95
552.35	871.43
552.70	868.76
553.06	868.90
553.41	866.38
553.77	865.81
554.13	864.10
554.48	862.19
554.84	861.43
555.19	859.52
555.55	859.62
555.90	857.67
556.26	854.90
556.61	852.57
556.97	849.19
557.32	848.71
557.68	847.05
558.03	844.24
558.39	842.48
558.74	840.10
559.10	837.71
559.45	835.86
559.81	834.52
560.16	832.43
560.52	829.05
560.87	827.95
561.23	825.48
561.58	825.76
561.94	823.62
562.29	821.57
562.64	819.33
563.00	816.00
563.35	814.33
563.71	813.19
564.06	811.62
564.42	809.14
564.77	807.95
565.12	807.05
565.48	808.38
565.83	807.71
566.19	806.33
566.54	804.52
566.89	803.05
567.25	802.00
567.60	802.76
567.96	804.43
568.31	804.81
568.66	804.71
569.02	800.90
569.37	800.05
569.72	798.29
570.08	797.81
570.43	796.05
570.78	794.67
571.14	793.43
571.49	791.71
571.84	791.95
572.20	790.19
572.55	788.19
572.90	784.81
573.26	783.19
573.61	781.76
573.96	780.76
574.31	779.90
574.67	778.10
575.02	775.62
575.37	772.29
575.72	769.33
576.08	766.62
576.43	765.43
576.78	763.48
577.13	761.76
577.49	760.29
577.84	758.86
578.19	757.52
578.54	756.67
578.90	755.95
579.25	754.19
579.60	752.76
579.95	751.10
580.30	749.67
580.66	748.71
581.01	747.48
581.36	746.62
581.71	744.29
582.06	744.19
582.42	742.19
582.77	740.57
583.12	739.29
583.47	737.67
583.82	736.76
584.17	736.00
584.53	735.52
584.88	733.48
585.23	733.00
585.58	731.81
585.93	729.38
586.28	728.38
586.63	726.52
586.98	724.48
587.34	723.38
587.69	720.48
588.04	717.62
588.39	715.38
588.74	711.24
589.09	710.19
589.44	706.00
589.79	703.43
590.14	700.38
590.49	697.38
590.84	694.14
591.19	690.24
591.54	686.67
591.89	682.48
592.25	681.62
592.60	677.10
592.95	673.81
593.30	671.43
593.65	667.48
594.00	663.90
594.35	667.33
594.70	662.62
595.05	659.24
595.40	656.19
595.75	653.10
596.10	651.05
596.45	647.76
596.80	645.38
597.15	643.52
597.50	639.81
597.85	638.24
598.19	635.90
598.54	634.05
598.89	631.19
599.24	629.43
599.59	625.10
599.94	622.48
600.29	620.10
600.64	616.95
600.99	615.38
601.34	613.48
601.69	605.05
602.04	602.90
602.39	600.76
602.74	598.86
603.08	596.71
603.43	595.81
603.78	593.05
604.13	590.95
604.48	588.57
604.83	587.90
605.18	585.57
605.53	586.24
605.87	587.48
606.22	591.10
606.57	595.05
606.92	599.86
607.27	606.43
607.62	611.00
607.96	616.71
608.31	620.19
608.66	624.00
609.01	627.05
609.36	630.33
609.70	633.90
610.05	636.86
610.40	639.52
610.75	641.00
611.10	642.71
611.44	643.67
611.79	644.00
612.14	644.48
612.49	643.24
612.83	640.48
613.18	636.86
613.53	631.43
613.88	624.38
614.22	616.24
614.57	607.33
614.92	599.38
615.27	591.90
615.61	584.57
615.96	577.90
616.31	571.10
616.65	565.48
617.00	558.52
617.35	551.62
617.70	545.33
618.04	539.29
618.39	534.33
618.74	530.05
619.08	526.33
619.43	522.10
619.78	519.19
620.12	515.62
620.47	512.90
620.82	509.86
621.16	507.29
621.51	506.38
621.85	503.33
622.20	501.24
622.55	497.43
622.89	494.86
623.24	492.71
623.59	490.76
623.93	488.48
624.28	486.86
624.62	487.33
624.97	486.95
625.32	484.76
625.66	482.67
626.01	480.81
626.35	478.62
626.70	477.33
627.04	476.05
627.39	474.71
627.73	473.14
628.08	471.05
628.43	468.67
628.77	465.76
629.12	463.95
629.46	462.14
629.81	460.52
630.15	458.67
630.50	455.67
630.84	453.62
631.19	451.81
631.53	449.43
631.88	444.43
632.22	440.48
632.57	439.62
632.91	437.38
633.26	435.05
633.60	432.19
633.95	428.95
634.29	425.76
634.64	422.86
634.98	419.57
635.32	417.67
635.67	416.00
636.01	413.33
636.36	411.76
636.70	409.52
637.05	407.62
637.39	405.71
637.73	404.29
638.08	402.95
638.42	400.62
638.77	399.24
639.11	398.38
639.45	397.00
639.80	394.76
640.14	393.48
640.49	391.57
640.83	390.57
641.17	389.86
641.52	388.71
641.86	387.76
642.20	387.48
642.55	386.14
642.89	384.81
643.23	384.05
643.58	383.62
643.92	381.90
644.26	380.95
644.61	380.33
644.95	379.57
645.29	377.90
645.64	377.81
645.98	376.62
646.32	375.90
646.66	375.43
647.01	374.43
647.35	373.90
647.69	373.86
648.04	373.05
648.38	371.90
648.72	370.76
649.06	369.38
649.41	367.95
649.75	367.14
650.09	366.71
650.43	365.67
650.78	363.71
651.12	363.05
651.46	362.05
651.80	360.67
652.14	359.33
652.49	359.00
652.83	357.10
653.17	355.90
653.51	354.52
653.85	353.48
654.20	352.33
654.54	350.48
654.88	349.05
655.22	347.52
655.56	346.48
655.90	345.67
656.25	345.14
656.59	343.90
656.93	343.00
657.27	342.24
657.61	341.10
657.95	340.52
658.29	340.14
658.64	339.95
658.98	339.43
659.32	338.33
659.66	337.24
660.00	337.29
660.34	336.81
660.68	336.19
661.02	334.90
661.36	334.10
661.70	333.43
662.05	332.57
662.39	333.10
662.73	332.86
663.07	333.57
663.41	332.48
663.75	331.52
664.09	330.95
664.43	329.67
664.77	329.05
665.11	328.05
665.45	326.90
665.79	326.48
666.13	325.43
666.47	324.90
666.81	324.29
667.15	322.86
667.49	322.52
667.83	322.33
668.17	321.90
668.51	321.33
668.85	320.86
669.19	320.95
669.53	319.24
669.87	318.05
670.21	316.29
670.55	316.05
670.89	316.67
671.23	315.48
671.57	314.76
671.91	314.71
672.25	314.62
672.58	315.14
672.92	313.38
673.26	312.71
673.60	312.29
673.94	311.33
674.28	311.05
674.62	310.52
674.96	309.86
675.30	309.24
675.64	308.71
675.97	308.33
676.31	307.14
676.65	306.52
676.99	307.05
677.33	306.10
677.67	305.48
678.01	303.90
678.34	303.43
678.68	303.52
679.02	302.10
679.36	301.00
679.70	299.62
680.04	299.81
680.37	299.33
680.71	298.76
681.05	298.71
681.39	298.43
681.73	298.00
682.06	297.10
682.40	296.57
682.74	296.71
683.08	297.29
683.42	296.81
683.75	296.95
684.09	295.76
684.43	295.52
684.77	295.00
685.10	294.86
685.44	294.71
685.78	293.90
686.12	293.71
686.45	293.81
686.79	293.29
687.13	293.10
687.46	292.86
687.80	293.10
688.14	292.14
688.48	291.48
688.81	291.29
689.15	291.81
689.49	291.62
689.82	290.95
690.16	289.19
690.50	288.67
690.83	287.86
691.17	286.90
691.51	286.71
691.84	286.19
692.18	285.33
692.52	284.86
692.85	284.57
693.19	285.00
693.52	284.29
693.86	284.05
694.20	283.43
694.53	283.14
694.87	282.43
695.21	282.05
695.54	282.14
695.88	280.90
696.21	279.62
696.55	279.29
696.88	278.76
697.22	278.86
697.56	278.62
697.89	278.19
698.23	278.43
698.56	277.95
698.90	278.19
699.23	277.95
699.57	277.81
699.90	277.43
700.24	276.76
700.58	277.10
700.91	277.62
701.25	279.19
701.58	279.86
701.92	280.48
702.25	281.19
702.59	280.86
702.92	281.29
703.26	281.57
703.59	281.76
703.93	284.43
704.26	285.24
704.60	285.95
704.93	286.76
705.26	287.14
705.60	287.76
705.93	287.48
706.27	288.52
706.60	289.57
706.94	290.95
707.27	291.00
707.61	290.95
707.94	290.71
708.27	289.43
708.61	288.52
708.94	288.14
709.28	287.71
709.61	287.00
709.94	286.81
710.28	286.52
710.61	285.81
710.95	282.67
711.28	282.95
711.61	281.81
711.95	281.05
712.28	280.00
712.61	278.81
712.95	279.24
713.28	279.57
713.61	278.14
713.95	276.33
714.28	275.57
714.61	274.43
714.95	273.48
715.28	271.95
715.61	271.29
715.95	270.76
716.28	269.71
716.61	269.95
716.95	269.10
717.28	268.38
717.61	267.90
717.94	267.43
718.28	265.29
718.61	264.76
718.94	264.29
719.27	264.00
719.61	263.95
719.94	263.00
720.27	261.14
720.60	260.57
720.94	260.38
721.27	260.29
721.60	260.62
721.93	260.29
722.27	260.95
722.60	261.24
722.93	260.76
723.26	261.10
723.59	260.48
723.93	260.90
724.26	261.00
724.59	260.81
724.92	260.86
725.25	261.57
725.59	261.62
725.92	261.62
726.25	261.24
726.58	261.29
726.91	261.10
727.24	261.62
727.57	261.52
727.91	261.05
728.24	261.33
728.57	260.67
728.90	260.95
729.23	260.10
729.56	260.81
729.89	260.24
730.22	259.90
730.55	259.52
730.89	259.10
731.22	258.95
731.55	258.76
731.88	258.81
732.21	258.24
732.54	258.05
732.87	257.86
733.20	257.90
733.53	257.86
733.86	257.81
734.19	257.33
734.52	257.67
734.85	259.62
735.18	259.14
735.51	260.19
735.84	260.00
736.17	260.62
736.50	258.90
736.83	261.81
737.16	261.71
737.49	261.76
737.82	261.62
738.15	261.86
738.48	261.90
738.81	261.48
739.14	261.10
739.47	260.95
739.80	260.81
740.13	261.00
740.46	260.43
740.79	260.14
741.12	260.19
741.45	259.38
741.78	257.76
742.11	258.29
742.44	257.48
742.77	257.71
743.10	256.95
743.43	257.24
743.75	255.10
744.08	258.19
744.41	258.05
744.74	257.86
745.07	257.19
745.40	257.76
745.73	258.90
746.06	258.95
746.39	259.00
746.71	259.05
747.04	258.43
747.37	258.24
747.70	258.62
748.03	258.38
748.36	258.90
748.68	258.38
749.01	257.33
749.34	257.38
749.67	257.24
750.00	258.00
750.33	259.76
750.65	259.24
750.98	255.90
751.31	255.90
751.64	255.86
751.97	257.24
752.29	256.67
752.62	255.48
752.95	255.24
753.28	254.81
753.60	254.29
753.93	254.67
754.26	254.86
754.59	253.86
754.91	253.43
755.24	253.00
755.57	252.71
755.90	252.62
756.22	252.10
756.55	251.90
756.88	251.00
757.20	249.29
757.53	248.76
757.86	248.90
758.19	248.86
758.51	249.00
758.84	247.71
759.17	247.29
759.49	247.62
759.82	248.95
760.15	248.95
760.47	248.95
760.80	248.38
761.13	248.90
761.45	249.00
761.78	248.95
762.11	248.90
762.43	249.24
762.76	249.00
763.08	249.33
763.41	248.95
763.74	249.10
764.06	248.76
764.39	248.86
764.71	248.81
765.04	248.43
765.37	248.00
765.69	248.00
766.02	248.29
766.34	247.57
766.67	246.38
767.00	247.33
767.32	248.14
767.65	249.86
767.97	249.43
768.30	249.57
768.62	249.81
768.95	249.90
769.27	249.62
769.60	250.00
769.92	249.38
770.25	249.05
770.57	248.38
770.90	248.38
771.22	248.24
771.55	248.00
771.87	248.14
772.20	248.19
772.52	249.86
772.85	252.62
773.17	252.81
773.50	252.90
773.82	252.19
774.15	251.24
774.47	249.67
774.80	249.24
775.12	249.00
775.45	248.71
775.77	248.76
776.09	249.00
776.42	249.05
776.74	250.19
777.07	250.33
777.39	250.57
777.72	250.14
778.04	250.29
778.36	250.14
778.69	250.14
779.01	250.24
779.33	248.14
779.66	245.48
779.98	245.29
780.31	244.76
780.63	245.33
780.95	245.95
781.28	245.52
781.60	245.57
781.92	245.43
782.25	245.24
782.57	244.95
782.89	244.57
783.22	244.38
783.54	243.76
783.86	243.95
784.19	243.86
784.51	244.62
784.83	244.19
785.16	244.05
785.48	243.86
785.80	243.38
786.12	243.81
786.45	243.62
786.77	243.86
787.09	243.76
787.42	243.00
787.74	243.33
788.06	243.43
788.38	243.14
788.71	243.19
789.03	243.67
789.35	243.95
789.67	243.71
789.99	243.90
790.32	243.29
790.64	243.48
790.96	245.38
791.28	244.48
791.61	244.57
791.93	244.81
792.25	245.19
792.57	247.24
792.89	246.48
793.21	246.76
793.54	246.10
793.86	246.29
