SpectraSuite Data File
++++++++++++++++++++++++++++++++++++
Date: Wed Nov 07 18:33:20 EST 2012
User: group
Dark Spectrum Present: No
Reference Spectrum Present: No
Number of Sampled Component Spectra: 1
Spectrometers: USB2E7196
Integration Time (usec): 1000000 (USB2E7196)
Spectra Averaged: 1 (USB2E7196)
Boxcar Smoothing: 10 (USB2E7196)
Correct for Electrical Dark: No (USB2E7196)
Strobe/Lamp Enabled: No (USB2E7196)
Correct for Detector Non-linearity: No (USB2E7196)
Correct for Stray Light: No (USB2E7196)
Number of Pixels in Processed Spectrum: 2048
>>>>>Begin Processed Spectral Data<<<<<
339.09	0.00
339.48	215.00
339.86	220.00
340.24	215.00
340.63	225.00
341.01	259.00
341.39	229.00
341.78	236.00
342.16	240.00
342.54	231.00
342.93	222.14
343.31	233.24
343.69	234.24
344.07	234.67
344.46	235.86
344.84	236.10
345.22	234.76
345.60	235.29
345.99	235.14
346.37	234.81
346.75	235.10
347.13	235.33
347.52	235.52
347.90	236.19
348.28	236.38
348.66	236.90
349.05	236.10
349.43	236.67
349.81	236.95
350.19	237.19
350.57	237.24
350.96	237.71
351.34	237.86
351.72	237.90
352.10	238.05
352.48	237.90
352.87	238.19
353.25	238.52
353.63	238.62
354.01	239.00
354.39	239.24
354.77	238.95
355.15	239.52
355.54	239.38
355.92	238.67
356.30	238.43
356.68	240.14
357.06	240.48
357.44	240.24
357.82	240.14
358.20	240.43
358.58	240.57
358.97	240.67
359.35	241.05
359.73	241.67
360.11	241.86
360.49	242.00
360.87	242.14
361.25	242.57
361.63	243.14
362.01	243.10
362.39	242.95
362.77	243.43
363.15	243.00
363.53	243.10
363.91	243.33
364.29	243.67
364.67	241.00
365.05	241.19
365.43	241.62
365.81	241.67
366.19	242.33
366.57	243.48
366.95	243.43
367.33	242.90
367.71	242.48
368.09	242.95
368.47	242.62
368.85	242.43
369.23	242.38
369.61	241.14
369.99	241.76
370.37	242.19
370.75	243.33
371.13	243.00
371.51	242.38
371.89	242.62
372.27	242.52
372.65	243.14
373.03	243.24
373.41	242.95
373.78	242.86
374.16	241.48
374.54	240.38
374.92	240.05
375.30	240.05
375.68	239.62
376.06	239.57
376.44	239.71
376.82	239.81
377.19	239.67
377.57	240.00
377.95	239.19
378.33	238.95
378.71	237.33
379.09	237.76
379.47	238.05
379.84	237.90
380.22	237.76
380.60	237.24
380.98	237.10
381.36	237.10
381.73	236.81
382.11	237.48
382.49	237.62
382.87	237.19
383.25	237.57
383.62	240.76
384.00	240.62
384.38	240.67
384.76	241.10
385.13	242.29
385.51	242.10
385.89	242.05
386.27	242.00
386.64	242.48
387.02	242.05
387.40	241.86
387.78	241.95
388.15	242.05
388.53	241.86
388.91	241.90
389.29	241.67
389.66	242.14
390.04	241.95
390.42	242.67
390.79	242.90
391.17	242.76
391.55	239.81
391.92	239.52
392.30	239.71
392.68	239.24
393.05	239.00
393.43	238.90
393.81	238.76
394.18	238.38
394.56	238.38
394.94	239.38
395.31	239.48
395.69	240.14
396.06	240.24
396.44	240.67
396.82	240.24
397.19	241.43
397.57	241.24
397.95	241.90
398.32	241.00
398.70	241.43
399.07	241.90
399.45	241.81
399.82	242.00
400.20	241.95
400.58	242.05
400.95	241.14
401.33	242.00
401.70	244.00
402.08	244.33
402.45	244.52
402.83	245.00
403.20	245.52
403.58	245.43
403.95	246.14
404.33	246.71
404.71	247.14
405.08	248.43
405.46	249.05
405.83	249.29
406.21	249.43
406.58	249.81
406.96	250.14
407.33	250.95
407.70	251.62
408.08	254.10
408.45	255.05
408.83	256.10
409.20	256.48
409.58	255.62
409.95	256.90
410.33	257.76
410.70	257.81
411.08	259.00
411.45	260.10
411.82	260.81
412.20	262.10
412.57	264.52
412.95	263.86
413.32	265.38
413.69	266.67
414.07	268.76
414.44	270.76
414.82	273.10
415.19	275.57
415.56	277.86
415.94	279.14
416.31	282.33
416.68	285.76
417.06	289.33
417.43	293.48
417.81	296.81
418.18	300.62
418.55	304.14
418.93	308.19
419.30	312.19
419.67	317.05
420.04	321.38
420.42	326.05
420.79	334.14
421.16	340.10
421.54	347.29
421.91	353.43
422.28	359.57
422.66	365.90
423.03	374.38
423.40	381.52
423.77	388.00
424.15	394.76
424.52	402.24
424.89	410.33
425.26	417.67
425.64	425.71
426.01	434.24
426.38	443.38
426.75	452.90
427.13	462.38
427.50	471.43
427.87	481.14
428.24	490.62
428.61	498.62
428.99	510.19
429.36	519.90
429.73	531.57
430.10	543.38
430.47	555.48
430.85	565.71
431.22	578.90
431.59	594.52
431.96	606.90
432.33	621.48
432.70	635.95
433.08	652.90
433.45	668.00
433.82	683.10
434.19	700.86
434.56	716.95
434.93	732.24
435.30	748.29
435.68	765.52
436.05	781.76
436.42	798.48
436.79	813.29
437.16	830.81
437.53	848.19
437.90	865.10
438.27	881.81
438.64	899.67
439.01	915.57
439.38	928.19
439.75	942.95
440.13	957.33
440.50	970.76
440.87	981.05
441.24	993.24
441.61	1005.52
441.98	1014.62
442.35	1025.76
442.72	1037.05
443.09	1048.62
443.46	1054.62
443.83	1059.05
444.20	1061.52
444.57	1065.24
444.94	1066.05
445.31	1067.19
445.68	1072.19
446.05	1070.95
446.42	1067.43
446.79	1064.14
447.16	1060.90
447.53	1057.52
447.90	1050.43
448.27	1043.33
448.64	1033.86
449.01	1025.62
449.37	1013.33
449.74	1000.86
450.11	988.57
450.48	973.43
450.85	956.86
451.22	944.10
451.59	931.76
451.96	919.38
452.33	904.10
452.70	889.67
453.07	872.29
453.43	851.10
453.80	835.48
454.17	819.57
454.54	803.52
454.91	787.48
455.28	772.19
455.65	756.95
456.02	746.86
456.38	734.48
456.75	720.19
457.12	708.76
457.49	696.43
457.86	682.38
458.23	672.71
458.59	662.33
458.96	651.05
459.33	640.95
459.70	631.52
460.07	623.67
460.43	615.00
460.80	607.24
461.17	599.76
461.54	592.05
461.91	584.29
462.27	576.95
462.64	569.81
463.01	562.43
463.38	557.10
463.74	546.24
464.11	540.24
464.48	534.48
464.85	528.10
465.21	523.86
465.58	519.52
465.95	513.48
466.32	508.57
466.68	503.95
467.05	499.43
467.42	494.95
467.78	490.10
468.15	485.57
468.52	482.00
468.88	477.90
469.25	473.33
469.62	470.67
469.98	466.86
470.35	464.24
470.72	461.24
471.08	456.71
471.45	453.71
471.82	451.24
472.18	448.00
472.55	445.86
472.92	442.57
473.28	439.43
473.65	436.71
474.02	434.38
474.38	432.52
474.75	430.33
475.11	427.90
475.48	426.71
475.85	425.05
476.21	423.52
476.58	422.43
476.94	422.05
477.31	420.71
477.67	419.95
478.04	418.71
478.41	417.81
478.77	420.38
479.14	419.62
479.50	419.00
479.87	419.14
480.23	419.38
480.60	419.29
480.96	419.71
481.33	421.19
481.69	420.95
482.06	421.86
482.42	423.10
482.79	423.95
483.15	424.48
483.52	426.24
483.88	426.86
484.25	427.67
484.61	428.48
484.98	429.19
485.34	431.71
485.71	433.05
486.07	434.57
486.44	433.71
486.80	435.29
487.17	436.57
487.53	438.90
487.90	440.52
488.26	443.29
488.62	444.90
488.99	445.86
489.35	448.43
489.72	450.10
490.08	451.71
490.44	454.19
490.81	456.67
491.17	458.00
491.54	461.00
491.90	463.90
492.26	466.14
492.63	469.00
492.99	470.95
493.36	474.29
493.72	477.33
494.08	479.19
494.45	481.81
494.81	485.62
495.17	488.48
495.54	491.95
495.90	494.76
496.26	498.62
496.63	502.33
496.99	505.19
497.35	508.67
497.72	512.95
498.08	516.43
498.44	520.71
498.80	525.62
499.17	529.90
499.53	533.52
499.89	538.76
500.26	543.38
500.62	547.95
500.98	553.14
501.34	558.43
501.71	564.43
502.07	569.57
502.43	574.38
502.79	579.14
503.16	584.19
503.52	589.14
503.88	593.95
504.24	599.90
504.60	605.62
504.97	611.29
505.33	616.71
505.69	623.38
506.05	628.38
506.41	633.62
506.78	638.62
507.14	644.62
507.50	649.90
507.86	655.43
508.22	661.24
508.59	665.52
508.95	671.14
509.31	676.90
509.67	683.00
510.03	687.71
510.39	693.00
510.75	698.33
511.12	703.52
511.48	708.52
511.84	712.76
512.20	717.19
512.56	721.90
512.92	726.38
513.28	730.95
513.64	735.24
514.00	740.10
514.37	744.67
514.73	749.33
515.09	753.05
515.45	757.57
515.81	761.67
516.17	766.19
516.53	769.43
516.89	772.24
517.25	776.00
517.61	781.71
517.97	786.05
518.33	789.29
518.69	793.86
519.05	798.52
519.41	802.14
519.77	808.05
520.13	812.00
520.49	814.62
520.85	817.81
521.21	822.38
521.57	825.81
521.93	828.52
522.29	830.76
522.65	833.67
523.01	835.57
523.37	837.33
523.73	839.57
524.09	842.19
524.45	844.38
524.81	846.33
525.17	848.14
525.53	850.33
525.89	852.76
526.25	854.62
526.61	855.33
526.97	857.38
527.33	858.48
527.68	861.71
528.04	864.38
528.40	865.48
528.76	866.81
529.12	868.00
529.48	869.95
529.84	871.81
530.20	874.52
530.56	876.81
530.91	879.38
531.27	880.71
531.63	881.90
531.99	883.33
532.35	884.05
532.71	883.95
533.07	884.71
533.42	887.71
533.78	887.95
534.14	889.33
534.50	890.76
534.86	891.81
535.21	891.67
535.57	892.81
535.93	893.48
536.29	895.19
536.65	896.38
537.00	897.00
537.36	898.29
537.72	899.57
538.08	901.43
538.44	902.90
538.79	904.90
539.15	906.38
539.51	909.00
539.87	910.52
540.22	912.71
540.58	914.29
540.94	914.57
541.29	916.57
541.65	917.48
542.01	919.05
542.37	919.43
542.72	919.10
543.08	919.52
543.44	920.48
543.79	918.38
544.15	918.62
544.51	919.19
544.87	918.86
545.22	916.95
545.58	914.90
545.94	912.81
546.29	911.19
546.65	910.10
547.01	907.19
547.36	905.95
547.72	903.24
548.07	901.57
548.43	898.29
548.79	895.14
549.14	892.76
549.50	890.33
549.86	887.48
550.21	885.62
550.57	883.14
550.92	879.90
551.28	879.71
551.64	876.90
551.99	874.62
552.35	872.10
552.70	869.90
553.06	867.81
553.41	865.33
553.77	864.33
554.13	862.57
554.48	860.90
554.84	859.00
555.19	857.38
555.55	856.86
555.90	855.29
556.26	854.33
556.61	852.43
556.97	849.33
557.32	847.62
557.68	845.76
558.03	843.38
558.39	842.05
558.74	839.24
559.10	837.29
559.45	835.52
559.81	833.00
560.16	831.00
560.52	829.19
560.87	828.38
561.23	826.19
561.58	826.48
561.94	824.57
562.29	822.14
562.64	820.86
563.00	817.29
563.35	814.86
563.71	812.81
564.06	811.00
564.42	809.81
564.77	807.81
565.12	805.71
565.48	806.86
565.83	805.57
566.19	803.86
566.54	801.95
566.89	800.19
567.25	800.24
567.60	800.71
567.96	802.81
568.31	802.43
568.66	802.48
569.02	798.19
569.37	796.71
569.72	796.19
570.08	794.76
570.43	793.29
570.78	792.14
571.14	790.76
571.49	789.62
571.84	788.33
572.20	787.86
572.55	787.19
572.90	783.62
573.26	782.33
573.61	780.86
573.96	780.57
574.31	779.05
574.67	777.05
575.02	775.05
575.37	770.62
575.72	768.14
576.08	765.48
576.43	764.43
576.78	762.90
577.13	761.52
577.49	759.95
577.84	758.48
578.19	757.29
578.54	756.19
578.90	754.67
579.25	753.00
579.60	751.33
579.95	749.57
580.30	748.38
580.66	746.90
581.01	745.19
581.36	743.05
581.71	741.43
582.06	741.10
582.42	738.76
582.77	737.38
583.12	736.10
583.47	733.57
583.82	731.33
584.17	729.81
584.53	728.57
584.88	726.43
585.23	725.29
585.58	723.52
585.93	720.71
586.28	719.86
586.63	717.81
586.98	715.29
587.34	713.05
587.69	710.33
588.04	707.52
588.39	705.10
588.74	702.19
589.09	700.52
589.44	696.24
589.79	693.05
590.14	689.90
590.49	686.19
590.84	683.52
591.19	680.86
591.54	678.48
591.89	673.76
592.25	673.38
592.60	669.95
592.95	667.14
593.30	664.76
593.65	661.10
594.00	657.81
594.35	661.19
594.70	658.14
595.05	655.19
595.40	652.24
595.75	649.71
596.10	647.05
596.45	644.05
596.80	641.33
597.15	639.10
597.50	636.33
597.85	634.90
598.19	632.29
598.54	629.67
598.89	626.52
599.24	625.48
599.59	620.05
599.94	616.76
600.29	614.05
600.64	611.76
600.99	610.05
601.34	607.95
601.69	599.62
602.04	597.00
602.39	594.52
602.74	592.67
603.08	590.52
603.43	589.48
603.78	586.90
604.13	585.05
604.48	582.62
604.83	581.43
605.18	580.05
605.53	580.05
605.87	581.95
606.22	583.86
606.57	586.62
606.92	590.67
607.27	595.24
607.62	599.24
607.96	603.71
608.31	606.76
608.66	609.76
609.01	612.05
609.36	614.48
609.70	617.38
610.05	619.10
610.40	620.62
610.75	621.14
611.10	622.43
611.44	623.00
611.79	623.48
612.14	623.52
612.49	621.10
612.83	618.33
613.18	613.76
613.53	609.57
613.88	603.48
614.22	596.90
614.57	589.95
614.92	582.67
615.27	575.14
615.61	568.33
615.96	562.14
616.31	555.95
616.65	551.05
617.00	545.38
617.35	540.52
617.70	536.00
618.04	531.38
618.39	526.43
618.74	522.90
619.08	518.71
619.43	515.19
619.78	512.48
620.12	509.86
620.47	507.90
620.82	504.48
621.16	502.05
621.51	501.19
621.85	498.43
622.20	496.33
622.55	493.38
622.89	491.29
623.24	489.52
623.59	487.67
623.93	485.05
624.28	482.33
624.62	482.57
624.97	481.76
625.32	479.57
625.66	478.05
626.01	475.57
626.35	474.95
626.70	472.00
627.04	471.10
627.39	469.67
627.73	468.14
628.08	466.43
628.43	464.24
628.77	460.38
629.12	458.67
629.46	456.95
629.81	455.57
630.15	453.00
630.50	450.48
630.84	448.19
631.19	446.67
631.53	445.10
631.88	440.00
632.22	436.19
632.57	435.00
632.91	433.05
633.26	431.86
633.60	429.00
633.95	427.14
634.29	423.90
634.64	421.05
634.98	418.24
635.32	417.19
635.67	415.71
636.01	414.29
636.36	412.29
636.70	410.81
637.05	408.81
637.39	407.52
637.73	406.29
638.08	405.38
638.42	403.19
638.77	402.05
639.11	400.81
639.45	398.90
639.80	396.76
640.14	395.19
640.49	392.71
640.83	391.10
641.17	390.76
641.52	389.33
641.86	388.52
642.20	388.38
642.55	386.29
642.89	384.67
643.23	383.29
643.58	382.81
643.92	381.10
644.26	380.05
644.61	379.43
644.95	378.19
645.29	376.81
645.64	377.05
645.98	375.86
646.32	375.24
646.66	374.33
647.01	373.05
647.35	372.14
647.69	371.86
648.04	371.67
648.38	370.43
648.72	369.86
649.06	368.52
649.41	366.43
649.75	365.14
650.09	364.52
650.43	363.29
650.78	361.52
651.12	360.05
651.46	358.67
651.80	357.43
652.14	355.81
652.49	355.05
652.83	352.67
653.17	351.14
653.51	349.67
653.85	349.38
654.20	348.43
654.54	347.19
654.88	345.48
655.22	343.81
655.56	342.57
655.90	341.52
656.25	340.05
656.59	339.52
656.93	339.00
657.27	338.38
657.61	338.05
657.95	337.57
658.29	337.29
658.64	337.05
658.98	335.86
659.32	335.43
659.66	334.71
660.00	334.67
660.34	334.14
660.68	333.71
661.02	332.67
661.36	332.19
661.70	331.29
662.05	330.86
662.39	331.19
662.73	331.00
663.07	332.05
663.41	332.38
663.75	330.90
664.09	330.48
664.43	328.90
664.77	327.86
665.11	326.90
665.45	326.29
665.79	326.29
666.13	325.81
666.47	325.05
666.81	323.95
667.15	322.43
667.49	322.24
667.83	322.57
668.17	321.57
668.51	320.86
668.85	320.62
669.19	321.19
669.53	319.76
669.87	318.81
670.21	316.76
670.55	316.00
670.89	316.48
671.23	315.76
671.57	315.33
671.91	314.81
672.25	314.38
672.58	314.67
672.92	313.10
673.26	312.05
673.60	311.67
673.94	311.67
674.28	311.52
674.62	310.86
674.96	309.43
675.30	309.38
675.64	309.00
675.97	308.38
676.31	306.62
676.65	305.86
676.99	305.67
677.33	304.95
677.67	304.33
678.01	302.71
678.34	302.24
678.68	302.00
679.02	301.43
679.36	300.76
679.70	299.14
680.04	298.76
680.37	298.67
680.71	298.10
681.05	297.62
681.39	297.05
681.73	296.57
682.06	296.14
682.40	295.62
682.74	294.90
683.08	295.33
683.42	295.19
683.75	295.48
684.09	294.24
684.43	293.76
684.77	293.10
685.10	293.19
685.44	292.62
685.78	292.10
686.12	291.67
686.45	291.29
686.79	290.90
687.13	290.86
687.46	290.52
687.80	290.71
688.14	289.90
688.48	289.67
688.81	289.38
689.15	289.48
689.49	289.05
689.82	289.14
690.16	287.76
690.50	287.38
690.83	286.24
691.17	285.71
691.51	285.57
691.84	285.67
692.18	285.05
692.52	284.52
692.85	284.24
693.19	284.86
693.52	284.67
693.86	284.57
694.20	284.10
694.53	283.62
694.87	282.62
695.21	282.00
695.54	281.76
695.88	281.00
696.21	279.90
696.55	279.43
696.88	278.86
697.22	278.57
697.56	278.67
697.89	278.76
698.23	279.14
698.56	278.62
698.90	278.29
699.23	277.67
699.57	277.62
699.90	277.05
700.24	276.24
700.58	276.10
700.91	276.29
701.25	278.00
701.58	278.86
701.92	279.95
702.25	280.62
702.59	280.48
702.92	281.00
703.26	281.48
703.59	281.81
703.93	284.05
704.26	284.71
704.60	284.76
704.93	284.95
705.26	284.95
705.60	286.05
705.93	286.00
706.27	287.19
706.60	288.24
706.94	289.71
707.27	289.67
707.61	289.81
707.94	289.38
708.27	287.67
708.61	286.67
708.94	285.71
709.28	285.38
709.61	284.86
709.94	284.33
710.28	284.00
710.61	283.29
710.95	280.29
711.28	280.71
711.61	280.05
711.95	279.95
712.28	278.86
712.61	277.71
712.95	278.10
713.28	278.57
713.61	277.05
713.95	275.52
714.28	275.00
714.61	274.33
714.95	273.52
715.28	272.19
715.61	271.48
715.95	271.19
716.28	270.00
716.61	270.00
716.95	269.29
717.28	268.67
717.61	268.33
717.94	268.05
718.28	266.14
718.61	265.86
718.94	264.71
719.27	264.29
719.61	263.90
719.94	262.90
720.27	260.95
720.60	260.76
720.94	260.29
721.27	260.14
721.60	260.62
721.93	260.86
722.27	262.05
722.60	262.29
722.93	261.86
723.26	262.10
723.59	261.86
723.93	261.95
724.26	261.71
724.59	261.67
724.92	261.76
725.25	262.62
725.59	262.24
725.92	262.43
726.25	262.24
726.58	262.19
726.91	262.14
727.24	262.67
727.57	262.48
727.91	262.33
728.24	262.33
728.57	261.38
728.90	261.43
729.23	260.00
729.56	260.90
729.89	260.90
730.22	260.81
730.55	260.14
730.89	259.81
731.22	259.81
731.55	259.43
731.88	259.43
732.21	258.57
732.54	258.29
732.87	258.43
733.20	258.62
733.53	258.62
733.86	258.48
734.19	257.62
734.52	257.86
734.85	259.48
735.18	258.90
735.51	259.43
735.84	259.10
736.17	260.05
736.50	258.62
736.83	261.14
737.16	260.76
737.49	261.24
737.82	261.19
738.15	261.43
738.48	261.38
738.81	260.95
739.14	260.71
739.47	260.57
739.80	260.14
740.13	260.19
740.46	259.67
740.79	259.38
741.12	259.62
741.45	259.24
741.78	257.57
742.11	258.24
742.44	257.67
742.77	257.95
743.10	257.38
743.43	257.10
743.75	254.62
744.08	257.67
744.41	257.29
744.74	256.95
745.07	256.48
745.40	256.57
745.73	257.38
746.06	257.33
746.39	257.24
746.71	256.90
747.04	256.48
747.37	256.10
747.70	256.19
748.03	256.10
748.36	256.29
748.68	256.24
749.01	255.05
749.34	255.00
749.67	254.71
750.00	255.00
750.33	256.81
750.65	256.76
750.98	253.52
751.31	253.67
751.64	253.33
751.97	254.43
752.29	254.14
752.62	253.29
752.95	253.10
753.28	252.95
753.60	252.90
753.93	253.57
754.26	253.67
754.59	253.24
754.91	253.00
755.24	252.71
755.57	252.52
755.90	252.57
756.22	252.24
756.55	251.81
756.88	251.00
757.20	249.10
757.53	248.52
757.86	248.71
758.19	248.62
758.51	249.14
758.84	247.86
759.17	247.67
759.49	247.71
759.82	248.95
760.15	249.10
760.47	249.14
760.80	248.33
761.13	248.81
761.45	248.33
761.78	248.33
762.11	248.33
762.43	248.14
762.76	248.24
763.08	248.38
763.41	248.62
763.74	248.81
764.06	248.81
764.39	248.95
764.71	248.67
765.04	248.10
765.37	247.90
765.69	247.71
766.02	247.71
766.34	247.43
766.67	245.95
767.00	246.05
767.32	247.14
767.65	248.95
767.97	248.76
768.30	249.19
768.62	249.38
768.95	248.86
769.27	248.95
769.60	249.29
769.92	249.00
770.25	248.48
770.57	247.90
770.90	248.14
771.22	247.71
771.55	247.86
771.87	248.05
772.20	247.86
772.52	250.00
772.85	252.90
773.17	253.00
773.50	253.05
773.82	252.90
774.15	251.67
774.47	249.76
774.80	249.71
775.12	249.43
775.45	249.05
775.77	249.24
776.09	249.14
776.42	248.95
776.74	249.67
777.07	249.76
777.39	250.05
777.72	250.05
778.04	250.14
778.36	249.76
778.69	249.95
779.01	250.14
779.33	247.76
779.66	245.00
779.98	244.67
780.31	244.76
780.63	245.81
780.95	246.14
781.28	246.10
781.60	245.86
781.92	245.76
782.25	245.67
782.57	245.48
782.89	245.29
783.22	244.95
783.54	244.43
783.86	244.71
784.19	244.38
784.51	244.90
784.83	244.38
785.16	244.48
785.48	244.29
785.80	244.00
786.12	244.29
786.45	244.14
786.77	244.29
787.09	244.10
787.42	243.05
787.74	243.05
788.06	243.33
788.38	243.05
788.71	242.52
789.03	242.52
789.35	243.05
789.67	242.57
789.99	243.00
790.32	242.57
790.64	242.38
790.96	245.05
791.28	243.67
791.61	243.86
791.93	243.90
792.25	243.95
792.57	245.86
792.89	245.38
793.21	245.29
793.54	245.00
793.86	244.81
