SpectraSuite Data File
++++++++++++++++++++++++++++++++++++
Date: Wed Nov 07 18:32:09 EST 2012
User: group
Dark Spectrum Present: No
Reference Spectrum Present: No
Number of Sampled Component Spectra: 1
Spectrometers: USB2E7196
Integration Time (usec): 1000000 (USB2E7196)
Spectra Averaged: 1 (USB2E7196)
Boxcar Smoothing: 10 (USB2E7196)
Correct for Electrical Dark: No (USB2E7196)
Strobe/Lamp Enabled: No (USB2E7196)
Correct for Detector Non-linearity: No (USB2E7196)
Correct for Stray Light: No (USB2E7196)
Number of Pixels in Processed Spectrum: 2048
>>>>>Begin Processed Spectral Data<<<<<
339.09	0.00
339.48	221.00
339.86	221.00
340.24	225.00
340.63	226.00
341.01	269.00
341.39	225.00
341.78	243.00
342.16	242.00
342.54	229.00
342.93	224.43
343.31	235.48
343.69	236.05
344.07	236.62
344.46	237.52
344.84	238.10
345.22	236.10
345.60	236.62
345.99	236.43
346.37	236.48
346.75	236.62
347.13	236.24
347.52	236.57
347.90	237.67
348.28	237.43
348.66	238.19
349.05	237.14
349.43	237.29
349.81	237.43
350.19	237.48
350.57	237.67
350.96	238.24
351.34	238.19
351.72	238.29
352.10	238.24
352.48	237.71
352.87	237.67
353.25	238.05
353.63	238.05
354.01	237.86
354.39	237.86
354.77	238.14
355.15	239.14
355.54	238.57
355.92	237.52
356.30	237.48
356.68	238.81
357.06	239.14
357.44	238.76
357.82	238.76
358.20	238.86
358.58	238.52
358.97	238.33
359.35	239.29
359.73	239.62
360.11	239.81
360.49	240.00
360.87	239.76
361.25	240.10
361.63	240.76
362.01	241.05
362.39	240.67
362.77	240.62
363.15	240.38
363.53	240.90
363.91	241.38
364.29	241.62
364.67	239.62
365.05	239.81
365.43	240.48
365.81	240.86
366.19	241.90
366.57	242.76
366.95	242.48
367.33	241.71
367.71	241.81
368.09	242.29
368.47	242.29
368.85	242.43
369.23	242.81
369.61	241.76
369.99	242.57
370.37	243.14
370.75	244.33
371.13	244.05
371.51	243.71
371.89	243.90
372.27	243.95
372.65	244.19
373.03	244.48
373.41	244.24
373.78	244.05
374.16	242.57
374.54	241.90
374.92	242.14
375.30	242.43
375.68	242.05
376.06	242.29
376.44	242.29
376.82	242.57
377.19	242.52
377.57	242.95
377.95	242.05
378.33	241.57
378.71	240.24
379.09	240.48
379.47	241.00
379.84	240.52
380.22	240.48
380.60	239.81
380.98	239.71
381.36	239.90
381.73	239.48
382.11	240.33
382.49	240.76
382.87	240.48
383.25	240.33
383.62	243.00
384.00	242.43
384.38	242.43
384.76	243.00
385.13	244.00
385.51	243.86
385.89	243.48
386.27	243.76
386.64	244.38
387.02	243.71
387.40	243.29
387.78	243.62
388.15	243.81
388.53	244.05
388.91	243.67
389.29	243.19
389.66	243.57
390.04	243.05
390.42	243.10
390.79	242.90
391.17	243.10
391.55	240.48
391.92	240.19
392.30	240.71
392.68	239.95
393.05	239.71
393.43	240.05
393.81	240.33
394.18	239.95
394.56	239.81
394.94	240.52
395.31	240.38
395.69	241.10
396.06	241.33
396.44	241.48
396.82	241.38
397.19	242.57
397.57	242.38
397.95	242.86
398.32	242.24
398.70	242.90
399.07	243.38
399.45	243.43
399.82	243.57
400.20	243.05
400.58	243.24
400.95	242.43
401.33	242.76
401.70	244.67
402.08	244.62
402.45	244.57
402.83	245.29
403.20	245.29
403.58	245.00
403.95	245.14
404.33	245.76
404.71	246.38
405.08	247.90
405.46	248.33
405.83	248.57
406.21	249.24
406.58	249.24
406.96	249.24
407.33	250.00
407.70	250.90
408.08	253.43
408.45	254.48
408.83	255.48
409.20	255.95
409.58	255.14
409.95	256.81
410.33	257.90
410.70	258.29
411.08	259.90
411.45	261.33
411.82	262.19
412.20	264.19
412.57	266.57
412.95	266.00
413.32	267.67
413.69	269.33
414.07	271.05
414.44	273.29
414.82	275.57
415.19	277.76
415.56	280.33
415.94	281.43
416.31	284.24
416.68	286.90
417.06	290.05
417.43	293.76
417.81	297.24
418.18	301.33
418.55	304.81
418.93	308.86
419.30	313.05
419.67	318.48
420.04	322.43
420.42	326.67
420.79	333.90
421.16	339.76
421.54	346.86
421.91	353.24
422.28	359.43
422.66	366.19
423.03	374.95
423.40	381.76
423.77	389.38
424.15	396.24
424.52	404.29
424.89	413.38
425.26	420.52
425.64	428.10
426.01	436.10
426.38	445.76
426.75	455.52
427.13	464.29
427.50	472.86
427.87	483.14
428.24	493.43
428.61	502.14
428.99	513.24
429.36	523.52
429.73	534.38
430.10	546.19
430.47	558.14
430.85	568.43
431.22	581.76
431.59	596.71
431.96	610.38
432.33	625.24
432.70	639.10
433.08	656.10
433.45	671.05
433.82	686.29
434.19	702.57
434.56	718.43
434.93	733.71
435.30	749.48
435.68	766.38
436.05	782.62
436.42	798.62
436.79	814.10
437.16	830.81
437.53	848.43
437.90	865.29
438.27	882.19
438.64	898.71
439.01	914.10
439.38	926.38
439.75	939.05
440.13	952.71
440.50	967.14
440.87	978.57
441.24	990.48
441.61	1003.10
441.98	1012.57
442.35	1023.10
442.72	1033.90
443.09	1045.57
443.46	1051.05
443.83	1054.10
444.20	1057.19
444.57	1061.05
444.94	1061.57
445.31	1063.14
445.68	1067.43
446.05	1066.67
446.42	1064.33
446.79	1061.71
447.16	1057.43
447.53	1054.62
447.90	1047.19
448.27	1038.19
448.64	1028.10
449.01	1020.33
449.37	1008.29
449.74	995.86
450.11	984.62
450.48	969.95
450.85	953.67
451.22	940.48
451.59	928.86
451.96	916.76
452.33	901.38
452.70	887.48
453.07	869.90
453.43	849.67
453.80	833.00
454.17	817.38
454.54	801.57
454.91	786.43
455.28	771.33
455.65	756.67
456.02	747.05
456.38	734.62
456.75	720.52
457.12	707.67
457.49	695.71
457.86	681.24
458.23	672.33
458.59	661.14
458.96	650.05
459.33	640.24
459.70	630.14
460.07	622.14
460.43	613.19
460.80	606.05
461.17	598.81
461.54	591.33
461.91	583.29
462.27	575.57
462.64	569.00
463.01	562.05
463.38	556.71
463.74	545.95
464.11	539.48
464.48	533.81
464.85	528.29
465.21	524.57
465.58	520.24
465.95	513.19
466.32	508.81
466.68	503.57
467.05	498.95
467.42	494.62
467.78	489.43
468.15	485.43
468.52	481.62
468.88	476.86
469.25	472.90
469.62	470.05
469.98	466.52
470.35	463.05
470.72	459.52
471.08	455.14
471.45	452.52
471.82	450.48
472.18	447.52
472.55	445.62
472.92	442.14
473.28	440.00
473.65	437.95
474.02	435.48
474.38	434.52
474.75	432.81
475.11	430.52
475.48	429.38
475.85	427.38
476.21	425.38
476.58	424.48
476.94	423.00
477.31	422.14
477.67	421.19
478.04	420.38
478.41	420.10
478.77	421.67
479.14	420.29
479.50	419.71
479.87	419.48
480.23	419.05
480.60	418.76
480.96	417.95
481.33	419.29
481.69	419.86
482.06	420.29
482.42	421.10
482.79	422.38
483.15	422.90
483.52	424.29
483.88	425.43
484.25	426.24
484.61	427.62
484.98	428.38
485.34	430.62
485.71	432.76
486.07	434.14
486.44	433.90
486.80	435.81
487.17	437.43
487.53	439.57
487.90	441.33
488.26	443.86
488.62	446.00
488.99	447.10
489.35	448.67
489.72	450.10
490.08	451.57
490.44	452.67
490.81	455.24
491.17	457.43
491.54	459.86
491.90	462.24
492.26	464.10
492.63	467.00
492.99	468.71
493.36	470.57
493.72	473.71
494.08	476.05
494.45	478.95
494.81	482.14
495.17	484.76
495.54	488.71
495.90	491.71
496.26	495.57
496.63	499.05
496.99	503.05
497.35	506.86
497.72	510.71
498.08	514.86
498.44	518.81
498.80	523.00
499.17	526.81
499.53	531.33
499.89	536.48
500.26	540.10
500.62	544.57
500.98	549.57
501.34	553.90
501.71	559.76
502.07	565.05
502.43	569.67
502.79	574.57
503.16	579.00
503.52	583.95
503.88	588.52
504.24	594.43
504.60	599.95
504.97	605.81
505.33	610.24
505.69	616.14
506.05	621.48
506.41	626.86
506.78	632.76
507.14	637.10
507.50	642.62
507.86	648.52
508.22	654.43
508.59	659.33
508.95	664.81
509.31	670.38
509.67	675.52
510.03	680.38
510.39	685.86
510.75	691.14
511.12	696.67
511.48	701.52
511.84	705.86
512.20	710.29
512.56	715.62
512.92	721.14
513.28	725.67
513.64	730.00
514.00	734.10
514.37	738.48
514.73	743.86
515.09	748.19
515.45	752.10
515.81	755.48
516.17	760.48
516.53	764.71
516.89	767.14
517.25	771.48
517.61	776.33
517.97	779.43
518.33	783.29
518.69	786.67
519.05	791.10
519.41	795.00
519.77	799.95
520.13	803.10
520.49	806.48
520.85	809.43
521.21	814.14
521.57	817.95
521.93	820.76
522.29	823.14
522.65	825.33
523.01	828.14
523.37	830.71
523.73	832.95
524.09	834.90
524.45	837.81
524.81	839.43
525.17	841.52
525.53	844.57
525.89	845.33
526.25	847.10
526.61	847.76
526.97	849.33
527.33	849.81
527.68	852.62
528.04	853.43
528.40	855.57
528.76	855.38
529.12	856.29
529.48	858.29
529.84	859.57
530.20	861.76
530.56	863.81
530.91	865.57
531.27	867.10
531.63	868.19
531.99	869.29
532.35	870.52
532.71	871.00
533.07	871.48
533.42	876.14
533.78	877.48
534.14	880.14
534.50	881.14
534.86	883.29
535.21	882.71
535.57	885.95
535.93	886.43
536.29	889.29
536.65	891.10
537.00	891.57
537.36	893.33
537.72	895.00
538.08	896.95
538.44	898.24
538.79	901.05
539.15	903.71
539.51	905.95
539.87	908.57
540.22	911.57
540.58	914.52
540.94	914.95
541.29	916.95
541.65	919.00
542.01	921.52
542.37	922.57
542.72	924.33
543.08	924.14
543.44	925.71
543.79	924.29
544.15	924.10
544.51	924.81
544.87	924.24
545.22	923.38
545.58	921.33
545.94	919.95
546.29	916.48
546.65	913.81
547.01	911.19
547.36	907.62
547.72	904.48
548.07	902.05
548.43	898.67
548.79	895.24
549.14	890.71
549.50	886.90
549.86	882.57
550.21	879.19
550.57	876.81
550.92	873.29
551.28	871.95
551.64	870.24
551.99	867.67
552.35	865.00
552.70	861.38
553.06	859.71
553.41	857.14
553.77	856.29
554.13	854.71
554.48	853.48
554.84	852.33
555.19	850.67
555.55	849.43
555.90	846.86
556.26	845.29
556.61	843.86
556.97	841.67
557.32	839.62
557.68	838.24
558.03	836.43
558.39	835.29
558.74	832.48
559.10	829.33
559.45	827.81
559.81	826.43
560.16	825.48
560.52	823.95
560.87	823.57
561.23	821.52
561.58	821.95
561.94	819.62
562.29	818.33
562.64	816.52
563.00	813.29
563.35	811.48
563.71	809.81
564.06	807.62
564.42	806.24
564.77	805.67
565.12	804.10
565.48	804.48
565.83	802.67
566.19	801.76
566.54	800.57
566.89	798.67
567.25	797.71
567.60	797.57
567.96	798.81
568.31	798.81
568.66	798.90
569.02	795.33
569.37	794.38
569.72	792.71
570.08	791.00
570.43	789.48
570.78	787.90
571.14	786.43
571.49	785.81
571.84	784.29
572.20	783.05
572.55	781.33
572.90	777.48
573.26	776.38
573.61	774.62
573.96	774.00
574.31	772.48
574.67	771.14
575.02	768.33
575.37	764.62
575.72	761.48
576.08	758.71
576.43	757.10
576.78	755.95
577.13	754.67
577.49	753.90
577.84	752.90
578.19	751.67
578.54	750.19
578.90	748.19
579.25	746.81
579.60	746.00
579.95	744.29
580.30	743.00
580.66	742.00
581.01	740.71
581.36	739.00
581.71	737.52
582.06	736.62
582.42	735.86
582.77	733.33
583.12	732.90
583.47	731.71
583.82	730.24
584.17	727.81
584.53	726.86
584.88	724.71
585.23	723.14
585.58	720.95
585.93	718.71
586.28	717.00
586.63	715.57
586.98	713.29
587.34	711.57
587.69	709.57
588.04	706.24
588.39	704.05
588.74	700.57
589.09	698.43
589.44	695.29
589.79	692.43
590.14	690.48
590.49	686.48
590.84	682.76
591.19	680.05
591.54	678.10
591.89	674.10
592.25	673.14
592.60	669.95
592.95	668.33
593.30	666.33
593.65	663.14
594.00	659.86
594.35	663.24
594.70	660.33
595.05	657.81
595.40	656.14
595.75	653.33
596.10	651.86
596.45	648.81
596.80	646.48
597.15	642.95
597.50	639.29
597.85	637.86
598.19	634.86
598.54	632.00
598.89	628.33
599.24	626.00
599.59	621.67
599.94	618.62
600.29	615.48
600.64	613.14
600.99	611.95
601.34	609.95
601.69	600.67
602.04	597.48
602.39	594.10
602.74	591.38
603.08	588.57
603.43	587.10
603.78	585.57
604.13	583.19
604.48	582.62
604.83	581.86
605.18	580.62
605.53	581.81
605.87	583.48
606.22	587.33
606.57	591.57
606.92	596.10
607.27	601.81
607.62	607.81
607.96	613.05
608.31	616.86
608.66	620.14
609.01	624.86
609.36	628.81
609.70	632.86
610.05	635.81
610.40	639.29
610.75	640.71
611.10	642.52
611.44	643.62
611.79	643.67
612.14	643.81
612.49	641.81
612.83	638.67
613.18	635.10
613.53	629.52
613.88	622.14
614.22	614.76
614.57	606.33
614.92	597.19
615.27	589.05
615.61	581.43
615.96	575.05
616.31	567.57
616.65	562.52
617.00	556.14
617.35	549.81
617.70	543.62
618.04	537.86
618.39	532.67
618.74	528.48
619.08	524.29
619.43	520.43
619.78	516.81
620.12	514.33
620.47	511.57
620.82	508.62
621.16	506.05
621.51	504.67
621.85	502.24
622.20	501.00
622.55	498.14
622.89	495.57
623.24	493.33
623.59	491.00
623.93	488.33
624.28	486.33
624.62	486.62
624.97	486.10
625.32	483.86
625.66	481.00
626.01	479.10
626.35	477.52
626.70	475.38
627.04	474.81
627.39	472.81
627.73	471.43
628.08	469.29
628.43	467.52
628.77	464.48
629.12	463.05
629.46	461.00
629.81	459.43
630.15	457.90
630.50	455.29
630.84	453.38
631.19	450.38
631.53	447.76
631.88	443.24
632.22	439.00
632.57	437.29
632.91	435.71
633.26	433.19
633.60	430.43
633.95	428.10
634.29	425.00
634.64	422.57
634.98	419.33
635.32	417.76
635.67	415.90
636.01	414.29
636.36	411.90
636.70	410.19
637.05	407.71
637.39	405.14
637.73	404.24
638.08	402.76
638.42	401.38
638.77	400.10
639.11	398.38
639.45	397.00
639.80	395.52
640.14	393.81
640.49	392.05
640.83	391.00
641.17	389.52
641.52	387.81
641.86	386.57
642.20	386.29
642.55	384.67
642.89	383.76
643.23	382.14
643.58	381.90
643.92	379.62
644.26	378.95
644.61	378.90
644.95	377.29
645.29	376.10
645.64	376.00
645.98	374.95
646.32	374.76
646.66	373.86
647.01	372.38
647.35	371.90
647.69	372.00
648.04	371.19
648.38	370.95
648.72	370.62
649.06	369.76
649.41	367.76
649.75	366.52
650.09	365.81
650.43	364.67
650.78	362.90
651.12	362.10
651.46	360.76
651.80	359.14
652.14	358.10
652.49	357.52
652.83	355.67
653.17	354.52
653.51	352.57
653.85	352.10
654.20	351.24
654.54	349.67
654.88	347.76
655.22	345.86
655.56	344.29
655.90	343.52
656.25	342.71
656.59	341.81
656.93	341.14
657.27	340.19
657.61	339.29
657.95	338.48
658.29	338.10
658.64	338.05
658.98	337.24
659.32	336.62
659.66	335.48
660.00	335.05
660.34	334.48
660.68	334.00
661.02	332.95
661.36	332.14
661.70	331.24
662.05	330.62
662.39	330.95
662.73	331.24
663.07	331.81
663.41	331.05
663.75	330.86
664.09	330.33
664.43	328.90
664.77	328.43
665.11	328.05
665.45	327.05
665.79	326.33
666.13	325.43
666.47	324.10
666.81	323.38
667.15	321.95
667.49	320.95
667.83	321.24
668.17	320.24
668.51	319.52
668.85	319.67
669.19	319.86
669.53	318.38
669.87	316.90
670.21	314.90
670.55	314.29
670.89	314.48
671.23	314.10
671.57	313.76
671.91	313.48
672.25	312.95
672.58	313.48
672.92	312.33
673.26	312.14
673.60	312.33
673.94	311.76
674.28	311.76
674.62	312.00
674.96	310.81
675.30	311.05
675.64	310.90
675.97	310.43
676.31	309.43
676.65	309.38
676.99	309.62
677.33	308.90
677.67	308.24
678.01	306.52
678.34	305.71
678.68	306.14
679.02	305.14
679.36	304.29
679.70	303.00
680.04	302.52
680.37	302.10
680.71	301.10
681.05	300.62
681.39	300.05
681.73	299.14
682.06	298.57
682.40	297.86
682.74	297.57
683.08	298.10
683.42	297.33
683.75	297.38
684.09	296.33
684.43	296.10
684.77	295.67
685.10	295.71
685.44	295.38
685.78	294.38
686.12	293.90
686.45	293.33
686.79	292.76
687.13	292.86
687.46	292.48
687.80	293.05
688.14	292.81
688.48	292.62
688.81	292.62
689.15	293.10
689.49	292.62
689.82	292.43
690.16	290.86
690.50	290.71
690.83	289.86
691.17	289.43
691.51	288.90
691.84	288.67
692.18	287.86
692.52	287.38
692.85	287.05
693.19	288.05
693.52	287.71
693.86	287.05
694.20	286.43
694.53	286.14
694.87	285.05
695.21	284.24
695.54	283.67
695.88	282.38
696.21	280.86
696.55	280.48
696.88	279.62
697.22	278.67
697.56	278.43
697.89	278.00
698.23	277.95
698.56	277.38
698.90	277.43
699.23	277.29
699.57	277.14
699.90	276.71
700.24	275.48
700.58	275.86
700.91	276.62
701.25	278.43
701.58	279.24
701.92	280.10
702.25	280.52
702.59	280.71
702.92	281.71
703.26	282.57
703.59	283.14
703.93	285.81
704.26	286.90
704.60	287.29
704.93	287.76
705.26	287.90
705.60	288.57
705.93	288.14
706.27	289.14
706.60	290.10
706.94	291.33
707.27	291.67
707.61	291.81
707.94	291.67
708.27	289.81
708.61	288.86
708.94	288.38
709.28	287.95
709.61	287.52
709.94	287.05
710.28	286.19
710.61	285.52
710.95	282.38
711.28	283.14
711.61	282.19
711.95	281.81
712.28	280.38
712.61	280.00
712.95	280.67
713.28	280.67
713.61	279.33
713.95	277.57
714.28	276.81
714.61	275.57
714.95	274.33
715.28	273.43
715.61	272.62
715.95	272.00
716.28	271.05
716.61	270.95
716.95	270.05
717.28	269.81
717.61	269.19
717.94	268.95
718.28	266.71
718.61	266.10
718.94	265.43
719.27	265.57
719.61	264.90
719.94	263.67
720.27	261.95
720.60	261.52
720.94	261.19
721.27	260.81
721.60	260.71
721.93	261.00
722.27	261.62
722.60	261.81
722.93	261.52
723.26	261.57
723.59	260.86
723.93	260.95
724.26	260.90
724.59	260.52
724.92	260.38
725.25	260.67
725.59	260.86
725.92	260.67
726.25	260.33
726.58	260.62
726.91	260.62
727.24	261.00
727.57	260.67
727.91	260.48
728.24	260.29
728.57	259.95
728.90	259.76
729.23	259.00
729.56	259.86
729.89	259.71
730.22	259.38
730.55	259.05
730.89	258.81
731.22	258.52
731.55	258.48
731.88	258.52
732.21	257.81
732.54	256.90
732.87	256.95
733.20	257.10
733.53	256.62
733.86	256.62
734.19	256.14
734.52	256.71
734.85	258.10
735.18	257.76
735.51	258.52
735.84	258.24
736.17	259.10
736.50	257.71
736.83	260.14
737.16	260.24
737.49	260.48
737.82	260.52
738.15	260.52
738.48	260.33
738.81	259.86
739.14	260.00
739.47	260.43
739.80	260.10
740.13	260.05
740.46	259.43
740.79	258.95
741.12	258.71
741.45	258.24
741.78	256.67
742.11	257.52
742.44	257.10
742.77	257.43
743.10	256.62
743.43	256.00
743.75	253.33
744.08	256.43
744.41	256.14
744.74	255.38
745.07	255.05
745.40	255.29
745.73	256.29
746.06	256.24
746.39	256.24
746.71	256.10
747.04	255.86
747.37	256.05
747.70	256.52
748.03	256.86
748.36	257.00
748.68	257.33
749.01	256.48
749.34	256.14
749.67	256.14
750.00	256.19
750.33	258.38
750.65	258.62
750.98	255.38
751.31	255.43
751.64	255.62
751.97	256.76
752.29	256.81
752.62	255.43
752.95	255.14
753.28	254.86
753.60	254.48
753.93	254.86
754.26	255.10
754.59	254.14
754.91	253.67
755.24	253.29
755.57	252.67
755.90	252.57
756.22	252.38
756.55	251.95
756.88	251.57
757.20	249.48
757.53	248.67
757.86	248.76
758.19	248.67
758.51	249.05
758.84	247.86
759.17	247.52
759.49	248.00
759.82	248.76
760.15	249.33
760.47	249.57
760.80	249.00
761.13	249.19
761.45	249.10
761.78	249.10
762.11	249.29
762.43	249.05
762.76	248.62
763.08	248.86
763.41	249.10
763.74	248.86
764.06	249.05
764.39	249.00
764.71	248.62
765.04	248.33
765.37	247.90
765.69	247.67
766.02	247.52
766.34	247.05
766.67	246.38
767.00	246.19
767.32	247.29
767.65	248.95
767.97	248.86
768.30	249.33
768.62	249.19
768.95	248.62
769.27	249.10
769.60	249.76
769.92	249.19
770.25	248.38
770.57	248.24
770.90	248.00
771.22	247.81
771.55	247.90
771.87	247.90
772.20	247.62
772.52	249.71
772.85	252.43
773.17	252.71
773.50	252.57
773.82	252.14
774.15	250.62
774.47	248.76
774.80	248.05
775.12	247.57
775.45	247.71
775.77	247.95
776.09	247.86
776.42	247.71
776.74	248.29
777.07	248.29
777.39	248.52
777.72	248.33
778.04	248.81
778.36	248.71
778.69	248.90
779.01	248.90
779.33	246.71
779.66	243.86
779.98	243.52
780.31	243.38
780.63	244.57
780.95	245.33
781.28	245.38
781.60	245.52
781.92	245.86
782.25	245.81
782.57	245.48
782.89	245.00
783.22	244.76
783.54	244.43
783.86	244.76
784.19	244.67
784.51	245.52
784.83	245.05
785.16	245.00
785.48	245.00
785.80	245.14
786.12	245.33
786.45	245.43
786.77	245.67
787.09	245.67
787.42	244.43
787.74	244.38
788.06	244.29
788.38	244.19
788.71	243.57
789.03	243.67
789.35	243.86
789.67	243.86
789.99	244.00
790.32	243.71
790.64	243.67
790.96	245.62
791.28	244.57
791.61	244.52
791.93	244.52
792.25	244.29
792.57	246.24
792.89	245.52
793.21	245.76
793.54	245.67
793.86	245.62
