SpectraSuite Data File
++++++++++++++++++++++++++++++++++++
Date: Wed Nov 07 18:31:08 EST 2012
User: group
Dark Spectrum Present: No
Reference Spectrum Present: No
Number of Sampled Component Spectra: 1
Spectrometers: USB2E7196
Integration Time (usec): 1000000 (USB2E7196)
Spectra Averaged: 1 (USB2E7196)
Boxcar Smoothing: 10 (USB2E7196)
Correct for Electrical Dark: No (USB2E7196)
Strobe/Lamp Enabled: No (USB2E7196)
Correct for Detector Non-linearity: No (USB2E7196)
Correct for Stray Light: No (USB2E7196)
Number of Pixels in Processed Spectrum: 2048
>>>>>Begin Processed Spectral Data<<<<<
339.09	0.00
339.48	220.00
339.86	227.00
340.24	225.00
340.63	225.00
341.01	263.00
341.39	228.00
341.78	237.00
342.16	242.00
342.54	234.00
342.93	226.43
343.31	237.67
343.69	238.19
344.07	238.48
344.46	239.29
344.84	240.14
345.22	238.81
345.60	239.43
345.99	239.48
346.37	239.14
346.75	239.24
347.13	239.24
347.52	239.14
347.90	239.71
348.28	239.52
348.66	240.24
349.05	239.24
349.43	239.62
349.81	239.52
350.19	239.62
350.57	239.43
350.96	239.38
351.34	239.52
351.72	239.86
352.10	240.10
352.48	240.00
352.87	239.67
353.25	239.67
353.63	238.86
354.01	239.10
354.39	239.43
354.77	239.29
355.15	239.52
355.54	239.52
355.92	239.00
356.30	239.05
356.68	240.19
357.06	240.19
357.44	239.43
357.82	239.19
358.20	239.38
358.58	239.38
358.97	239.10
359.35	239.76
359.73	240.14
360.11	239.95
360.49	240.05
360.87	240.00
361.25	239.95
361.63	241.00
362.01	240.71
362.39	240.29
362.77	240.38
363.15	240.29
363.53	239.95
363.91	240.24
364.29	240.24
364.67	237.95
365.05	238.24
365.43	238.33
365.81	238.71
366.19	239.52
366.57	240.52
366.95	240.57
367.33	239.90
367.71	239.76
368.09	240.14
368.47	240.05
368.85	240.10
369.23	241.00
369.61	240.43
369.99	241.14
370.37	241.57
370.75	243.00
371.13	242.81
371.51	242.67
371.89	242.38
372.27	242.43
372.65	242.62
373.03	242.62
373.41	242.67
373.78	242.38
374.16	241.29
374.54	240.57
374.92	240.29
375.30	240.29
375.68	239.67
376.06	239.62
376.44	239.29
376.82	239.00
377.19	238.52
377.57	238.43
377.95	237.52
378.33	237.24
378.71	235.86
379.09	236.05
379.47	236.33
379.84	236.67
380.22	236.71
380.60	236.33
380.98	236.38
381.36	236.43
381.73	236.43
382.11	237.05
382.49	236.90
382.87	236.95
383.25	236.67
383.62	239.71
384.00	239.62
384.38	239.76
384.76	240.86
385.13	241.95
385.51	242.29
385.89	242.38
386.27	242.62
386.64	242.76
387.02	242.57
387.40	242.38
387.78	241.95
388.15	242.33
388.53	242.10
388.91	242.19
389.29	241.90
389.66	242.33
390.04	241.62
390.42	242.19
390.79	242.29
391.17	242.57
391.55	239.57
391.92	239.38
392.30	239.43
392.68	238.71
393.05	238.48
393.43	238.38
393.81	238.57
394.18	238.24
394.56	238.29
394.94	239.00
395.31	238.81
395.69	239.86
396.06	239.86
396.44	240.62
396.82	240.19
397.19	241.71
397.57	241.43
397.95	242.24
398.32	241.48
398.70	241.81
399.07	242.57
399.45	243.10
399.82	243.38
400.20	243.52
400.58	243.81
400.95	243.24
401.33	243.90
401.70	245.86
402.08	246.14
402.45	246.52
402.83	247.14
403.20	247.76
403.58	247.57
403.95	248.05
404.33	248.62
404.71	249.33
405.08	250.52
405.46	251.29
405.83	251.52
406.21	252.14
406.58	252.95
406.96	253.00
407.33	253.43
407.70	254.05
408.08	256.43
408.45	257.19
408.83	258.05
409.20	258.29
409.58	257.38
409.95	258.90
410.33	259.52
410.70	259.57
411.08	260.62
411.45	261.62
411.82	262.43
412.20	263.86
412.57	266.38
412.95	265.62
413.32	267.24
413.69	268.38
414.07	270.00
414.44	271.62
414.82	273.81
415.19	276.10
415.56	278.48
415.94	279.76
416.31	282.57
416.68	285.43
417.06	289.14
417.43	292.67
417.81	295.90
418.18	299.81
418.55	303.57
418.93	307.52
419.30	311.86
419.67	316.86
420.04	321.71
420.42	326.24
420.79	334.62
421.16	339.95
421.54	347.81
421.91	353.95
422.28	359.90
422.66	366.05
423.03	374.29
423.40	381.33
423.77	388.24
424.15	395.57
424.52	403.62
424.89	412.24
425.26	420.38
425.64	427.48
426.01	435.86
426.38	444.38
426.75	453.95
427.13	463.57
427.50	472.62
427.87	482.38
428.24	491.81
428.61	499.33
428.99	510.90
429.36	520.48
429.73	532.10
430.10	544.67
430.47	557.76
430.85	570.05
431.22	584.38
431.59	601.90
431.96	616.19
432.33	631.57
432.70	646.71
433.08	663.29
433.45	679.24
433.82	695.71
434.19	713.57
434.56	730.48
434.93	745.90
435.30	761.62
435.68	778.38
436.05	794.90
436.42	810.95
436.79	826.52
437.16	842.86
437.53	859.48
437.90	875.19
438.27	891.19
438.64	906.05
439.01	920.71
439.38	930.67
439.75	942.10
440.13	955.81
440.50	967.38
440.87	978.10
441.24	989.67
441.61	1001.76
441.98	1009.90
442.35	1019.95
442.72	1031.00
443.09	1042.24
443.46	1047.90
443.83	1052.29
444.20	1056.05
444.57	1060.14
444.94	1061.71
445.31	1063.90
445.68	1068.86
446.05	1067.95
446.42	1065.14
446.79	1061.71
447.16	1058.14
447.53	1056.67
447.90	1049.00
448.27	1043.00
448.64	1032.62
449.01	1025.05
449.37	1012.48
449.74	1000.71
450.11	989.33
450.48	973.38
450.85	957.57
451.22	944.86
451.59	932.67
451.96	920.00
452.33	904.38
452.70	890.43
453.07	873.86
453.43	853.76
453.80	837.81
454.17	822.76
454.54	807.86
454.91	792.24
455.28	776.05
455.65	761.05
456.02	750.00
456.38	737.76
456.75	723.43
457.12	710.43
457.49	698.38
457.86	684.14
458.23	675.19
458.59	663.90
458.96	653.24
459.33	642.24
459.70	633.10
460.07	625.10
460.43	615.86
460.80	607.48
461.17	599.81
461.54	592.48
461.91	585.29
462.27	577.71
462.64	571.19
463.01	564.48
463.38	559.76
463.74	548.76
464.11	543.14
464.48	537.76
464.85	532.29
465.21	528.67
465.58	524.33
465.95	518.33
466.32	513.95
466.68	508.38
467.05	504.10
467.42	499.43
467.78	494.43
468.15	490.76
468.52	487.76
468.88	483.52
469.25	479.33
469.62	476.48
469.98	473.00
470.35	470.19
470.72	467.05
471.08	462.62
471.45	460.57
471.82	459.00
472.18	456.10
472.55	454.52
472.92	451.33
473.28	448.43
473.65	446.29
474.02	444.14
474.38	442.48
474.75	440.71
475.11	438.24
475.48	436.90
475.85	434.90
476.21	433.24
476.58	432.43
476.94	431.29
477.31	429.86
477.67	429.05
478.04	428.24
478.41	427.71
478.77	429.48
479.14	428.52
479.50	427.67
479.87	428.10
480.23	428.48
480.60	429.14
480.96	430.19
481.33	432.24
481.69	433.52
482.06	435.33
482.42	437.95
482.79	440.57
483.15	442.86
483.52	445.86
483.88	447.62
484.25	449.95
484.61	452.57
484.98	454.86
485.34	458.43
485.71	461.19
486.07	464.10
486.44	464.81
486.80	467.33
487.17	469.76
487.53	472.81
487.90	475.29
488.26	478.90
488.62	482.19
488.99	483.24
489.35	485.57
489.72	487.14
490.08	488.38
490.44	489.81
490.81	491.52
491.17	492.71
491.54	494.62
491.90	496.57
492.26	497.43
492.63	498.71
492.99	499.43
493.36	501.57
493.72	503.52
494.08	505.33
494.45	508.24
494.81	510.81
495.17	512.48
495.54	514.76
495.90	516.24
496.26	518.29
496.63	521.14
496.99	524.05
497.35	526.81
497.72	529.86
498.08	533.00
498.44	535.76
498.80	539.33
499.17	542.43
499.53	545.48
499.89	550.05
500.26	554.14
500.62	558.52
500.98	562.67
501.34	567.05
501.71	571.29
502.07	574.95
502.43	578.86
502.79	582.95
503.16	587.29
503.52	590.76
503.88	594.86
504.24	599.76
504.60	604.52
504.97	609.67
505.33	614.48
505.69	620.62
506.05	625.62
506.41	630.57
506.78	635.29
507.14	640.71
507.50	646.71
507.86	652.57
508.22	657.67
508.59	662.24
508.95	667.52
509.31	674.48
509.67	680.33
510.03	685.05
510.39	690.00
510.75	695.00
511.12	700.52
511.48	705.57
511.84	709.76
512.20	713.95
512.56	719.19
512.92	723.76
513.28	727.24
513.64	731.90
514.00	736.38
514.37	741.10
514.73	745.62
515.09	749.76
515.45	753.14
515.81	757.29
516.17	760.57
516.53	764.05
516.89	765.38
517.25	769.00
517.61	774.71
517.97	778.76
518.33	782.67
518.69	787.00
519.05	790.95
519.41	795.00
519.77	799.24
520.13	802.24
520.49	805.57
520.85	809.38
521.21	813.43
521.57	816.43
521.93	819.62
522.29	822.24
522.65	823.52
523.01	826.62
523.37	827.86
523.73	831.43
524.09	833.48
524.45	835.76
524.81	837.33
525.17	838.38
525.53	840.62
525.89	842.00
526.25	842.95
526.61	844.10
526.97	845.24
527.33	846.86
527.68	850.62
528.04	852.43
528.40	853.62
528.76	854.52
529.12	855.81
529.48	857.29
529.84	858.05
530.20	860.67
530.56	861.95
530.91	864.38
531.27	865.33
531.63	867.33
531.99	868.90
532.35	870.38
532.71	871.14
533.07	872.76
533.42	877.10
533.78	879.43
534.14	881.52
534.50	884.38
534.86	887.10
535.21	887.90
535.57	890.76
535.93	892.62
536.29	898.14
536.65	903.43
537.00	909.38
537.36	917.05
537.72	924.62
538.08	934.48
538.44	944.14
538.79	955.95
539.15	966.48
539.51	979.48
539.87	991.76
540.22	1003.71
540.58	1016.14
540.94	1027.19
541.29	1041.14
541.65	1053.48
542.01	1066.00
542.37	1076.81
542.72	1085.00
543.08	1092.19
543.44	1098.67
543.79	1100.14
544.15	1103.43
544.51	1104.10
544.87	1102.67
545.22	1099.52
545.58	1093.90
545.94	1088.24
546.29	1079.86
546.65	1071.62
547.01	1060.90
547.36	1050.95
547.72	1040.76
548.07	1029.43
548.43	1017.24
548.79	1002.67
549.14	990.81
549.50	977.00
549.86	964.33
550.21	954.10
550.57	944.24
550.92	934.95
551.28	927.90
551.64	918.81
551.99	911.43
552.35	905.33
552.70	898.43
553.06	893.00
553.41	886.48
553.77	882.57
554.13	878.10
554.48	874.48
554.84	870.62
555.19	866.57
555.55	864.33
555.90	860.67
556.26	857.90
556.61	853.14
556.97	849.71
557.32	845.90
557.68	842.90
558.03	840.24
558.39	837.71
558.74	834.71
559.10	831.62
559.45	829.29
559.81	826.19
560.16	824.29
560.52	822.00
560.87	821.52
561.23	819.33
561.58	818.86
561.94	817.05
562.29	814.95
562.64	813.52
563.00	810.10
563.35	808.19
563.71	806.05
564.06	804.48
564.42	802.86
564.77	802.05
565.12	800.43
565.48	800.48
565.83	799.33
566.19	798.19
566.54	798.00
566.89	796.95
567.25	796.81
567.60	796.81
567.96	797.86
568.31	797.24
568.66	796.19
569.02	793.10
569.37	791.14
569.72	789.90
570.08	789.33
570.43	787.90
570.78	785.71
571.14	784.57
571.49	784.14
571.84	783.86
572.20	782.14
572.55	781.19
572.90	778.38
573.26	777.67
573.61	776.76
573.96	776.48
574.31	775.90
574.67	774.67
575.02	773.57
575.37	771.48
575.72	769.86
576.08	768.52
576.43	768.90
576.78	768.90
577.13	767.76
577.49	767.38
577.84	766.90
578.19	767.10
578.54	767.52
578.90	767.29
579.25	766.90
579.60	767.43
579.95	767.57
580.30	767.81
580.66	768.05
581.01	767.71
581.36	765.76
581.71	764.19
582.06	764.76
582.42	763.90
582.77	762.67
583.12	761.81
583.47	761.38
583.82	760.57
584.17	759.52
584.53	759.67
584.88	757.52
585.23	757.24
585.58	755.52
585.93	753.24
586.28	751.05
586.63	748.48
586.98	746.33
587.34	744.33
587.69	741.52
588.04	738.67
588.39	735.52
588.74	732.76
589.09	731.00
589.44	726.57
589.79	723.00
590.14	719.14
590.49	715.10
590.84	709.71
591.19	705.10
591.54	701.38
591.89	696.62
592.25	694.86
592.60	689.95
592.95	686.14
593.30	682.10
593.65	678.00
594.00	674.10
594.35	676.71
594.70	671.71
595.05	668.29
595.40	664.52
595.75	660.71
596.10	658.76
596.45	655.24
596.80	651.38
597.15	647.71
597.50	644.57
597.85	642.29
598.19	640.38
598.54	637.10
598.89	633.71
599.24	630.86
599.59	626.38
599.94	623.76
600.29	621.14
600.64	618.52
600.99	616.24
601.34	613.81
601.69	604.00
602.04	601.33
602.39	598.43
602.74	596.57
603.08	594.81
603.43	592.71
603.78	590.24
604.13	588.43
604.48	587.81
604.83	587.52
605.18	586.76
605.53	588.10
605.87	591.52
606.22	597.24
606.57	604.95
606.92	613.43
607.27	623.24
607.62	633.38
607.96	643.19
608.31	651.10
608.66	658.52
609.01	665.95
609.36	672.76
609.70	678.81
610.05	683.62
610.40	688.43
610.75	691.48
611.10	695.43
611.44	697.90
611.79	698.90
612.14	699.29
612.49	698.48
612.83	695.62
613.18	690.86
613.53	683.71
613.88	674.14
614.22	663.05
614.57	650.76
614.92	637.81
615.27	626.43
615.61	615.81
615.96	606.76
616.31	596.67
616.65	589.00
617.00	580.43
617.35	572.38
617.70	564.76
618.04	558.05
618.39	550.76
618.74	546.00
619.08	540.76
619.43	536.10
619.78	531.86
620.12	528.62
620.47	525.62
620.82	521.95
621.16	518.38
621.51	517.10
621.85	513.43
622.20	511.48
622.55	508.14
622.89	505.48
623.24	502.29
623.59	499.86
623.93	496.33
624.28	493.67
624.62	493.24
624.97	492.10
625.32	489.19
625.66	487.86
626.01	485.38
626.35	484.14
626.70	481.95
627.04	480.62
627.39	478.52
627.73	476.71
628.08	474.52
628.43	472.38
628.77	468.48
629.12	467.00
629.46	464.71
629.81	462.67
630.15	460.52
630.50	458.00
630.84	455.76
631.19	453.33
631.53	451.24
631.88	446.33
632.22	442.86
632.57	441.43
632.91	438.57
633.26	435.86
633.60	432.38
633.95	429.57
634.29	426.71
634.64	424.00
634.98	421.33
635.32	419.57
635.67	417.76
636.01	415.52
636.36	413.33
636.70	411.48
637.05	408.90
637.39	406.24
637.73	405.05
638.08	403.95
638.42	402.38
638.77	401.24
639.11	399.95
639.45	397.90
639.80	395.57
640.14	394.00
640.49	392.19
640.83	390.76
641.17	390.24
641.52	388.38
641.86	387.33
642.20	386.52
642.55	384.90
642.89	383.52
643.23	382.76
643.58	382.33
643.92	380.71
644.26	379.95
644.61	380.14
644.95	378.48
645.29	376.71
645.64	375.86
645.98	374.48
646.32	374.24
646.66	373.24
647.01	372.14
647.35	371.38
647.69	371.67
648.04	371.24
648.38	370.10
648.72	369.43
649.06	367.81
649.41	365.95
649.75	365.10
650.09	364.67
650.43	363.29
650.78	361.48
651.12	360.43
651.46	359.62
651.80	357.71
652.14	356.38
652.49	356.00
652.83	354.95
653.17	353.90
653.51	351.86
653.85	351.05
654.20	350.10
654.54	348.57
654.88	346.10
655.22	345.14
655.56	343.52
655.90	342.67
656.25	341.81
656.59	341.00
656.93	339.95
657.27	339.19
657.61	338.19
657.95	337.86
658.29	337.29
658.64	337.00
658.98	336.38
659.32	336.00
659.66	335.05
660.00	334.29
660.34	333.57
660.68	333.43
661.02	332.71
661.36	331.86
661.70	331.14
662.05	330.57
662.39	330.05
662.73	330.10
663.07	330.52
663.41	329.90
663.75	328.76
664.09	328.24
664.43	327.24
664.77	326.38
665.11	325.14
665.45	324.29
665.79	323.48
666.13	322.86
666.47	321.86
666.81	321.19
667.15	319.81
667.49	319.19
667.83	318.86
668.17	317.86
668.51	317.14
668.85	317.00
669.19	317.71
669.53	316.57
669.87	315.19
670.21	313.43
670.55	313.10
670.89	313.81
671.23	313.29
671.57	312.57
671.91	312.62
672.25	312.10
672.58	312.38
672.92	311.43
673.26	311.10
673.60	310.71
673.94	310.00
674.28	310.29
674.62	310.38
674.96	309.33
675.30	309.33
675.64	308.86
675.97	308.14
676.31	306.76
676.65	305.90
676.99	306.10
677.33	305.29
677.67	304.81
678.01	303.19
678.34	302.48
678.68	302.48
679.02	301.48
679.36	300.90
679.70	299.76
680.04	299.57
680.37	298.57
680.71	297.86
681.05	297.90
681.39	297.05
681.73	295.86
682.06	295.48
682.40	294.76
682.74	294.90
683.08	295.33
683.42	294.71
683.75	295.10
684.09	294.00
684.43	293.71
684.77	293.14
685.10	292.95
685.44	292.62
685.78	291.76
686.12	291.43
686.45	291.05
686.79	290.48
687.13	290.57
687.46	290.90
687.80	291.19
688.14	290.24
688.48	290.10
688.81	290.14
689.15	290.05
689.49	289.76
689.82	289.48
690.16	288.10
690.50	288.00
690.83	287.38
691.17	286.76
691.51	286.52
691.84	286.48
692.18	286.00
692.52	285.38
692.85	285.52
693.19	286.33
693.52	286.33
693.86	285.62
694.20	284.33
694.53	283.67
694.87	282.76
695.21	282.19
695.54	281.57
695.88	280.19
696.21	279.57
696.55	279.10
696.88	277.90
697.22	277.33
697.56	276.62
697.89	276.14
698.23	276.43
698.56	276.00
698.90	276.05
699.23	275.62
699.57	275.48
699.90	274.81
700.24	273.33
700.58	273.00
700.91	273.48
701.25	275.76
701.58	276.76
701.92	277.71
702.25	278.43
702.59	278.95
702.92	280.24
703.26	280.67
703.59	281.19
703.93	284.14
704.26	285.38
704.60	286.33
704.93	287.05
705.26	287.24
705.60	288.29
705.93	288.05
706.27	289.05
706.60	290.10
706.94	291.10
707.27	291.71
707.61	292.38
707.94	292.57
708.27	291.14
708.61	290.00
708.94	289.81
709.28	289.57
709.61	288.71
709.94	288.00
710.28	287.71
710.61	286.90
710.95	284.24
711.28	284.76
711.61	283.95
711.95	283.62
712.28	282.71
712.61	281.19
712.95	281.43
713.28	281.48
713.61	280.10
713.95	278.48
714.28	277.71
714.61	276.52
714.95	275.24
715.28	273.38
715.61	273.05
715.95	272.29
716.28	271.05
716.61	270.71
716.95	270.14
717.28	269.10
717.61	268.71
717.94	267.81
718.28	265.67
718.61	265.24
718.94	264.14
719.27	263.67
719.61	263.71
719.94	262.81
720.27	261.33
720.60	261.00
720.94	260.71
721.27	260.52
721.60	260.52
721.93	260.48
722.27	261.52
722.60	261.52
722.93	260.86
723.26	261.05
723.59	260.52
723.93	260.48
724.26	260.38
724.59	260.14
724.92	260.33
725.25	260.57
725.59	260.14
725.92	260.24
726.25	260.19
726.58	260.19
726.91	259.62
727.24	259.71
727.57	259.52
727.91	259.24
728.24	259.38
728.57	258.86
728.90	259.05
729.23	257.90
729.56	258.57
729.89	258.71
730.22	258.48
730.55	258.48
730.89	258.10
731.22	258.14
731.55	258.00
731.88	257.86
732.21	257.38
732.54	257.14
732.87	257.00
733.20	256.71
733.53	256.24
733.86	256.71
734.19	256.71
734.52	256.95
734.85	258.67
735.18	258.05
735.51	258.90
735.84	259.24
736.17	260.19
736.50	258.57
736.83	261.05
737.16	261.10
737.49	261.29
737.82	261.19
738.15	261.48
738.48	261.48
738.81	261.19
739.14	261.05
739.47	260.86
739.80	260.86
740.13	261.24
740.46	261.05
740.79	260.33
741.12	259.71
741.45	259.33
741.78	257.62
742.11	258.10
742.44	257.05
742.77	256.90
743.10	256.52
743.43	256.81
743.75	254.43
744.08	257.33
744.41	257.24
744.74	257.29
745.07	256.62
745.40	256.81
745.73	257.71
746.06	257.57
746.39	257.95
746.71	257.67
747.04	257.33
747.37	257.19
747.70	257.81
748.03	258.05
748.36	258.43
748.68	258.43
749.01	257.62
749.34	258.05
749.67	258.00
750.00	258.10
750.33	259.67
750.65	259.43
750.98	256.33
751.31	256.00
751.64	255.81
751.97	257.38
752.29	256.95
752.62	255.90
752.95	255.95
753.28	255.57
753.60	255.48
753.93	255.76
754.26	255.95
754.59	254.76
754.91	254.71
755.24	254.43
755.57	254.48
755.90	254.62
756.22	254.24
756.55	253.57
756.88	253.05
757.20	251.29
757.53	250.86
757.86	250.86
758.19	251.05
758.51	251.19
758.84	249.86
759.17	249.67
759.49	249.86
759.82	250.81
760.15	250.71
760.47	250.52
760.80	250.05
761.13	250.52
761.45	250.67
761.78	250.43
762.11	250.24
762.43	249.76
762.76	249.71
763.08	249.71
763.41	250.00
763.74	250.00
764.06	250.10
764.39	250.00
764.71	249.52
765.04	249.24
765.37	248.86
765.69	248.57
766.02	248.43
766.34	248.14
766.67	247.14
767.00	247.67
767.32	249.10
767.65	250.43
767.97	250.14
768.30	250.38
768.62	250.52
768.95	250.19
769.27	250.38
769.60	250.48
769.92	250.19
770.25	249.43
770.57	248.71
770.90	248.24
771.22	248.24
771.55	248.62
771.87	248.57
772.20	248.57
772.52	250.67
772.85	253.67
773.17	253.52
773.50	252.90
773.82	252.29
774.15	250.95
774.47	249.29
774.80	248.52
775.12	248.48
775.45	248.43
775.77	248.38
776.09	248.57
776.42	248.24
776.74	248.86
777.07	248.81
777.39	249.19
777.72	249.10
778.04	249.00
778.36	248.48
778.69	248.43
779.01	248.19
779.33	246.05
779.66	243.24
779.98	243.14
780.31	243.52
780.63	244.67
780.95	244.86
781.28	244.95
781.60	245.00
781.92	244.90
782.25	244.76
782.57	245.05
782.89	244.62
783.22	244.62
783.54	243.90
783.86	244.52
784.19	244.19
784.51	245.19
784.83	244.67
785.16	244.71
785.48	244.81
785.80	245.24
786.12	245.43
786.45	245.38
786.77	245.48
787.09	245.62
787.42	244.43
787.74	244.52
788.06	244.33
788.38	244.33
788.71	243.90
789.03	243.62
789.35	243.90
789.67	243.48
789.99	243.52
790.32	243.52
790.64	243.71
790.96	245.86
791.28	244.76
791.61	244.81
791.93	244.86
792.25	244.81
792.57	246.24
792.89	245.57
793.21	245.86
