SpectraSuite Data File
++++++++++++++++++++++++++++++++++++
Date: Wed Nov 07 18:30:57 EST 2012
User: group
Dark Spectrum Present: No
Reference Spectrum Present: No
Number of Sampled Component Spectra: 1
Spectrometers: USB2E7196
Integration Time (usec): 1000000 (USB2E7196)
Spectra Averaged: 1 (USB2E7196)
Boxcar Smoothing: 10 (USB2E7196)
Correct for Electrical Dark: No (USB2E7196)
Strobe/Lamp Enabled: No (USB2E7196)
Correct for Detector Non-linearity: No (USB2E7196)
Correct for Stray Light: No (USB2E7196)
Number of Pixels in Processed Spectrum: 2048
>>>>>Begin Processed Spectral Data<<<<<
339.09	0.00
339.48	214.00
339.86	215.00
340.24	222.00
340.63	223.00
341.01	259.00
341.39	227.00
341.78	228.00
342.16	236.00
342.54	233.00
342.93	220.71
343.31	231.57
343.69	232.52
344.07	233.43
344.46	234.33
344.84	234.86
345.22	233.67
345.60	234.19
345.99	235.00
346.37	235.00
346.75	235.00
347.13	235.05
347.52	235.33
347.90	236.14
348.28	236.19
348.66	236.62
349.05	235.71
349.43	236.38
349.81	236.86
350.19	237.71
350.57	237.71
350.96	237.90
351.34	238.33
351.72	238.43
352.10	238.52
352.48	238.29
352.87	238.24
353.25	238.57
353.63	238.38
354.01	238.05
354.39	238.29
354.77	238.62
355.15	239.10
355.54	239.14
355.92	238.76
356.30	238.86
356.68	240.81
357.06	241.48
357.44	241.14
357.82	241.24
358.20	241.00
358.58	241.10
358.97	241.05
359.35	241.52
359.73	242.05
360.11	241.95
360.49	241.95
360.87	242.05
361.25	242.19
361.63	243.14
362.01	243.29
362.39	243.24
362.77	243.29
363.15	243.57
363.53	243.38
363.91	243.52
364.29	243.43
364.67	241.05
365.05	240.81
365.43	241.14
365.81	241.38
366.19	242.76
366.57	243.62
366.95	243.71
367.33	242.90
367.71	242.86
368.09	243.29
368.47	243.52
368.85	243.43
369.23	244.05
369.61	243.14
369.99	243.86
370.37	244.24
370.75	245.38
371.13	244.62
371.51	244.38
371.89	244.38
372.27	244.57
372.65	244.52
373.03	244.86
373.41	244.38
373.78	244.19
374.16	242.90
374.54	242.43
374.92	242.48
375.30	242.95
375.68	242.43
376.06	242.19
376.44	241.67
376.82	241.86
377.19	241.38
377.57	241.38
377.95	240.33
378.33	240.14
378.71	238.86
379.09	239.33
379.47	239.48
379.84	239.19
380.22	238.71
380.60	238.57
380.98	238.29
381.36	238.33
381.73	237.90
382.11	238.19
382.49	237.71
382.87	237.38
383.25	237.29
383.62	240.24
384.00	240.14
384.38	240.67
384.76	241.19
385.13	242.19
385.51	242.19
385.89	242.05
386.27	241.90
386.64	242.10
387.02	241.86
387.40	241.67
387.78	242.00
388.15	242.43
388.53	242.38
388.91	242.43
389.29	242.67
389.66	243.05
390.04	242.48
390.42	243.43
390.79	243.48
391.17	243.62
391.55	240.95
391.92	241.00
392.30	241.24
392.68	240.57
393.05	240.24
393.43	240.71
393.81	240.76
394.18	240.33
394.56	240.24
394.94	240.76
395.31	240.62
395.69	241.38
396.06	241.62
396.44	241.76
396.82	241.81
397.19	243.05
397.57	243.00
397.95	243.24
398.32	242.14
398.70	242.29
399.07	242.95
399.45	243.00
399.82	243.24
400.20	243.19
400.58	243.57
400.95	242.90
401.33	243.14
401.70	245.43
402.08	245.81
402.45	246.00
402.83	246.86
403.20	247.43
403.58	247.00
403.95	247.62
404.33	248.33
404.71	248.29
405.08	249.38
405.46	249.81
405.83	250.71
406.21	251.38
406.58	251.67
406.96	251.57
407.33	252.14
407.70	252.95
408.08	255.05
408.45	255.86
408.83	256.86
409.20	256.90
409.58	255.95
409.95	257.29
410.33	258.43
410.70	258.33
411.08	259.76
411.45	261.05
411.82	261.95
412.20	263.81
412.57	267.10
412.95	266.43
413.32	268.24
413.69	269.52
414.07	271.00
414.44	273.05
414.82	275.33
415.19	277.57
415.56	279.90
415.94	281.38
416.31	284.52
416.68	287.19
417.06	290.76
417.43	294.62
417.81	298.00
418.18	301.86
418.55	306.00
418.93	310.19
419.30	314.33
419.67	319.19
420.04	323.57
420.42	327.24
420.79	334.71
421.16	340.67
421.54	347.90
421.91	354.05
422.28	360.71
422.66	367.24
423.03	375.19
423.40	382.05
423.77	388.90
424.15	395.95
424.52	403.62
424.89	412.57
425.26	420.43
425.64	428.24
426.01	436.48
426.38	445.33
426.75	455.10
427.13	464.00
427.50	473.67
427.87	483.29
428.24	493.57
428.61	502.29
428.99	513.76
429.36	524.19
429.73	536.43
430.10	548.71
430.47	561.57
430.85	573.10
431.22	587.48
431.59	605.24
431.96	619.33
432.33	635.48
432.70	650.81
433.08	667.43
433.45	683.48
433.82	699.29
434.19	716.67
434.56	732.67
434.93	748.62
435.30	763.86
435.68	781.29
436.05	797.24
436.42	813.62
436.79	828.57
437.16	845.48
437.53	861.81
437.90	878.19
438.27	893.76
438.64	910.10
439.01	924.29
439.38	934.38
439.75	946.86
440.13	960.38
440.50	972.86
440.87	985.00
441.24	995.14
441.61	1008.00
441.98	1016.43
442.35	1027.10
442.72	1039.00
443.09	1050.67
443.46	1056.43
443.83	1060.38
444.20	1063.57
444.57	1067.81
444.94	1068.67
445.31	1070.71
445.68	1074.81
446.05	1074.52
446.42	1071.33
446.79	1068.86
447.16	1064.67
447.53	1062.38
447.90	1054.43
448.27	1046.52
448.64	1035.86
449.01	1029.48
449.37	1016.52
449.74	1005.00
450.11	993.00
450.48	976.90
450.85	960.33
451.22	946.76
451.59	934.71
451.96	920.86
452.33	905.14
452.70	890.81
453.07	873.48
453.43	853.48
453.80	837.29
454.17	822.57
454.54	807.10
454.91	791.67
455.28	775.52
455.65	761.00
456.02	751.05
456.38	737.86
456.75	722.48
457.12	710.52
457.49	698.19
457.86	683.76
458.23	674.19
458.59	662.76
458.96	652.10
459.33	641.76
459.70	633.14
460.07	625.52
460.43	616.76
460.80	608.95
461.17	601.19
461.54	593.62
461.91	585.71
462.27	578.33
462.64	571.86
463.01	565.29
463.38	559.29
463.74	548.33
464.11	542.57
464.48	537.71
464.85	531.67
465.21	527.76
465.58	523.86
465.95	518.48
466.32	514.38
466.68	509.62
467.05	505.38
467.42	501.24
467.78	496.19
468.15	491.33
468.52	488.24
468.88	484.00
469.25	479.76
469.62	477.33
469.98	473.95
470.35	471.05
470.72	467.81
471.08	464.14
471.45	461.76
471.82	459.76
472.18	457.14
472.55	454.71
472.92	451.38
473.28	448.33
473.65	445.48
474.02	443.48
474.38	442.14
474.75	440.71
475.11	438.67
475.48	437.43
475.85	436.14
476.21	434.38
476.58	433.90
476.94	432.95
477.31	431.52
477.67	430.52
478.04	429.43
478.41	428.67
478.77	430.90
479.14	430.29
479.50	429.76
479.87	429.67
480.23	430.00
480.60	430.52
480.96	431.52
481.33	433.48
481.69	435.05
482.06	436.14
482.42	437.90
482.79	440.14
483.15	441.76
483.52	445.00
483.88	447.48
484.25	449.62
484.61	452.00
484.98	454.48
485.34	457.52
485.71	460.38
486.07	463.33
486.44	463.67
486.80	466.00
487.17	468.52
487.53	471.67
487.90	474.95
488.26	478.19
488.62	481.24
488.99	482.48
489.35	484.33
489.72	486.19
490.08	487.67
490.44	488.95
490.81	491.24
491.17	491.95
491.54	493.33
491.90	495.67
492.26	498.43
492.63	500.00
492.99	501.81
493.36	504.05
493.72	506.86
494.08	508.43
494.45	511.38
494.81	513.57
495.17	514.90
495.54	517.10
495.90	519.71
496.26	521.71
496.63	524.81
496.99	527.05
497.35	530.29
497.72	533.62
498.08	536.52
498.44	539.19
498.80	542.76
499.17	546.24
499.53	548.95
499.89	551.90
500.26	555.67
500.62	559.10
500.98	563.52
501.34	567.24
501.71	572.24
502.07	575.71
502.43	580.10
502.79	584.76
503.16	589.24
503.52	593.38
503.88	597.57
504.24	602.76
504.60	608.14
504.97	613.33
505.33	618.24
505.69	624.00
506.05	629.14
506.41	633.71
506.78	638.86
507.14	643.86
507.50	649.10
507.86	654.38
508.22	659.57
508.59	664.00
508.95	669.38
509.31	675.38
509.67	680.62
510.03	684.71
510.39	689.86
510.75	694.86
511.12	699.71
511.48	704.90
511.84	708.76
512.20	713.38
512.56	717.05
512.92	721.86
513.28	726.24
513.64	730.19
514.00	735.71
514.37	739.86
514.73	744.62
515.09	749.14
515.45	753.38
515.81	756.52
516.17	760.95
516.53	764.24
516.89	766.81
517.25	771.43
517.61	776.57
517.97	780.57
518.33	783.43
518.69	787.29
519.05	791.24
519.41	795.52
519.77	800.33
520.13	803.86
520.49	807.00
520.85	809.95
521.21	814.90
521.57	817.81
521.93	820.14
522.29	822.57
522.65	824.19
523.01	826.38
523.37	828.81
523.73	830.81
524.09	832.81
524.45	835.43
524.81	837.38
525.17	839.24
525.53	840.86
525.89	843.52
526.25	844.71
526.61	846.14
526.97	847.10
527.33	846.71
527.68	851.95
528.04	853.10
528.40	854.71
528.76	855.67
529.12	857.10
529.48	859.00
529.84	860.14
530.20	862.14
530.56	863.67
530.91	866.43
531.27	868.10
531.63	870.14
531.99	870.52
532.35	871.19
532.71	872.14
533.07	874.24
533.42	878.19
533.78	879.76
534.14	882.43
534.50	884.33
534.86	888.05
535.21	887.43
535.57	891.00
535.93	894.76
536.29	899.38
536.65	904.33
537.00	910.43
537.36	918.19
537.72	927.14
538.08	937.76
538.44	948.19
538.79	960.38
539.15	971.38
539.51	984.76
539.87	997.62
540.22	1010.71
540.58	1023.33
540.94	1034.90
541.29	1049.52
541.65	1061.29
542.01	1074.62
542.37	1085.33
542.72	1094.00
543.08	1099.86
543.44	1104.95
543.79	1107.57
544.15	1109.81
544.51	1110.76
544.87	1109.24
545.22	1105.67
545.58	1099.24
545.94	1092.05
546.29	1082.57
546.65	1073.33
547.01	1061.95
547.36	1052.10
547.72	1040.62
548.07	1028.81
548.43	1015.10
548.79	1000.57
549.14	987.76
549.50	974.86
549.86	961.95
550.21	951.48
550.57	942.71
550.92	933.52
551.28	925.48
551.64	917.62
551.99	910.33
552.35	903.05
552.70	896.43
553.06	891.29
553.41	886.14
553.77	882.48
554.13	878.10
554.48	875.00
554.84	870.05
555.19	866.00
555.55	863.67
555.90	860.24
556.26	856.00
556.61	852.19
556.97	847.57
557.32	844.43
557.68	842.05
558.03	838.86
558.39	836.48
558.74	833.52
559.10	831.29
559.45	828.86
559.81	826.76
560.16	824.52
560.52	823.05
560.87	820.81
561.23	818.14
561.58	818.19
561.94	815.90
562.29	813.43
562.64	811.62
563.00	808.33
563.35	807.14
563.71	806.57
564.06	805.05
564.42	804.14
564.77	802.24
565.12	799.71
565.48	801.29
565.83	799.33
566.19	798.38
566.54	796.43
566.89	795.00
567.25	794.38
567.60	794.48
567.96	794.43
568.31	795.05
568.66	794.95
569.02	791.29
569.37	789.67
569.72	789.19
570.08	788.43
570.43	786.81
570.78	784.62
571.14	783.38
571.49	782.05
571.84	780.62
572.20	780.52
572.55	779.86
572.90	775.76
573.26	775.52
573.61	774.38
573.96	773.81
574.31	773.71
574.67	772.33
575.02	770.71
575.37	768.24
575.72	766.71
576.08	765.86
576.43	765.52
576.78	765.38
577.13	765.05
577.49	764.52
577.84	764.71
578.19	765.62
578.54	765.62
578.90	766.29
579.25	766.52
579.60	766.10
579.95	765.33
580.30	765.48
580.66	765.33
581.01	764.95
581.36	763.86
581.71	762.29
582.06	763.19
582.42	762.95
582.77	762.14
583.12	760.95
583.47	758.90
583.82	758.81
584.17	758.24
584.53	758.19
584.88	756.52
585.23	754.95
585.58	752.00
585.93	750.14
586.28	746.86
586.63	745.38
586.98	743.14
587.34	741.10
587.69	738.43
588.04	734.81
588.39	731.90
588.74	728.57
589.09	726.57
589.44	721.52
589.79	717.86
590.14	714.05
590.49	709.05
590.84	704.81
591.19	700.29
591.54	696.05
591.89	690.19
592.25	688.29
592.60	684.05
592.95	681.10
593.30	677.00
593.65	674.00
594.00	668.95
594.35	671.33
594.70	667.24
595.05	663.76
595.40	660.67
595.75	657.43
596.10	654.52
596.45	651.05
596.80	648.19
597.15	644.14
597.50	640.81
597.85	639.19
598.19	636.81
598.54	633.95
598.89	631.00
599.24	628.90
599.59	624.57
599.94	621.81
600.29	618.86
600.64	617.00
600.99	614.81
601.34	612.29
601.69	603.24
602.04	600.76
602.39	598.33
602.74	596.24
603.08	594.14
603.43	593.24
603.78	590.62
604.13	588.67
604.48	587.86
604.83	587.24
605.18	587.10
605.53	588.57
605.87	592.67
606.22	598.71
606.57	606.71
606.92	615.52
607.27	624.95
607.62	634.62
607.96	643.62
608.31	651.29
608.66	659.00
609.01	665.52
609.36	671.95
609.70	677.95
610.05	683.24
610.40	688.19
610.75	691.19
611.10	695.33
611.44	698.05
611.79	699.81
612.14	700.33
612.49	699.57
612.83	696.90
613.18	691.71
613.53	683.52
613.88	673.24
614.22	661.62
614.57	650.57
614.92	638.19
615.27	626.19
615.61	615.57
615.96	605.86
616.31	597.00
616.65	589.38
617.00	580.33
617.35	572.52
617.70	564.29
618.04	557.67
618.39	550.19
618.74	544.71
619.08	539.48
619.43	534.67
619.78	530.43
620.12	526.57
620.47	523.33
620.82	519.71
621.16	516.38
621.51	515.48
621.85	511.95
622.20	509.71
622.55	506.57
622.89	503.95
623.24	501.19
623.59	497.71
623.93	494.48
624.28	492.67
624.62	492.05
624.97	491.33
625.32	488.71
625.66	486.95
626.01	484.38
626.35	482.29
626.70	481.00
627.04	479.48
627.39	478.00
627.73	476.81
628.08	475.24
628.43	473.14
628.77	469.10
629.12	466.57
629.46	464.48
629.81	462.76
630.15	460.38
630.50	458.19
630.84	456.14
631.19	453.33
631.53	450.71
631.88	445.95
632.22	441.95
632.57	440.24
632.91	437.14
633.26	435.14
633.60	432.71
633.95	429.57
634.29	426.00
634.64	422.86
634.98	419.00
635.32	417.57
635.67	415.67
636.01	413.76
636.36	411.71
636.70	409.90
637.05	407.29
637.39	405.43
637.73	403.62
638.08	402.71
638.42	401.00
638.77	399.52
639.11	397.76
639.45	396.38
639.80	394.19
640.14	393.38
640.49	391.67
640.83	389.81
641.17	388.71
641.52	386.95
641.86	385.71
642.20	385.43
642.55	383.29
642.89	382.29
643.23	381.52
643.58	381.76
643.92	379.62
644.26	378.90
644.61	378.24
644.95	377.00
645.29	375.71
645.64	375.86
645.98	374.71
646.32	374.95
646.66	373.71
647.01	373.05
647.35	372.43
647.69	372.57
648.04	371.90
648.38	371.14
648.72	370.67
649.06	369.62
649.41	368.00
649.75	366.90
650.09	365.95
650.43	364.71
650.78	362.57
651.12	362.00
651.46	361.00
651.80	359.71
652.14	358.57
652.49	358.10
652.83	356.00
653.17	354.86
653.51	352.71
653.85	351.90
654.20	351.29
654.54	349.86
654.88	347.29
655.22	345.62
655.56	343.95
655.90	342.86
656.25	342.19
656.59	341.33
656.93	341.10
657.27	340.48
657.61	339.52
657.95	339.24
658.29	338.29
658.64	338.33
658.98	337.24
659.32	336.67
659.66	336.00
660.00	335.86
660.34	335.19
660.68	334.52
661.02	333.81
661.36	332.19
661.70	331.19
662.05	331.14
662.39	331.62
662.73	331.90
663.07	332.62
663.41	331.90
663.75	330.48
664.09	329.43
664.43	328.29
664.77	327.71
665.11	326.67
665.45	325.95
665.79	325.29
666.13	324.67
666.47	323.86
666.81	322.67
667.15	321.57
667.49	320.71
667.83	321.24
668.17	320.29
668.51	319.86
668.85	319.67
669.19	320.10
669.53	318.76
669.87	317.29
670.21	315.62
670.55	314.86
670.89	316.05
671.23	315.52
671.57	315.00
671.91	314.57
672.25	314.43
672.58	315.19
672.92	313.71
673.26	313.57
673.60	313.05
673.94	312.38
674.28	312.05
674.62	312.00
674.96	310.95
675.30	310.95
675.64	310.67
675.97	309.95
676.31	308.43
676.65	308.14
676.99	308.76
677.33	307.81
677.67	307.19
678.01	305.43
678.34	304.86
678.68	305.43
679.02	304.57
679.36	303.24
679.70	301.71
680.04	301.14
680.37	300.48
680.71	299.90
681.05	299.57
681.39	298.95
681.73	298.10
682.06	297.24
682.40	296.76
682.74	296.62
683.08	297.14
683.42	296.33
683.75	296.05
684.09	294.90
684.43	294.76
684.77	294.48
685.10	294.05
685.44	293.86
685.78	292.52
686.12	292.14
686.45	291.86
686.79	291.29
687.13	291.33
687.46	290.71
687.80	290.95
688.14	290.81
688.48	290.86
688.81	290.95
689.15	291.24
689.49	290.43
689.82	290.10
690.16	288.57
690.50	288.29
690.83	287.33
691.17	286.43
691.51	286.14
691.84	286.24
692.18	285.95
692.52	285.38
692.85	285.33
693.19	285.95
693.52	285.90
693.86	285.38
694.20	285.24
694.53	285.14
694.87	284.48
695.21	283.48
695.54	282.57
695.88	281.48
696.21	280.48
696.55	279.95
696.88	279.52
697.22	278.76
697.56	278.76
697.89	278.57
698.23	278.57
698.56	277.90
698.90	277.29
699.23	276.67
699.57	276.33
699.90	275.52
700.24	274.48
700.58	274.10
700.91	274.48
701.25	276.24
701.58	277.00
701.92	277.86
702.25	278.71
702.59	279.19
702.92	280.14
703.26	280.81
703.59	281.81
703.93	283.86
704.26	285.19
704.60	285.81
704.93	286.48
705.26	287.05
705.60	288.38
705.93	288.52
706.27	290.14
706.60	291.00
706.94	292.52
707.27	292.71
707.61	293.48
707.94	293.67
708.27	291.95
708.61	291.19
708.94	290.86
709.28	290.19
709.61	289.33
709.94	288.71
710.28	287.90
710.61	287.05
710.95	283.86
711.28	284.67
711.61	283.62
711.95	282.95
712.28	281.71
712.61	280.38
712.95	280.95
713.28	280.57
713.61	279.33
713.95	277.67
714.28	277.00
714.61	275.43
714.95	274.19
715.28	273.10
715.61	272.19
715.95	271.33
716.28	270.19
716.61	270.05
716.95	269.33
717.28	268.43
717.61	267.71
717.94	267.76
718.28	265.14
718.61	264.62
718.94	263.62
719.27	263.33
719.61	263.10
719.94	262.10
720.27	260.52
720.60	260.52
720.94	260.05
721.27	259.86
721.60	260.29
721.93	260.24
722.27	260.76
722.60	260.86
722.93	260.19
723.26	260.43
723.59	260.05
723.93	259.76
724.26	259.95
724.59	260.05
724.92	259.86
725.25	260.81
725.59	260.76
725.92	261.10
726.25	260.95
726.58	260.95
726.91	260.62
727.24	260.86
727.57	260.48
727.91	260.19
728.24	259.81
728.57	259.43
728.90	259.33
729.23	258.38
729.56	259.10
729.89	258.90
730.22	258.67
730.55	258.24
730.89	258.24
731.22	258.05
731.55	257.95
731.88	258.10
732.21	257.10
732.54	256.67
732.87	256.43
733.20	256.48
733.53	256.14
733.86	256.33
734.19	256.00
734.52	256.10
734.85	257.81
735.18	257.71
735.51	258.43
735.84	258.62
736.17	259.10
736.50	257.90
736.83	260.95
737.16	260.71
737.49	260.71
737.82	260.67
738.15	261.00
738.48	260.52
738.81	260.33
739.14	260.67
739.47	260.38
739.80	260.38
740.13	260.43
740.46	260.19
740.79	259.33
741.12	259.10
741.45	258.57
741.78	257.29
742.11	257.67
742.44	256.86
742.77	257.00
743.10	256.71
743.43	256.71
743.75	254.10
744.08	257.29
744.41	257.29
744.74	257.00
745.07	256.52
745.40	257.19
745.73	258.05
746.06	257.38
746.39	258.05
746.71	257.62
747.04	257.48
747.37	257.14
747.70	257.90
748.03	257.86
748.36	257.95
748.68	257.43
749.01	256.71
749.34	256.76
749.67	256.33
750.00	256.76
750.33	258.24
750.65	258.33
750.98	255.19
751.31	254.90
751.64	254.71
751.97	255.86
752.29	255.29
752.62	253.86
752.95	253.76
753.28	253.19
753.60	253.38
753.93	253.62
754.26	253.57
754.59	252.62
754.91	252.29
755.24	252.33
755.57	252.43
755.90	252.19
756.22	251.67
756.55	251.62
756.88	250.48
757.20	248.86
757.53	248.10
757.86	248.05
758.19	248.57
758.51	248.81
758.84	247.43
759.17	247.19
759.49	247.71
759.82	248.95
760.15	249.10
760.47	248.95
760.80	248.10
761.13	249.00
761.45	248.81
761.78	248.90
762.11	249.00
762.43	248.62
762.76	248.81
763.08	249.19
763.41	248.90
763.74	249.29
764.06	249.38
764.39	249.29
764.71	249.24
765.04	248.67
765.37	248.33
765.69	248.05
766.02	248.05
766.34	247.24
766.67	246.29
767.00	246.62
767.32	247.86
767.65	249.86
767.97	249.29
768.30	249.67
768.62	249.71
768.95	248.95
769.27	248.95
769.60	249.43
769.92	248.90
770.25	248.86
770.57	248.38
770.90	248.33
771.22	248.19
771.55	248.24
771.87	248.52
772.20	248.33
772.52	250.62
772.85	253.48
773.17	253.86
773.50	253.57
773.82	253.24
774.15	251.76
774.47	249.86
774.80	249.81
775.12	249.81
775.45	249.67
775.77	250.05
776.09	250.19
776.42	249.81
776.74	250.62
777.07	250.38
777.39	250.38
777.72	250.10
778.04	250.24
778.36	250.14
778.69	249.90
779.01	250.52
779.33	248.29
779.66	245.43
779.98	245.14
780.31	245.24
780.63	246.05
780.95	246.52
781.28	246.52
781.60	245.86
781.92	245.57
782.25	245.33
782.57	245.29
782.89	245.00
783.22	244.95
783.54	244.48
783.86	244.71
784.19	244.52
784.51	245.10
784.83	244.62
785.16	244.33
785.48	244.52
785.80	244.05
786.12	244.33
786.45	244.48
786.77	244.90
787.09	244.90
787.42	244.19
787.74	244.10
788.06	244.10
788.38	244.14
788.71	244.05
789.03	244.14
789.35	244.43
789.67	244.19
789.99	244.05
790.32	243.76
790.64	244.05
790.96	246.29
791.28	245.57
791.61	245.33
791.93	245.57
792.25	245.48
792.57	247.52
792.89	246.76
793.21	246.57
