SpectraSuite Data File
++++++++++++++++++++++++++++++++++++
Date: Wed Nov 07 18:32:11 EST 2012
User: group
Dark Spectrum Present: No
Reference Spectrum Present: No
Number of Sampled Component Spectra: 1
Spectrometers: USB2E7196
Integration Time (usec): 1000000 (USB2E7196)
Spectra Averaged: 1 (USB2E7196)
Boxcar Smoothing: 10 (USB2E7196)
Correct for Electrical Dark: No (USB2E7196)
Strobe/Lamp Enabled: No (USB2E7196)
Correct for Detector Non-linearity: No (USB2E7196)
Correct for Stray Light: No (USB2E7196)
Number of Pixels in Processed Spectrum: 2048
>>>>>Begin Processed Spectral Data<<<<<
339.09	0.00
339.48	220.00
339.86	215.00
340.24	221.00
340.63	223.00
341.01	264.00
341.39	228.00
341.78	235.00
342.16	231.00
342.54	221.00
342.93	221.33
343.31	232.33
343.69	232.62
344.07	233.48
344.46	234.52
344.84	235.43
345.22	233.95
345.60	234.38
345.99	234.48
346.37	234.48
346.75	235.24
347.13	235.48
347.52	235.95
347.90	236.62
348.28	236.71
348.66	237.62
349.05	236.76
349.43	237.05
349.81	237.57
350.19	237.62
350.57	238.00
350.96	238.62
351.34	238.90
351.72	239.29
352.10	239.43
352.48	239.10
352.87	238.71
353.25	238.86
353.63	239.14
354.01	239.14
354.39	239.81
354.77	239.43
355.15	240.24
355.54	239.76
355.92	239.33
356.30	239.43
356.68	240.67
357.06	240.95
357.44	240.95
357.82	240.57
358.20	241.00
358.58	240.67
358.97	240.48
359.35	241.29
359.73	241.95
360.11	241.95
360.49	241.95
360.87	242.05
361.25	242.19
361.63	242.81
362.01	242.90
362.39	242.43
362.77	243.14
363.15	242.86
363.53	242.81
363.91	243.14
364.29	243.29
364.67	240.90
365.05	241.19
365.43	241.62
365.81	242.05
366.19	242.95
366.57	244.24
366.95	244.10
367.33	243.52
367.71	243.14
368.09	243.33
368.47	243.38
368.85	243.38
369.23	243.86
369.61	242.81
369.99	243.71
370.37	243.95
370.75	245.14
371.13	244.43
371.51	244.48
371.89	244.33
372.27	244.38
372.65	244.57
373.03	244.14
373.41	243.57
373.78	243.48
374.16	242.19
374.54	241.24
374.92	241.00
375.30	240.76
375.68	240.38
376.06	240.67
376.44	240.48
376.82	240.62
377.19	240.52
377.57	240.48
377.95	239.76
378.33	239.76
378.71	237.95
379.09	238.86
379.47	239.10
379.84	238.62
380.22	238.48
380.60	237.67
380.98	238.05
381.36	237.86
381.73	237.76
382.11	238.24
382.49	238.57
382.87	238.38
383.25	238.19
383.62	241.19
384.00	240.62
384.38	240.67
384.76	241.00
385.13	241.71
385.51	241.90
385.89	241.33
386.27	241.33
386.64	241.67
387.02	240.86
387.40	240.67
387.78	241.38
388.15	241.14
388.53	241.76
388.91	241.86
389.29	242.00
389.66	242.33
390.04	241.76
390.42	242.00
390.79	242.05
391.17	242.05
391.55	239.29
391.92	239.24
392.30	239.71
392.68	239.33
393.05	239.24
393.43	239.33
393.81	239.52
394.18	239.00
394.56	239.19
394.94	240.00
395.31	239.71
395.69	240.43
396.06	241.29
396.44	241.33
396.82	240.76
397.19	242.29
397.57	241.62
397.95	242.14
398.32	241.38
398.70	241.86
399.07	243.00
399.45	243.14
399.82	243.62
400.20	243.19
400.58	243.33
400.95	242.71
401.33	243.24
401.70	245.29
402.08	245.86
402.45	246.10
402.83	246.52
403.20	247.05
403.58	246.33
403.95	246.95
404.33	247.48
404.71	248.14
405.08	249.43
405.46	250.14
405.83	250.67
406.21	251.29
406.58	251.67
406.96	251.71
407.33	252.67
407.70	253.19
408.08	255.76
408.45	256.86
408.83	258.14
409.20	258.71
409.58	257.71
409.95	259.10
410.33	259.81
410.70	260.19
411.08	261.24
411.45	262.71
411.82	263.10
412.20	264.86
412.57	267.43
412.95	266.48
413.32	268.14
413.69	269.52
414.07	271.24
414.44	273.00
414.82	275.24
415.19	277.48
415.56	279.67
415.94	280.76
416.31	283.76
416.68	286.00
417.06	289.38
417.43	293.67
417.81	297.00
418.18	301.05
418.55	304.86
418.93	309.29
419.30	313.19
419.67	317.95
420.04	322.10
420.42	326.05
420.79	333.76
421.16	339.33
421.54	346.76
421.91	353.24
422.28	359.48
422.66	365.81
423.03	374.29
423.40	381.24
423.77	388.24
424.15	395.24
424.52	403.24
424.89	411.48
425.26	418.52
425.64	426.52
426.01	434.57
426.38	443.86
426.75	453.33
427.13	463.00
427.50	472.48
427.87	482.10
428.24	492.10
428.61	499.90
428.99	511.76
429.36	522.05
429.73	532.62
430.10	544.24
430.47	556.48
430.85	566.95
431.22	579.76
431.59	595.62
431.96	608.81
432.33	623.29
432.70	637.86
433.08	654.62
433.45	669.43
433.82	685.00
434.19	701.19
434.56	716.62
434.93	731.76
435.30	747.29
435.68	764.62
436.05	781.86
436.42	799.29
436.79	814.19
437.16	830.24
437.53	848.19
437.90	864.62
438.27	881.05
438.64	897.43
439.01	913.33
439.38	925.81
439.75	938.95
440.13	954.38
440.50	967.52
440.87	978.71
441.24	990.05
441.61	1002.43
441.98	1011.38
442.35	1022.43
442.72	1034.10
443.09	1045.24
443.46	1051.48
443.83	1054.76
444.20	1056.90
444.57	1061.14
444.94	1063.48
445.31	1064.71
445.68	1069.05
446.05	1068.29
446.42	1065.86
446.79	1062.81
447.16	1058.38
447.53	1055.90
447.90	1047.29
448.27	1039.43
448.64	1029.62
449.01	1022.95
449.37	1010.95
449.74	999.76
450.11	988.29
450.48	972.43
450.85	955.90
451.22	942.48
451.59	930.48
451.96	918.05
452.33	902.52
452.70	887.76
453.07	870.95
453.43	852.00
453.80	836.33
454.17	820.00
454.54	805.14
454.91	789.52
455.28	773.24
455.65	759.05
456.02	749.48
456.38	736.48
456.75	721.71
457.12	708.90
457.49	696.10
457.86	682.05
458.23	673.05
458.59	663.05
458.96	651.81
459.33	641.19
459.70	631.90
460.07	623.62
460.43	614.29
460.80	605.90
461.17	597.57
461.54	589.33
461.91	582.48
462.27	575.05
462.64	568.48
463.01	561.67
463.38	555.86
463.74	544.62
464.11	539.00
464.48	533.48
464.85	528.10
465.21	525.10
465.58	520.81
465.95	514.57
466.32	509.19
466.68	504.19
467.05	499.48
467.42	495.10
467.78	489.95
468.15	485.48
468.52	482.76
468.88	478.33
469.25	474.24
469.62	471.71
469.98	467.81
470.35	464.95
470.72	461.62
471.08	457.29
471.45	455.19
471.82	452.76
472.18	449.24
472.55	446.90
472.92	442.90
473.28	439.71
473.65	437.05
474.02	434.76
474.38	433.29
474.75	431.67
475.11	429.52
475.48	428.10
475.85	426.81
476.21	424.57
476.58	423.95
476.94	422.67
477.31	420.81
477.67	419.95
478.04	418.95
478.41	418.57
478.77	420.76
479.14	419.33
479.50	418.57
479.87	418.29
480.23	417.95
480.60	417.52
480.96	417.67
481.33	419.24
481.69	419.90
482.06	420.52
482.42	421.67
482.79	422.57
483.15	423.67
483.52	424.48
483.88	425.29
484.25	425.90
484.61	427.38
484.98	428.24
485.34	430.29
485.71	431.57
486.07	432.52
486.44	431.38
486.80	432.67
487.17	434.19
487.53	437.14
487.90	439.33
488.26	442.57
488.62	444.90
488.99	445.57
489.35	447.48
489.72	449.19
490.08	450.76
490.44	452.29
490.81	454.57
491.17	456.33
491.54	458.90
491.90	461.86
492.26	464.43
492.63	466.52
492.99	468.14
493.36	471.05
493.72	474.67
494.08	477.57
494.45	480.76
494.81	484.00
495.17	486.00
495.54	489.38
495.90	491.86
496.26	495.24
496.63	499.29
496.99	502.52
497.35	506.57
497.72	510.62
498.08	514.43
498.44	518.48
498.80	523.33
499.17	527.76
499.53	531.67
499.89	535.48
500.26	540.67
500.62	545.24
500.98	550.43
501.34	555.10
501.71	560.57
502.07	565.38
502.43	570.52
502.79	575.86
503.16	579.95
503.52	585.24
503.88	589.62
504.24	594.62
504.60	600.10
504.97	605.38
505.33	609.86
505.69	617.00
506.05	622.33
506.41	626.90
506.78	631.48
507.14	636.86
507.50	642.90
507.86	648.76
508.22	654.48
508.59	659.10
508.95	664.10
509.31	670.29
509.67	676.52
510.03	681.24
510.39	686.52
510.75	692.67
511.12	697.71
511.48	702.86
511.84	707.33
512.20	711.90
512.56	716.81
512.92	722.43
513.28	726.62
513.64	730.62
514.00	735.57
514.37	740.90
514.73	745.71
515.09	751.38
515.45	754.90
515.81	758.95
516.17	762.86
516.53	766.76
516.89	769.00
517.25	772.43
517.61	776.81
517.97	781.05
518.33	784.95
518.69	788.76
519.05	793.05
519.41	797.00
519.77	801.90
520.13	805.29
520.49	807.10
520.85	810.00
521.21	814.10
521.57	817.24
521.93	819.95
522.29	822.62
522.65	823.95
523.01	825.95
523.37	827.14
523.73	830.62
524.09	833.81
524.45	836.00
524.81	838.57
525.17	840.52
525.53	841.62
525.89	842.76
526.25	844.95
526.61	846.19
526.97	847.90
527.33	849.00
527.68	852.19
528.04	855.29
528.40	856.52
528.76	858.14
529.12	860.05
529.48	861.19
529.84	862.00
530.20	863.29
530.56	865.62
530.91	868.33
531.27	868.67
531.63	869.76
531.99	870.62
532.35	871.14
532.71	872.43
533.07	874.33
533.42	878.71
533.78	879.10
534.14	880.29
534.50	881.24
534.86	882.86
535.21	882.90
535.57	884.19
535.93	884.52
536.29	886.90
536.65	888.71
537.00	890.38
537.36	892.24
537.72	894.19
538.08	896.95
538.44	898.67
538.79	901.19
539.15	902.76
539.51	905.90
539.87	907.48
540.22	909.48
540.58	912.05
540.94	912.14
541.29	915.38
541.65	917.10
542.01	919.76
542.37	920.62
542.72	920.81
543.08	920.67
543.44	921.90
543.79	920.24
544.15	919.76
544.51	919.62
544.87	918.33
545.22	917.33
545.58	915.00
545.94	912.76
546.29	910.90
546.65	908.19
547.01	905.10
547.36	903.29
547.72	901.10
548.07	897.38
548.43	893.33
548.79	889.05
549.14	885.33
549.50	881.86
549.86	878.38
550.21	875.67
550.57	873.00
550.92	869.86
551.28	868.19
551.64	865.24
551.99	863.57
552.35	861.95
552.70	858.86
553.06	857.38
553.41	855.57
553.77	854.57
554.13	854.05
554.48	852.71
554.84	850.71
555.19	848.33
555.55	848.71
555.90	847.38
556.26	845.71
556.61	845.00
556.97	842.81
557.32	840.90
557.68	839.90
558.03	838.90
558.39	837.67
558.74	835.52
559.10	833.86
559.45	831.43
559.81	829.38
560.16	828.05
560.52	825.62
560.87	824.52
561.23	821.86
561.58	821.05
561.94	818.95
562.29	817.29
562.64	815.71
563.00	811.76
563.35	810.10
563.71	808.76
564.06	806.71
564.42	804.76
564.77	803.67
565.12	801.81
565.48	801.43
565.83	799.33
566.19	797.43
566.54	795.67
566.89	793.62
567.25	793.05
567.60	792.95
567.96	793.95
568.31	793.86
568.66	793.29
569.02	790.19
569.37	788.86
569.72	787.67
570.08	786.43
570.43	785.19
570.78	783.67
571.14	782.10
571.49	780.38
571.84	779.33
572.20	777.81
572.55	777.19
572.90	774.24
573.26	773.95
573.61	772.52
573.96	771.90
574.31	771.38
574.67	769.90
575.02	767.90
575.37	764.24
575.72	761.62
576.08	759.76
576.43	759.19
576.78	757.86
577.13	756.29
577.49	754.90
577.84	753.67
578.19	752.10
578.54	751.38
578.90	750.14
579.25	749.48
579.60	749.14
579.95	746.62
580.30	745.62
580.66	743.76
581.01	742.62
581.36	740.43
581.71	738.38
582.06	737.62
582.42	735.76
582.77	734.24
583.12	733.76
583.47	731.48
583.82	728.95
584.17	727.62
584.53	727.38
584.88	724.95
585.23	724.10
585.58	721.71
585.93	718.43
586.28	716.19
586.63	713.71
586.98	710.95
587.34	709.33
587.69	707.24
588.04	704.86
588.39	702.19
588.74	699.76
589.09	697.81
589.44	693.81
589.79	691.38
590.14	688.57
590.49	684.38
590.84	681.48
591.19	678.76
591.54	676.24
591.89	671.57
592.25	671.00
592.60	666.90
592.95	664.52
593.30	661.90
593.65	659.62
594.00	656.43
594.35	660.48
594.70	656.38
595.05	653.29
595.40	650.00
595.75	647.48
596.10	645.48
596.45	643.10
596.80	640.62
597.15	637.81
597.50	634.57
597.85	633.14
598.19	630.71
598.54	628.10
598.89	625.29
599.24	623.10
599.59	618.90
599.94	615.76
600.29	613.29
600.64	611.33
600.99	609.76
601.34	607.38
601.69	597.90
602.04	595.81
602.39	593.38
602.74	592.10
603.08	589.86
603.43	588.29
603.78	585.62
604.13	584.05
604.48	582.57
604.83	581.90
605.18	580.10
605.53	580.57
605.87	582.00
606.22	585.48
606.57	590.10
606.92	595.29
607.27	601.67
607.62	607.24
607.96	613.00
608.31	617.05
608.66	621.10
609.01	624.95
609.36	629.48
609.70	633.10
610.05	635.05
610.40	638.05
610.75	639.10
611.10	641.57
611.44	642.24
611.79	642.14
612.14	642.52
612.49	641.95
612.83	640.00
613.18	636.24
613.53	630.14
613.88	623.14
614.22	614.76
614.57	605.76
614.92	597.43
615.27	588.95
615.61	581.14
615.96	574.14
616.31	567.24
616.65	560.38
617.00	554.05
617.35	548.24
617.70	541.90
618.04	536.57
618.39	530.57
618.74	526.19
619.08	522.29
619.43	518.48
619.78	514.33
620.12	510.90
620.47	508.43
620.82	505.48
621.16	502.52
621.51	501.52
621.85	499.19
622.20	497.38
622.55	494.86
622.89	492.48
623.24	490.86
623.59	488.43
623.93	486.33
624.28	484.33
624.62	485.14
624.97	485.00
625.32	483.00
625.66	481.10
626.01	478.95
626.35	477.71
626.70	476.00
627.04	475.05
627.39	472.52
627.73	471.19
628.08	469.00
628.43	467.10
628.77	464.10
629.12	462.57
629.46	460.19
629.81	458.62
630.15	456.24
630.50	453.10
630.84	451.14
631.19	448.81
631.53	446.33
631.88	441.38
632.22	437.43
632.57	435.81
632.91	433.24
633.26	431.52
633.60	428.10
633.95	424.86
634.29	421.67
634.64	419.57
634.98	416.81
635.32	415.81
635.67	414.48
636.01	412.48
636.36	410.33
636.70	408.57
637.05	405.57
637.39	404.00
637.73	403.14
638.08	402.14
638.42	400.38
638.77	398.95
639.11	397.48
639.45	396.05
639.80	394.00
640.14	393.00
640.49	390.95
640.83	389.95
641.17	389.14
641.52	387.52
641.86	386.81
642.20	386.38
642.55	384.29
642.89	382.43
643.23	381.05
643.58	381.00
643.92	379.24
644.26	378.57
644.61	378.24
644.95	377.19
645.29	375.10
645.64	374.52
645.98	373.48
646.32	373.33
646.66	372.14
647.01	371.29
647.35	370.71
647.69	370.38
648.04	369.90
648.38	368.86
648.72	368.52
649.06	366.95
649.41	365.24
649.75	363.90
650.09	363.19
650.43	362.24
650.78	360.43
651.12	359.62
651.46	358.71
651.80	357.29
652.14	355.48
652.49	355.71
652.83	354.67
653.17	353.62
653.51	351.62
653.85	350.71
654.20	349.81
654.54	348.29
654.88	346.33
655.22	344.81
655.56	343.48
655.90	342.52
656.25	341.76
656.59	340.57
656.93	340.33
657.27	339.81
657.61	338.38
657.95	337.90
658.29	337.33
658.64	337.62
658.98	336.33
659.32	335.86
659.66	334.90
660.00	333.86
660.34	333.14
660.68	332.52
661.02	332.14
661.36	331.29
661.70	330.71
662.05	330.57
662.39	330.67
662.73	331.00
663.07	331.43
663.41	331.14
663.75	330.57
664.09	330.14
664.43	329.38
664.77	329.10
665.11	327.62
665.45	327.00
665.79	326.05
666.13	325.71
666.47	324.81
666.81	323.52
667.15	322.76
667.49	322.52
667.83	322.90
668.17	321.86
668.51	321.24
668.85	320.43
669.19	320.76
669.53	319.19
669.87	317.90
670.21	316.14
670.55	315.67
670.89	316.24
671.23	315.43
671.57	314.86
671.91	314.57
672.25	314.38
672.58	314.57
672.92	313.48
673.26	313.33
673.60	313.33
673.94	313.19
674.28	313.10
674.62	312.43
674.96	311.33
675.30	311.05
675.64	310.43
675.97	309.95
676.31	308.81
676.65	308.33
676.99	308.24
677.33	307.67
677.67	306.71
678.01	304.90
678.34	304.05
678.68	303.52
679.02	302.43
679.36	301.62
679.70	300.33
680.04	299.81
680.37	298.76
680.71	297.48
681.05	296.95
681.39	296.33
681.73	295.57
682.06	294.76
682.40	294.24
682.74	293.95
683.08	294.52
683.42	294.43
683.75	294.76
684.09	294.14
684.43	294.19
684.77	293.76
685.10	293.52
685.44	293.38
685.78	293.19
686.12	293.48
686.45	293.33
686.79	292.95
687.13	292.90
687.46	292.62
687.80	293.29
688.14	292.71
688.48	292.62
688.81	292.52
689.15	292.86
689.49	292.29
689.82	292.29
690.16	291.00
690.50	290.33
690.83	289.10
691.17	288.10
691.51	287.57
691.84	287.33
692.18	287.05
692.52	286.33
692.85	285.67
693.19	286.10
693.52	285.62
693.86	285.33
694.20	284.76
694.53	284.67
694.87	283.90
695.21	283.29
695.54	282.67
695.88	281.57
696.21	280.19
696.55	279.71
696.88	278.95
697.22	278.14
697.56	277.81
697.89	277.57
698.23	277.67
698.56	277.05
698.90	276.95
699.23	276.24
699.57	276.62
699.90	276.29
700.24	275.05
700.58	275.05
700.91	275.00
701.25	276.67
701.58	277.43
701.92	278.05
702.25	278.76
702.59	279.10
702.92	280.19
703.26	281.14
703.59	281.90
703.93	284.62
704.26	285.76
704.60	286.76
704.93	287.43
705.26	287.48
705.60	287.90
705.93	287.81
706.27	289.14
706.60	289.57
706.94	291.00
707.27	291.19
707.61	291.62
707.94	291.71
708.27	290.10
708.61	289.14
708.94	288.81
709.28	288.05
709.61	287.05
709.94	286.38
710.28	285.95
710.61	285.05
710.95	282.38
711.28	283.10
711.61	281.62
711.95	281.14
712.28	280.19
712.61	279.62
712.95	280.33
713.28	280.52
713.61	279.24
713.95	277.33
714.28	276.62
714.61	275.24
714.95	274.29
715.28	273.43
715.61	272.62
715.95	272.14
716.28	271.29
716.61	271.19
716.95	270.33
717.28	269.33
717.61	269.24
717.94	268.52
718.28	266.38
718.61	265.90
718.94	265.14
719.27	264.81
719.61	264.52
719.94	263.43
720.27	261.67
720.60	261.24
720.94	260.86
721.27	260.48
721.60	260.76
721.93	260.52
722.27	260.90
722.60	261.14
722.93	260.43
723.26	260.52
723.59	260.29
723.93	260.48
724.26	260.67
724.59	260.24
724.92	259.95
725.25	260.24
725.59	260.29
725.92	260.57
726.25	260.76
726.58	260.48
726.91	259.95
727.24	260.10
727.57	260.00
727.91	259.57
728.24	260.00
728.57	259.48
728.90	259.62
729.23	258.71
729.56	259.33
729.89	259.52
730.22	259.00
730.55	258.67
730.89	258.52
731.22	258.29
731.55	258.05
731.88	258.24
732.21	257.71
732.54	257.19
732.87	257.00
733.20	257.00
733.53	256.90
733.86	257.33
734.19	256.76
734.52	257.24
734.85	259.10
735.18	258.52
735.51	259.52
735.84	259.62
736.17	260.67
736.50	259.48
736.83	261.67
737.16	262.00
737.49	262.00
737.82	261.57
738.15	261.86
738.48	261.86
738.81	261.52
739.14	261.38
739.47	261.00
739.80	260.86
740.13	260.62
740.46	260.43
740.79	259.95
741.12	259.86
741.45	259.38
741.78	257.90
742.11	258.62
742.44	257.81
742.77	257.90
743.10	257.29
743.43	257.24
743.75	255.00
744.08	257.81
744.41	257.43
744.74	257.29
745.07	256.62
745.40	256.95
745.73	258.05
746.06	258.19
746.39	259.05
746.71	258.43
747.04	258.00
747.37	257.95
747.70	258.14
748.03	258.48
748.36	258.43
748.68	258.14
749.01	257.10
749.34	256.81
749.67	256.67
750.00	256.48
750.33	258.19
750.65	258.33
750.98	255.24
751.31	255.48
751.64	255.67
751.97	256.90
752.29	256.10
752.62	254.76
752.95	254.67
753.28	254.24
753.60	254.24
753.93	255.05
754.26	255.19
754.59	254.43
754.91	254.05
755.24	253.76
755.57	253.86
755.90	253.67
756.22	253.62
756.55	253.05
756.88	252.43
757.20	250.57
757.53	249.95
757.86	250.05
758.19	250.19
758.51	249.95
758.84	248.86
759.17	249.05
759.49	249.48
759.82	250.62
760.15	250.52
760.47	250.90
760.80	250.10
761.13	250.33
761.45	249.81
761.78	249.48
762.11	249.67
762.43	249.24
762.76	249.57
763.08	250.05
763.41	250.05
763.74	250.38
764.06	250.19
764.39	249.95
764.71	249.57
765.04	249.24
765.37	248.90
765.69	248.95
766.02	248.67
766.34	248.29
766.67	246.81
767.00	247.48
767.32	248.62
767.65	250.10
767.97	249.57
768.30	250.00
768.62	250.33
768.95	250.05
769.27	249.71
769.60	249.76
769.92	249.10
770.25	248.76
770.57	248.19
770.90	248.38
771.22	248.19
771.55	248.48
771.87	248.62
772.20	248.76
772.52	250.62
772.85	253.71
773.17	253.76
773.50	253.76
773.82	253.00
774.15	251.33
774.47	249.71
774.80	249.52
775.12	249.57
775.45	249.05
775.77	249.33
776.09	250.05
776.42	250.00
776.74	250.76
777.07	250.67
777.39	250.81
777.72	250.52
778.04	250.71
778.36	250.24
778.69	250.05
779.01	249.95
779.33	247.52
779.66	244.71
779.98	244.33
780.31	244.24
780.63	245.33
780.95	245.76
781.28	245.81
781.60	245.62
781.92	245.43
782.25	245.71
782.57	245.38
782.89	244.81
783.22	244.43
783.54	244.05
783.86	244.14
784.19	244.14
784.51	245.00
784.83	244.43
785.16	244.52
785.48	244.86
785.80	244.76
786.12	245.19
786.45	245.14
786.77	245.19
787.09	245.14
787.42	244.29
787.74	244.29
788.06	244.38
788.38	244.38
788.71	244.48
789.03	244.52
789.35	245.05
789.67	244.90
789.99	245.52
790.32	245.05
790.64	245.24
790.96	247.10
791.28	246.00
791.61	246.14
791.93	246.24
792.25	245.86
792.57	247.81
792.89	247.33
793.21	247.76
793.54	247.57
793.86	247.29
