SpectraSuite Data File
++++++++++++++++++++++++++++++++++++
Date: Wed Nov 07 18:31:29 EST 2012
User: group
Dark Spectrum Present: No
Reference Spectrum Present: No
Number of Sampled Component Spectra: 1
Spectrometers: USB2E7196
Integration Time (usec): 1000000 (USB2E7196)
Spectra Averaged: 1 (USB2E7196)
Boxcar Smoothing: 10 (USB2E7196)
Correct for Electrical Dark: No (USB2E7196)
Strobe/Lamp Enabled: No (USB2E7196)
Correct for Detector Non-linearity: No (USB2E7196)
Correct for Stray Light: No (USB2E7196)
Number of Pixels in Processed Spectrum: 2048
>>>>>Begin Processed Spectral Data<<<<<
339.09	0.00
339.48	217.00
339.86	224.00
340.24	219.00
340.63	223.00
341.01	263.00
341.39	229.00
341.78	230.00
342.16	243.00
342.54	230.00
342.93	222.81
343.31	233.71
343.69	234.43
344.07	234.71
344.46	235.57
344.84	236.10
345.22	234.52
345.60	234.86
345.99	235.38
346.37	234.76
346.75	234.62
347.13	234.38
347.52	234.57
347.90	235.33
348.28	235.14
348.66	235.67
349.05	234.90
349.43	235.86
349.81	236.24
350.19	235.95
350.57	235.67
350.96	235.76
351.34	236.19
351.72	236.29
352.10	236.38
352.48	236.33
352.87	236.33
353.25	236.48
353.63	236.14
354.01	235.86
354.39	236.24
354.77	236.62
355.15	237.33
355.54	237.19
355.92	236.67
356.30	236.57
356.68	238.00
357.06	238.14
357.44	237.33
357.82	237.19
358.20	237.71
358.58	237.86
358.97	237.95
359.35	238.52
359.73	238.81
360.11	238.95
360.49	239.05
360.87	239.19
361.25	239.57
361.63	240.48
362.01	241.00
362.39	240.95
362.77	241.38
363.15	241.29
363.53	241.67
363.91	241.81
364.29	241.90
364.67	239.57
365.05	239.67
365.43	240.05
365.81	240.38
366.19	241.33
366.57	242.62
366.95	242.38
367.33	241.76
367.71	242.05
368.09	242.48
368.47	242.48
368.85	242.57
369.23	242.67
369.61	241.90
369.99	242.19
370.37	242.57
370.75	243.48
371.13	242.81
371.51	242.05
371.89	242.71
372.27	242.95
372.65	243.62
373.03	243.62
373.41	243.62
373.78	243.57
374.16	242.33
374.54	240.90
374.92	241.10
375.30	241.14
375.68	240.57
376.06	240.76
376.44	240.52
376.82	240.38
377.19	240.38
377.57	240.43
377.95	239.95
378.33	239.52
378.71	237.90
379.09	238.43
379.47	238.81
379.84	238.33
380.22	237.90
380.60	237.43
380.98	237.14
381.36	236.95
381.73	236.62
382.11	237.24
382.49	237.71
382.87	237.48
383.25	237.48
383.62	240.33
384.00	239.71
384.38	240.05
384.76	240.76
385.13	241.90
385.51	241.95
385.89	241.71
386.27	242.00
386.64	242.71
387.02	242.67
387.40	242.48
387.78	242.71
388.15	243.05
388.53	242.52
388.91	242.86
389.29	242.76
389.66	243.29
390.04	242.67
390.42	243.14
390.79	243.24
391.17	243.14
391.55	240.14
391.92	240.24
392.30	240.57
392.68	239.67
393.05	239.43
393.43	239.48
393.81	239.52
394.18	238.95
394.56	238.86
394.94	239.10
395.31	238.76
395.69	239.29
396.06	239.71
396.44	240.29
396.82	239.71
397.19	241.10
397.57	240.33
397.95	241.10
398.32	240.10
398.70	240.43
399.07	241.05
399.45	241.24
399.82	241.24
400.20	240.81
400.58	241.29
400.95	240.38
401.33	241.10
401.70	242.62
402.08	243.05
402.45	243.14
402.83	243.95
403.20	244.81
403.58	244.29
403.95	244.71
404.33	245.00
404.71	245.81
405.08	247.24
405.46	248.00
405.83	248.33
406.21	248.86
406.58	249.10
406.96	249.48
407.33	250.62
407.70	251.29
408.08	253.86
408.45	254.71
408.83	255.90
409.20	256.29
409.58	256.00
409.95	257.19
410.33	258.05
410.70	258.10
411.08	259.52
411.45	260.95
411.82	261.81
412.20	263.57
412.57	266.00
412.95	265.14
413.32	267.10
413.69	268.19
414.07	269.95
414.44	271.71
414.82	273.62
415.19	275.86
415.56	278.43
415.94	279.00
416.31	281.81
416.68	284.48
417.06	287.86
417.43	291.76
417.81	295.29
418.18	299.29
418.55	303.05
418.93	307.05
419.30	311.67
419.67	316.19
420.04	320.90
420.42	325.29
420.79	333.29
421.16	339.14
421.54	346.57
421.91	352.90
422.28	359.71
422.66	366.43
423.03	375.14
423.40	381.90
423.77	389.52
424.15	396.43
424.52	404.48
424.89	413.24
425.26	420.52
425.64	428.24
426.01	436.05
426.38	445.29
426.75	454.38
427.13	463.62
427.50	473.57
427.87	483.14
428.24	492.52
428.61	499.48
428.99	510.95
429.36	521.10
429.73	532.24
430.10	543.71
430.47	555.76
430.85	566.43
431.22	580.29
431.59	597.19
431.96	610.90
432.33	625.71
432.70	639.71
433.08	656.76
433.45	672.52
433.82	688.52
434.19	705.10
434.56	721.29
434.93	736.33
435.30	751.95
435.68	769.90
436.05	787.29
436.42	804.14
436.79	819.24
437.16	836.19
437.53	853.05
437.90	869.33
438.27	885.86
438.64	902.81
439.01	917.71
439.38	928.81
439.75	941.67
440.13	955.38
440.50	968.86
440.87	979.81
441.24	990.62
441.61	1004.10
441.98	1012.90
442.35	1023.67
442.72	1035.05
443.09	1046.57
443.46	1051.81
443.83	1055.00
444.20	1058.67
444.57	1062.05
444.94	1062.71
445.31	1065.19
445.68	1069.67
446.05	1069.90
446.42	1066.00
446.79	1063.14
447.16	1059.14
447.53	1056.90
447.90	1050.24
448.27	1042.10
448.64	1032.48
449.01	1025.62
449.37	1012.38
449.74	1001.00
450.11	989.71
450.48	974.33
450.85	957.33
451.22	943.57
451.59	932.05
451.96	919.86
452.33	905.19
452.70	891.19
453.07	873.29
453.43	853.86
453.80	837.43
454.17	822.14
454.54	806.90
454.91	790.95
455.28	774.38
455.65	759.00
456.02	750.14
456.38	736.52
456.75	721.24
457.12	708.33
457.49	696.10
457.86	681.52
458.23	672.10
458.59	661.48
458.96	651.00
459.33	640.48
459.70	630.48
460.07	622.33
460.43	612.81
460.80	605.71
461.17	597.76
461.54	590.19
461.91	582.67
462.27	575.48
462.64	568.81
463.01	563.24
463.38	558.38
463.74	547.00
464.11	541.81
464.48	536.67
464.85	530.90
465.21	527.24
465.58	523.48
465.95	517.62
466.32	512.71
466.68	507.90
467.05	503.62
467.42	499.48
467.78	494.19
468.15	490.38
468.52	486.86
468.88	482.43
469.25	476.86
469.62	473.86
469.98	470.14
470.35	467.33
470.72	463.67
471.08	458.71
471.45	456.19
471.82	453.67
472.18	451.24
472.55	449.38
472.92	445.86
473.28	442.76
473.65	440.05
474.02	437.76
474.38	436.00
474.75	433.67
475.11	431.52
475.48	430.48
475.85	429.00
476.21	427.24
476.58	426.29
476.94	426.19
477.31	424.71
477.67	423.81
478.04	422.90
478.41	422.19
478.77	424.29
479.14	422.62
479.50	422.29
479.87	421.95
480.23	421.95
480.60	421.67
480.96	421.90
481.33	423.38
481.69	424.10
482.06	424.95
482.42	426.38
482.79	427.57
483.15	428.14
483.52	430.33
483.88	431.52
484.25	432.81
484.61	433.86
484.98	435.33
485.34	437.71
485.71	440.24
486.07	442.10
486.44	442.19
486.80	444.43
487.17	446.33
487.53	448.43
487.90	450.14
488.26	453.48
488.62	455.76
488.99	456.86
489.35	459.14
489.72	460.19
490.08	461.81
490.44	463.19
490.81	465.90
491.17	466.62
491.54	468.86
491.90	471.05
492.26	473.86
492.63	476.43
492.99	477.90
493.36	479.76
493.72	482.24
494.08	484.00
494.45	486.90
494.81	489.52
495.17	492.19
495.54	496.29
495.90	498.10
496.26	501.24
496.63	504.43
496.99	507.43
497.35	511.24
497.72	514.95
498.08	518.76
498.44	522.19
498.80	527.05
499.17	530.43
499.53	534.52
499.89	539.38
500.26	543.76
500.62	548.29
500.98	552.81
501.34	557.62
501.71	563.24
502.07	568.10
502.43	572.86
502.79	577.00
503.16	581.14
503.52	586.38
503.88	590.38
504.24	596.05
504.60	600.86
504.97	607.00
505.33	610.90
505.69	617.14
506.05	622.52
506.41	627.14
506.78	633.00
507.14	637.52
507.50	641.90
507.86	646.86
508.22	652.29
508.59	656.95
508.95	662.86
509.31	668.71
509.67	674.14
510.03	678.81
510.39	684.95
510.75	689.86
511.12	694.76
511.48	700.95
511.84	706.10
512.20	711.48
512.56	715.62
512.92	721.81
513.28	725.86
513.64	730.67
514.00	735.43
514.37	740.00
514.73	745.24
515.09	750.33
515.45	755.14
515.81	759.00
516.17	763.48
516.53	767.00
516.89	769.86
517.25	773.95
517.61	778.62
517.97	781.81
518.33	786.14
518.69	790.29
519.05	793.14
519.41	796.33
519.77	801.19
520.13	804.62
520.49	807.71
520.85	810.81
521.21	814.33
521.57	817.76
521.93	820.62
522.29	824.10
522.65	825.86
523.01	827.95
523.37	829.95
523.73	832.95
524.09	834.81
524.45	836.67
524.81	837.76
525.17	839.48
525.53	841.57
525.89	842.86
526.25	844.86
526.61	846.43
526.97	847.57
527.33	848.33
527.68	851.67
528.04	852.86
528.40	853.90
528.76	855.29
529.12	856.38
529.48	857.71
529.84	858.52
530.20	859.81
530.56	861.90
530.91	863.67
531.27	864.86
531.63	866.05
531.99	867.29
532.35	868.62
532.71	869.29
533.07	870.81
533.42	874.76
533.78	875.38
534.14	876.29
534.50	878.52
534.86	880.10
535.21	879.52
535.57	881.86
535.93	882.48
536.29	885.19
536.65	887.29
537.00	889.76
537.36	892.57
537.72	895.76
538.08	899.67
538.44	903.52
538.79	908.48
539.15	912.81
539.51	918.38
539.87	923.48
540.22	928.48
540.58	933.24
540.94	936.43
541.29	941.76
541.65	947.29
542.01	951.95
542.37	956.24
542.72	959.86
543.08	961.10
543.44	964.29
543.79	963.86
544.15	965.00
544.51	965.00
544.87	964.38
545.22	963.33
545.58	959.67
545.94	956.81
546.29	952.33
546.65	948.24
547.01	942.95
547.36	937.86
547.72	932.57
548.07	927.95
548.43	922.00
548.79	916.29
549.14	910.38
549.50	904.00
549.86	897.00
550.21	892.62
550.57	888.48
550.92	883.24
551.28	879.86
551.64	875.62
551.99	872.19
552.35	868.29
552.70	864.76
553.06	862.14
553.41	859.43
553.77	857.95
554.13	856.05
554.48	853.81
554.84	852.48
555.19	850.43
555.55	849.81
555.90	847.14
556.26	844.19
556.61	841.48
556.97	838.90
557.32	837.43
557.68	834.67
558.03	832.57
558.39	831.71
558.74	829.00
559.10	826.67
559.45	824.10
559.81	822.10
560.16	819.95
560.52	818.24
560.87	816.24
561.23	813.52
561.58	813.48
561.94	811.19
562.29	809.14
562.64	807.95
563.00	803.33
563.35	802.19
563.71	801.43
564.06	799.48
564.42	797.33
564.77	795.24
565.12	794.24
565.48	796.24
565.83	794.95
566.19	793.57
566.54	792.48
566.89	791.05
567.25	791.52
567.60	791.81
567.96	793.24
568.31	794.00
568.66	793.62
569.02	789.52
569.37	788.38
569.72	786.76
570.08	785.52
570.43	784.52
570.78	783.48
571.14	781.95
571.49	781.57
571.84	781.24
572.20	780.67
572.55	779.67
572.90	776.10
573.26	774.81
573.61	774.19
573.96	773.38
574.31	773.71
574.67	771.38
575.02	769.38
575.37	765.76
575.72	763.10
576.08	761.33
576.43	761.10
576.78	761.00
577.13	760.00
577.49	758.71
577.84	758.67
578.19	757.76
578.54	758.24
578.90	757.48
579.25	756.57
579.60	756.38
579.95	754.62
580.30	753.24
580.66	752.86
581.01	751.62
581.36	750.48
581.71	748.29
582.06	748.33
582.42	747.67
582.77	746.38
583.12	745.71
583.47	744.57
583.82	743.57
584.17	742.33
584.53	742.67
584.88	741.43
585.23	740.62
585.58	738.33
585.93	735.14
586.28	733.29
586.63	731.14
586.98	728.24
587.34	726.62
587.69	723.81
588.04	720.38
588.39	718.71
588.74	715.95
589.09	714.76
589.44	710.76
589.79	707.05
590.14	703.81
590.49	699.33
590.84	695.86
591.19	693.29
591.54	690.00
591.89	684.43
592.25	683.19
592.60	678.19
592.95	675.14
593.30	672.71
593.65	669.62
594.00	666.33
594.35	669.76
594.70	665.81
595.05	662.81
595.40	660.19
595.75	656.57
596.10	653.81
596.45	649.38
596.80	646.81
597.15	644.24
597.50	641.43
597.85	640.33
598.19	637.52
598.54	633.48
598.89	629.76
599.24	628.00
599.59	623.57
599.94	621.62
600.29	618.57
600.64	615.38
600.99	613.95
601.34	611.52
601.69	602.52
602.04	599.95
602.39	597.71
602.74	595.29
603.08	592.67
603.43	591.19
603.78	589.19
604.13	586.81
604.48	585.00
604.83	584.33
605.18	583.00
605.53	584.67
605.87	587.52
606.22	592.57
606.57	599.24
606.92	605.62
607.27	612.67
607.62	621.10
607.96	628.19
608.31	633.19
608.66	638.90
609.01	643.62
609.36	648.33
609.70	652.57
610.05	656.81
610.40	661.14
610.75	663.86
611.10	667.29
611.44	669.33
611.79	670.62
612.14	671.24
612.49	670.14
612.83	667.62
613.18	663.81
613.53	657.48
613.88	648.62
614.22	639.52
614.57	629.33
614.92	618.38
615.27	609.48
615.61	600.52
615.96	592.38
616.31	584.67
616.65	578.33
617.00	571.52
617.35	564.52
617.70	557.52
618.04	551.19
618.39	544.90
618.74	540.05
619.08	534.95
619.43	530.33
619.78	526.33
620.12	522.19
620.47	518.38
620.82	514.76
621.16	511.86
621.51	510.29
621.85	507.81
622.20	505.67
622.55	501.48
622.89	499.05
623.24	496.67
623.59	494.19
623.93	491.38
624.28	488.81
624.62	488.71
624.97	488.14
625.32	485.43
625.66	483.38
626.01	481.38
626.35	480.14
626.70	478.86
627.04	478.19
627.39	475.95
627.73	475.00
628.08	473.48
628.43	471.24
628.77	468.19
629.12	465.86
629.46	464.14
629.81	462.86
630.15	460.33
630.50	458.24
630.84	456.10
631.19	453.67
631.53	451.24
631.88	446.43
632.22	441.95
632.57	440.10
632.91	437.19
633.26	434.52
633.60	431.33
633.95	427.95
634.29	424.33
634.64	422.14
634.98	419.19
635.32	417.19
635.67	415.19
636.01	412.86
636.36	411.14
636.70	409.62
637.05	407.57
637.39	405.57
637.73	403.24
638.08	402.33
638.42	400.19
638.77	399.33
639.11	398.19
639.45	396.86
639.80	395.05
640.14	393.81
640.49	392.10
640.83	391.14
641.17	389.76
641.52	388.48
641.86	387.14
642.20	386.76
642.55	385.00
642.89	383.95
643.23	383.29
643.58	382.52
643.92	380.00
644.26	379.10
644.61	378.81
644.95	378.19
645.29	376.43
645.64	376.95
645.98	376.00
646.32	375.52
646.66	374.67
647.01	373.95
647.35	373.38
647.69	373.00
648.04	372.57
648.38	371.90
648.72	370.95
649.06	370.05
649.41	368.10
649.75	367.14
650.09	366.19
650.43	365.00
650.78	363.33
651.12	362.57
651.46	360.90
651.80	359.38
652.14	357.57
652.49	357.05
652.83	355.05
653.17	353.43
653.51	351.76
653.85	350.95
654.20	349.86
654.54	348.14
654.88	346.43
655.22	344.86
655.56	343.76
655.90	342.67
656.25	341.33
656.59	340.52
656.93	339.90
657.27	339.52
657.61	338.33
657.95	338.43
658.29	337.76
658.64	337.95
658.98	337.29
659.32	336.71
659.66	335.76
660.00	335.14
660.34	334.38
660.68	333.71
661.02	332.71
661.36	331.86
661.70	331.38
662.05	330.86
662.39	330.86
662.73	331.38
663.07	332.29
663.41	331.95
663.75	330.90
664.09	330.10
664.43	328.71
664.77	327.81
665.11	326.48
665.45	325.67
665.79	325.14
666.13	324.00
666.47	323.57
666.81	323.14
667.15	322.00
667.49	321.71
667.83	321.95
668.17	321.14
668.51	320.29
668.85	320.24
669.19	320.81
669.53	319.38
669.87	317.67
670.21	315.71
670.55	314.81
670.89	315.43
671.23	314.48
671.57	314.10
671.91	313.67
672.25	312.95
672.58	313.33
672.92	312.19
673.26	312.14
673.60	311.67
673.94	311.10
674.28	310.90
674.62	310.33
674.96	309.14
675.30	308.86
675.64	308.57
675.97	307.43
676.31	306.10
676.65	305.38
676.99	305.76
677.33	305.24
677.67	305.14
678.01	303.52
678.34	303.43
678.68	303.48
679.02	303.19
679.36	302.95
679.70	301.67
680.04	301.43
680.37	301.29
680.71	300.67
681.05	299.95
681.39	299.76
681.73	299.19
682.06	298.48
682.40	298.14
682.74	298.33
683.08	299.10
683.42	298.43
683.75	298.90
684.09	297.71
684.43	297.38
684.77	296.19
685.10	296.14
685.44	295.95
685.78	295.05
686.12	294.62
686.45	294.29
686.79	293.76
687.13	293.38
687.46	292.38
687.80	292.62
688.14	292.05
688.48	291.71
688.81	291.62
689.15	291.76
689.49	291.48
689.82	290.43
690.16	289.00
690.50	288.48
690.83	287.67
691.17	286.76
691.51	286.48
691.84	286.81
692.18	286.14
692.52	285.43
692.85	285.33
693.19	285.57
693.52	284.90
693.86	284.57
694.20	284.14
694.53	284.00
694.87	282.86
695.21	282.52
695.54	281.90
695.88	280.81
696.21	279.62
696.55	279.05
696.88	278.76
697.22	278.19
697.56	278.33
697.89	277.62
698.23	278.14
698.56	277.62
698.90	277.67
699.23	277.29
699.57	276.95
699.90	276.33
700.24	275.48
700.58	275.48
700.91	275.38
701.25	277.14
701.58	277.95
701.92	279.33
702.25	279.48
702.59	279.62
702.92	280.19
703.26	281.00
703.59	281.38
703.93	284.14
704.26	285.00
704.60	285.19
704.93	285.86
705.26	285.90
705.60	286.86
705.93	286.71
706.27	288.05
706.60	289.05
706.94	290.76
707.27	290.90
707.61	291.62
707.94	291.81
708.27	290.24
708.61	289.29
708.94	288.33
709.28	287.86
709.61	287.19
709.94	287.05
710.28	286.43
710.61	286.00
710.95	283.05
711.28	283.71
711.61	283.05
711.95	282.90
712.28	281.52
712.61	280.57
712.95	281.19
713.28	280.90
713.61	279.29
713.95	276.95
714.28	276.38
714.61	275.10
714.95	274.00
715.28	272.67
715.61	271.95
715.95	271.62
716.28	271.38
716.61	271.29
716.95	270.57
717.28	269.67
717.61	269.14
717.94	268.62
718.28	266.76
718.61	265.86
718.94	264.90
719.27	265.14
719.61	264.57
719.94	263.29
720.27	261.48
720.60	261.33
720.94	261.48
721.27	261.19
721.60	261.29
721.93	261.38
722.27	262.29
722.60	262.19
722.93	261.81
723.26	261.57
723.59	261.14
723.93	261.10
724.26	261.52
724.59	261.24
724.92	261.48
725.25	261.71
725.59	262.00
725.92	261.95
726.25	261.33
726.58	261.38
726.91	261.24
727.24	261.52
727.57	261.43
727.91	260.76
728.24	260.76
728.57	260.33
728.90	260.33
729.23	259.29
729.56	260.57
729.89	260.14
730.22	259.81
730.55	259.71
730.89	259.57
731.22	258.90
731.55	258.57
731.88	258.38
732.21	257.71
732.54	257.19
732.87	257.29
733.20	257.48
733.53	257.38
733.86	257.19
734.19	256.67
734.52	256.71
734.85	258.33
735.18	258.00
735.51	258.57
735.84	258.71
736.17	259.05
736.50	257.33
736.83	260.43
737.16	260.24
737.49	260.00
737.82	259.86
738.15	260.57
738.48	260.62
738.81	260.33
739.14	260.38
739.47	260.43
739.80	260.33
740.13	260.48
740.46	260.00
740.79	259.67
741.12	259.81
741.45	259.19
741.78	257.57
742.11	258.05
742.44	257.29
742.77	257.62
743.10	257.10
743.43	257.00
743.75	254.00
744.08	257.29
744.41	256.76
744.74	256.71
745.07	255.71
745.40	256.00
745.73	256.57
746.06	256.48
746.39	256.43
746.71	256.00
747.04	255.57
747.37	255.71
747.70	256.24
748.03	256.38
748.36	257.29
748.68	257.33
749.01	256.52
749.34	256.52
749.67	256.24
750.00	257.00
750.33	258.57
750.65	258.71
750.98	255.29
751.31	255.43
751.64	255.05
751.97	256.67
752.29	256.43
752.62	255.33
752.95	255.00
753.28	255.05
753.60	254.67
753.93	255.05
754.26	255.33
754.59	254.48
754.91	254.10
755.24	253.38
755.57	253.10
755.90	253.00
756.22	252.71
756.55	251.95
756.88	251.24
757.20	249.95
757.53	249.19
757.86	249.24
758.19	249.57
758.51	249.57
758.84	248.00
759.17	247.43
759.49	247.62
759.82	248.90
760.15	249.10
760.47	249.10
760.80	248.19
761.13	247.95
761.45	247.81
761.78	247.81
762.11	248.10
762.43	248.00
762.76	247.62
763.08	247.81
763.41	248.19
763.74	248.38
764.06	248.24
764.39	248.05
764.71	248.14
765.04	247.76
765.37	247.48
765.69	247.38
766.02	247.48
766.34	247.43
766.67	246.24
767.00	246.48
767.32	247.67
767.65	249.71
767.97	249.43
768.30	249.38
768.62	249.14
768.95	248.67
769.27	248.67
769.60	249.10
769.92	248.95
770.25	248.48
770.57	247.52
770.90	247.24
771.22	247.05
771.55	246.86
771.87	246.86
772.20	246.81
772.52	248.90
772.85	252.10
773.17	251.95
773.50	251.95
773.82	251.38
774.15	250.19
774.47	248.24
774.80	248.00
775.12	247.90
775.45	247.95
775.77	247.86
776.09	248.00
776.42	248.00
776.74	248.29
777.07	248.19
777.39	248.52
777.72	248.29
778.04	248.67
778.36	248.81
778.69	248.76
779.01	249.10
779.33	246.81
779.66	243.48
779.98	243.24
780.31	243.33
780.63	244.57
780.95	245.19
781.28	245.52
781.60	245.38
781.92	245.71
782.25	245.95
782.57	246.48
782.89	246.05
783.22	245.90
783.54	245.62
783.86	245.86
784.19	245.71
784.51	246.62
784.83	246.33
785.16	245.95
785.48	246.10
785.80	245.95
786.12	246.29
786.45	246.71
786.77	246.81
787.09	246.76
787.42	245.76
787.74	245.67
788.06	245.71
788.38	245.71
788.71	245.38
789.03	245.19
789.35	245.00
789.67	245.14
789.99	245.29
790.32	244.90
790.64	245.00
790.96	247.29
791.28	246.38
791.61	246.43
791.93	246.48
792.25	246.38
792.57	248.19
792.89	247.81
793.21	247.95
793.54	247.95
793.86	247.48
