SpectraSuite Data File
++++++++++++++++++++++++++++++++++++
Date: Wed Nov 07 18:33:36 EST 2012
User: group
Dark Spectrum Present: No
Reference Spectrum Present: No
Number of Sampled Component Spectra: 1
Spectrometers: USB2E7196
Integration Time (usec): 1000000 (USB2E7196)
Spectra Averaged: 1 (USB2E7196)
Boxcar Smoothing: 10 (USB2E7196)
Correct for Electrical Dark: No (USB2E7196)
Strobe/Lamp Enabled: No (USB2E7196)
Correct for Detector Non-linearity: No (USB2E7196)
Correct for Stray Light: No (USB2E7196)
Number of Pixels in Processed Spectrum: 2048
>>>>>Begin Processed Spectral Data<<<<<
339.09	0.00
339.48	219.00
339.86	215.00
340.24	222.00
340.63	223.00
341.01	266.00
341.39	224.00
341.78	225.00
342.16	240.00
342.54	228.00
342.93	221.24
343.31	232.57
343.69	233.05
344.07	233.67
344.46	234.29
344.84	234.95
345.22	233.19
345.60	233.62
345.99	233.95
346.37	233.48
346.75	233.71
347.13	234.10
347.52	234.43
347.90	235.19
348.28	235.10
348.66	235.76
349.05	234.95
349.43	235.24
349.81	235.62
350.19	235.81
350.57	235.67
350.96	236.10
351.34	236.00
351.72	236.24
352.10	236.67
352.48	236.67
352.87	236.43
353.25	236.52
353.63	236.19
354.01	236.43
354.39	236.57
354.77	236.81
355.15	237.48
355.54	237.38
355.92	236.71
356.30	236.71
356.68	238.14
357.06	238.19
357.44	237.76
357.82	238.00
358.20	238.10
358.58	238.14
358.97	238.29
359.35	238.95
359.73	239.52
360.11	239.52
360.49	239.67
360.87	239.81
361.25	240.29
361.63	241.38
362.01	241.62
362.39	241.43
362.77	241.48
363.15	241.62
363.53	241.24
363.91	241.24
364.29	241.62
364.67	239.71
365.05	240.00
365.43	240.76
365.81	240.86
366.19	242.10
366.57	243.24
366.95	243.29
367.33	242.52
367.71	242.62
368.09	243.10
368.47	243.24
368.85	243.19
369.23	244.05
369.61	243.43
369.99	243.90
370.37	244.67
370.75	246.05
371.13	245.43
371.51	245.62
371.89	246.10
372.27	246.38
372.65	246.38
373.03	246.43
373.41	246.19
373.78	245.90
374.16	244.62
374.54	243.86
374.92	243.52
375.30	243.76
375.68	243.14
376.06	243.05
376.44	242.76
376.82	243.14
377.19	242.95
377.57	243.00
377.95	242.29
378.33	242.10
378.71	240.48
379.09	240.86
379.47	241.38
379.84	241.19
380.22	240.71
380.60	240.33
380.98	240.00
381.36	239.76
381.73	239.52
382.11	240.10
382.49	240.10
382.87	239.95
383.25	239.67
383.62	242.29
384.00	241.81
384.38	242.10
384.76	242.33
385.13	242.86
385.51	242.71
385.89	242.67
386.27	242.86
386.64	243.67
387.02	243.43
387.40	243.05
387.78	243.05
388.15	243.29
388.53	243.14
388.91	243.33
389.29	243.24
389.66	243.57
390.04	243.05
390.42	243.14
390.79	243.33
391.17	243.43
391.55	240.95
391.92	241.10
392.30	241.29
392.68	240.81
393.05	240.57
393.43	240.71
393.81	241.00
394.18	240.57
394.56	240.19
394.94	240.86
395.31	240.67
395.69	241.71
396.06	242.00
396.44	242.38
396.82	242.19
397.19	243.57
397.57	243.57
397.95	244.33
398.32	244.05
398.70	244.29
399.07	245.00
399.45	244.81
399.82	244.90
400.20	244.57
400.58	244.62
400.95	243.81
401.33	244.52
401.70	246.00
402.08	246.43
402.45	246.71
402.83	247.00
403.20	247.05
403.58	246.48
403.95	246.95
404.33	247.52
404.71	247.95
405.08	249.24
405.46	249.38
405.83	249.33
406.21	249.38
406.58	250.19
406.96	250.33
407.33	251.19
407.70	251.62
408.08	254.24
408.45	255.10
408.83	256.05
409.20	256.19
409.58	255.62
409.95	256.86
410.33	257.67
410.70	258.00
411.08	259.38
411.45	260.33
411.82	260.81
412.20	262.38
412.57	265.10
412.95	264.14
413.32	266.14
413.69	267.76
414.07	269.71
414.44	271.19
414.82	273.38
415.19	275.76
415.56	278.38
415.94	279.57
416.31	282.81
416.68	285.43
417.06	289.14
417.43	292.76
417.81	296.00
418.18	299.90
418.55	303.67
418.93	307.71
419.30	312.38
419.67	317.05
420.04	321.43
420.42	325.62
420.79	333.71
421.16	339.48
421.54	346.86
421.91	353.14
422.28	359.52
422.66	366.19
423.03	374.71
423.40	381.43
423.77	388.76
424.15	395.29
424.52	403.05
424.89	411.33
425.26	419.14
425.64	426.62
426.01	434.86
426.38	443.19
426.75	452.76
427.13	461.76
427.50	471.76
427.87	482.14
428.24	491.90
428.61	499.95
428.99	511.00
429.36	520.57
429.73	532.19
430.10	544.19
430.47	556.19
430.85	566.71
431.22	579.76
431.59	594.71
431.96	607.33
432.33	622.14
432.70	636.10
433.08	652.86
433.45	668.43
433.82	683.43
434.19	700.19
434.56	716.52
434.93	731.52
435.30	746.81
435.68	763.19
436.05	779.86
436.42	796.00
436.79	811.29
437.16	827.76
437.53	844.95
437.90	861.52
438.27	878.76
438.64	895.81
439.01	911.71
439.38	924.10
439.75	938.14
440.13	953.52
440.50	967.76
440.87	979.19
441.24	990.62
441.61	1003.76
441.98	1013.86
442.35	1024.48
442.72	1036.43
443.09	1048.81
443.46	1054.71
443.83	1058.43
444.20	1061.71
444.57	1066.48
444.94	1068.05
445.31	1069.90
445.68	1074.38
446.05	1074.24
446.42	1070.95
446.79	1069.00
447.16	1065.38
447.53	1063.29
447.90	1054.81
448.27	1047.24
448.64	1036.52
449.01	1029.62
449.37	1018.05
449.74	1006.29
450.11	994.38
450.48	979.05
450.85	962.14
451.22	948.57
451.59	935.57
451.96	923.48
452.33	907.10
452.70	892.95
453.07	875.57
453.43	854.24
453.80	837.00
454.17	821.29
454.54	804.62
454.91	788.67
455.28	772.43
455.65	757.81
456.02	747.38
456.38	734.90
456.75	719.52
457.12	705.76
457.49	692.95
457.86	678.95
458.23	669.90
458.59	658.33
458.96	647.71
459.33	638.05
459.70	628.05
460.07	620.62
460.43	612.00
460.80	604.33
461.17	597.29
461.54	589.71
461.91	582.05
462.27	574.24
462.64	567.48
463.01	560.86
463.38	555.38
463.74	543.81
464.11	537.71
464.48	532.76
464.85	527.19
465.21	523.33
465.58	518.57
465.95	511.90
466.32	507.62
466.68	502.81
467.05	498.52
467.42	494.10
467.78	489.00
468.15	484.52
468.52	480.19
468.88	475.90
469.25	471.62
469.62	469.05
469.98	466.10
470.35	462.90
470.72	459.52
471.08	455.48
471.45	453.67
471.82	451.52
472.18	448.62
472.55	446.38
472.92	442.81
473.28	440.29
473.65	437.24
474.02	434.71
474.38	433.00
474.75	431.52
475.11	429.38
475.48	428.00
475.85	426.10
476.21	424.90
476.58	424.29
476.94	422.62
477.31	421.00
477.67	420.52
478.04	419.71
478.41	419.48
478.77	421.10
479.14	420.00
479.50	419.33
479.87	418.95
480.23	419.19
480.60	419.38
480.96	419.38
481.33	421.00
481.69	421.05
482.06	421.43
482.42	421.62
482.79	422.86
483.15	423.76
483.52	425.05
483.88	425.90
484.25	426.76
484.61	428.24
484.98	429.14
485.34	431.05
485.71	433.14
486.07	434.05
486.44	433.43
486.80	434.33
487.17	435.81
487.53	438.33
487.90	439.62
488.26	442.57
488.62	445.05
488.99	445.81
489.35	448.33
489.72	450.24
490.08	452.33
490.44	453.43
490.81	455.38
491.17	457.14
491.54	459.52
491.90	462.43
492.26	465.38
492.63	468.29
492.99	469.48
493.36	471.52
493.72	474.67
494.08	477.10
494.45	481.14
494.81	484.95
495.17	487.10
495.54	491.48
495.90	494.14
496.26	497.90
496.63	502.19
496.99	505.76
497.35	509.52
497.72	513.76
498.08	518.00
498.44	522.14
498.80	526.95
499.17	531.10
499.53	535.10
499.89	539.95
500.26	544.19
500.62	549.67
500.98	555.33
501.34	560.38
501.71	565.76
502.07	570.52
502.43	574.81
502.79	580.10
503.16	584.38
503.52	589.48
503.88	593.48
504.24	598.71
504.60	604.33
504.97	610.10
505.33	614.71
505.69	621.43
506.05	626.71
506.41	632.19
506.78	637.14
507.14	642.05
507.50	646.90
507.86	653.05
508.22	658.76
508.59	663.14
508.95	668.48
509.31	674.86
509.67	679.76
510.03	685.67
510.39	690.57
510.75	696.71
511.12	702.19
511.48	707.76
511.84	712.90
512.20	718.24
512.56	723.67
512.92	728.62
513.28	732.81
513.64	737.62
514.00	742.14
514.37	746.95
514.73	752.81
515.09	758.00
515.45	762.00
515.81	765.57
516.17	770.14
516.53	774.29
516.89	777.00
517.25	781.05
517.61	785.10
517.97	789.19
518.33	792.86
518.69	796.57
519.05	800.48
519.41	803.52
519.77	807.76
520.13	811.10
520.49	814.52
520.85	817.62
521.21	822.33
521.57	825.29
521.93	828.67
522.29	831.00
522.65	833.05
523.01	836.24
523.37	838.71
523.73	841.57
524.09	844.05
524.45	846.24
524.81	848.67
525.17	850.90
525.53	853.57
525.89	855.67
526.25	859.05
526.61	860.67
526.97	862.76
527.33	863.43
527.68	866.52
528.04	868.29
528.40	870.24
528.76	870.95
529.12	871.90
529.48	873.05
529.84	874.00
530.20	875.95
530.56	877.10
530.91	878.95
531.27	879.95
531.63	881.52
531.99	883.19
532.35	883.95
532.71	885.05
533.07	885.90
533.42	889.38
533.78	888.38
534.14	888.71
534.50	889.10
534.86	891.33
535.21	890.52
535.57	892.19
535.93	892.29
536.29	894.33
536.65	896.43
537.00	898.05
537.36	900.10
537.72	901.48
538.08	903.81
538.44	905.33
538.79	907.90
539.15	909.19
539.51	911.76
539.87	914.57
540.22	915.90
540.58	917.81
540.94	917.95
541.29	921.10
541.65	923.62
542.01	926.90
542.37	927.43
542.72	928.14
543.08	928.62
543.44	929.67
543.79	927.81
544.15	927.57
544.51	927.90
544.87	927.00
545.22	926.00
545.58	924.19
545.94	922.62
546.29	920.33
546.65	918.29
547.01	914.62
547.36	912.05
547.72	909.76
548.07	907.38
548.43	903.67
548.79	899.24
549.14	896.14
549.50	892.48
549.86	889.10
550.21	886.62
550.57	883.43
550.92	880.52
551.28	879.29
551.64	877.43
551.99	874.90
552.35	871.57
552.70	869.10
553.06	867.62
553.41	865.33
553.77	864.57
554.13	863.00
554.48	862.76
554.84	861.05
555.19	859.05
555.55	859.29
555.90	857.86
556.26	856.43
556.61	854.62
556.97	852.67
557.32	850.71
557.68	849.00
558.03	848.24
558.39	846.71
558.74	844.67
559.10	843.14
559.45	841.10
559.81	840.43
560.16	838.14
560.52	835.52
560.87	833.81
561.23	831.43
561.58	832.14
561.94	828.95
562.29	826.43
562.64	825.38
563.00	820.76
563.35	818.57
563.71	817.48
564.06	815.90
564.42	814.10
564.77	812.52
565.12	811.33
565.48	811.00
565.83	809.62
566.19	808.14
566.54	805.62
566.89	803.71
567.25	803.48
567.60	804.52
567.96	806.00
568.31	806.62
568.66	805.81
569.02	801.57
569.37	800.43
569.72	799.76
570.08	798.24
570.43	797.19
570.78	796.05
571.14	794.57
571.49	793.00
571.84	792.19
572.20	790.86
572.55	789.29
572.90	785.95
573.26	784.33
573.61	782.86
573.96	782.52
574.31	781.24
574.67	779.05
575.02	775.90
575.37	772.33
575.72	769.38
576.08	767.05
576.43	765.57
576.78	764.33
577.13	762.33
577.49	761.10
577.84	760.24
578.19	758.86
578.54	757.62
578.90	757.10
579.25	755.95
579.60	755.57
579.95	754.52
580.30	754.57
580.66	753.76
581.01	751.52
581.36	749.67
581.71	748.67
582.06	748.43
582.42	747.38
582.77	745.57
583.12	744.62
583.47	743.38
583.82	742.57
584.17	741.38
584.53	741.14
584.88	739.00
585.23	738.00
585.58	735.81
585.93	733.62
586.28	731.71
586.63	729.14
586.98	726.29
587.34	724.24
587.69	720.67
588.04	718.57
588.39	716.90
588.74	714.33
589.09	712.00
589.44	707.24
589.79	704.48
590.14	701.33
590.49	697.76
590.84	694.24
591.19	691.24
591.54	688.33
591.89	684.19
592.25	682.62
592.60	678.10
592.95	675.24
593.30	672.57
593.65	669.29
594.00	665.86
594.35	669.76
594.70	666.05
595.05	663.05
595.40	659.48
595.75	655.76
596.10	653.14
596.45	650.90
596.80	648.62
597.15	645.10
597.50	642.52
597.85	640.76
598.19	638.14
598.54	635.05
598.89	632.43
599.24	630.57
599.59	626.86
599.94	625.38
600.29	623.00
600.64	621.05
600.99	619.52
601.34	617.76
601.69	608.86
602.04	606.67
602.39	603.90
602.74	602.24
603.08	600.62
603.43	599.29
603.78	596.86
604.13	594.90
604.48	593.62
604.83	592.95
605.18	591.57
605.53	591.57
605.87	592.95
606.22	596.33
606.57	600.14
606.92	604.48
607.27	609.14
607.62	614.00
607.96	617.95
608.31	622.00
608.66	626.24
609.01	629.71
609.36	633.19
609.70	637.43
610.05	640.24
610.40	643.38
610.75	644.67
611.10	646.38
611.44	647.71
611.79	648.19
612.14	648.05
612.49	647.14
612.83	645.33
613.18	641.57
613.53	635.48
613.88	628.90
614.22	621.86
614.57	613.86
614.92	605.81
615.27	598.76
615.61	590.43
615.96	583.19
616.31	576.48
616.65	570.90
617.00	564.14
617.35	557.48
617.70	551.24
618.04	545.81
618.39	540.00
618.74	535.81
619.08	532.05
619.43	527.90
619.78	523.90
620.12	520.62
620.47	517.86
620.82	515.14
621.16	511.90
621.51	510.43
621.85	507.24
622.20	505.10
622.55	501.95
622.89	500.24
623.24	498.38
623.59	495.81
623.93	493.10
624.28	491.38
624.62	491.90
624.97	491.71
625.32	489.62
625.66	488.14
626.01	485.67
626.35	483.90
626.70	482.24
627.04	481.24
627.39	479.52
627.73	478.76
628.08	476.81
628.43	474.81
628.77	471.52
629.12	469.81
629.46	467.71
629.81	465.29
630.15	462.29
630.50	459.29
630.84	457.48
631.19	454.95
631.53	452.76
631.88	447.81
632.22	443.48
632.57	442.00
632.91	439.48
633.26	437.76
633.60	434.57
633.95	431.81
634.29	428.05
634.64	425.19
634.98	421.81
635.32	420.57
635.67	419.10
636.01	417.05
636.36	415.05
636.70	413.43
637.05	411.71
637.39	410.38
637.73	409.24
638.08	408.05
638.42	406.05
638.77	404.71
639.11	403.14
639.45	401.71
639.80	399.29
640.14	397.43
640.49	395.67
640.83	394.62
641.17	393.29
641.52	392.38
641.86	392.14
642.20	391.71
642.55	389.14
642.89	387.71
643.23	386.43
643.58	385.95
643.92	384.05
644.26	383.19
644.61	382.24
644.95	380.86
645.29	379.14
645.64	378.90
645.98	376.67
646.32	376.43
646.66	375.48
647.01	374.48
647.35	374.24
647.69	374.14
648.04	373.57
648.38	373.00
648.72	372.00
649.06	369.86
649.41	367.86
649.75	367.10
650.09	366.29
650.43	365.14
650.78	363.48
651.12	362.90
651.46	362.19
651.80	360.81
652.14	359.14
652.49	358.62
652.83	357.10
653.17	356.57
653.51	355.10
653.85	354.10
654.20	353.10
654.54	351.57
654.88	349.00
655.22	347.24
655.56	346.05
655.90	345.52
656.25	345.00
656.59	344.14
656.93	343.24
657.27	342.57
657.61	341.86
657.95	341.48
658.29	340.38
658.64	339.90
658.98	339.38
659.32	338.71
659.66	337.57
660.00	337.14
660.34	336.29
660.68	335.57
661.02	335.10
661.36	334.10
661.70	333.38
662.05	332.71
662.39	333.10
662.73	332.90
663.07	333.00
663.41	332.24
663.75	331.29
664.09	330.57
664.43	329.48
664.77	328.57
665.11	327.43
665.45	326.62
665.79	326.33
666.13	325.10
666.47	324.43
666.81	323.67
667.15	322.67
667.49	322.24
667.83	322.33
668.17	321.14
668.51	320.67
668.85	320.29
669.19	321.48
669.53	320.00
669.87	318.71
670.21	317.00
670.55	316.76
670.89	317.90
671.23	317.67
671.57	316.90
671.91	316.62
672.25	316.10
672.58	316.52
672.92	314.95
673.26	314.48
673.60	314.05
673.94	313.57
674.28	313.10
674.62	313.00
674.96	312.05
675.30	312.14
675.64	311.71
675.97	311.00
676.31	309.05
676.65	308.14
676.99	308.19
677.33	307.62
677.67	307.00
678.01	304.76
678.34	304.24
678.68	304.14
679.02	303.14
679.36	302.90
679.70	301.76
680.04	301.10
680.37	301.05
680.71	300.48
681.05	300.24
681.39	300.10
681.73	299.10
682.06	298.14
682.40	297.38
682.74	297.29
683.08	298.10
683.42	297.62
683.75	297.76
684.09	296.86
684.43	296.71
684.77	295.81
685.10	295.90
685.44	295.52
685.78	294.57
686.12	294.14
686.45	293.52
686.79	292.67
687.13	292.95
687.46	292.67
687.80	293.24
688.14	292.57
688.48	292.00
688.81	292.29
689.15	292.76
689.49	292.10
689.82	291.52
690.16	290.19
690.50	289.76
690.83	289.24
691.17	288.48
691.51	288.24
691.84	288.10
692.18	287.52
692.52	286.81
692.85	287.24
693.19	288.10
693.52	287.62
693.86	287.33
694.20	287.05
694.53	286.43
694.87	285.10
695.21	284.52
695.54	284.14
695.88	282.57
696.21	280.95
696.55	280.71
696.88	280.05
697.22	279.19
697.56	278.81
697.89	278.10
698.23	278.14
698.56	277.10
698.90	277.19
699.23	276.81
699.57	276.90
699.90	276.19
700.24	275.00
700.58	275.19
700.91	275.57
701.25	276.67
701.58	277.24
701.92	278.33
702.25	278.76
702.59	278.67
702.92	279.43
703.26	280.52
703.59	281.14
703.93	283.76
704.26	284.62
704.60	285.43
704.93	285.90
705.26	286.05
705.60	287.33
705.93	286.81
706.27	287.81
706.60	288.19
706.94	289.52
707.27	289.81
707.61	290.24
707.94	290.71
708.27	289.57
708.61	289.00
708.94	288.33
709.28	287.90
709.61	287.33
709.94	286.81
710.28	286.10
710.61	285.24
710.95	282.19
711.28	283.00
711.61	281.90
711.95	281.67
712.28	280.76
712.61	279.33
712.95	280.14
713.28	280.14
713.61	279.05
713.95	277.05
714.28	276.48
714.61	275.33
714.95	273.81
715.28	272.52
715.61	271.76
715.95	271.52
716.28	270.57
716.61	270.48
716.95	269.71
717.28	269.10
717.61	268.43
717.94	268.19
718.28	266.05
718.61	265.76
718.94	264.90
719.27	264.48
719.61	264.43
719.94	263.48
720.27	262.10
720.60	261.76
720.94	261.86
721.27	261.67
721.60	261.48
721.93	261.05
722.27	261.67
722.60	261.76
722.93	260.90
723.26	261.33
723.59	260.81
723.93	261.19
724.26	261.29
724.59	261.38
724.92	261.14
725.25	261.62
725.59	261.24
725.92	261.86
726.25	261.62
726.58	261.57
726.91	260.95
727.24	261.00
727.57	261.05
727.91	260.52
728.24	260.38
728.57	260.05
728.90	260.33
729.23	259.24
729.56	260.10
729.89	260.00
730.22	259.43
730.55	259.48
730.89	258.95
731.22	258.24
731.55	257.95
731.88	257.90
732.21	256.67
732.54	256.71
732.87	256.19
733.20	256.33
733.53	256.38
733.86	256.43
734.19	255.86
734.52	255.81
734.85	257.33
735.18	256.95
735.51	257.62
735.84	257.81
736.17	258.48
736.50	257.14
736.83	260.05
737.16	259.90
737.49	259.62
737.82	259.71
738.15	260.29
738.48	260.14
738.81	260.00
739.14	260.38
739.47	259.86
739.80	259.67
740.13	259.62
740.46	258.76
740.79	258.48
741.12	258.57
741.45	258.29
741.78	256.67
742.11	257.62
742.44	257.14
742.77	257.57
743.10	257.10
743.43	256.86
743.75	254.05
744.08	257.52
744.41	257.29
744.74	257.24
745.07	256.48
745.40	256.90
745.73	257.81
746.06	257.71
746.39	258.29
746.71	258.00
747.04	257.81
747.37	257.71
747.70	257.71
748.03	257.81
748.36	258.00
748.68	257.95
749.01	256.67
749.34	256.29
749.67	256.00
750.00	256.29
750.33	258.38
750.65	258.48
750.98	255.14
751.31	255.33
751.64	255.33
751.97	256.95
752.29	256.52
752.62	255.52
752.95	255.05
753.28	254.33
753.60	254.48
753.93	255.00
754.26	255.38
754.59	255.33
754.91	254.52
755.24	254.10
755.57	253.86
755.90	253.90
756.22	253.90
756.55	253.38
756.88	252.90
757.20	250.62
757.53	250.00
757.86	249.76
758.19	249.71
758.51	249.43
758.84	248.00
759.17	247.81
759.49	247.62
759.82	248.95
760.15	249.33
760.47	248.90
760.80	248.14
761.13	248.10
761.45	247.67
761.78	247.90
762.11	248.00
762.43	247.81
762.76	247.67
763.08	247.90
763.41	247.71
763.74	247.67
764.06	247.67
764.39	247.90
764.71	247.67
765.04	247.38
765.37	247.14
765.69	247.33
766.02	247.38
766.34	247.19
766.67	245.95
767.00	246.33
767.32	247.76
767.65	249.38
767.97	249.33
768.30	249.48
768.62	249.43
768.95	249.10
769.27	249.29
769.60	249.62
769.92	249.24
770.25	248.76
770.57	248.62
770.90	248.76
771.22	248.05
771.55	248.62
771.87	248.81
772.20	248.90
772.52	250.62
772.85	253.43
773.17	253.48
773.50	253.62
773.82	253.24
774.15	252.19
774.47	250.24
774.80	250.00
775.12	250.00
775.45	249.90
775.77	250.19
776.09	250.05
776.42	249.90
776.74	250.14
777.07	250.14
777.39	250.05
777.72	249.86
778.04	250.05
778.36	249.52
778.69	249.52
779.01	249.57
779.33	247.43
779.66	244.57
779.98	244.38
780.31	244.29
780.63	245.00
780.95	245.14
781.28	244.95
781.60	244.86
781.92	244.05
782.25	244.05
782.57	243.71
782.89	244.00
783.22	243.67
783.54	243.19
783.86	243.48
784.19	243.38
784.51	244.05
784.83	243.71
785.16	243.43
785.48	243.52
785.80	243.43
786.12	243.76
786.45	243.48
786.77	243.57
787.09	243.52
787.42	242.86
787.74	242.95
788.06	243.33
788.38	243.10
788.71	243.38
789.03	243.38
789.35	243.71
789.67	243.05
789.99	243.24
790.32	243.05
790.64	242.95
790.96	244.86
791.28	244.10
791.61	244.43
791.93	244.86
792.25	244.57
792.57	246.48
792.89	246.14
793.21	246.24
793.54	246.14
793.86	245.86
