SpectraSuite Data File
++++++++++++++++++++++++++++++++++++
Date: Wed Nov 07 18:32:48 EST 2012
User: group
Dark Spectrum Present: No
Reference Spectrum Present: No
Number of Sampled Component Spectra: 1
Spectrometers: USB2E7196
Integration Time (usec): 1000000 (USB2E7196)
Spectra Averaged: 1 (USB2E7196)
Boxcar Smoothing: 10 (USB2E7196)
Correct for Electrical Dark: No (USB2E7196)
Strobe/Lamp Enabled: No (USB2E7196)
Correct for Detector Non-linearity: No (USB2E7196)
Correct for Stray Light: No (USB2E7196)
Number of Pixels in Processed Spectrum: 2048
>>>>>Begin Processed Spectral Data<<<<<
339.09	0.00
339.48	220.00
339.86	219.00
340.24	225.00
340.63	222.00
341.01	264.00
341.39	232.00
341.78	234.00
342.16	235.00
342.54	233.00
342.93	224.19
343.31	235.38
343.69	236.00
344.07	236.71
344.46	237.67
344.84	238.38
345.22	237.05
345.60	237.10
345.99	237.29
346.37	237.33
346.75	237.19
347.13	237.14
347.52	237.29
347.90	238.24
348.28	238.00
348.66	237.76
349.05	236.57
349.43	237.29
349.81	237.57
350.19	237.71
350.57	237.71
350.96	238.14
351.34	238.29
351.72	238.38
352.10	238.48
352.48	237.95
352.87	237.71
353.25	237.71
353.63	237.81
354.01	237.57
354.39	237.52
354.77	237.86
355.15	238.33
355.54	238.00
355.92	237.24
356.30	237.29
356.68	238.71
357.06	239.24
357.44	238.38
357.82	238.14
358.20	237.95
358.58	237.67
358.97	237.43
359.35	237.62
359.73	237.86
360.11	237.90
360.49	237.90
360.87	237.90
361.25	237.95
361.63	238.57
362.01	238.81
362.39	238.76
362.77	238.71
363.15	238.57
363.53	238.38
363.91	238.52
364.29	238.43
364.67	236.57
365.05	236.33
365.43	236.62
365.81	236.86
366.19	238.14
366.57	239.14
366.95	238.95
367.33	238.57
367.71	238.62
368.09	238.95
368.47	238.81
368.85	238.67
369.23	239.10
369.61	238.05
369.99	238.71
370.37	239.38
370.75	240.90
371.13	240.29
371.51	240.05
371.89	240.24
372.27	240.62
372.65	240.67
373.03	241.10
373.41	241.00
373.78	240.86
374.16	239.48
374.54	238.62
374.92	238.62
375.30	238.71
375.68	238.43
376.06	238.86
376.44	238.76
376.82	238.90
377.19	239.05
377.57	239.48
377.95	238.67
378.33	238.14
378.71	236.48
379.09	237.00
379.47	237.43
379.84	237.33
380.22	236.95
380.60	236.33
380.98	236.19
381.36	236.52
381.73	236.14
382.11	237.00
382.49	237.29
382.87	236.86
383.25	236.71
383.62	239.62
384.00	238.90
384.38	239.14
384.76	239.71
385.13	240.52
385.51	240.52
385.89	240.48
386.27	240.43
386.64	240.90
387.02	240.67
387.40	240.62
387.78	240.86
388.15	241.38
388.53	241.86
388.91	241.62
389.29	241.29
389.66	241.86
390.04	241.29
390.42	241.71
390.79	241.86
391.17	242.19
391.55	239.24
391.92	239.19
392.30	239.67
392.68	239.33
393.05	239.00
393.43	238.95
393.81	239.00
394.18	238.86
394.56	238.90
394.94	239.48
395.31	239.29
395.69	240.00
396.06	240.14
396.44	239.86
396.82	240.14
397.19	241.62
397.57	241.71
397.95	242.38
398.32	241.62
398.70	242.10
399.07	242.57
399.45	243.05
399.82	243.24
400.20	242.76
400.58	242.90
400.95	241.90
401.33	242.38
401.70	244.10
402.08	244.24
402.45	244.24
402.83	244.76
403.20	244.67
403.58	244.00
403.95	244.38
404.33	245.00
404.71	245.14
405.08	246.24
405.46	246.33
405.83	246.33
406.21	246.95
406.58	247.57
406.96	247.95
407.33	248.33
407.70	249.24
408.08	252.29
408.45	253.05
408.83	254.71
409.20	255.33
409.58	254.95
409.95	256.43
410.33	257.43
410.70	257.76
411.08	259.57
411.45	260.86
411.82	261.57
412.20	263.48
412.57	266.14
412.95	265.52
413.32	267.24
413.69	268.90
414.07	270.71
414.44	272.38
414.82	274.38
415.19	276.95
415.56	278.95
415.94	279.48
416.31	282.76
416.68	285.48
417.06	288.86
417.43	292.67
417.81	296.10
418.18	299.90
418.55	303.52
418.93	307.67
419.30	312.19
419.67	316.95
420.04	321.57
420.42	325.71
420.79	333.48
421.16	339.76
421.54	347.05
421.91	353.00
422.28	359.52
422.66	365.71
423.03	373.62
423.40	380.57
423.77	387.90
424.15	394.86
424.52	402.48
424.89	410.95
425.26	418.62
425.64	426.14
426.01	434.86
426.38	443.81
426.75	453.38
427.13	462.62
427.50	472.48
427.87	482.19
428.24	492.24
428.61	500.67
428.99	512.10
429.36	522.86
429.73	534.43
430.10	546.33
430.47	559.00
430.85	570.43
431.22	583.95
431.59	600.10
431.96	613.43
432.33	628.10
432.70	642.24
433.08	657.48
433.45	672.90
433.82	687.19
434.19	705.10
434.56	721.10
434.93	735.81
435.30	751.33
435.68	769.24
436.05	786.14
436.42	802.48
436.79	817.86
437.16	833.86
437.53	850.90
437.90	867.62
438.27	883.86
438.64	900.14
439.01	915.71
439.38	927.33
439.75	941.14
440.13	955.90
440.50	969.19
440.87	981.24
441.24	993.33
441.61	1005.76
441.98	1014.38
442.35	1025.62
442.72	1037.62
443.09	1049.57
443.46	1054.00
443.83	1057.52
444.20	1060.76
444.57	1063.86
444.94	1065.57
445.31	1067.33
445.68	1071.43
446.05	1071.62
446.42	1068.90
446.79	1065.86
447.16	1062.00
447.53	1058.71
447.90	1051.76
448.27	1044.43
448.64	1034.52
449.01	1026.38
449.37	1014.81
449.74	1002.62
450.11	990.57
450.48	975.38
450.85	958.14
451.22	945.81
451.59	933.95
451.96	921.81
452.33	907.43
452.70	893.00
453.07	875.95
453.43	856.29
453.80	839.76
454.17	824.67
454.54	808.62
454.91	793.38
455.28	777.38
455.65	761.67
456.02	751.76
456.38	739.05
456.75	724.33
457.12	711.67
457.49	699.29
457.86	684.52
458.23	675.24
458.59	664.62
458.96	653.05
459.33	641.95
459.70	631.71
460.07	622.43
460.43	612.76
460.80	604.86
461.17	596.95
461.54	589.29
461.91	581.10
462.27	573.95
462.64	566.71
463.01	559.90
463.38	554.57
463.74	543.52
464.11	537.90
464.48	532.57
464.85	527.05
465.21	523.10
465.58	518.90
465.95	512.24
466.32	507.67
466.68	503.00
467.05	498.62
467.42	493.95
467.78	489.90
468.15	485.90
468.52	482.38
468.88	477.90
469.25	473.00
469.62	470.05
469.98	466.67
470.35	463.76
470.72	460.90
471.08	456.62
471.45	454.38
471.82	452.33
472.18	449.33
472.55	447.52
472.92	444.00
473.28	441.10
473.65	438.62
474.02	436.00
474.38	434.33
474.75	432.57
475.11	430.33
475.48	428.86
475.85	426.76
476.21	425.14
476.58	424.19
476.94	423.00
477.31	421.86
477.67	420.95
478.04	420.19
478.41	419.29
478.77	421.05
479.14	420.33
479.50	419.14
479.87	419.10
480.23	418.52
480.60	418.29
480.96	418.62
481.33	419.48
481.69	419.48
482.06	420.14
482.42	421.57
482.79	423.05
483.15	423.71
483.52	425.52
483.88	426.48
484.25	427.33
484.61	428.62
484.98	429.57
485.34	431.52
485.71	433.05
486.07	434.48
486.44	433.00
486.80	434.00
487.17	435.29
487.53	437.38
487.90	439.62
488.26	442.95
488.62	445.43
488.99	446.52
489.35	448.76
489.72	449.86
490.08	450.81
490.44	452.29
490.81	454.14
491.17	456.52
491.54	458.00
491.90	460.52
492.26	462.76
492.63	465.00
492.99	466.67
493.36	469.33
493.72	471.90
494.08	475.24
494.45	478.48
494.81	482.14
495.17	484.62
495.54	488.00
495.90	490.71
496.26	493.86
496.63	498.43
496.99	502.14
497.35	506.33
497.72	510.33
498.08	514.00
498.44	518.10
498.80	521.95
499.17	526.67
499.53	530.86
499.89	536.24
500.26	540.43
500.62	545.76
500.98	550.76
501.34	555.71
501.71	561.38
502.07	565.86
502.43	570.48
502.79	575.62
503.16	580.33
503.52	585.10
503.88	589.62
504.24	594.05
504.60	599.33
504.97	605.10
505.33	610.67
505.69	616.71
506.05	622.10
506.41	627.90
506.78	633.10
507.14	637.86
507.50	643.00
507.86	649.67
508.22	655.43
508.59	660.00
508.95	666.14
509.31	671.86
509.67	677.86
510.03	682.86
510.39	688.33
510.75	693.24
511.12	698.71
511.48	704.33
511.84	709.10
512.20	714.76
512.56	719.76
512.92	725.43
513.28	729.81
513.64	734.76
514.00	738.71
514.37	743.48
514.73	748.24
515.09	752.62
515.45	756.24
515.81	759.67
516.17	764.14
516.53	767.00
516.89	770.10
517.25	774.33
517.61	779.86
517.97	783.43
518.33	787.57
518.69	791.57
519.05	795.48
519.41	799.62
519.77	804.48
520.13	807.24
520.49	809.29
520.85	813.71
521.21	817.52
521.57	820.48
521.93	823.62
522.29	827.24
522.65	829.71
523.01	831.43
523.37	833.71
523.73	836.38
524.09	839.05
524.45	841.33
524.81	843.86
525.17	845.29
525.53	847.81
525.89	850.10
526.25	851.95
526.61	853.38
526.97	855.43
527.33	855.81
527.68	860.14
528.04	862.14
528.40	862.29
528.76	863.90
529.12	865.57
529.48	867.19
529.84	868.52
530.20	870.71
530.56	874.05
530.91	875.14
531.27	876.43
531.63	877.90
531.99	878.95
532.35	878.67
532.71	878.86
533.07	880.19
533.42	883.76
533.78	884.29
534.14	885.19
534.50	885.48
534.86	887.67
535.21	886.86
535.57	888.10
535.93	889.33
536.29	891.29
536.65	893.19
537.00	894.71
537.36	895.43
537.72	897.48
538.08	899.38
538.44	901.57
538.79	904.62
539.15	907.29
539.51	910.67
539.87	913.76
540.22	916.90
540.58	919.14
540.94	919.95
541.29	922.19
541.65	924.81
542.01	928.48
542.37	928.76
542.72	930.05
543.08	930.67
543.44	931.71
543.79	930.52
544.15	930.81
544.51	930.43
544.87	930.19
545.22	928.71
545.58	926.38
545.94	924.10
546.29	921.33
546.65	918.29
547.01	914.33
547.36	910.76
547.72	907.67
548.07	904.38
548.43	900.14
548.79	897.00
549.14	892.71
549.50	889.48
549.86	886.29
550.21	883.52
550.57	881.14
550.92	878.24
551.28	875.90
551.64	873.38
551.99	871.05
552.35	868.52
552.70	865.76
553.06	864.05
553.41	862.81
553.77	862.10
554.13	860.86
554.48	859.71
554.84	858.81
555.19	856.57
555.55	857.24
555.90	854.81
556.26	853.05
556.61	851.33
556.97	847.81
557.32	845.76
557.68	842.95
558.03	840.48
558.39	838.52
558.74	837.00
559.10	834.90
559.45	833.43
559.81	831.62
560.16	829.86
560.52	828.10
560.87	826.29
561.23	822.90
561.58	823.10
561.94	820.71
562.29	819.10
562.64	818.19
563.00	814.19
563.35	812.71
563.71	811.24
564.06	810.76
564.42	809.29
564.77	808.48
565.12	807.62
565.48	809.29
565.83	808.33
566.19	806.14
566.54	804.29
566.89	802.67
567.25	803.00
567.60	803.52
567.96	805.05
568.31	805.48
568.66	805.52
569.02	802.00
569.37	800.71
569.72	799.29
570.08	798.14
570.43	797.19
570.78	795.71
571.14	794.33
571.49	792.10
571.84	791.52
572.20	790.29
572.55	789.43
572.90	785.19
573.26	783.29
573.61	782.10
573.96	781.43
574.31	780.29
574.67	777.67
575.02	774.90
575.37	770.86
575.72	767.90
576.08	765.81
576.43	765.05
576.78	763.95
577.13	761.86
577.49	760.48
577.84	758.62
578.19	758.14
578.54	757.29
578.90	756.48
579.25	755.29
579.60	753.24
579.95	751.90
580.30	751.14
580.66	750.10
581.01	748.29
581.36	745.86
581.71	743.95
582.06	743.52
582.42	742.10
582.77	740.00
583.12	739.29
583.47	737.29
583.82	735.57
584.17	734.81
584.53	734.33
584.88	732.33
585.23	731.14
585.58	729.33
585.93	726.67
586.28	724.90
586.63	722.38
586.98	720.67
587.34	717.95
587.69	715.48
588.04	713.19
588.39	711.00
588.74	708.62
589.09	706.52
589.44	702.71
589.79	699.62
590.14	696.76
590.49	692.67
590.84	689.52
591.19	686.29
591.54	682.95
591.89	679.10
592.25	678.19
592.60	674.67
592.95	671.43
593.30	669.24
593.65	665.90
594.00	663.10
594.35	666.76
594.70	663.62
595.05	660.86
595.40	657.81
595.75	654.10
596.10	651.29
596.45	648.43
596.80	645.14
597.15	642.24
597.50	638.90
597.85	637.52
598.19	635.43
598.54	632.43
598.89	629.19
599.24	627.00
599.59	622.10
599.94	618.90
600.29	616.14
600.64	613.52
600.99	612.19
601.34	609.14
601.69	599.67
602.04	597.05
602.39	594.57
602.74	592.71
603.08	591.81
603.43	591.05
603.78	589.24
604.13	588.29
604.48	586.95
604.83	586.67
605.18	585.67
605.53	585.67
605.87	587.90
606.22	591.67
606.57	596.10
606.92	600.76
607.27	606.52
607.62	612.62
607.96	617.81
608.31	621.10
608.66	625.71
609.01	629.48
609.36	632.71
609.70	636.48
610.05	638.81
610.40	641.71
610.75	642.71
611.10	644.29
611.44	645.52
611.79	646.38
612.14	646.90
612.49	645.48
612.83	643.05
613.18	638.76
613.53	633.14
613.88	625.86
614.22	618.38
614.57	610.14
614.92	601.10
615.27	592.62
615.61	585.24
615.96	578.52
616.31	572.00
616.65	566.86
617.00	560.05
617.35	554.19
617.70	547.81
618.04	542.38
618.39	536.43
618.74	532.10
619.08	528.00
619.43	523.57
619.78	519.76
620.12	516.48
620.47	513.57
620.82	510.43
621.16	507.71
621.51	506.48
621.85	503.95
622.20	501.95
622.55	498.86
622.89	496.33
623.24	494.00
623.59	491.76
623.93	489.43
624.28	487.24
624.62	488.05
624.97	487.67
625.32	485.33
625.66	483.95
626.01	481.86
626.35	479.57
626.70	477.52
627.04	477.57
627.39	476.57
627.73	475.57
628.08	474.10
628.43	471.81
628.77	468.67
629.12	466.90
629.46	465.33
629.81	464.10
630.15	462.33
630.50	460.05
630.84	457.90
631.19	455.48
631.53	453.38
631.88	448.62
632.22	444.71
632.57	443.81
632.91	441.76
633.26	439.71
633.60	437.38
633.95	435.05
634.29	431.29
634.64	428.00
634.98	425.14
635.32	423.19
635.67	421.62
636.01	419.90
636.36	418.19
636.70	416.62
637.05	414.67
637.39	412.76
637.73	411.19
638.08	409.81
638.42	407.86
638.77	407.00
639.11	404.81
639.45	403.76
639.80	401.33
640.14	399.71
640.49	397.67
640.83	396.00
641.17	394.76
641.52	393.19
641.86	392.86
642.20	392.43
642.55	390.33
642.89	389.19
643.23	388.00
643.58	387.62
643.92	385.38
644.26	384.19
644.61	384.05
644.95	383.00
645.29	381.29
645.64	381.29
645.98	379.90
646.32	380.19
646.66	378.67
647.01	377.76
647.35	377.14
647.69	376.33
648.04	375.62
648.38	375.05
648.72	373.86
649.06	372.33
649.41	370.52
649.75	369.52
650.09	368.43
650.43	367.05
650.78	364.95
651.12	364.24
651.46	363.05
651.80	360.90
652.14	359.48
652.49	359.52
652.83	357.43
653.17	356.00
653.51	353.90
653.85	353.10
654.20	351.95
654.54	350.19
654.88	348.86
655.22	347.38
655.56	345.57
655.90	344.67
656.25	343.67
656.59	342.57
656.93	341.86
657.27	341.95
657.61	340.95
657.95	340.62
658.29	339.81
658.64	339.86
658.98	339.33
659.32	338.71
659.66	337.00
660.00	336.62
660.34	335.86
660.68	335.57
661.02	334.76
661.36	333.95
661.70	333.43
662.05	332.81
662.39	332.95
662.73	333.10
663.07	333.76
663.41	333.29
663.75	332.29
664.09	331.67
664.43	330.05
664.77	329.52
665.11	328.52
665.45	327.62
665.79	327.14
666.13	326.14
666.47	325.00
666.81	324.48
667.15	323.14
667.49	322.95
667.83	323.00
668.17	322.33
668.51	321.62
668.85	321.67
669.19	322.05
669.53	320.95
669.87	319.67
670.21	317.95
670.55	317.43
670.89	318.29
671.23	317.52
671.57	317.19
671.91	316.71
672.25	316.24
672.58	316.71
672.92	314.95
673.26	314.52
673.60	314.24
673.94	313.67
674.28	313.52
674.62	313.05
674.96	311.62
675.30	311.14
675.64	310.95
675.97	309.71
676.31	308.24
676.65	307.19
676.99	307.57
677.33	307.00
677.67	306.48
678.01	304.52
678.34	304.67
678.68	304.62
679.02	304.00
679.36	303.48
679.70	301.95
680.04	301.86
680.37	301.62
680.71	301.05
681.05	300.86
681.39	300.67
681.73	299.67
682.06	299.24
682.40	298.52
682.74	298.24
683.08	298.90
683.42	298.48
683.75	299.00
684.09	298.05
684.43	297.67
684.77	296.81
685.10	296.76
685.44	295.57
685.78	294.48
686.12	294.00
686.45	293.24
686.79	292.62
687.13	292.67
687.46	291.95
687.80	292.24
688.14	291.57
688.48	291.19
688.81	291.14
689.15	291.62
689.49	291.14
689.82	290.95
690.16	289.52
690.50	289.24
690.83	288.43
691.17	287.52
691.51	286.86
691.84	286.86
692.18	286.10
692.52	285.76
692.85	285.67
693.19	286.24
693.52	286.05
693.86	286.05
694.20	285.57
694.53	285.43
694.87	284.33
695.21	283.57
695.54	283.10
695.88	282.62
696.21	281.19
696.55	281.24
696.88	280.52
697.22	280.19
697.56	280.24
697.89	279.76
698.23	279.95
698.56	279.71
698.90	279.57
699.23	279.52
699.57	279.81
699.90	279.33
700.24	278.38
700.58	278.33
700.91	278.33
701.25	280.33
701.58	281.10
701.92	282.24
702.25	283.00
702.59	283.33
702.92	283.48
703.26	283.86
703.59	284.29
703.93	286.81
704.26	287.48
704.60	287.95
704.93	288.67
705.26	288.52
705.60	289.29
705.93	289.14
706.27	289.90
706.60	290.33
706.94	291.81
707.27	292.05
707.61	292.00
707.94	292.05
708.27	290.24
708.61	289.43
708.94	288.81
709.28	288.05
709.61	287.00
709.94	286.76
710.28	286.43
710.61	285.76
710.95	282.67
711.28	283.19
711.61	281.86
711.95	281.14
712.28	280.33
712.61	279.43
712.95	279.95
713.28	280.33
713.61	278.95
713.95	276.90
714.28	276.19
714.61	275.38
714.95	274.43
715.28	272.81
715.61	271.95
715.95	271.10
716.28	270.29
716.61	270.38
716.95	269.43
717.28	268.71
717.61	268.00
717.94	267.81
718.28	265.76
718.61	265.48
718.94	264.71
719.27	264.52
719.61	264.24
719.94	262.81
720.27	261.05
720.60	260.95
720.94	260.86
721.27	260.71
721.60	261.00
721.93	260.81
722.27	261.81
722.60	262.10
722.93	261.76
723.26	261.90
723.59	261.19
723.93	261.05
724.26	261.19
724.59	261.00
724.92	260.90
725.25	261.81
725.59	261.71
725.92	261.67
726.25	261.38
726.58	261.19
726.91	261.14
727.24	261.62
727.57	261.33
727.91	261.19
728.24	261.24
728.57	260.81
728.90	260.90
729.23	259.81
729.56	260.90
729.89	260.76
730.22	260.71
730.55	260.67
730.89	260.86
731.22	260.62
731.55	260.43
731.88	260.38
732.21	259.33
732.54	259.10
732.87	259.38
733.20	259.29
733.53	259.24
733.86	259.19
734.19	258.52
734.52	258.90
734.85	260.33
735.18	259.81
735.51	260.43
735.84	260.29
736.17	260.95
736.50	259.14
736.83	262.05
737.16	262.00
737.49	261.81
737.82	261.38
738.15	261.52
738.48	261.76
738.81	261.33
739.14	261.19
739.47	260.71
739.80	260.43
740.13	260.67
740.46	260.00
740.79	259.67
741.12	259.57
741.45	258.95
741.78	257.38
742.11	257.90
742.44	257.33
742.77	258.00
743.10	257.48
743.43	257.33
743.75	254.48
744.08	257.81
744.41	257.86
744.74	258.00
745.07	256.95
745.40	256.71
745.73	257.57
746.06	257.71
746.39	258.14
746.71	257.86
747.04	257.48
747.37	257.81
747.70	258.19
748.03	258.10
748.36	258.52
748.68	259.00
749.01	258.00
749.34	257.76
749.67	256.81
750.00	256.81
750.33	258.67
750.65	258.81
750.98	255.14
751.31	254.90
751.64	254.81
751.97	256.67
752.29	256.38
752.62	255.33
752.95	254.86
753.28	254.62
753.60	254.19
753.93	254.81
754.26	254.62
754.59	254.33
754.91	254.19
755.24	253.71
755.57	252.86
755.90	252.76
756.22	252.38
756.55	252.52
756.88	252.29
757.20	250.38
757.53	249.52
757.86	249.62
758.19	249.67
758.51	249.86
758.84	248.33
759.17	248.33
759.49	248.38
759.82	249.48
760.15	249.38
760.47	249.71
760.80	249.00
761.13	249.52
761.45	248.95
761.78	248.95
762.11	249.14
762.43	248.95
762.76	249.00
763.08	249.10
763.41	248.86
763.74	248.76
764.06	248.71
764.39	248.67
764.71	248.19
765.04	247.90
765.37	247.29
765.69	247.05
766.02	246.81
766.34	246.71
766.67	245.71
767.00	246.19
767.32	247.33
767.65	248.95
767.97	248.71
768.30	248.95
768.62	248.52
768.95	248.38
769.27	248.38
769.60	248.90
769.92	248.71
770.25	247.90
770.57	247.81
770.90	247.76
771.22	247.76
771.55	248.05
771.87	248.24
772.20	248.14
772.52	250.57
772.85	253.86
773.17	253.86
773.50	253.81
773.82	253.10
774.15	251.90
774.47	250.00
774.80	249.52
775.12	249.00
775.45	249.05
775.77	249.00
776.09	249.05
776.42	248.95
776.74	249.67
777.07	250.05
777.39	249.90
777.72	249.81
778.04	250.19
778.36	249.81
778.69	249.48
779.01	249.90
779.33	247.33
779.66	244.24
779.98	243.95
780.31	244.19
780.63	245.52
780.95	245.76
781.28	245.71
781.60	245.29
781.92	245.71
782.25	245.67
782.57	245.14
782.89	244.95
783.22	244.76
783.54	244.33
783.86	244.38
784.19	244.14
784.51	244.95
784.83	244.52
785.16	244.48
785.48	244.48
785.80	244.19
786.12	244.52
786.45	244.19
786.77	244.38
787.09	244.29
787.42	243.24
787.74	243.33
788.06	243.48
788.38	243.81
788.71	243.48
789.03	243.52
789.35	244.38
789.67	244.19
789.99	244.05
790.32	243.57
790.64	243.90
790.96	246.00
791.28	245.19
791.61	245.24
791.93	245.48
792.25	245.67
792.57	247.19
792.89	247.05
793.21	247.52
793.54	247.48
793.86	247.05
