SpectraSuite Data File
++++++++++++++++++++++++++++++++++++
Date: Wed Nov 07 18:31:16 EST 2012
User: group
Dark Spectrum Present: No
Reference Spectrum Present: No
Number of Sampled Component Spectra: 1
Spectrometers: USB2E7196
Integration Time (usec): 1000000 (USB2E7196)
Spectra Averaged: 1 (USB2E7196)
Boxcar Smoothing: 10 (USB2E7196)
Correct for Electrical Dark: No (USB2E7196)
Strobe/Lamp Enabled: No (USB2E7196)
Correct for Detector Non-linearity: No (USB2E7196)
Correct for Stray Light: No (USB2E7196)
Number of Pixels in Processed Spectrum: 2048
>>>>>Begin Processed Spectral Data<<<<<
339.09	0.00
339.48	218.00
339.86	218.00
340.24	220.00
340.63	218.00
341.01	262.00
341.39	222.00
341.78	233.00
342.16	238.00
342.54	235.00
342.93	222.81
343.31	233.67
343.69	234.24
344.07	234.71
344.46	235.71
344.84	236.33
345.22	235.14
345.60	236.00
345.99	236.19
346.37	235.81
346.75	235.76
347.13	236.19
347.52	235.95
347.90	236.57
348.28	236.52
348.66	237.19
349.05	236.38
349.43	236.05
349.81	236.29
350.19	236.48
350.57	236.43
350.96	236.71
351.34	237.00
351.72	237.43
352.10	237.86
352.48	237.57
352.87	237.76
353.25	237.81
353.63	237.86
354.01	237.86
354.39	238.33
354.77	238.43
355.15	238.57
355.54	238.71
355.92	238.24
356.30	238.57
356.68	239.95
357.06	240.33
357.44	240.24
357.82	240.05
358.20	240.05
358.58	240.05
358.97	240.38
359.35	241.00
359.73	241.57
360.11	241.86
360.49	242.05
360.87	242.24
361.25	242.67
361.63	243.29
362.01	243.24
362.39	243.00
362.77	243.10
363.15	243.43
363.53	243.48
363.91	243.52
364.29	243.29
364.67	241.00
365.05	240.95
365.43	241.38
365.81	241.90
366.19	242.76
366.57	243.86
366.95	243.90
367.33	243.48
367.71	243.14
368.09	243.48
368.47	243.48
368.85	243.05
369.23	243.24
369.61	242.19
369.99	243.48
370.37	243.81
370.75	244.90
371.13	244.33
371.51	244.05
371.89	244.24
372.27	244.48
372.65	244.62
373.03	244.57
373.41	244.33
373.78	243.62
374.16	242.62
374.54	241.81
374.92	241.29
375.30	241.29
375.68	240.81
376.06	240.86
376.44	240.81
376.82	241.05
377.19	240.90
377.57	241.10
377.95	239.86
378.33	240.00
378.71	238.90
379.09	239.24
379.47	239.57
379.84	239.33
380.22	239.10
380.60	238.90
380.98	238.81
381.36	238.57
381.73	238.43
382.11	238.86
382.49	238.95
382.87	238.67
383.25	238.62
383.62	241.52
384.00	240.95
384.38	240.95
384.76	241.43
385.13	242.29
385.51	242.10
385.89	241.86
386.27	241.48
386.64	241.71
387.02	241.57
387.40	241.29
387.78	241.43
388.15	241.52
388.53	241.14
388.91	241.24
389.29	241.24
389.66	241.67
390.04	241.10
390.42	241.57
390.79	241.71
391.17	241.81
391.55	238.86
391.92	238.67
392.30	238.76
392.68	238.48
393.05	238.05
393.43	238.33
393.81	238.57
394.18	238.33
394.56	238.38
394.94	238.81
395.31	238.57
395.69	239.43
396.06	239.81
396.44	240.19
396.82	240.00
397.19	241.48
397.57	241.38
397.95	242.00
398.32	241.14
398.70	241.38
399.07	242.00
399.45	242.38
399.82	242.38
400.20	242.38
400.58	242.38
400.95	241.71
401.33	242.00
401.70	243.81
402.08	244.14
402.45	244.48
402.83	245.19
403.20	245.76
403.58	245.52
403.95	246.10
404.33	246.86
404.71	247.05
405.08	248.33
405.46	248.62
405.83	249.14
406.21	249.52
406.58	249.90
406.96	250.14
407.33	250.48
407.70	251.57
408.08	254.00
408.45	254.86
408.83	256.00
409.20	256.48
409.58	255.43
409.95	256.76
410.33	257.48
410.70	257.90
411.08	259.38
411.45	260.48
411.82	261.29
412.20	262.81
412.57	265.57
412.95	264.71
413.32	266.52
413.69	267.67
414.07	269.24
414.44	271.48
414.82	273.67
415.19	276.14
415.56	278.00
415.94	278.62
416.31	281.81
416.68	284.67
417.06	288.62
417.43	292.62
417.81	295.86
418.18	299.29
418.55	302.76
418.93	306.67
419.30	310.95
419.67	315.67
420.04	320.05
420.42	324.43
420.79	332.00
421.16	337.62
421.54	345.00
421.91	351.71
422.28	358.33
422.66	365.10
423.03	373.24
423.40	380.48
423.77	388.05
424.15	395.00
424.52	402.71
424.89	411.00
425.26	418.48
425.64	426.67
426.01	434.81
426.38	443.33
426.75	452.52
427.13	461.71
427.50	471.05
427.87	480.52
428.24	490.43
428.61	498.71
428.99	510.10
429.36	520.10
429.73	531.52
430.10	542.81
430.47	554.81
430.85	566.71
431.22	580.14
431.59	595.81
431.96	609.33
432.33	624.48
432.70	639.14
433.08	656.48
433.45	671.57
433.82	688.10
434.19	705.38
434.56	722.14
434.93	737.33
435.30	753.43
435.68	771.29
436.05	787.14
436.42	803.33
436.79	818.95
437.16	835.90
437.53	852.48
437.90	869.19
438.27	885.43
438.64	901.29
439.01	917.48
439.38	929.90
439.75	942.71
440.13	956.62
440.50	969.76
440.87	979.76
441.24	990.00
441.61	1002.14
441.98	1011.48
442.35	1021.43
442.72	1032.62
443.09	1042.86
443.46	1048.33
443.83	1052.67
444.20	1056.10
444.57	1059.43
444.94	1059.43
445.31	1062.33
445.68	1066.48
446.05	1066.19
446.42	1062.52
446.79	1058.67
447.16	1055.29
447.53	1052.52
447.90	1044.52
448.27	1036.76
448.64	1027.10
449.01	1020.62
449.37	1007.95
449.74	995.86
450.11	984.52
450.48	969.76
450.85	954.43
451.22	941.29
451.59	929.05
451.96	916.62
452.33	901.38
452.70	888.52
453.07	870.33
453.43	850.57
453.80	834.62
454.17	819.67
454.54	804.43
454.91	787.71
455.28	771.52
455.65	757.24
456.02	747.52
456.38	734.81
456.75	721.00
457.12	708.52
457.49	696.43
457.86	682.76
458.23	672.90
458.59	661.29
458.96	649.95
459.33	639.81
459.70	629.67
460.07	622.10
460.43	613.10
460.80	604.86
461.17	596.71
461.54	589.10
461.91	581.38
462.27	574.00
462.64	567.57
463.01	562.10
463.38	556.48
463.74	544.81
464.11	539.14
464.48	533.52
464.85	527.90
465.21	524.14
465.58	519.43
465.95	513.10
466.32	509.43
466.68	504.81
467.05	500.24
467.42	496.43
467.78	491.33
468.15	486.86
468.52	484.14
468.88	480.43
469.25	475.90
469.62	473.43
469.98	469.52
470.35	466.71
470.72	463.00
471.08	458.81
471.45	456.62
471.82	454.62
472.18	451.57
472.55	449.57
472.92	446.05
473.28	443.05
473.65	440.62
474.02	437.52
474.38	435.76
474.75	433.90
475.11	432.00
475.48	430.48
475.85	428.38
476.21	426.67
476.58	425.57
476.94	424.33
477.31	422.81
477.67	422.24
478.04	421.14
478.41	420.67
478.77	422.76
479.14	422.05
479.50	421.81
479.87	421.19
480.23	421.71
480.60	421.86
480.96	422.76
481.33	425.52
481.69	426.71
482.06	427.71
482.42	429.67
482.79	431.14
483.15	433.19
483.52	435.81
483.88	437.62
484.25	439.62
484.61	442.14
484.98	444.24
485.34	447.00
485.71	449.48
486.07	452.00
486.44	452.48
486.80	454.62
487.17	456.57
487.53	459.43
487.90	461.48
488.26	464.48
488.62	467.10
488.99	467.62
489.35	470.05
489.72	472.48
490.08	473.62
490.44	474.86
490.81	476.33
491.17	477.76
491.54	479.62
491.90	481.38
492.26	482.62
492.63	484.67
492.99	485.81
493.36	488.05
493.72	489.86
494.08	492.00
494.45	494.48
494.81	497.90
495.17	500.00
495.54	503.19
495.90	505.10
496.26	508.14
496.63	511.90
496.99	515.38
497.35	518.57
497.72	522.76
498.08	526.24
498.44	529.71
498.80	533.90
499.17	537.43
499.53	540.76
499.89	545.29
500.26	549.81
500.62	554.29
500.98	559.00
501.34	563.29
501.71	568.33
502.07	572.57
502.43	576.33
502.79	581.29
503.16	585.05
503.52	589.38
503.88	593.43
504.24	597.76
504.60	601.90
504.97	606.86
505.33	610.95
505.69	616.71
506.05	622.10
506.41	627.24
506.78	632.48
507.14	638.10
507.50	643.57
507.86	648.52
508.22	654.05
508.59	657.71
508.95	663.14
509.31	668.57
509.67	674.19
510.03	678.81
510.39	683.57
510.75	689.19
511.12	694.95
511.48	699.38
511.84	703.86
512.20	708.48
512.56	713.67
512.92	718.67
513.28	723.19
513.64	726.62
514.00	730.62
514.37	735.33
514.73	740.29
515.09	744.52
515.45	748.81
515.81	752.62
516.17	757.38
516.53	761.10
516.89	763.52
517.25	767.38
517.61	772.52
517.97	776.43
518.33	780.14
518.69	784.43
519.05	788.95
519.41	793.48
519.77	798.48
520.13	800.95
520.49	804.10
520.85	806.81
521.21	812.14
521.57	815.33
521.93	817.00
522.29	819.43
522.65	820.90
523.01	823.05
523.37	824.90
523.73	827.10
524.09	828.81
524.45	831.52
524.81	833.43
525.17	834.67
525.53	836.95
525.89	838.10
526.25	838.95
526.61	839.86
526.97	840.62
527.33	841.24
527.68	845.05
528.04	846.43
528.40	848.05
528.76	848.05
529.12	849.48
529.48	851.71
529.84	852.67
530.20	854.86
530.56	856.00
530.91	858.00
531.27	859.48
531.63	860.90
531.99	861.95
532.35	863.38
532.71	864.48
533.07	865.67
533.42	870.14
533.78	871.86
534.14	874.05
534.50	875.24
534.86	877.86
535.21	878.05
535.57	880.95
535.93	883.29
536.29	888.52
536.65	892.38
537.00	897.10
537.36	902.71
537.72	908.57
538.08	916.48
538.44	924.48
538.79	933.38
539.15	942.05
539.51	951.48
539.87	959.52
540.22	967.76
540.58	976.52
540.94	983.57
541.29	991.62
541.65	999.52
542.01	1007.67
542.37	1014.00
542.72	1018.57
543.08	1021.67
543.44	1024.52
543.79	1024.05
544.15	1025.00
544.51	1025.71
544.87	1024.10
545.22	1021.67
545.58	1017.00
545.94	1010.90
546.29	1004.33
546.65	997.67
547.01	989.05
547.36	982.05
547.72	974.57
548.07	965.95
548.43	956.52
548.79	947.67
549.14	938.38
549.50	930.19
549.86	920.33
550.21	914.10
550.57	908.33
550.92	902.90
551.28	897.57
551.64	892.05
551.99	885.19
552.35	880.05
552.70	874.14
553.06	869.81
553.41	865.19
553.77	862.48
554.13	858.76
554.48	855.62
554.84	852.48
555.19	849.10
555.55	848.52
555.90	844.76
556.26	842.00
556.61	838.95
556.97	834.90
557.32	832.81
557.68	829.76
558.03	827.38
558.39	824.24
558.74	821.90
559.10	819.10
559.45	816.71
559.81	814.14
560.16	812.67
560.52	810.33
560.87	809.05
561.23	805.62
561.58	804.86
561.94	802.90
562.29	800.19
562.64	798.95
563.00	794.14
563.35	792.86
563.71	791.48
564.06	788.67
564.42	786.86
564.77	785.29
565.12	783.62
565.48	783.71
565.83	782.57
566.19	781.10
566.54	779.52
566.89	778.24
567.25	778.76
567.60	778.19
567.96	779.10
568.31	779.00
568.66	778.86
569.02	776.29
569.37	774.52
569.72	773.81
570.08	771.90
570.43	771.38
570.78	769.14
571.14	767.48
571.49	767.14
571.84	767.00
572.20	765.95
572.55	765.10
572.90	761.33
573.26	760.29
573.61	759.14
573.96	758.71
574.31	758.43
574.67	755.71
575.02	754.00
575.37	751.33
575.72	749.29
576.08	748.29
576.43	747.19
576.78	746.76
577.13	746.29
577.49	746.00
577.84	745.00
578.19	744.90
578.54	744.95
578.90	744.86
579.25	743.19
579.60	743.57
579.95	742.43
580.30	742.33
580.66	741.33
581.01	740.48
581.36	739.05
581.71	737.33
582.06	737.10
582.42	736.48
582.77	734.33
583.12	733.38
583.47	731.29
583.82	730.81
584.17	729.57
584.53	727.76
584.88	725.10
585.23	724.10
585.58	721.76
585.93	718.76
586.28	716.76
586.63	715.05
586.98	711.90
587.34	709.48
587.69	706.81
588.04	704.33
588.39	700.95
588.74	698.38
589.09	696.62
589.44	692.81
589.79	689.10
590.14	685.57
590.49	681.52
590.84	677.76
591.19	673.71
591.54	670.48
591.89	666.14
592.25	665.05
592.60	660.52
592.95	657.62
593.30	654.90
593.65	650.90
594.00	646.86
594.35	649.67
594.70	646.19
595.05	642.95
595.40	639.52
595.75	637.19
596.10	634.14
596.45	630.71
596.80	628.19
597.15	626.10
597.50	624.43
597.85	623.29
598.19	620.24
598.54	618.00
598.89	614.62
599.24	612.05
599.59	607.05
599.94	604.67
600.29	602.33
600.64	599.71
600.99	598.38
601.34	596.86
601.69	587.90
602.04	585.62
602.39	583.38
602.74	582.62
603.08	580.14
603.43	578.95
603.78	576.43
604.13	574.19
604.48	571.71
604.83	570.29
605.18	568.29
605.53	569.76
605.87	571.05
606.22	575.76
606.57	581.57
606.92	587.71
607.27	594.62
607.62	601.29
607.96	607.76
608.31	612.00
608.66	617.19
609.01	622.05
609.36	626.43
609.70	630.62
610.05	632.76
610.40	635.95
610.75	637.67
611.10	640.10
611.44	642.00
611.79	642.76
612.14	642.81
612.49	642.29
612.83	639.81
613.18	636.19
613.53	629.67
613.88	622.29
614.22	613.90
614.57	604.62
614.92	595.48
615.27	586.19
615.61	578.10
615.96	570.62
616.31	563.24
616.65	556.71
617.00	549.48
617.35	543.52
617.70	537.52
618.04	531.81
618.39	526.38
618.74	521.67
619.08	517.71
619.43	513.95
619.78	509.71
620.12	506.33
620.47	503.00
620.82	499.38
621.16	496.33
621.51	495.48
621.85	492.71
622.20	489.95
622.55	487.52
622.89	485.76
623.24	483.67
623.59	481.52
623.93	479.24
624.28	476.95
624.62	476.86
624.97	476.52
625.32	474.71
625.66	472.95
626.01	471.05
626.35	469.24
626.70	467.52
627.04	467.00
627.39	465.19
627.73	464.62
628.08	463.38
628.43	461.33
628.77	457.95
629.12	455.71
629.46	454.10
629.81	452.67
630.15	450.19
630.50	447.71
630.84	445.38
631.19	443.10
631.53	441.38
631.88	436.38
632.22	432.48
632.57	430.38
632.91	427.71
633.26	425.71
633.60	423.52
633.95	421.05
634.29	417.62
634.64	414.95
634.98	411.67
635.32	409.81
635.67	408.00
636.01	406.14
636.36	404.38
636.70	402.95
637.05	400.71
637.39	399.00
637.73	397.52
638.08	396.48
638.42	394.52
638.77	393.24
639.11	392.24
639.45	390.43
639.80	388.71
640.14	387.95
640.49	386.48
640.83	384.76
641.17	383.38
641.52	382.76
641.86	381.90
642.20	381.71
642.55	380.00
642.89	379.05
643.23	377.81
643.58	377.24
643.92	375.52
644.26	374.29
644.61	374.24
644.95	372.81
645.29	371.24
645.64	371.48
645.98	370.24
646.32	370.10
646.66	369.29
647.01	368.43
647.35	367.95
647.69	366.48
648.04	365.76
648.38	365.10
648.72	363.81
649.06	362.62
649.41	361.10
649.75	360.57
650.09	359.67
650.43	358.86
650.78	357.52
651.12	356.24
651.46	355.24
651.80	353.57
652.14	352.29
652.49	352.38
652.83	350.10
653.17	349.14
653.51	347.29
653.85	346.29
654.20	345.24
654.54	343.43
654.88	342.33
655.22	341.19
655.56	340.05
655.90	339.05
656.25	338.24
656.59	337.24
656.93	335.81
657.27	335.38
657.61	333.90
657.95	333.38
658.29	332.67
658.64	332.57
658.98	331.90
659.32	331.05
659.66	329.52
660.00	329.19
660.34	328.76
660.68	328.43
661.02	328.14
661.36	327.48
661.70	326.52
662.05	325.90
662.39	326.38
662.73	326.43
663.07	327.52
663.41	327.48
663.75	326.33
664.09	326.24
664.43	324.76
664.77	324.43
665.11	323.24
665.45	322.95
665.79	322.81
666.13	321.86
666.47	321.24
666.81	320.43
667.15	319.38
667.49	318.33
667.83	318.24
668.17	317.38
668.51	316.67
668.85	316.57
669.19	317.29
669.53	315.76
669.87	314.43
670.21	312.00
670.55	310.67
670.89	311.62
671.23	311.14
671.57	310.71
671.91	310.10
672.25	309.90
672.58	310.43
672.92	308.62
673.26	307.76
673.60	307.67
673.94	307.38
674.28	307.24
674.62	307.14
674.96	306.14
675.30	305.62
675.64	305.29
675.97	304.48
676.31	302.90
676.65	302.29
676.99	302.38
677.33	301.67
677.67	301.71
678.01	299.67
678.34	299.10
678.68	299.24
679.02	298.48
679.36	297.57
679.70	295.81
680.04	295.71
680.37	295.86
680.71	295.14
681.05	294.95
681.39	294.52
681.73	294.19
682.06	293.52
682.40	293.24
682.74	292.81
683.08	293.62
683.42	293.33
683.75	293.43
684.09	292.43
684.43	292.52
684.77	291.81
685.10	291.76
685.44	291.33
685.78	290.90
686.12	290.86
686.45	290.76
686.79	290.29
687.13	290.62
687.46	290.10
687.80	290.43
688.14	289.86
688.48	289.71
688.81	289.05
689.15	289.14
689.49	288.52
689.82	288.43
690.16	287.10
690.50	286.62
690.83	286.00
691.17	285.43
691.51	284.90
691.84	284.76
692.18	284.33
692.52	284.43
692.85	284.14
693.19	284.86
693.52	284.67
693.86	284.24
694.20	283.52
694.53	283.14
694.87	282.48
695.21	281.67
695.54	281.00
695.88	280.43
696.21	279.29
696.55	279.29
696.88	278.52
697.22	278.05
697.56	278.05
697.89	277.62
698.23	277.67
698.56	277.00
698.90	276.90
699.23	276.67
699.57	276.05
699.90	275.05
700.24	274.00
700.58	273.90
700.91	274.38
701.25	276.52
701.58	277.29
701.92	277.86
702.25	278.24
702.59	278.29
702.92	278.95
703.26	279.95
703.59	280.14
703.93	282.81
704.26	283.43
704.60	283.76
704.93	284.10
705.26	284.48
705.60	285.95
705.93	285.43
706.27	286.43
706.60	287.29
706.94	288.86
707.27	289.05
707.61	289.33
707.94	289.52
708.27	287.19
708.61	286.62
708.94	286.48
709.28	286.33
709.61	286.10
709.94	285.71
710.28	285.05
710.61	284.33
710.95	281.29
711.28	282.29
711.61	281.29
711.95	281.05
712.28	280.38
712.61	279.14
712.95	280.19
713.28	280.43
713.61	279.43
713.95	277.76
714.28	277.10
714.61	275.86
714.95	274.81
715.28	273.86
715.61	272.86
715.95	271.95
716.28	271.29
716.61	271.33
716.95	270.29
717.28	269.62
717.61	269.24
717.94	268.52
718.28	266.14
718.61	265.71
718.94	264.95
719.27	264.33
719.61	263.90
719.94	262.62
720.27	260.71
720.60	260.10
720.94	260.05
721.27	259.90
721.60	260.43
721.93	260.19
722.27	260.76
722.60	261.19
722.93	260.76
723.26	260.76
723.59	260.10
723.93	260.29
724.26	260.29
724.59	259.95
724.92	260.05
725.25	260.71
725.59	260.57
725.92	260.90
726.25	260.67
726.58	260.90
726.91	260.76
727.24	261.10
727.57	261.05
727.91	260.71
728.24	260.71
728.57	259.95
728.90	260.00
729.23	259.57
729.56	260.52
729.89	260.43
730.22	260.00
730.55	259.81
730.89	259.76
731.22	259.76
731.55	259.67
731.88	260.14
732.21	259.62
732.54	259.48
732.87	259.24
733.20	259.19
733.53	258.81
733.86	259.10
734.19	258.43
734.52	258.67
734.85	259.86
735.18	259.48
735.51	260.24
735.84	260.24
736.17	260.62
736.50	259.10
736.83	262.05
737.16	262.10
737.49	261.86
737.82	261.76
738.15	261.71
738.48	261.43
738.81	260.95
739.14	260.57
739.47	260.76
739.80	260.62
740.13	260.48
740.46	260.33
740.79	259.62
741.12	259.81
741.45	259.24
741.78	257.90
742.11	258.86
742.44	258.57
742.77	258.76
743.10	258.14
743.43	258.14
743.75	255.10
744.08	258.14
744.41	258.38
744.74	258.05
745.07	257.52
745.40	258.14
745.73	259.14
746.06	259.14
746.39	259.19
746.71	258.48
747.04	258.29
747.37	258.52
747.70	258.76
748.03	258.90
748.36	259.14
748.68	259.19
749.01	257.81
749.34	257.57
749.67	257.24
750.00	257.67
750.33	259.29
750.65	259.62
750.98	256.43
751.31	256.24
751.64	256.05
751.97	257.38
752.29	257.00
752.62	255.71
752.95	255.38
753.28	254.81
753.60	254.86
753.93	255.62
754.26	255.29
754.59	254.62
754.91	254.14
755.24	254.10
755.57	253.71
755.90	254.05
756.22	253.95
756.55	253.43
756.88	252.57
757.20	250.71
757.53	249.71
757.86	249.71
758.19	249.76
758.51	249.67
758.84	248.43
759.17	248.24
759.49	248.48
759.82	249.57
760.15	249.71
760.47	249.76
760.80	248.90
761.13	248.95
761.45	249.10
761.78	249.19
762.11	249.19
762.43	249.10
762.76	248.71
763.08	248.71
763.41	249.14
763.74	249.33
764.06	249.19
764.39	249.62
764.71	249.38
765.04	249.00
765.37	249.00
765.69	248.81
766.02	248.81
766.34	248.57
766.67	247.86
767.00	248.48
767.32	249.57
767.65	251.10
767.97	250.86
768.30	251.14
768.62	251.05
768.95	250.71
769.27	250.57
769.60	251.14
769.92	250.90
770.25	250.38
770.57	249.81
770.90	249.57
771.22	249.05
771.55	249.14
771.87	249.29
772.20	249.29
772.52	251.43
772.85	254.29
773.17	254.43
773.50	253.95
773.82	253.57
774.15	252.24
774.47	250.62
774.80	250.48
775.12	250.14
775.45	250.00
775.77	250.14
776.09	250.24
776.42	249.71
776.74	250.29
777.07	249.76
777.39	250.00
777.72	250.00
778.04	250.48
778.36	250.19
778.69	250.43
779.01	250.19
779.33	247.81
779.66	244.86
779.98	244.43
780.31	244.76
780.63	245.29
780.95	245.76
781.28	245.52
781.60	245.05
781.92	244.90
782.25	244.86
782.57	244.52
782.89	244.90
783.22	244.81
783.54	244.00
783.86	244.52
784.19	244.14
784.51	245.00
784.83	244.38
785.16	244.33
785.48	244.05
785.80	244.33
786.12	244.67
786.45	244.95
786.77	245.10
787.09	244.71
787.42	244.19
787.74	244.29
788.06	244.52
788.38	244.43
788.71	244.10
789.03	244.38
789.35	244.67
789.67	243.81
789.99	243.86
790.32	243.67
790.64	244.05
790.96	246.33
791.28	245.38
791.61	245.38
791.93	245.57
792.25	245.48
792.57	246.71
792.89	246.29
793.21	246.19
793.54	246.24
