SpectraSuite Data File
++++++++++++++++++++++++++++++++++++
Date: Wed Nov 07 18:31:02 EST 2012
User: group
Dark Spectrum Present: No
Reference Spectrum Present: No
Number of Sampled Component Spectra: 1
Spectrometers: USB2E7196
Integration Time (usec): 1000000 (USB2E7196)
Spectra Averaged: 1 (USB2E7196)
Boxcar Smoothing: 10 (USB2E7196)
Correct for Electrical Dark: No (USB2E7196)
Strobe/Lamp Enabled: No (USB2E7196)
Correct for Detector Non-linearity: No (USB2E7196)
Correct for Stray Light: No (USB2E7196)
Number of Pixels in Processed Spectrum: 2048
>>>>>Begin Processed Spectral Data<<<<<
339.09	0.00
339.48	221.00
339.86	221.00
340.24	223.00
340.63	228.00
341.01	266.00
341.39	232.00
341.78	237.00
342.16	239.00
342.54	232.00
342.93	226.19
343.31	237.24
343.69	238.00
344.07	238.81
344.46	239.86
344.84	240.38
345.22	238.90
345.60	239.48
345.99	239.67
346.37	239.62
346.75	239.48
347.13	239.29
347.52	239.00
347.90	239.62
348.28	239.62
348.66	240.19
349.05	238.81
349.43	239.24
349.81	239.19
350.19	239.00
350.57	239.00
350.96	238.57
351.34	238.57
351.72	238.43
352.10	238.19
352.48	237.38
352.87	236.90
353.25	236.86
353.63	236.33
354.01	236.00
354.39	236.19
354.77	236.24
355.15	236.86
355.54	237.00
355.92	236.43
356.30	236.24
356.68	237.95
357.06	238.43
357.44	237.62
357.82	237.29
358.20	237.52
358.58	237.29
358.97	237.57
359.35	238.33
359.73	238.76
360.11	238.57
360.49	238.86
360.87	239.00
361.25	239.38
361.63	240.10
362.01	240.24
362.39	239.95
362.77	240.24
363.15	240.10
363.53	240.00
363.91	240.05
364.29	240.10
364.67	238.05
365.05	238.00
365.43	238.29
365.81	238.86
366.19	239.86
366.57	240.90
366.95	240.62
367.33	239.95
367.71	240.00
368.09	240.62
368.47	240.76
368.85	240.71
369.23	241.24
369.61	240.62
369.99	241.71
370.37	242.00
370.75	243.29
371.13	242.57
371.51	242.24
371.89	242.43
372.27	243.00
372.65	243.10
373.03	242.90
373.41	243.14
373.78	243.14
374.16	241.57
374.54	240.71
374.92	240.86
375.30	241.10
375.68	240.76
376.06	240.86
376.44	240.81
376.82	241.14
377.19	240.90
377.57	241.05
377.95	240.05
378.33	239.95
378.71	238.38
379.09	239.19
379.47	239.67
379.84	239.48
380.22	238.76
380.60	238.33
380.98	238.52
381.36	238.62
381.73	238.00
382.11	239.14
382.49	239.76
382.87	239.57
383.25	239.38
383.62	242.24
384.00	241.90
384.38	242.00
384.76	242.81
385.13	243.81
385.51	243.43
385.89	243.10
386.27	243.05
386.64	243.71
387.02	243.48
387.40	243.43
387.78	243.76
388.15	244.05
388.53	243.86
388.91	243.86
389.29	243.48
389.66	243.95
390.04	243.48
390.42	243.62
390.79	243.48
391.17	243.38
391.55	240.43
391.92	240.52
392.30	240.67
392.68	239.95
393.05	239.52
393.43	239.81
393.81	240.33
394.18	240.29
394.56	240.29
394.94	240.57
395.31	239.95
395.69	240.76
396.06	241.19
396.44	241.52
396.82	241.14
397.19	242.76
397.57	242.62
397.95	243.00
398.32	242.19
398.70	242.43
399.07	243.24
399.45	243.48
399.82	243.48
400.20	243.43
400.58	243.62
400.95	243.14
401.33	244.00
401.70	245.67
402.08	245.90
402.45	246.14
402.83	246.90
403.20	247.43
403.58	247.05
403.95	247.71
404.33	248.00
404.71	248.67
405.08	249.57
405.46	249.95
405.83	250.38
406.21	251.05
406.58	251.76
406.96	252.00
407.33	252.57
407.70	253.52
408.08	256.14
408.45	256.57
408.83	257.38
409.20	257.14
409.58	256.33
409.95	257.52
410.33	258.00
410.70	258.00
411.08	259.10
411.45	260.38
411.82	261.10
412.20	262.76
412.57	265.62
412.95	265.19
413.32	267.33
413.69	268.86
414.07	270.76
414.44	272.43
414.82	274.62
415.19	277.19
415.56	279.43
415.94	280.24
416.31	283.43
416.68	286.00
417.06	289.38
417.43	293.14
417.81	296.29
418.18	300.76
418.55	304.57
418.93	308.86
419.30	312.95
419.67	317.86
420.04	322.43
420.42	326.57
420.79	334.14
421.16	339.43
421.54	346.71
421.91	352.62
422.28	359.10
422.66	365.71
423.03	373.90
423.40	380.67
423.77	387.76
424.15	395.19
424.52	403.14
424.89	412.19
425.26	419.67
425.64	427.71
426.01	435.71
426.38	445.19
426.75	455.05
427.13	463.90
427.50	472.95
427.87	482.52
428.24	491.76
428.61	499.71
428.99	511.14
429.36	520.86
429.73	532.52
430.10	544.76
430.47	557.43
430.85	569.52
431.22	583.76
431.59	601.67
431.96	615.76
432.33	631.10
432.70	646.33
433.08	663.43
433.45	679.71
433.82	696.48
434.19	713.76
434.56	729.48
434.93	745.90
435.30	761.76
435.68	779.29
436.05	797.00
436.42	813.57
436.79	828.57
437.16	845.29
437.53	861.57
437.90	877.76
438.27	893.86
438.64	909.48
439.01	923.95
439.38	934.14
439.75	945.95
440.13	959.90
440.50	972.90
440.87	983.95
441.24	994.76
441.61	1005.71
441.98	1013.48
442.35	1024.24
442.72	1035.10
443.09	1047.14
443.46	1053.48
443.83	1057.05
444.20	1060.38
444.57	1064.81
444.94	1066.86
445.31	1069.33
445.68	1073.90
446.05	1073.33
446.42	1069.90
446.79	1067.10
447.16	1062.67
447.53	1060.38
447.90	1053.24
448.27	1044.90
448.64	1035.19
449.01	1027.57
449.37	1015.19
449.74	1004.14
450.11	992.57
450.48	977.38
450.85	960.52
451.22	946.76
451.59	934.67
451.96	922.62
452.33	906.86
452.70	891.95
453.07	875.10
453.43	854.43
453.80	838.62
454.17	823.19
454.54	807.57
454.91	792.19
455.28	776.76
455.65	761.19
456.02	751.52
456.38	738.95
456.75	723.90
457.12	712.05
457.49	699.19
457.86	684.67
458.23	674.62
458.59	663.62
458.96	652.57
459.33	642.10
459.70	632.48
460.07	625.00
460.43	615.90
460.80	607.38
461.17	599.86
461.54	591.90
461.91	584.90
462.27	578.05
462.64	571.81
463.01	564.67
463.38	559.48
463.74	548.33
464.11	541.90
464.48	536.62
464.85	530.52
465.21	527.52
465.58	523.71
465.95	517.62
466.32	513.38
466.68	508.62
467.05	504.33
467.42	499.33
467.78	494.33
468.15	490.76
468.52	487.67
468.88	484.19
469.25	479.76
469.62	476.52
469.98	472.76
470.35	469.19
470.72	465.71
471.08	461.86
471.45	459.52
471.82	457.48
472.18	454.62
472.55	452.57
472.92	449.05
473.28	445.81
473.65	443.38
474.02	440.67
474.38	439.10
474.75	437.05
475.11	435.10
475.48	433.86
475.85	431.76
476.21	430.57
476.58	429.33
476.94	429.00
477.31	427.76
477.67	426.95
478.04	426.62
478.41	426.48
478.77	428.62
479.14	427.81
479.50	427.29
479.87	427.76
480.23	428.29
480.60	428.48
480.96	429.95
481.33	432.76
481.69	434.10
482.06	436.00
482.42	438.71
482.79	440.76
483.15	442.71
483.52	445.86
483.88	447.43
484.25	450.05
484.61	452.43
484.98	454.67
485.34	458.33
485.71	461.14
486.07	463.76
486.44	463.52
486.80	465.90
487.17	468.52
487.53	471.29
487.90	473.76
488.26	477.48
488.62	480.43
488.99	480.81
489.35	482.76
489.72	484.43
490.08	484.90
490.44	486.19
490.81	488.05
491.17	489.38
491.54	491.24
491.90	492.76
492.26	493.67
492.63	495.48
492.99	496.81
493.36	499.05
493.72	501.38
494.08	503.95
494.45	506.90
494.81	509.52
495.17	511.38
495.54	514.38
495.90	515.57
496.26	517.95
496.63	521.24
496.99	524.00
497.35	527.05
497.72	530.86
498.08	534.10
498.44	537.24
498.80	540.71
499.17	544.43
499.53	547.81
499.89	552.43
500.26	556.14
500.62	559.24
500.98	563.67
501.34	567.48
501.71	572.10
502.07	575.86
502.43	579.38
502.79	583.90
503.16	588.38
503.52	593.81
503.88	597.57
504.24	602.67
504.60	607.52
504.97	612.71
505.33	617.05
505.69	623.48
506.05	628.86
506.41	633.57
506.78	638.62
507.14	643.29
507.50	648.52
507.86	654.14
508.22	660.48
508.59	664.62
508.95	669.90
509.31	675.67
509.67	681.43
510.03	687.14
510.39	692.57
510.75	697.00
511.12	701.52
511.48	705.95
511.84	711.19
512.20	716.62
512.56	720.29
512.92	725.90
513.28	729.33
513.64	732.67
514.00	736.76
514.37	740.62
514.73	745.67
515.09	750.33
515.45	754.14
515.81	757.95
516.17	762.67
516.53	766.52
516.89	768.81
517.25	772.14
517.61	776.43
517.97	779.05
518.33	783.00
518.69	786.62
519.05	791.48
519.41	794.43
519.77	798.76
520.13	802.24
520.49	804.33
520.85	808.00
521.21	812.71
521.57	816.67
521.93	819.90
522.29	823.38
522.65	825.19
523.01	827.81
523.37	829.57
523.73	831.00
524.09	833.00
524.45	836.00
524.81	838.33
525.17	839.81
525.53	843.52
525.89	845.67
526.25	847.48
526.61	848.67
526.97	849.57
527.33	850.00
527.68	854.38
528.04	856.43
528.40	858.10
528.76	858.90
529.12	859.67
529.48	861.71
529.84	861.67
530.20	862.71
530.56	864.76
530.91	866.62
531.27	868.52
531.63	870.52
531.99	872.10
532.35	873.00
532.71	874.57
533.07	875.33
533.42	879.52
533.78	881.43
534.14	883.19
534.50	885.95
534.86	888.57
535.21	888.90
535.57	892.38
535.93	894.33
536.29	898.81
536.65	904.48
537.00	910.48
537.36	917.76
537.72	925.71
538.08	935.52
538.44	945.81
538.79	957.10
539.15	968.29
539.51	979.86
539.87	992.29
540.22	1004.43
540.58	1017.24
540.94	1028.67
541.29	1042.48
541.65	1055.38
542.01	1068.62
542.37	1079.81
542.72	1088.95
543.08	1094.48
543.44	1100.71
543.79	1104.33
544.15	1106.24
544.51	1106.29
544.87	1105.19
545.22	1102.76
545.58	1097.81
545.94	1090.57
546.29	1081.71
546.65	1072.67
547.01	1062.57
547.36	1051.57
547.72	1040.81
548.07	1029.33
548.43	1015.52
548.79	1001.10
549.14	987.76
549.50	974.29
549.86	961.29
550.21	950.38
550.57	941.57
550.92	932.57
551.28	925.05
551.64	917.52
551.99	910.10
552.35	903.52
552.70	896.90
553.06	890.95
553.41	885.33
553.77	883.10
554.13	879.00
554.48	875.67
554.84	872.10
555.19	868.52
555.55	867.05
555.90	863.33
556.26	860.14
556.61	856.86
556.97	852.33
557.32	849.29
557.68	846.38
558.03	843.48
558.39	840.57
558.74	836.81
559.10	834.52
559.45	832.38
559.81	830.10
560.16	828.81
560.52	826.29
560.87	824.67
561.23	821.19
561.58	820.95
561.94	818.05
562.29	816.81
562.64	814.57
563.00	809.95
563.35	808.14
563.71	806.90
564.06	804.95
564.42	803.38
564.77	801.52
565.12	799.95
565.48	800.86
565.83	799.90
566.19	798.95
566.54	796.86
566.89	795.05
567.25	794.81
567.60	794.52
567.96	795.90
568.31	796.71
568.66	796.33
569.02	793.33
569.37	792.76
569.72	791.62
570.08	790.52
570.43	789.29
570.78	788.29
571.14	786.33
571.49	785.00
571.84	784.29
572.20	783.86
572.55	782.38
572.90	779.24
573.26	778.19
573.61	776.48
573.96	776.33
574.31	775.71
574.67	774.05
575.02	772.19
575.37	768.95
575.72	767.00
576.08	765.10
576.43	764.52
576.78	763.67
577.13	762.19
577.49	762.14
577.84	761.52
578.19	761.43
578.54	762.29
578.90	762.33
579.25	762.62
579.60	762.14
579.95	761.86
580.30	762.19
580.66	762.05
581.01	762.48
581.36	761.33
581.71	760.90
582.06	761.38
582.42	760.43
582.77	759.52
583.12	758.71
583.47	758.29
583.82	757.43
584.17	756.57
584.53	756.48
584.88	754.24
585.23	753.95
585.58	751.86
585.93	748.38
586.28	746.76
586.63	744.10
586.98	742.62
587.34	740.43
587.69	737.00
588.04	734.71
588.39	731.48
588.74	728.29
589.09	726.43
589.44	721.00
589.79	717.05
590.14	713.48
590.49	708.76
590.84	704.33
591.19	700.76
591.54	697.33
591.89	693.14
592.25	691.62
592.60	686.52
592.95	682.81
593.30	680.57
593.65	676.86
594.00	673.10
594.35	675.86
594.70	671.33
595.05	667.52
595.40	663.48
595.75	660.29
596.10	657.24
596.45	653.14
596.80	650.57
597.15	647.81
597.50	644.38
597.85	642.52
598.19	639.33
598.54	635.76
598.89	631.52
599.24	628.57
599.59	622.71
599.94	620.24
600.29	617.43
600.64	613.57
600.99	611.14
601.34	609.19
601.69	599.52
602.04	596.90
602.39	594.71
602.74	592.62
603.08	589.86
603.43	588.57
603.78	586.67
604.13	585.00
604.48	583.05
604.83	582.57
605.18	582.67
605.53	584.29
605.87	587.86
606.22	593.81
606.57	601.24
606.92	611.14
607.27	620.67
607.62	630.00
607.96	639.95
608.31	647.43
608.66	653.81
609.01	660.52
609.36	667.29
609.70	673.33
610.05	678.52
610.40	683.24
610.75	686.43
611.10	690.10
611.44	693.14
611.79	696.05
612.14	696.86
612.49	695.29
612.83	693.38
613.18	688.05
613.53	680.81
613.88	671.38
614.22	660.43
614.57	648.57
614.92	636.71
615.27	625.52
615.61	615.43
615.96	605.90
616.31	596.10
616.65	588.33
617.00	579.76
617.35	571.76
617.70	564.29
618.04	557.19
618.39	549.81
618.74	544.10
619.08	538.33
619.43	533.57
619.78	529.95
620.12	525.24
620.47	522.24
620.82	519.52
621.16	516.24
621.51	514.67
621.85	511.57
622.20	509.67
622.55	506.10
622.89	503.29
623.24	500.95
623.59	498.24
623.93	495.62
624.28	492.86
624.62	492.81
624.97	492.24
625.32	489.95
625.66	488.14
626.01	485.33
626.35	483.38
626.70	481.38
627.04	479.76
627.39	478.52
627.73	477.43
628.08	475.38
628.43	473.14
628.77	469.52
629.12	467.86
629.46	465.33
629.81	463.33
630.15	461.00
630.50	458.62
630.84	456.76
631.19	454.14
631.53	452.00
631.88	447.14
632.22	443.00
632.57	441.24
632.91	438.95
633.26	436.95
633.60	434.14
633.95	431.19
634.29	428.05
634.64	425.38
634.98	421.67
635.32	419.48
635.67	417.62
636.01	415.10
636.36	412.57
636.70	411.14
637.05	409.29
637.39	407.05
637.73	405.05
638.08	403.90
638.42	401.71
638.77	400.29
639.11	398.62
639.45	396.86
639.80	394.76
640.14	393.05
640.49	391.57
640.83	390.00
641.17	389.19
641.52	387.62
641.86	386.05
642.20	386.29
642.55	384.43
642.89	382.76
643.23	382.10
643.58	381.90
643.92	379.38
644.26	378.29
644.61	377.48
644.95	377.43
645.29	375.95
645.64	376.14
645.98	375.10
646.32	374.33
646.66	373.71
647.01	372.71
647.35	372.38
647.69	371.38
648.04	370.76
648.38	369.62
648.72	368.67
649.06	367.86
649.41	365.81
649.75	365.10
650.09	364.86
650.43	363.81
650.78	362.19
651.12	362.00
651.46	361.05
651.80	360.10
652.14	358.57
652.49	358.14
652.83	356.24
653.17	354.90
653.51	353.52
653.85	352.52
654.20	351.29
654.54	349.67
654.88	348.24
655.22	346.38
655.56	344.62
655.90	343.67
656.25	342.38
656.59	341.43
656.93	340.33
657.27	339.71
657.61	338.71
657.95	338.10
658.29	337.29
658.64	336.90
658.98	336.71
659.32	336.00
659.66	334.86
660.00	334.24
660.34	333.62
660.68	333.05
661.02	332.29
661.36	331.24
661.70	330.14
662.05	329.48
662.39	329.67
662.73	330.33
663.07	330.86
663.41	330.57
663.75	329.71
664.09	329.38
664.43	328.05
664.77	327.24
665.11	326.57
665.45	325.86
665.79	325.33
666.13	324.10
666.47	322.86
666.81	322.38
667.15	321.57
667.49	321.33
667.83	321.52
668.17	320.95
668.51	321.05
668.85	320.90
669.19	321.48
669.53	320.67
669.87	319.52
670.21	317.43
670.55	316.95
670.89	317.67
671.23	316.52
671.57	315.71
671.91	315.67
672.25	315.00
672.58	315.05
672.92	313.67
673.26	313.10
673.60	312.71
673.94	312.00
674.28	311.52
674.62	311.33
674.96	310.00
675.30	310.00
675.64	309.19
675.97	308.33
676.31	307.05
676.65	306.29
676.99	306.33
677.33	306.14
677.67	305.71
678.01	303.81
678.34	303.71
678.68	303.76
679.02	302.81
679.36	301.95
679.70	300.67
680.04	300.38
680.37	300.05
680.71	299.57
681.05	299.00
681.39	298.57
681.73	297.71
682.06	297.48
682.40	296.29
682.74	296.24
683.08	296.86
683.42	296.24
683.75	296.71
684.09	295.76
684.43	295.62
684.77	295.05
685.10	295.14
685.44	294.67
685.78	293.86
686.12	293.62
686.45	293.29
686.79	292.86
687.13	292.90
687.46	292.48
687.80	292.81
688.14	292.48
688.48	292.67
688.81	292.52
689.15	292.76
689.49	292.62
689.82	292.52
690.16	291.14
690.50	291.10
690.83	289.81
691.17	288.67
691.51	288.00
691.84	287.57
692.18	286.71
692.52	286.19
692.85	285.95
693.19	286.48
693.52	286.19
693.86	286.00
694.20	285.67
694.53	285.19
694.87	284.10
695.21	282.95
695.54	282.38
695.88	281.05
696.21	279.67
696.55	279.24
696.88	278.43
697.22	277.76
697.56	277.43
697.89	277.43
698.23	277.62
698.56	277.14
698.90	277.19
699.23	277.14
699.57	276.90
699.90	276.57
700.24	275.38
700.58	275.57
700.91	275.62
701.25	277.67
701.58	278.67
701.92	279.67
702.25	280.48
702.59	280.38
702.92	281.38
703.26	282.29
703.59	282.76
703.93	285.67
704.26	287.00
704.60	287.29
704.93	287.62
705.26	288.24
705.60	289.19
705.93	289.19
706.27	290.38
706.60	291.33
706.94	292.76
707.27	293.71
707.61	293.95
707.94	294.19
708.27	292.19
708.61	291.33
708.94	290.57
709.28	290.62
709.61	289.67
709.94	289.29
710.28	288.76
710.61	287.95
710.95	284.52
711.28	285.14
711.61	284.33
711.95	283.76
712.28	282.38
712.61	281.10
712.95	281.71
713.28	281.33
713.61	279.81
713.95	278.19
714.28	276.81
714.61	275.86
714.95	274.67
715.28	273.38
715.61	272.48
715.95	272.00
716.28	270.71
716.61	270.76
716.95	269.52
717.28	268.48
717.61	268.14
717.94	267.95
718.28	265.71
718.61	265.05
718.94	264.29
719.27	264.14
719.61	264.29
719.94	262.76
720.27	261.71
720.60	261.52
720.94	261.38
721.27	261.48
721.60	261.29
721.93	261.05
722.27	261.62
722.60	261.81
722.93	261.52
723.26	261.43
723.59	260.95
723.93	261.38
724.26	261.67
724.59	261.33
724.92	261.00
725.25	261.43
725.59	261.29
725.92	261.48
726.25	261.33
726.58	260.86
726.91	260.86
727.24	260.86
727.57	260.76
727.91	260.19
728.24	260.00
728.57	259.67
728.90	260.00
729.23	259.19
729.56	259.95
729.89	259.81
730.22	259.71
730.55	259.52
730.89	259.38
731.22	259.14
731.55	259.00
731.88	259.05
732.21	258.52
732.54	258.43
732.87	258.14
733.20	257.81
733.53	257.95
733.86	257.81
734.19	257.24
734.52	257.33
734.85	259.00
735.18	258.67
735.51	259.24
735.84	258.95
736.17	259.71
736.50	258.24
736.83	261.00
737.16	261.00
737.49	261.05
737.82	260.52
738.15	260.71
738.48	260.62
738.81	260.62
739.14	260.29
739.47	260.10
739.80	260.24
740.13	260.90
740.46	260.24
740.79	260.19
741.12	260.00
741.45	259.76
741.78	258.33
742.11	258.81
742.44	258.38
742.77	259.05
743.10	258.38
743.43	258.33
743.75	255.67
744.08	258.86
744.41	258.57
744.74	258.29
745.07	257.43
745.40	257.81
745.73	258.48
746.06	258.48
746.39	258.86
746.71	258.14
747.04	257.38
747.37	257.62
747.70	257.90
748.03	257.90
748.36	258.10
748.68	258.00
749.01	257.33
749.34	257.00
749.67	256.71
750.00	257.14
750.33	259.14
750.65	259.33
750.98	255.90
751.31	255.81
751.64	256.38
751.97	258.00
752.29	257.52
752.62	256.33
752.95	256.00
753.28	255.43
753.60	255.48
753.93	256.10
754.26	255.95
754.59	254.90
754.91	254.52
755.24	254.24
755.57	253.86
755.90	253.90
756.22	253.67
756.55	252.86
756.88	251.90
757.20	249.95
757.53	248.81
757.86	248.67
758.19	248.95
758.51	248.52
758.84	247.48
759.17	247.57
759.49	247.76
759.82	249.19
760.15	249.38
760.47	249.48
760.80	248.81
761.13	249.33
761.45	249.38
761.78	249.38
762.11	249.14
762.43	249.00
762.76	248.48
763.08	248.76
763.41	249.00
763.74	249.48
764.06	249.29
764.39	249.43
764.71	249.76
765.04	249.48
765.37	249.57
765.69	248.95
766.02	248.57
766.34	248.19
766.67	246.76
767.00	247.05
767.32	248.10
767.65	249.33
767.97	249.19
768.30	249.48
768.62	249.62
768.95	249.33
769.27	249.14
769.60	249.76
769.92	249.24
770.25	248.52
770.57	247.71
770.90	247.57
771.22	247.52
771.55	247.19
771.87	247.10
772.20	246.81
772.52	248.95
772.85	251.67
773.17	251.86
773.50	252.10
773.82	252.05
774.15	250.95
774.47	249.48
774.80	248.90
775.12	248.86
775.45	248.71
775.77	249.05
776.09	249.43
776.42	249.29
776.74	250.10
777.07	250.57
777.39	250.95
777.72	250.86
778.04	251.05
778.36	250.81
778.69	250.86
779.01	251.05
779.33	248.57
779.66	246.00
779.98	245.67
780.31	245.71
780.63	246.29
780.95	246.86
781.28	246.57
781.60	246.19
781.92	246.10
782.25	246.10
782.57	245.86
782.89	245.57
783.22	245.43
783.54	245.05
783.86	244.76
784.19	244.52
784.51	245.19
784.83	245.00
785.16	245.10
785.48	245.19
785.80	245.10
786.12	245.43
786.45	245.38
786.77	245.67
787.09	245.43
787.42	244.62
787.74	244.38
788.06	244.57
788.38	244.52
788.71	243.90
789.03	243.81
789.35	243.90
789.67	243.57
789.99	243.57
790.32	243.10
790.64	243.38
790.96	245.14
791.28	244.38
791.61	244.29
791.93	244.48
792.25	244.19
792.57	246.05
792.89	245.57
793.21	245.52
