SpectraSuite Data File
++++++++++++++++++++++++++++++++++++
Date: Wed Nov 07 18:31:51 EST 2012
User: group
Dark Spectrum Present: No
Reference Spectrum Present: No
Number of Sampled Component Spectra: 1
Spectrometers: USB2E7196
Integration Time (usec): 1000000 (USB2E7196)
Spectra Averaged: 1 (USB2E7196)
Boxcar Smoothing: 10 (USB2E7196)
Correct for Electrical Dark: No (USB2E7196)
Strobe/Lamp Enabled: No (USB2E7196)
Correct for Detector Non-linearity: No (USB2E7196)
Correct for Stray Light: No (USB2E7196)
Number of Pixels in Processed Spectrum: 2048
>>>>>Begin Processed Spectral Data<<<<<
339.09	0.00
339.48	221.00
339.86	224.00
340.24	224.00
340.63	229.00
341.01	258.00
341.39	233.00
341.78	230.00
342.16	237.00
342.54	231.00
342.93	224.29
343.31	235.38
343.69	235.95
344.07	236.38
344.46	237.48
344.84	237.90
345.22	236.90
345.60	237.00
345.99	237.24
346.37	237.19
346.75	237.29
347.13	237.19
347.52	237.33
347.90	238.14
348.28	238.19
348.66	238.76
349.05	237.86
349.43	238.19
349.81	238.48
350.19	238.38
350.57	238.38
350.96	238.71
351.34	238.81
351.72	238.71
352.10	238.81
352.48	238.24
352.87	237.95
353.25	238.05
353.63	237.81
354.01	237.48
354.39	237.43
354.77	237.43
355.15	238.14
355.54	237.71
355.92	237.00
356.30	236.67
356.68	238.14
357.06	238.19
357.44	237.81
357.82	237.52
358.20	237.90
358.58	237.81
358.97	237.81
359.35	238.43
359.73	239.05
360.11	238.81
360.49	238.62
360.87	238.57
361.25	238.62
361.63	239.86
362.01	240.62
362.39	240.48
362.77	240.86
363.15	240.57
363.53	240.62
363.91	240.67
364.29	240.67
364.67	238.48
365.05	238.43
365.43	238.71
365.81	239.05
366.19	239.95
366.57	240.81
366.95	240.62
367.33	239.90
367.71	239.95
368.09	240.71
368.47	240.95
368.85	241.10
369.23	241.62
369.61	240.48
369.99	241.00
370.37	241.38
370.75	242.48
371.13	242.29
371.51	242.00
371.89	242.29
372.27	242.38
372.65	242.62
373.03	242.81
373.41	242.48
373.78	242.14
374.16	240.90
374.54	240.48
374.92	240.24
375.30	240.29
375.68	239.67
376.06	239.62
376.44	239.48
376.82	239.81
377.19	239.62
377.57	239.67
377.95	238.76
378.33	238.62
378.71	237.19
379.09	237.57
379.47	237.81
379.84	237.57
380.22	237.52
380.60	236.90
380.98	236.62
381.36	236.71
381.73	236.62
382.11	237.29
382.49	237.48
382.87	237.29
383.25	237.38
383.62	240.24
384.00	239.90
384.38	239.86
384.76	240.29
385.13	241.19
385.51	241.24
385.89	241.05
386.27	240.95
386.64	241.14
387.02	240.76
387.40	240.33
387.78	240.71
388.15	240.38
388.53	240.81
388.91	240.67
389.29	240.67
389.66	241.29
390.04	240.86
390.42	241.00
390.79	241.19
391.17	241.29
391.55	238.76
391.92	238.71
392.30	239.05
392.68	238.19
393.05	238.00
393.43	237.95
393.81	238.00
394.18	237.81
394.56	238.00
394.94	238.86
395.31	239.10
395.69	239.71
396.06	240.57
396.44	240.76
396.82	241.00
397.19	242.14
397.57	241.81
397.95	242.33
398.32	241.57
398.70	241.90
399.07	242.62
399.45	242.43
399.82	242.33
400.20	242.43
400.58	242.67
400.95	241.76
401.33	242.62
401.70	244.62
402.08	244.86
402.45	245.29
402.83	245.71
403.20	245.81
403.58	245.67
403.95	246.10
404.33	246.62
404.71	246.90
405.08	248.71
405.46	248.81
405.83	249.19
406.21	249.76
406.58	250.57
406.96	250.48
407.33	251.38
407.70	252.62
408.08	255.10
408.45	256.29
408.83	257.43
409.20	257.62
409.58	256.81
409.95	258.33
410.33	259.19
410.70	259.62
411.08	261.29
411.45	262.14
411.82	262.62
412.20	264.33
412.57	266.86
412.95	265.81
413.32	268.14
413.69	269.19
414.07	271.10
414.44	272.67
414.82	274.52
415.19	276.81
415.56	279.05
415.94	279.67
416.31	282.62
416.68	285.29
417.06	288.71
417.43	292.81
417.81	296.14
418.18	299.71
418.55	303.33
418.93	307.29
419.30	311.62
419.67	316.52
420.04	320.62
420.42	325.19
420.79	332.81
421.16	338.29
421.54	346.00
421.91	352.14
422.28	358.19
422.66	365.10
423.03	373.71
423.40	380.52
423.77	388.05
424.15	395.14
424.52	403.05
424.89	411.29
425.26	418.48
425.64	426.48
426.01	434.81
426.38	443.57
426.75	453.19
427.13	462.76
427.50	472.29
427.87	481.86
428.24	491.43
428.61	499.24
428.99	510.48
429.36	520.38
429.73	531.86
430.10	544.62
430.47	557.00
430.85	567.81
431.22	581.19
431.59	597.00
431.96	609.86
432.33	624.81
432.70	639.43
433.08	656.19
433.45	671.48
433.82	687.05
434.19	703.95
434.56	719.76
434.93	734.86
435.30	750.05
435.68	767.67
436.05	783.95
436.42	800.57
436.79	815.90
437.16	832.38
437.53	848.86
437.90	865.33
438.27	881.38
438.64	897.48
439.01	912.48
439.38	923.90
439.75	937.00
440.13	950.95
440.50	965.19
440.87	975.52
441.24	987.38
441.61	999.29
441.98	1008.00
442.35	1019.43
442.72	1030.71
443.09	1043.10
443.46	1048.86
443.83	1052.38
444.20	1055.52
444.57	1059.48
444.94	1060.86
445.31	1063.90
445.68	1068.38
446.05	1068.33
446.42	1065.71
446.79	1063.48
447.16	1059.62
447.53	1056.90
447.90	1049.95
448.27	1041.48
448.64	1031.67
449.01	1024.62
449.37	1012.95
449.74	1001.67
450.11	989.38
450.48	973.57
450.85	956.86
451.22	944.43
451.59	932.67
451.96	920.52
452.33	904.62
452.70	890.57
453.07	872.67
453.43	851.67
453.80	835.52
454.17	819.57
454.54	803.86
454.91	788.57
455.28	773.48
455.65	758.86
456.02	749.52
456.38	738.24
456.75	722.86
457.12	710.00
457.49	697.90
457.86	683.62
458.23	674.38
458.59	663.67
458.96	651.43
459.33	641.38
459.70	631.57
460.07	624.43
460.43	614.90
460.80	607.00
461.17	599.14
461.54	591.24
461.91	583.67
462.27	575.71
462.64	568.95
463.01	561.48
463.38	555.57
463.74	543.67
464.11	537.24
464.48	531.86
464.85	525.76
465.21	521.81
465.58	517.81
465.95	511.71
466.32	506.19
466.68	501.81
467.05	497.67
467.42	492.76
467.78	487.00
468.15	482.57
468.52	479.19
468.88	475.05
469.25	470.67
469.62	467.76
469.98	464.57
470.35	461.67
470.72	459.24
471.08	454.71
471.45	452.52
471.82	449.86
472.18	446.33
472.55	445.10
472.92	441.76
473.28	438.62
473.65	436.24
474.02	434.29
474.38	432.71
474.75	430.19
475.11	428.24
475.48	427.48
475.85	426.33
476.21	424.48
476.58	423.76
476.94	422.71
477.31	421.90
477.67	420.86
478.04	420.10
478.41	419.10
478.77	421.24
479.14	420.00
479.50	419.14
479.87	419.43
480.23	418.71
480.60	418.76
480.96	418.95
481.33	420.24
481.69	420.71
482.06	420.95
482.42	421.48
482.79	422.52
483.15	422.95
483.52	424.43
483.88	425.24
484.25	426.43
484.61	427.76
484.98	428.71
485.34	430.76
485.71	432.29
486.07	434.05
486.44	433.10
486.80	434.71
487.17	436.43
487.53	438.57
487.90	440.67
488.26	443.52
488.62	445.71
488.99	446.71
489.35	448.29
489.72	450.24
490.08	452.38
490.44	454.29
490.81	456.76
491.17	458.38
491.54	460.90
491.90	462.81
492.26	465.00
492.63	467.62
492.99	469.48
493.36	472.24
493.72	474.67
494.08	477.43
494.45	481.33
494.81	484.43
495.17	486.76
495.54	490.10
495.90	492.19
496.26	495.86
496.63	499.90
496.99	503.43
497.35	507.48
497.72	511.67
498.08	515.57
498.44	519.71
498.80	523.90
499.17	528.05
499.53	533.00
499.89	537.71
500.26	541.95
500.62	546.76
500.98	551.76
501.34	556.67
501.71	562.14
502.07	566.95
502.43	572.00
502.79	577.43
503.16	581.95
503.52	586.48
503.88	590.48
504.24	595.43
504.60	600.81
504.97	605.62
505.33	610.14
505.69	616.14
506.05	620.76
506.41	625.86
506.78	630.57
507.14	635.29
507.50	640.19
507.86	646.29
508.22	652.24
508.59	656.67
508.95	662.14
509.31	668.38
509.67	673.33
510.03	678.67
510.39	683.71
510.75	689.86
511.12	695.71
511.48	701.00
511.84	705.62
512.20	710.81
512.56	716.10
512.92	721.95
513.28	726.90
513.64	731.81
514.00	736.71
514.37	741.95
514.73	746.71
515.09	752.00
515.45	755.71
515.81	759.67
516.17	763.81
516.53	767.33
516.89	769.43
517.25	773.10
517.61	777.33
517.97	780.95
518.33	785.00
518.69	789.05
519.05	793.90
519.41	798.14
519.77	802.81
520.13	806.05
520.49	808.95
520.85	811.67
521.21	816.71
521.57	819.76
521.93	821.76
522.29	824.95
522.65	825.71
523.01	827.90
523.37	829.38
523.73	832.57
524.09	835.38
524.45	837.76
524.81	840.14
525.17	841.57
525.53	844.19
525.89	845.14
526.25	846.76
526.61	847.19
526.97	848.24
527.33	849.48
527.68	853.24
528.04	854.95
528.40	856.43
528.76	857.19
529.12	859.19
529.48	861.00
529.84	861.67
530.20	864.76
530.56	866.52
530.91	869.33
531.27	870.29
531.63	871.14
531.99	872.14
532.35	873.71
532.71	874.48
533.07	874.10
533.42	878.10
533.78	878.24
534.14	880.24
534.50	881.14
534.86	882.76
535.21	881.71
535.57	883.33
535.93	883.76
536.29	885.14
536.65	886.57
537.00	888.71
537.36	890.38
537.72	892.43
538.08	895.95
538.44	896.71
538.79	898.71
539.15	901.29
539.51	903.57
539.87	904.76
540.22	907.81
540.58	911.48
540.94	911.38
541.29	914.14
541.65	915.33
542.01	918.38
542.37	920.10
542.72	921.29
543.08	920.86
543.44	922.33
543.79	921.24
544.15	920.71
544.51	920.33
544.87	920.33
545.22	918.57
545.58	915.52
545.94	913.14
546.29	911.00
546.65	908.90
547.01	906.95
547.36	905.00
547.72	902.00
548.07	898.38
548.43	894.29
548.79	890.95
549.14	888.24
549.50	885.38
549.86	880.57
550.21	877.19
550.57	875.05
550.92	872.29
551.28	870.67
551.64	868.48
551.99	865.43
552.35	862.33
552.70	859.52
553.06	857.33
553.41	856.05
553.77	855.24
554.13	852.24
554.48	849.38
554.84	847.71
555.19	845.52
555.55	846.19
555.90	845.00
556.26	842.57
556.61	840.48
556.97	837.14
557.32	835.95
557.68	833.86
558.03	832.38
558.39	830.29
558.74	827.76
559.10	824.86
559.45	823.71
559.81	821.67
560.16	820.19
560.52	819.19
560.87	817.48
561.23	814.29
561.58	815.52
561.94	814.90
562.29	812.57
562.64	811.33
563.00	806.90
563.35	805.10
563.71	803.14
564.06	801.38
564.42	800.33
564.77	798.52
565.12	797.57
565.48	798.14
565.83	797.62
566.19	796.14
566.54	795.38
566.89	793.24
567.25	793.19
567.60	794.05
567.96	794.24
568.31	794.86
568.66	794.76
569.02	790.33
569.37	788.48
569.72	787.71
570.08	786.52
570.43	785.33
570.78	783.52
571.14	783.48
571.49	782.48
571.84	780.71
572.20	779.57
572.55	778.14
572.90	774.29
573.26	772.05
573.61	770.24
573.96	768.90
574.31	768.57
574.67	766.38
575.02	763.38
575.37	759.38
575.72	755.43
576.08	753.86
576.43	753.62
576.78	751.95
577.13	749.67
577.49	748.24
577.84	747.14
578.19	746.90
578.54	745.00
578.90	743.24
579.25	742.48
579.60	741.43
579.95	740.57
580.30	739.90
580.66	738.52
581.01	737.81
581.36	736.14
581.71	733.86
582.06	733.52
582.42	732.62
582.77	731.43
583.12	731.24
583.47	729.86
583.82	728.57
584.17	728.10
584.53	727.86
584.88	726.29
585.23	724.95
585.58	722.95
585.93	721.71
586.28	719.86
586.63	717.52
586.98	715.43
587.34	713.00
587.69	709.76
588.04	707.62
588.39	704.67
588.74	702.48
589.09	700.43
589.44	696.57
589.79	693.62
590.14	690.76
590.49	687.33
590.84	683.81
591.19	679.95
591.54	676.52
591.89	672.57
592.25	671.19
592.60	667.14
592.95	663.57
593.30	661.14
593.65	657.90
594.00	654.24
594.35	657.67
594.70	654.29
595.05	651.95
595.40	649.33
595.75	647.19
596.10	645.00
596.45	642.43
596.80	639.14
597.15	635.95
597.50	633.14
597.85	631.81
598.19	629.19
598.54	626.62
598.89	623.95
599.24	621.90
599.59	618.00
599.94	616.19
600.29	613.71
600.64	610.71
600.99	609.62
601.34	608.19
601.69	599.62
602.04	597.14
602.39	594.05
602.74	591.90
603.08	588.81
603.43	587.14
603.78	584.90
604.13	583.52
604.48	581.76
604.83	581.33
605.18	579.57
605.53	579.67
605.87	581.52
606.22	584.90
606.57	589.43
606.92	594.14
607.27	600.05
607.62	605.00
607.96	610.14
608.31	614.48
608.66	618.81
609.01	622.00
609.36	626.24
609.70	630.38
610.05	633.62
610.40	637.14
610.75	638.67
611.10	640.24
611.44	641.52
611.79	642.67
612.14	642.38
612.49	641.10
612.83	639.24
613.18	635.24
613.53	629.14
613.88	621.57
614.22	613.71
614.57	605.24
614.92	597.52
615.27	589.95
615.61	581.38
615.96	573.71
616.31	567.62
616.65	561.00
617.00	554.05
617.35	547.19
617.70	540.81
618.04	535.19
618.39	530.05
618.74	526.05
619.08	521.29
619.43	517.29
619.78	514.19
620.12	510.71
620.47	508.43
620.82	505.67
621.16	502.67
621.51	501.24
621.85	498.29
622.20	496.29
622.55	493.14
622.89	491.24
623.24	489.38
623.59	486.29
623.93	484.10
624.28	482.43
624.62	482.90
624.97	482.71
625.32	480.67
625.66	478.81
626.01	475.86
626.35	474.43
626.70	472.52
627.04	470.86
627.39	469.71
627.73	468.57
628.08	467.24
628.43	465.10
628.77	461.29
629.12	459.71
629.46	457.38
629.81	455.48
630.15	453.29
630.50	451.00
630.84	449.43
631.19	447.33
631.53	445.29
631.88	440.76
632.22	436.52
632.57	434.24
632.91	432.10
633.26	430.33
633.60	427.57
633.95	425.05
634.29	422.57
634.64	419.86
634.98	416.24
635.32	413.90
635.67	412.71
636.01	411.19
636.36	408.71
636.70	407.86
637.05	406.05
637.39	404.33
637.73	403.10
638.08	401.33
638.42	399.48
638.77	398.38
639.11	396.43
639.45	394.95
639.80	393.52
640.14	392.29
640.49	391.05
640.83	389.81
641.17	388.67
641.52	387.14
641.86	385.81
642.20	385.71
642.55	384.33
642.89	382.86
643.23	382.57
643.58	382.52
643.92	380.43
644.26	379.52
644.61	379.14
644.95	377.62
645.29	376.52
645.64	376.76
645.98	375.57
646.32	375.24
646.66	374.52
647.01	373.14
647.35	371.95
647.69	371.52
648.04	370.81
648.38	369.52
648.72	368.38
649.06	366.86
649.41	365.19
649.75	364.19
650.09	363.52
650.43	362.05
650.78	360.05
651.12	359.05
651.46	357.57
651.80	356.24
652.14	355.05
652.49	355.10
652.83	353.00
653.17	351.71
653.51	350.38
653.85	350.00
654.20	349.48
654.54	348.29
654.88	346.52
655.22	345.05
655.56	344.29
655.90	343.57
656.25	342.86
656.59	342.14
656.93	341.10
657.27	340.76
657.61	339.76
657.95	339.67
658.29	338.95
658.64	339.00
658.98	337.86
659.32	337.29
659.66	335.95
660.00	335.62
660.34	334.86
660.68	334.38
661.02	333.52
661.36	332.90
661.70	332.43
662.05	331.95
662.39	332.38
662.73	332.33
663.07	332.71
663.41	332.29
663.75	331.48
664.09	330.90
664.43	330.00
664.77	329.29
665.11	328.10
665.45	327.52
665.79	327.38
666.13	326.71
666.47	325.48
666.81	324.43
667.15	323.00
667.49	322.81
667.83	322.95
668.17	322.00
668.51	321.14
668.85	320.62
669.19	320.76
669.53	319.29
669.87	318.29
670.21	316.57
670.55	316.00
670.89	316.43
671.23	315.95
671.57	315.10
671.91	314.62
672.25	314.05
672.58	314.38
672.92	312.52
673.26	312.10
673.60	312.48
673.94	311.76
674.28	311.62
674.62	310.90
674.96	309.71
675.30	309.52
675.64	309.10
675.97	308.52
676.31	307.38
676.65	306.71
676.99	306.95
677.33	306.19
677.67	305.67
678.01	303.57
678.34	303.48
678.68	303.43
679.02	302.81
679.36	302.33
679.70	300.76
680.04	300.62
680.37	300.33
680.71	299.29
681.05	298.67
681.39	298.05
681.73	297.24
682.06	296.14
682.40	295.43
682.74	294.86
683.08	295.24
683.42	294.62
683.75	295.10
684.09	293.86
684.43	293.95
684.77	293.33
685.10	293.24
685.44	292.38
685.78	291.29
686.12	291.24
686.45	290.76
686.79	290.33
687.13	290.29
687.46	289.76
687.80	289.95
688.14	290.05
688.48	289.95
688.81	290.19
689.15	290.71
689.49	290.38
689.82	290.57
690.16	289.14
690.50	288.67
690.83	287.62
691.17	287.10
691.51	286.43
691.84	286.57
692.18	285.76
692.52	285.38
692.85	285.57
693.19	285.76
693.52	285.38
693.86	284.95
694.20	284.33
694.53	284.05
694.87	283.33
695.21	282.29
695.54	281.71
695.88	280.67
696.21	279.29
696.55	278.76
696.88	278.10
697.22	277.81
697.56	277.86
697.89	277.14
698.23	276.86
698.56	276.38
698.90	275.86
699.23	275.76
699.57	275.67
699.90	274.86
700.24	274.00
700.58	274.19
700.91	274.48
701.25	276.48
701.58	277.00
701.92	277.90
702.25	278.62
702.59	278.76
702.92	279.29
703.26	280.24
703.59	280.81
703.93	283.29
704.26	284.29
704.60	284.62
704.93	285.14
705.26	285.71
705.60	286.62
705.93	286.57
706.27	288.05
706.60	289.14
706.94	290.86
707.27	290.90
707.61	290.95
707.94	291.00
708.27	289.14
708.61	288.43
708.94	287.86
709.28	287.62
709.61	287.19
709.94	286.76
710.28	286.43
710.61	285.29
710.95	282.24
711.28	282.81
711.61	282.24
711.95	282.05
712.28	280.57
712.61	279.71
712.95	280.76
713.28	280.38
713.61	279.05
713.95	277.19
714.28	276.43
714.61	275.76
714.95	274.67
715.28	273.24
715.61	272.57
715.95	271.71
716.28	270.86
716.61	270.71
716.95	269.71
717.28	269.05
717.61	269.05
717.94	268.67
718.28	266.33
718.61	265.48
718.94	264.24
719.27	264.67
719.61	264.10
719.94	262.81
720.27	261.71
720.60	261.19
720.94	261.38
721.27	261.19
721.60	261.29
721.93	261.24
722.27	262.48
722.60	262.52
722.93	262.48
723.26	262.57
723.59	261.95
723.93	262.29
724.26	262.14
724.59	261.71
724.92	261.62
725.25	262.29
725.59	262.05
725.92	262.76
726.25	262.48
726.58	262.71
726.91	262.19
727.24	262.00
727.57	261.95
727.91	261.00
728.24	261.19
728.57	261.00
728.90	260.90
729.23	259.62
729.56	260.62
729.89	260.33
730.22	259.81
730.55	259.81
730.89	259.71
731.22	259.52
731.55	259.76
731.88	259.62
732.21	259.05
732.54	258.86
732.87	258.33
733.20	258.29
733.53	258.05
733.86	258.10
734.19	257.52
734.52	257.33
734.85	259.05
735.18	258.52
735.51	259.00
735.84	259.24
736.17	259.90
736.50	258.38
736.83	261.29
737.16	261.33
737.49	261.24
737.82	260.86
738.15	260.76
738.48	260.57
738.81	260.24
739.14	259.62
739.47	259.62
739.80	259.62
740.13	259.81
740.46	259.38
740.79	258.90
741.12	259.24
741.45	258.76
741.78	257.29
742.11	258.05
742.44	257.14
742.77	257.33
743.10	256.67
743.43	256.38
743.75	253.43
744.08	256.19
744.41	256.05
744.74	256.00
745.07	255.52
745.40	255.38
745.73	256.76
746.06	256.81
746.39	256.90
746.71	256.86
747.04	256.14
747.37	256.00
747.70	256.43
748.03	256.10
748.36	256.71
748.68	256.67
749.01	255.71
749.34	255.67
749.67	255.48
750.00	255.95
750.33	257.90
750.65	257.95
750.98	255.10
751.31	255.10
751.64	255.19
751.97	256.43
752.29	256.52
752.62	255.19
752.95	255.48
753.28	254.90
753.60	254.57
753.93	255.62
754.26	255.62
754.59	254.67
754.91	254.24
755.24	253.95
755.57	253.52
755.90	253.62
756.22	253.38
756.55	252.76
756.88	252.00
757.20	250.00
757.53	249.62
757.86	249.24
758.19	249.10
758.51	248.81
758.84	247.62
759.17	247.05
759.49	247.14
759.82	248.33
760.15	249.05
760.47	249.05
760.80	248.00
761.13	248.33
761.45	248.57
761.78	248.76
762.11	248.57
762.43	248.33
762.76	248.19
763.08	248.33
763.41	248.57
763.74	248.81
764.06	248.81
764.39	248.57
764.71	248.48
765.04	248.43
765.37	248.14
765.69	248.05
766.02	247.90
766.34	247.86
766.67	246.52
767.00	246.76
767.32	247.90
767.65	249.33
767.97	249.29
768.30	249.43
768.62	249.48
768.95	249.43
769.27	249.38
769.60	249.81
769.92	249.57
770.25	249.14
770.57	248.62
770.90	248.71
771.22	248.52
771.55	248.90
771.87	249.05
772.20	248.86
772.52	250.86
772.85	253.90
773.17	253.62
773.50	253.43
773.82	252.81
774.15	251.76
774.47	250.10
774.80	249.76
775.12	249.67
775.45	249.57
775.77	249.76
776.09	250.10
776.42	249.95
776.74	250.43
777.07	250.19
777.39	250.52
777.72	250.10
778.04	250.38
778.36	250.05
778.69	250.14
779.01	250.48
779.33	248.33
779.66	245.48
779.98	245.52
780.31	245.57
780.63	246.67
780.95	247.19
781.28	247.19
781.60	246.81
781.92	246.38
782.25	246.14
782.57	245.90
782.89	245.67
783.22	245.48
783.54	245.00
783.86	245.33
784.19	245.14
784.51	246.14
784.83	245.81
785.16	245.57
785.48	245.24
785.80	245.24
786.12	245.43
786.45	245.71
786.77	245.86
787.09	245.71
787.42	244.95
787.74	244.95
788.06	244.86
788.38	245.24
788.71	245.33
789.03	245.38
789.35	245.76
789.67	245.38
789.99	245.14
790.32	244.86
790.64	244.95
790.96	246.62
791.28	245.76
791.61	245.67
791.93	246.05
792.25	246.19
792.57	247.95
792.89	247.57
793.21	247.29
793.54	246.71
793.86	246.57
