SpectraSuite Data File
++++++++++++++++++++++++++++++++++++
Date: Wed Nov 07 18:33:04 EST 2012
User: group
Dark Spectrum Present: No
Reference Spectrum Present: No
Number of Sampled Component Spectra: 1
Spectrometers: USB2E7196
Integration Time (usec): 1000000 (USB2E7196)
Spectra Averaged: 1 (USB2E7196)
Boxcar Smoothing: 10 (USB2E7196)
Correct for Electrical Dark: No (USB2E7196)
Strobe/Lamp Enabled: No (USB2E7196)
Correct for Detector Non-linearity: No (USB2E7196)
Correct for Stray Light: No (USB2E7196)
Number of Pixels in Processed Spectrum: 2048
>>>>>Begin Processed Spectral Data<<<<<
339.09	0.00
339.48	222.00
339.86	218.00
340.24	227.00
340.63	222.00
341.01	261.00
341.39	226.00
341.78	241.00
342.16	243.00
342.54	227.00
342.93	223.19
343.31	234.62
343.69	235.14
344.07	235.81
344.46	236.52
344.84	237.38
345.22	236.05
345.60	236.52
345.99	236.48
346.37	235.76
346.75	235.90
347.13	235.86
347.52	236.14
347.90	236.86
348.28	236.71
348.66	237.05
349.05	236.57
349.43	237.19
349.81	237.43
350.19	237.52
350.57	237.52
350.96	238.00
351.34	237.52
351.72	237.62
352.10	237.67
352.48	237.19
352.87	236.90
353.25	236.86
353.63	236.76
354.01	236.57
354.39	237.24
354.77	237.62
355.15	238.43
355.54	237.95
355.92	237.19
356.30	236.95
356.68	238.33
357.06	238.67
357.44	238.10
357.82	238.05
358.20	238.24
358.58	238.14
358.97	237.86
359.35	238.81
359.73	239.24
360.11	239.24
360.49	239.48
360.87	239.67
361.25	240.19
361.63	240.90
362.01	241.10
362.39	240.90
362.77	240.95
363.15	240.52
363.53	240.62
363.91	240.76
364.29	240.67
364.67	238.57
365.05	238.52
365.43	238.71
365.81	238.90
366.19	240.10
366.57	241.29
366.95	241.10
367.33	240.48
367.71	240.33
368.09	241.10
368.47	241.00
368.85	241.00
369.23	241.33
369.61	240.57
369.99	241.29
370.37	241.33
370.75	242.38
371.13	241.86
371.51	241.71
371.89	242.14
372.27	242.52
372.65	242.62
373.03	242.76
373.41	242.90
373.78	242.62
374.16	241.48
374.54	240.57
374.92	240.62
375.30	240.62
375.68	240.29
376.06	239.90
376.44	239.90
376.82	239.71
377.19	239.81
377.57	239.71
377.95	238.95
378.33	238.86
378.71	237.43
379.09	237.95
379.47	238.14
379.84	237.43
380.22	237.29
380.60	237.10
380.98	236.90
381.36	236.76
381.73	236.43
382.11	236.62
382.49	236.57
382.87	236.62
383.25	236.76
383.62	239.57
384.00	239.38
384.38	239.24
384.76	239.57
385.13	240.14
385.51	240.48
385.89	240.24
386.27	240.43
386.64	240.86
387.02	240.48
387.40	240.81
387.78	241.00
388.15	241.24
388.53	241.14
388.91	241.14
389.29	241.24
389.66	241.71
390.04	241.38
390.42	241.76
390.79	241.81
391.17	241.52
391.55	238.86
391.92	238.86
392.30	239.43
392.68	239.29
393.05	239.29
393.43	239.05
393.81	239.19
394.18	238.71
394.56	238.95
394.94	239.33
395.31	239.10
395.69	239.86
396.06	240.19
396.44	240.62
396.82	240.38
397.19	241.38
397.57	241.00
397.95	241.76
398.32	241.43
398.70	241.81
399.07	242.76
399.45	242.81
399.82	242.95
400.20	242.76
400.58	243.00
400.95	242.19
401.33	242.86
401.70	244.81
402.08	245.05
402.45	244.86
402.83	245.95
403.20	246.14
403.58	246.19
403.95	246.95
404.33	247.38
404.71	247.76
405.08	249.14
405.46	249.86
405.83	250.19
406.21	250.19
406.58	250.71
406.96	250.67
407.33	251.33
407.70	252.19
408.08	254.76
408.45	255.33
408.83	256.43
409.20	257.05
409.58	256.10
409.95	257.38
410.33	258.71
410.70	258.81
411.08	260.38
411.45	261.29
411.82	261.67
412.20	263.48
412.57	266.00
412.95	265.29
413.32	267.00
413.69	268.52
414.07	270.48
414.44	272.05
414.82	273.95
415.19	276.19
415.56	278.38
415.94	279.00
416.31	282.19
416.68	284.90
417.06	288.05
417.43	292.00
417.81	296.00
418.18	299.71
418.55	303.81
418.93	307.62
419.30	312.10
419.67	316.62
420.04	320.19
420.42	324.33
420.79	332.24
421.16	337.95
421.54	345.29
421.91	351.71
422.28	357.90
422.66	364.90
423.03	373.48
423.40	380.43
423.77	387.52
424.15	395.14
424.52	403.00
424.89	411.81
425.26	419.71
425.64	426.71
426.01	434.71
426.38	443.43
426.75	452.95
427.13	462.48
427.50	472.29
427.87	482.67
428.24	492.48
428.61	500.05
428.99	511.24
429.36	521.38
429.73	532.38
430.10	544.52
430.47	556.38
430.85	566.67
431.22	580.33
431.59	596.76
431.96	609.38
432.33	623.81
432.70	637.43
433.08	653.33
433.45	669.57
433.82	684.90
434.19	701.57
434.56	717.33
434.93	733.00
435.30	748.76
435.68	766.00
436.05	783.05
436.42	799.90
436.79	815.00
437.16	831.33
437.53	848.71
437.90	865.71
438.27	882.86
438.64	899.57
439.01	914.14
439.38	925.00
439.75	938.05
440.13	953.00
440.50	967.33
440.87	978.14
441.24	989.33
441.61	1002.71
441.98	1011.95
442.35	1023.71
442.72	1034.19
443.09	1045.86
443.46	1052.19
443.83	1055.76
444.20	1058.81
444.57	1063.00
444.94	1064.95
445.31	1066.14
445.68	1069.76
446.05	1068.52
446.42	1065.90
446.79	1063.52
447.16	1061.19
447.53	1058.62
447.90	1052.24
448.27	1044.38
448.64	1035.62
449.01	1027.81
449.37	1015.71
449.74	1003.52
450.11	992.05
450.48	977.05
450.85	960.19
451.22	946.14
451.59	934.24
451.96	922.43
452.33	907.10
452.70	892.19
453.07	876.00
453.43	856.43
453.80	840.33
454.17	825.10
454.54	810.05
454.91	793.67
455.28	778.19
455.65	762.33
456.02	752.24
456.38	739.57
456.75	724.62
457.12	711.81
457.49	699.57
457.86	684.57
458.23	674.57
458.59	663.71
458.96	653.48
459.33	642.76
459.70	632.52
460.07	624.52
460.43	615.71
460.80	607.29
461.17	599.19
461.54	591.67
461.91	584.10
462.27	576.43
462.64	569.52
463.01	562.43
463.38	556.95
463.74	545.52
464.11	538.67
464.48	533.95
464.85	527.71
465.21	524.05
465.58	519.67
465.95	513.86
466.32	509.43
466.68	503.81
467.05	499.71
467.42	495.24
467.78	490.67
468.15	486.52
468.52	483.48
468.88	479.48
469.25	475.19
469.62	472.48
469.98	468.33
470.35	465.62
470.72	462.57
471.08	457.81
471.45	455.76
471.82	453.90
472.18	450.76
472.55	449.24
472.92	446.14
473.28	442.95
473.65	440.52
474.02	437.86
474.38	436.24
474.75	434.48
475.11	431.76
475.48	430.19
475.85	428.24
476.21	426.29
476.58	425.19
476.94	423.86
477.31	421.90
477.67	421.57
478.04	420.62
478.41	419.90
478.77	421.33
479.14	420.05
479.50	419.62
479.87	419.57
480.23	419.33
480.60	418.86
480.96	419.38
481.33	420.90
481.69	421.10
482.06	422.10
482.42	422.67
482.79	424.33
483.15	425.14
483.52	426.86
483.88	427.38
484.25	427.67
484.61	428.71
484.98	429.62
485.34	431.24
485.71	433.05
486.07	434.62
486.44	434.29
486.80	436.33
487.17	437.33
487.53	439.33
487.90	440.71
488.26	443.67
488.62	446.00
488.99	446.67
489.35	449.33
489.72	451.10
490.08	452.86
490.44	454.38
490.81	456.43
491.17	457.86
491.54	460.95
491.90	464.67
492.26	467.14
492.63	470.43
492.99	472.52
493.36	475.00
493.72	477.81
494.08	480.90
494.45	483.76
494.81	487.29
495.17	490.19
495.54	494.00
495.90	496.67
496.26	499.81
496.63	503.67
496.99	507.00
497.35	510.76
497.72	514.86
498.08	518.67
498.44	522.67
498.80	527.86
499.17	531.90
499.53	535.52
499.89	540.62
500.26	544.90
500.62	549.90
500.98	555.10
501.34	559.90
501.71	564.95
502.07	569.95
502.43	574.67
502.79	579.10
503.16	583.43
503.52	589.14
503.88	593.62
504.24	599.67
504.60	605.10
504.97	610.19
505.33	615.38
505.69	621.71
506.05	627.33
506.41	632.24
506.78	637.86
507.14	643.81
507.50	649.81
507.86	655.10
508.22	661.00
508.59	665.95
508.95	671.90
509.31	678.38
509.67	684.00
510.03	689.57
510.39	694.95
510.75	699.62
511.12	703.81
511.48	709.00
511.84	713.48
512.20	717.81
512.56	723.10
512.92	727.76
513.28	732.00
513.64	736.05
514.00	740.62
514.37	744.10
514.73	748.38
515.09	752.29
515.45	756.43
515.81	759.67
516.17	764.29
516.53	767.48
516.89	770.57
517.25	774.76
517.61	778.33
517.97	782.90
518.33	787.71
518.69	792.71
519.05	797.43
519.41	800.67
519.77	805.67
520.13	808.81
520.49	812.71
520.85	815.43
521.21	819.81
521.57	822.29
521.93	825.43
522.29	828.14
522.65	830.38
523.01	832.95
523.37	834.62
523.73	836.57
524.09	839.10
524.45	839.95
524.81	841.48
525.17	843.90
525.53	845.14
525.89	846.86
526.25	848.00
526.61	848.52
526.97	850.00
527.33	851.19
527.68	855.43
528.04	856.95
528.40	859.38
528.76	860.29
529.12	862.24
529.48	864.43
529.84	865.71
530.20	867.76
530.56	870.38
530.91	873.10
531.27	874.52
531.63	876.24
531.99	878.43
532.35	880.10
532.71	882.10
533.07	883.43
533.42	887.29
533.78	887.95
534.14	889.81
534.50	891.95
534.86	893.76
535.21	891.81
535.57	893.29
535.93	893.95
536.29	896.62
536.65	897.86
537.00	898.71
537.36	900.33
537.72	902.05
538.08	904.29
538.44	906.10
538.79	909.19
539.15	910.76
539.51	913.48
539.87	915.67
540.22	917.10
540.58	919.38
540.94	920.33
541.29	922.86
541.65	924.86
542.01	926.81
542.37	928.00
542.72	929.62
543.08	929.43
543.44	929.48
543.79	927.76
544.15	928.67
544.51	929.05
544.87	928.48
545.22	927.43
545.58	925.00
545.94	923.05
546.29	921.10
546.65	919.05
547.01	916.00
547.36	913.33
547.72	910.71
548.07	908.57
548.43	903.95
548.79	901.24
549.14	897.90
549.50	894.19
549.86	889.81
550.21	887.19
550.57	885.00
550.92	883.00
551.28	881.86
551.64	878.43
551.99	875.90
552.35	872.81
552.70	870.10
553.06	868.71
553.41	866.62
553.77	864.57
554.13	862.57
554.48	860.43
554.84	858.29
555.19	857.00
555.55	857.24
555.90	856.29
556.26	853.71
556.61	851.81
556.97	849.52
557.32	847.95
557.68	846.57
558.03	844.86
558.39	842.71
558.74	839.95
559.10	838.33
559.45	836.67
559.81	836.24
560.16	834.71
560.52	832.76
560.87	831.24
561.23	828.48
561.58	828.81
561.94	827.24
562.29	825.67
562.64	824.62
563.00	819.38
563.35	817.57
563.71	816.33
564.06	814.19
564.42	813.05
564.77	811.52
565.12	810.29
565.48	811.10
565.83	811.19
566.19	809.90
566.54	808.90
566.89	807.38
567.25	806.62
567.60	806.52
567.96	807.38
568.31	807.52
568.66	807.52
569.02	803.90
569.37	803.38
569.72	802.71
570.08	800.29
570.43	800.00
570.78	797.71
571.14	796.29
571.49	795.67
571.84	794.05
572.20	793.43
572.55	791.67
572.90	787.90
573.26	785.43
573.61	783.86
573.96	782.57
574.31	780.95
574.67	779.00
575.02	777.05
575.37	772.90
575.72	769.81
576.08	767.19
576.43	765.76
576.78	764.10
577.13	761.57
577.49	759.76
577.84	758.10
578.19	757.52
578.54	756.57
578.90	755.29
579.25	754.62
579.60	753.10
579.95	751.90
580.30	751.33
580.66	750.33
581.01	749.67
581.36	747.67
581.71	746.67
582.06	746.10
582.42	743.52
582.77	743.05
583.12	742.95
583.47	742.10
583.82	741.10
584.17	739.90
584.53	740.05
584.88	738.86
585.23	738.19
585.58	735.76
585.93	733.43
586.28	731.67
586.63	729.29
586.98	726.52
587.34	724.81
587.69	722.10
588.04	719.62
588.39	716.29
588.74	713.67
589.09	711.67
589.44	707.71
589.79	705.48
590.14	702.29
590.49	698.05
590.84	693.81
591.19	690.86
591.54	687.14
591.89	682.95
592.25	681.57
592.60	677.90
592.95	675.05
593.30	672.33
593.65	669.67
594.00	666.33
594.35	670.81
594.70	666.86
595.05	664.10
595.40	660.67
595.75	657.90
596.10	655.52
596.45	652.05
596.80	648.52
597.15	645.95
597.50	641.62
597.85	640.29
598.19	638.33
598.54	635.95
598.89	632.90
599.24	630.67
599.59	625.95
599.94	622.90
600.29	620.52
600.64	618.29
600.99	615.76
601.34	613.71
601.69	605.19
602.04	602.14
602.39	598.90
602.74	597.67
603.08	595.67
603.43	594.19
603.78	592.14
604.13	590.67
604.48	589.29
604.83	589.10
605.18	587.81
605.53	588.29
605.87	589.67
606.22	593.10
606.57	596.67
606.92	602.00
607.27	607.62
607.62	613.05
607.96	618.14
608.31	622.38
608.66	626.62
609.01	629.43
609.36	633.81
609.70	637.43
610.05	639.67
610.40	642.48
610.75	644.00
611.10	646.10
611.44	647.33
611.79	647.52
612.14	647.62
612.49	646.00
612.83	644.10
613.18	639.81
613.53	634.71
613.88	628.43
614.22	619.71
614.57	611.33
614.92	602.71
615.27	594.43
615.61	586.71
615.96	579.24
616.31	572.19
616.65	566.48
617.00	560.29
617.35	554.57
617.70	548.19
618.04	542.52
618.39	537.10
618.74	532.29
619.08	528.05
619.43	524.29
619.78	520.48
620.12	516.38
620.47	514.05
620.82	510.57
621.16	507.57
621.51	506.86
621.85	504.38
622.20	502.57
622.55	499.71
622.89	497.67
623.24	495.62
623.59	493.29
623.93	490.71
624.28	488.43
624.62	488.67
624.97	488.29
625.32	486.29
625.66	484.52
626.01	482.86
626.35	481.00
626.70	478.81
627.04	478.43
627.39	476.52
627.73	475.33
628.08	474.05
628.43	472.00
628.77	469.00
629.12	467.05
629.46	464.95
629.81	463.67
630.15	461.43
630.50	459.10
630.84	457.57
631.19	455.29
631.53	453.00
631.88	447.90
632.22	444.29
632.57	442.67
632.91	439.86
633.26	438.00
633.60	435.43
633.95	432.71
634.29	429.05
634.64	426.90
634.98	423.81
635.32	422.05
635.67	420.14
636.01	418.05
636.36	416.38
636.70	414.95
637.05	412.67
637.39	410.10
637.73	408.33
638.08	407.14
638.42	405.14
638.77	403.62
639.11	402.19
639.45	400.43
639.80	398.00
640.14	396.71
640.49	394.43
640.83	393.00
641.17	391.86
641.52	390.76
641.86	389.71
642.20	389.29
642.55	386.67
642.89	385.33
643.23	384.24
643.58	383.67
643.92	381.71
644.26	380.48
644.61	380.38
644.95	379.57
645.29	377.90
645.64	377.67
645.98	377.00
646.32	377.05
646.66	376.52
647.01	375.52
647.35	374.76
647.69	374.57
648.04	373.57
648.38	372.76
648.72	372.05
649.06	370.76
649.41	368.81
649.75	368.43
650.09	367.90
650.43	366.81
650.78	364.86
651.12	363.62
651.46	362.38
651.80	361.10
652.14	359.33
652.49	358.62
652.83	356.76
653.17	355.67
653.51	353.38
653.85	351.76
654.20	351.38
654.54	350.10
654.88	348.38
655.22	346.90
655.56	345.90
655.90	344.43
656.25	343.43
656.59	342.86
656.93	341.90
657.27	341.19
657.61	339.95
657.95	339.67
658.29	338.62
658.64	339.00
658.98	337.90
659.32	337.48
659.66	336.62
660.00	336.19
660.34	335.05
660.68	334.43
661.02	334.57
661.36	333.05
661.70	331.76
662.05	331.24
662.39	331.71
662.73	331.86
663.07	332.86
663.41	332.43
663.75	331.19
664.09	330.38
664.43	329.38
664.77	329.38
665.11	328.24
665.45	327.86
665.79	327.00
666.13	326.24
666.47	325.67
666.81	324.95
667.15	323.62
667.49	323.14
667.83	323.43
668.17	321.90
668.51	321.33
668.85	321.52
669.19	321.62
669.53	320.33
669.87	318.62
670.21	316.71
670.55	316.00
670.89	316.57
671.23	316.19
671.57	315.33
671.91	314.81
672.25	314.43
672.58	314.67
672.92	313.19
673.26	312.81
673.60	312.33
673.94	311.86
674.28	312.00
674.62	311.95
674.96	310.76
675.30	310.90
675.64	310.48
675.97	309.86
676.31	308.48
676.65	307.76
676.99	308.10
677.33	307.10
677.67	306.57
678.01	304.67
678.34	304.19
678.68	303.67
679.02	302.71
679.36	301.90
679.70	300.76
680.04	300.38
680.37	300.05
680.71	299.29
681.05	299.00
681.39	298.52
681.73	297.24
682.06	296.86
682.40	296.24
682.74	296.38
683.08	296.90
683.42	296.76
683.75	296.95
684.09	295.90
684.43	295.71
684.77	294.95
685.10	295.00
685.44	294.67
685.78	294.33
686.12	293.81
686.45	293.43
686.79	293.19
687.13	293.29
687.46	292.67
687.80	292.95
688.14	292.05
688.48	291.43
688.81	291.57
689.15	291.14
689.49	290.48
689.82	289.90
690.16	288.52
690.50	288.05
690.83	287.14
691.17	286.43
691.51	286.00
691.84	285.81
692.18	285.24
692.52	284.33
692.85	284.52
693.19	285.33
693.52	284.81
693.86	284.00
694.20	283.19
694.53	282.95
694.87	281.95
695.21	281.48
695.54	280.86
695.88	279.90
696.21	279.14
696.55	278.95
696.88	278.43
697.22	277.71
697.56	277.48
697.89	276.90
698.23	277.10
698.56	276.86
698.90	276.81
699.23	276.62
699.57	276.76
699.90	275.67
700.24	274.24
700.58	274.24
700.91	274.90
701.25	277.00
701.58	277.81
701.92	278.86
702.25	279.57
702.59	279.95
702.92	280.67
703.26	281.43
703.59	281.90
703.93	284.43
704.26	285.10
704.60	285.81
704.93	286.24
705.26	286.14
705.60	286.90
705.93	286.90
706.27	287.90
706.60	289.05
706.94	290.57
707.27	290.86
707.61	291.38
707.94	291.19
708.27	289.43
708.61	288.57
708.94	287.95
709.28	287.52
709.61	286.81
709.94	286.67
710.28	286.14
710.61	285.62
710.95	282.67
711.28	283.95
711.61	283.14
711.95	283.43
712.28	283.00
712.61	282.14
712.95	283.00
713.28	283.29
713.61	281.86
713.95	280.43
714.28	280.00
714.61	279.19
714.95	278.05
715.28	276.95
715.61	276.24
715.95	275.71
716.28	274.71
716.61	275.14
716.95	274.57
717.28	274.24
717.61	273.38
717.94	273.05
718.28	270.67
718.61	269.90
718.94	268.90
719.27	268.14
719.61	267.90
719.94	267.05
720.27	265.14
720.60	264.67
720.94	264.14
721.27	264.00
721.60	263.81
721.93	263.81
722.27	264.48
722.60	264.76
722.93	264.24
723.26	264.19
723.59	263.10
723.93	263.00
724.26	263.00
724.59	262.86
724.92	263.10
725.25	263.52
725.59	263.52
725.92	263.52
726.25	263.71
726.58	263.67
726.91	262.95
727.24	263.19
727.57	263.19
727.91	262.67
728.24	262.86
728.57	262.57
728.90	262.67
729.23	261.71
729.56	262.62
729.89	262.43
730.22	262.38
730.55	262.57
730.89	262.38
731.22	261.90
731.55	262.10
731.88	261.76
732.21	261.19
732.54	261.05
732.87	260.71
733.20	260.48
733.53	260.00
733.86	260.38
734.19	260.00
734.52	260.19
734.85	261.90
735.18	261.19
735.51	261.81
735.84	262.10
736.17	262.71
736.50	261.14
736.83	263.95
737.16	264.00
737.49	263.71
737.82	263.29
738.15	263.57
738.48	263.19
738.81	262.86
739.14	262.57
739.47	261.90
739.80	261.81
740.13	262.05
740.46	261.95
740.79	261.14
741.12	261.14
741.45	260.62
741.78	259.38
742.11	259.90
742.44	259.38
742.77	259.52
743.10	258.76
743.43	258.43
743.75	255.71
744.08	258.43
744.41	258.57
744.74	258.52
745.07	257.81
745.40	258.14
745.73	259.00
746.06	259.05
746.39	259.38
746.71	258.62
747.04	258.33
747.37	257.90
747.70	258.33
748.03	258.00
748.36	258.19
748.68	257.86
749.01	256.81
749.34	256.14
749.67	255.86
750.00	256.24
750.33	258.29
750.65	258.57
750.98	255.43
751.31	255.24
751.64	254.95
751.97	256.19
752.29	255.76
752.62	254.43
752.95	253.95
753.28	253.95
753.60	254.19
753.93	254.48
754.26	254.43
754.59	253.67
754.91	253.52
755.24	253.19
755.57	253.33
755.90	253.57
756.22	253.67
756.55	253.43
756.88	252.76
757.20	250.48
757.53	249.33
757.86	249.14
758.19	249.00
758.51	249.05
758.84	247.81
759.17	247.62
759.49	248.00
759.82	249.33
760.15	249.33
760.47	249.52
760.80	248.71
761.13	249.43
761.45	249.33
761.78	249.29
762.11	249.57
762.43	248.76
762.76	248.48
763.08	248.38
763.41	248.10
763.74	248.48
764.06	248.62
764.39	248.71
764.71	248.90
765.04	248.62
765.37	248.24
765.69	247.95
766.02	247.95
766.34	247.67
766.67	246.71
767.00	247.10
767.32	248.48
767.65	250.24
767.97	249.95
768.30	250.29
768.62	250.14
768.95	249.62
769.27	249.95
769.60	250.38
769.92	249.86
770.25	249.43
770.57	248.29
770.90	248.33
771.22	248.19
771.55	247.86
771.87	247.90
772.20	247.62
772.52	249.90
772.85	252.86
773.17	252.76
773.50	252.29
773.82	252.19
774.15	250.67
774.47	248.90
774.80	248.19
775.12	247.76
775.45	247.76
775.77	247.71
776.09	248.14
776.42	248.05
776.74	249.24
777.07	249.14
777.39	249.76
777.72	249.33
778.04	249.90
778.36	249.95
778.69	249.86
779.01	250.14
779.33	247.90
779.66	244.86
779.98	244.67
780.31	244.86
780.63	245.43
780.95	245.90
781.28	245.62
781.60	245.24
781.92	245.00
782.25	245.00
782.57	245.14
782.89	244.52
783.22	244.38
783.54	243.29
783.86	243.67
784.19	243.33
784.51	244.19
784.83	243.29
785.16	243.00
785.48	243.05
785.80	243.14
786.12	243.29
786.45	243.48
786.77	243.86
787.09	243.86
787.42	242.90
787.74	242.76
788.06	242.90
788.38	243.10
788.71	243.00
789.03	243.05
789.35	243.24
789.67	242.81
789.99	243.14
790.32	243.14
790.64	243.05
790.96	245.10
791.28	244.29
791.61	244.62
791.93	245.10
792.25	245.00
792.57	246.76
792.89	246.14
793.21	245.95
793.54	245.62
793.86	245.38
