SpectraSuite Data File
++++++++++++++++++++++++++++++++++++
Date: Wed Nov 07 18:31:12 EST 2012
User: group
Dark Spectrum Present: No
Reference Spectrum Present: No
Number of Sampled Component Spectra: 1
Spectrometers: USB2E7196
Integration Time (usec): 1000000 (USB2E7196)
Spectra Averaged: 1 (USB2E7196)
Boxcar Smoothing: 10 (USB2E7196)
Correct for Electrical Dark: No (USB2E7196)
Strobe/Lamp Enabled: No (USB2E7196)
Correct for Detector Non-linearity: No (USB2E7196)
Correct for Stray Light: No (USB2E7196)
Number of Pixels in Processed Spectrum: 2048
>>>>>Begin Processed Spectral Data<<<<<
339.09	0.00
339.48	220.00
339.86	218.00
340.24	224.00
340.63	225.00
341.01	260.00
341.39	228.00
341.78	238.00
342.16	240.00
342.54	234.00
342.93	224.38
343.31	235.52
343.69	236.05
344.07	236.86
344.46	237.57
344.84	238.19
345.22	236.90
345.60	237.48
345.99	237.33
346.37	237.24
346.75	237.19
347.13	237.43
347.52	237.67
347.90	238.14
348.28	238.38
348.66	238.76
349.05	237.67
349.43	238.24
349.81	238.19
350.19	238.10
350.57	238.19
350.96	238.29
351.34	238.81
351.72	239.10
352.10	239.38
352.48	239.24
352.87	239.00
353.25	239.10
353.63	238.90
354.01	239.10
354.39	239.05
354.77	238.95
355.15	239.86
355.54	239.48
355.92	238.95
356.30	238.57
356.68	239.95
357.06	240.33
357.44	239.43
357.82	239.71
358.20	240.05
358.58	239.90
358.97	240.19
359.35	240.24
359.73	240.52
360.11	240.14
360.49	240.10
360.87	240.29
361.25	240.71
361.63	241.71
362.01	241.81
362.39	241.67
362.77	241.90
363.15	241.05
363.53	241.00
363.91	241.24
364.29	241.33
364.67	238.67
365.05	239.14
365.43	239.95
365.81	240.38
366.19	241.19
366.57	242.29
366.95	241.81
367.33	241.19
367.71	241.00
368.09	241.48
368.47	241.43
368.85	241.14
369.23	241.67
369.61	240.81
369.99	241.62
370.37	241.95
370.75	243.43
371.13	242.86
371.51	242.76
371.89	242.81
372.27	243.14
372.65	243.67
373.03	243.29
373.41	242.71
373.78	242.29
374.16	241.14
374.54	240.29
374.92	240.52
375.30	241.00
375.68	240.81
376.06	240.86
376.44	240.67
376.82	240.86
377.19	240.29
377.57	239.86
377.95	238.76
378.33	238.48
378.71	237.00
379.09	237.62
379.47	237.95
379.84	237.67
380.22	237.29
380.60	236.95
380.98	236.71
381.36	236.95
381.73	236.38
382.11	236.90
382.49	237.19
382.87	236.81
383.25	236.19
383.62	239.14
384.00	238.62
384.38	238.62
384.76	239.00
385.13	240.00
385.51	240.19
385.89	240.24
386.27	240.33
386.64	240.48
387.02	240.38
387.40	240.00
387.78	240.52
388.15	240.81
388.53	240.57
388.91	240.67
389.29	240.24
389.66	241.00
390.04	240.67
390.42	241.24
390.79	241.33
391.17	241.76
391.55	238.90
391.92	238.90
392.30	239.52
392.68	239.19
393.05	239.10
393.43	239.24
393.81	239.29
394.18	239.43
394.56	239.48
394.94	239.76
395.31	239.57
395.69	240.10
396.06	240.48
396.44	240.76
396.82	240.76
397.19	242.10
397.57	241.52
397.95	241.71
398.32	240.62
398.70	240.86
399.07	241.24
399.45	241.29
399.82	241.52
400.20	241.57
400.58	241.90
400.95	241.00
401.33	241.52
401.70	243.43
402.08	243.33
402.45	243.38
402.83	243.95
403.20	244.67
403.58	244.76
403.95	245.19
404.33	245.76
404.71	245.90
405.08	247.62
405.46	248.14
405.83	248.76
406.21	249.48
406.58	250.14
406.96	250.43
407.33	251.38
407.70	252.14
408.08	254.29
408.45	254.62
408.83	255.90
409.20	256.14
409.58	255.24
409.95	256.29
410.33	257.33
410.70	257.67
411.08	258.81
411.45	260.05
411.82	260.76
412.20	262.38
412.57	265.33
412.95	264.76
413.32	266.62
413.69	267.62
414.07	269.76
414.44	271.52
414.82	273.71
415.19	275.76
415.56	278.05
415.94	279.10
416.31	282.29
416.68	284.90
417.06	288.62
417.43	292.57
417.81	296.29
418.18	299.95
418.55	303.67
418.93	308.00
419.30	312.05
419.67	316.86
420.04	321.43
420.42	325.67
420.79	332.95
421.16	338.33
421.54	345.95
421.91	352.10
422.28	358.19
422.66	364.81
423.03	373.24
423.40	380.67
423.77	388.67
424.15	396.10
424.52	404.05
424.89	412.24
425.26	419.95
425.64	427.43
426.01	436.00
426.38	445.10
426.75	454.43
427.13	463.86
427.50	473.29
427.87	483.19
428.24	492.81
428.61	501.14
428.99	513.24
429.36	523.48
429.73	535.14
430.10	547.95
430.47	560.57
430.85	572.71
431.22	586.43
431.59	603.05
431.96	617.48
432.33	633.48
432.70	647.81
433.08	665.14
433.45	681.57
433.82	697.24
434.19	714.71
434.56	731.10
434.93	746.81
435.30	762.43
435.68	779.57
436.05	796.48
436.42	813.33
436.79	828.52
437.16	844.71
437.53	861.33
437.90	877.48
438.27	893.43
438.64	908.10
439.01	922.86
439.38	933.71
439.75	945.33
440.13	958.14
440.50	971.43
440.87	982.57
441.24	993.71
441.61	1006.33
441.98	1015.14
442.35	1025.43
442.72	1036.71
443.09	1048.33
443.46	1054.00
443.83	1058.10
444.20	1060.43
444.57	1063.81
444.94	1065.38
445.31	1067.71
445.68	1072.14
446.05	1071.81
446.42	1069.52
446.79	1066.90
447.16	1062.86
447.53	1060.62
447.90	1052.62
448.27	1045.43
448.64	1033.95
449.01	1027.05
449.37	1014.29
449.74	1002.00
450.11	990.43
450.48	974.43
450.85	958.29
451.22	945.33
451.59	932.33
451.96	920.05
452.33	905.05
452.70	891.33
453.07	873.67
453.43	853.00
453.80	836.67
454.17	821.00
454.54	804.76
454.91	788.90
455.28	773.38
455.65	759.57
456.02	749.48
456.38	738.05
456.75	722.52
457.12	709.71
457.49	697.57
457.86	683.95
458.23	674.90
458.59	663.95
458.96	653.00
459.33	643.48
459.70	634.57
460.07	626.62
460.43	617.29
460.80	609.33
461.17	602.10
461.54	594.76
461.91	587.57
462.27	580.19
462.64	573.95
463.01	567.05
463.38	561.52
463.74	550.43
464.11	544.14
464.48	538.86
464.85	534.24
465.21	530.62
465.58	525.81
465.95	519.71
466.32	515.29
466.68	510.14
467.05	505.29
467.42	500.76
467.78	495.76
468.15	491.33
468.52	487.86
468.88	483.90
469.25	479.67
469.62	477.14
469.98	474.10
470.35	470.52
470.72	467.67
471.08	463.33
471.45	461.48
471.82	459.33
472.18	456.19
472.55	454.00
472.92	450.62
473.28	447.76
473.65	444.76
474.02	442.24
474.38	440.95
474.75	439.57
475.11	436.95
475.48	435.48
475.85	434.05
476.21	432.33
476.58	431.29
476.94	430.19
477.31	428.48
477.67	427.90
478.04	427.48
478.41	426.90
478.77	429.19
479.14	428.33
479.50	428.29
479.87	429.05
480.23	429.33
480.60	429.81
480.96	430.81
481.33	433.33
481.69	434.33
482.06	436.38
482.42	438.05
482.79	440.05
483.15	441.95
483.52	445.10
483.88	447.24
484.25	449.48
484.61	451.48
484.98	454.05
485.34	457.19
485.71	459.67
486.07	461.71
486.44	461.86
486.80	464.33
487.17	466.62
487.53	469.29
487.90	472.10
488.26	475.76
488.62	478.19
488.99	479.10
489.35	481.52
489.72	482.81
490.08	484.48
490.44	486.38
490.81	488.62
491.17	489.38
491.54	491.52
491.90	493.33
492.26	495.19
492.63	496.57
492.99	497.90
493.36	500.29
493.72	502.81
494.08	505.10
494.45	506.86
494.81	508.90
495.17	510.24
495.54	512.43
495.90	513.67
496.26	516.76
496.63	520.29
496.99	522.48
497.35	525.48
497.72	528.38
498.08	531.33
498.44	534.81
498.80	538.43
499.17	540.86
499.53	544.71
499.89	549.67
500.26	554.29
500.62	558.05
500.98	562.43
501.34	566.05
501.71	570.24
502.07	574.95
502.43	579.05
502.79	583.43
503.16	588.24
503.52	592.76
503.88	596.29
504.24	600.43
504.60	605.71
504.97	610.81
505.33	615.86
505.69	622.24
506.05	626.38
506.41	631.29
506.78	637.24
507.14	641.71
507.50	646.05
507.86	650.62
508.22	656.29
508.59	661.00
508.95	666.81
509.31	673.29
509.67	678.29
510.03	683.95
510.39	690.29
510.75	695.14
511.12	700.48
511.48	706.67
511.84	711.48
512.20	716.48
512.56	720.81
512.92	725.14
513.28	728.76
513.64	733.05
514.00	737.10
514.37	741.10
514.73	745.67
515.09	750.05
515.45	754.90
515.81	758.62
516.17	762.81
516.53	766.10
516.89	768.81
517.25	772.67
517.61	776.48
517.97	779.10
518.33	782.14
518.69	786.19
519.05	789.95
519.41	793.19
519.77	798.24
520.13	801.86
520.49	804.81
520.85	807.48
521.21	812.62
521.57	815.71
521.93	818.43
522.29	820.90
522.65	823.19
523.01	825.24
523.37	826.62
523.73	828.76
524.09	831.67
524.45	833.10
524.81	835.29
525.17	837.62
525.53	840.24
525.89	842.00
526.25	843.33
526.61	843.33
526.97	844.52
527.33	845.76
527.68	848.52
528.04	850.48
528.40	852.19
528.76	852.71
529.12	854.14
529.48	856.57
529.84	857.52
530.20	859.71
530.56	861.14
530.91	863.52
531.27	865.00
531.63	866.52
531.99	867.71
532.35	868.43
532.71	868.52
533.07	869.24
533.42	873.81
533.78	874.95
534.14	877.62
534.50	880.71
534.86	882.71
535.21	883.33
535.57	886.71
535.93	890.10
536.29	894.52
536.65	899.00
537.00	904.10
537.36	911.48
537.72	918.90
538.08	928.90
538.44	937.90
538.79	949.10
539.15	959.81
539.51	972.00
539.87	984.29
540.22	997.19
540.58	1009.76
540.94	1019.95
541.29	1033.14
541.65	1044.81
542.01	1056.48
542.37	1065.38
542.72	1074.29
543.08	1079.90
543.44	1084.19
543.79	1085.90
544.15	1088.71
544.51	1089.71
544.87	1089.00
545.22	1085.81
545.58	1080.14
545.94	1074.38
546.29	1065.95
546.65	1056.52
547.01	1046.48
547.36	1036.43
547.72	1024.81
548.07	1014.00
548.43	1001.52
548.79	988.71
549.14	975.81
549.50	963.81
549.86	951.29
550.21	940.57
550.57	933.33
550.92	925.57
551.28	918.67
551.64	911.14
551.99	903.48
552.35	896.62
552.70	890.86
553.06	885.14
553.41	879.95
553.77	876.00
554.13	871.90
554.48	868.81
554.84	864.90
555.19	862.29
555.55	860.00
555.90	857.05
556.26	853.05
556.61	850.24
556.97	845.81
557.32	843.29
557.68	841.29
558.03	837.76
558.39	834.95
558.74	832.48
559.10	830.19
559.45	828.33
559.81	825.52
560.16	822.76
560.52	820.90
560.87	819.14
561.23	816.43
561.58	816.67
561.94	814.24
562.29	813.05
562.64	811.43
563.00	808.14
563.35	806.24
563.71	804.86
564.06	803.57
564.42	802.19
564.77	801.19
565.12	799.19
565.48	798.38
565.83	797.76
566.19	796.14
566.54	794.29
566.89	792.48
567.25	792.24
567.60	791.81
567.96	792.71
568.31	792.52
568.66	792.67
569.02	788.81
569.37	787.57
569.72	786.05
570.08	784.00
570.43	781.90
570.78	779.67
571.14	778.52
571.49	777.14
571.84	776.43
572.20	775.57
572.55	774.43
572.90	772.29
573.26	770.52
573.61	769.57
573.96	769.90
574.31	769.67
574.67	768.38
575.02	767.81
575.37	764.81
575.72	763.00
576.08	761.86
576.43	762.71
576.78	761.90
577.13	760.76
577.49	760.33
577.84	760.81
578.19	761.19
578.54	761.24
578.90	761.29
579.25	760.48
579.60	759.95
579.95	759.71
580.30	759.43
580.66	759.19
581.01	758.62
581.36	757.62
581.71	756.62
582.06	757.24
582.42	756.05
582.77	755.62
583.12	755.14
583.47	753.95
583.82	752.05
584.17	751.43
584.53	752.05
584.88	750.67
585.23	749.29
585.58	747.10
585.93	744.76
586.28	741.86
586.63	740.76
586.98	738.38
587.34	735.43
587.69	732.19
588.04	729.29
588.39	726.90
588.74	723.38
589.09	721.33
589.44	716.57
589.79	713.38
590.14	709.52
590.49	705.14
590.84	700.29
591.19	696.33
591.54	692.05
591.89	686.38
592.25	684.57
592.60	679.71
592.95	676.57
593.30	673.38
593.65	670.05
594.00	665.67
594.35	669.57
594.70	665.95
595.05	663.00
595.40	659.33
595.75	655.57
596.10	652.71
596.45	648.90
596.80	645.81
597.15	642.19
597.50	638.86
597.85	637.48
598.19	634.90
598.54	632.10
598.89	628.81
599.24	626.00
599.59	621.10
599.94	618.62
600.29	615.33
600.64	612.90
600.99	610.62
601.34	608.38
601.69	598.43
602.04	596.05
602.39	593.29
602.74	591.67
603.08	589.76
603.43	588.10
603.78	585.86
604.13	584.57
604.48	583.52
604.83	583.76
605.18	582.33
605.53	583.52
605.87	587.33
606.22	593.19
606.57	601.38
606.92	609.86
607.27	619.33
607.62	629.33
607.96	637.67
608.31	644.86
608.66	651.76
609.01	657.86
609.36	664.10
609.70	670.38
610.05	674.95
610.40	679.33
610.75	682.90
611.10	686.19
611.44	688.90
611.79	690.71
612.14	690.48
612.49	689.19
612.83	686.86
613.18	681.33
613.53	674.10
613.88	664.57
614.22	654.14
614.57	642.43
614.92	629.95
615.27	618.86
615.61	609.10
615.96	599.10
616.31	590.52
616.65	582.62
617.00	574.14
617.35	566.81
617.70	559.57
618.04	552.90
618.39	546.48
618.74	540.76
619.08	534.95
619.43	530.05
619.78	526.29
620.12	522.86
620.47	520.24
620.82	517.24
621.16	513.71
621.51	511.95
621.85	509.05
622.20	506.76
622.55	503.86
622.89	500.90
623.24	499.10
623.59	495.57
623.93	492.86
624.28	490.29
624.62	489.90
624.97	489.05
625.32	486.43
625.66	483.90
626.01	481.19
626.35	479.81
626.70	478.05
627.04	476.86
627.39	474.62
627.73	473.33
628.08	471.14
628.43	468.86
628.77	465.62
629.12	463.52
629.46	461.90
629.81	460.19
630.15	458.52
630.50	455.81
630.84	454.38
631.19	451.71
631.53	449.57
631.88	445.14
632.22	440.71
632.57	438.71
632.91	435.90
633.26	433.57
633.60	430.48
633.95	427.43
634.29	424.00
634.64	421.52
634.98	418.05
635.32	416.43
635.67	414.57
636.01	412.33
636.36	410.48
636.70	408.57
637.05	406.38
637.39	404.05
637.73	402.62
638.08	401.43
638.42	399.86
638.77	398.38
639.11	396.19
639.45	395.10
639.80	393.29
640.14	392.71
640.49	390.57
640.83	388.90
641.17	387.95
641.52	386.67
641.86	385.52
642.20	385.43
642.55	383.43
642.89	382.33
643.23	381.62
643.58	381.67
643.92	379.81
644.26	379.05
644.61	378.62
644.95	377.43
645.29	375.81
645.64	375.52
645.98	374.48
646.32	374.43
646.66	373.38
647.01	372.14
647.35	371.48
647.69	371.43
648.04	371.19
648.38	370.38
648.72	369.76
649.06	368.52
649.41	366.67
649.75	365.62
650.09	364.67
650.43	363.52
650.78	361.62
651.12	360.71
651.46	359.71
651.80	358.19
652.14	356.76
652.49	356.05
652.83	354.48
653.17	352.95
653.51	351.71
653.85	350.76
654.20	349.90
654.54	348.14
654.88	346.29
655.22	344.38
655.56	342.71
655.90	342.00
656.25	341.29
656.59	340.38
656.93	339.95
657.27	339.90
657.61	338.90
657.95	338.38
658.29	337.62
658.64	337.14
658.98	336.52
659.32	336.00
659.66	335.43
660.00	335.00
660.34	334.71
660.68	334.00
661.02	333.76
661.36	333.00
661.70	332.62
662.05	332.19
662.39	333.10
662.73	333.76
663.07	334.29
663.41	333.62
663.75	332.48
664.09	331.67
664.43	329.95
664.77	329.19
665.11	327.95
665.45	327.52
665.79	326.95
666.13	326.19
666.47	325.29
666.81	324.62
667.15	323.00
667.49	322.24
667.83	322.00
668.17	320.86
668.51	320.00
668.85	319.90
669.19	320.43
669.53	318.38
669.87	317.33
670.21	315.62
670.55	315.00
670.89	315.76
671.23	315.10
671.57	315.05
671.91	315.00
672.25	314.86
672.58	314.90
672.92	313.48
673.26	313.05
673.60	312.67
673.94	312.05
674.28	312.10
674.62	311.95
674.96	311.19
675.30	311.19
675.64	311.43
675.97	310.76
676.31	309.57
676.65	309.48
676.99	309.24
677.33	308.00
677.67	307.33
678.01	305.71
678.34	305.38
678.68	305.19
679.02	304.43
679.36	303.81
679.70	302.81
680.04	303.05
680.37	302.52
680.71	302.05
681.05	301.48
681.39	301.10
681.73	300.19
682.06	299.52
682.40	298.67
682.74	298.00
683.08	298.38
683.42	297.71
683.75	297.62
684.09	296.57
684.43	296.95
684.77	296.76
685.10	296.86
685.44	296.57
685.78	296.05
686.12	295.48
686.45	295.05
686.79	294.10
687.13	293.52
687.46	293.10
687.80	293.38
688.14	292.90
688.48	292.48
688.81	292.48
689.15	292.86
689.49	292.48
689.82	292.24
690.16	290.48
690.50	290.38
690.83	289.71
691.17	289.05
691.51	288.38
691.84	287.90
692.18	287.10
692.52	286.19
692.85	285.57
693.19	286.05
693.52	285.71
693.86	285.62
694.20	285.19
694.53	284.71
694.87	283.62
695.21	283.10
695.54	282.86
695.88	281.81
696.21	280.62
696.55	280.24
696.88	279.48
697.22	279.14
697.56	278.62
697.89	278.00
698.23	278.29
698.56	277.86
698.90	277.81
699.23	277.52
699.57	277.48
699.90	276.86
700.24	275.81
700.58	275.86
700.91	276.19
701.25	277.95
701.58	278.71
701.92	279.81
702.25	280.14
702.59	280.14
702.92	280.90
703.26	281.52
703.59	281.86
703.93	284.57
704.26	285.57
704.60	286.00
704.93	286.86
705.26	286.95
705.60	287.90
705.93	287.86
706.27	289.00
706.60	289.95
706.94	291.43
707.27	291.43
707.61	291.43
707.94	291.38
708.27	289.67
708.61	289.14
708.94	288.43
709.28	288.19
709.61	287.38
709.94	286.76
710.28	286.00
710.61	285.57
710.95	282.48
711.28	282.76
711.61	282.24
711.95	281.57
712.28	280.19
712.61	279.00
712.95	279.76
713.28	279.62
713.61	278.38
713.95	276.57
714.28	275.86
714.61	274.76
714.95	273.71
715.28	272.52
715.61	271.57
715.95	270.95
716.28	270.10
716.61	269.86
716.95	269.14
717.28	268.67
717.61	267.86
717.94	267.52
718.28	265.76
718.61	265.05
718.94	264.43
719.27	264.29
719.61	263.95
719.94	262.76
720.27	261.52
720.60	261.05
720.94	260.95
721.27	261.00
721.60	261.43
721.93	261.10
722.27	262.00
722.60	262.00
722.93	261.71
723.26	261.76
723.59	261.19
723.93	261.43
724.26	261.57
724.59	261.43
724.92	261.14
725.25	261.57
725.59	261.38
725.92	261.38
726.25	261.71
726.58	261.81
726.91	261.38
727.24	261.33
727.57	261.43
727.91	260.95
728.24	260.95
728.57	260.24
728.90	260.57
729.23	259.57
729.56	260.52
729.89	260.52
730.22	260.29
730.55	260.43
730.89	260.38
731.22	260.05
731.55	259.95
731.88	260.05
732.21	259.52
732.54	259.38
732.87	259.10
733.20	258.57
733.53	258.05
733.86	258.48
734.19	257.90
734.52	258.05
734.85	259.76
735.18	259.38
735.51	260.05
735.84	259.81
736.17	260.48
736.50	259.00
736.83	261.43
737.16	261.43
737.49	261.43
737.82	261.14
738.15	261.00
738.48	261.05
738.81	260.62
739.14	260.19
739.47	259.90
739.80	259.95
740.13	260.33
740.46	259.86
740.79	259.29
741.12	259.24
741.45	258.48
741.78	256.71
742.11	257.14
742.44	256.43
742.77	256.48
743.10	255.67
743.43	255.76
743.75	253.00
744.08	256.05
744.41	255.57
744.74	255.38
745.07	254.95
745.40	255.33
745.73	256.67
746.06	256.90
746.39	257.19
746.71	256.57
747.04	256.10
747.37	256.14
747.70	256.38
748.03	256.29
748.36	256.86
748.68	256.81
749.01	256.19
749.34	256.05
749.67	256.05
750.00	256.43
750.33	258.19
750.65	258.57
750.98	255.19
751.31	255.38
751.64	255.38
751.97	257.10
752.29	256.52
752.62	254.76
752.95	254.67
753.28	254.00
753.60	254.24
753.93	255.00
754.26	255.10
754.59	254.19
754.91	253.57
755.24	253.10
755.57	253.29
755.90	253.14
756.22	253.10
756.55	252.95
756.88	252.14
757.20	250.19
757.53	249.05
757.86	249.29
758.19	249.67
758.51	249.19
758.84	247.48
759.17	247.14
759.49	247.48
759.82	248.43
760.15	249.05
760.47	249.00
760.80	248.14
761.13	248.62
761.45	248.81
761.78	249.33
762.11	249.52
762.43	249.14
762.76	248.67
763.08	248.95
763.41	248.95
763.74	249.48
764.06	249.14
764.39	249.57
764.71	249.38
765.04	248.81
765.37	248.90
765.69	248.90
766.02	249.14
766.34	248.86
766.67	247.76
767.00	248.05
767.32	249.10
767.65	250.52
767.97	250.19
768.30	250.24
768.62	249.90
768.95	249.38
769.27	249.38
769.60	250.29
769.92	249.76
770.25	249.14
770.57	248.71
770.90	248.95
771.22	248.57
771.55	248.52
771.87	248.62
772.20	248.57
772.52	250.43
772.85	253.10
773.17	253.14
773.50	252.90
773.82	252.19
774.15	250.86
774.47	249.33
774.80	248.95
775.12	248.71
775.45	248.67
775.77	248.86
776.09	249.00
776.42	248.81
776.74	249.67
777.07	249.71
777.39	249.71
777.72	249.24
778.04	249.52
778.36	249.00
778.69	249.14
779.01	249.10
779.33	247.05
779.66	244.52
779.98	244.52
780.31	244.86
780.63	245.81
780.95	246.38
781.28	246.33
781.60	246.67
781.92	246.43
782.25	246.48
782.57	246.67
782.89	246.24
783.22	245.62
783.54	244.76
783.86	244.76
784.19	244.48
784.51	245.71
784.83	245.24
785.16	245.48
785.48	245.24
785.80	245.14
786.12	245.24
786.45	244.95
786.77	244.76
787.09	244.24
787.42	243.57
787.74	243.67
788.06	243.71
788.38	243.10
788.71	243.38
789.03	243.29
789.35	243.29
789.67	243.14
789.99	243.33
790.32	243.29
790.64	244.05
790.96	246.10
791.28	244.76
791.61	244.62
791.93	244.81
792.25	244.81
792.57	246.52
792.89	246.29
793.21	246.33
