SpectraSuite Data File
++++++++++++++++++++++++++++++++++++
Date: Wed Nov 07 18:33:26 EST 2012
User: group
Dark Spectrum Present: No
Reference Spectrum Present: No
Number of Sampled Component Spectra: 1
Spectrometers: USB2E7196
Integration Time (usec): 1000000 (USB2E7196)
Spectra Averaged: 1 (USB2E7196)
Boxcar Smoothing: 10 (USB2E7196)
Correct for Electrical Dark: No (USB2E7196)
Strobe/Lamp Enabled: No (USB2E7196)
Correct for Detector Non-linearity: No (USB2E7196)
Correct for Stray Light: No (USB2E7196)
Number of Pixels in Processed Spectrum: 2048
>>>>>Begin Processed Spectral Data<<<<<
339.09	0.00
339.48	219.00
339.86	220.00
340.24	221.00
340.63	225.00
341.01	264.00
341.39	227.00
341.78	232.00
342.16	241.00
342.54	233.00
342.93	223.00
343.31	234.29
343.69	234.90
344.07	235.71
344.46	236.81
344.84	237.38
345.22	235.71
345.60	236.24
345.99	236.62
346.37	236.62
346.75	236.95
347.13	237.00
347.52	236.95
347.90	237.95
348.28	238.24
348.66	238.76
349.05	238.05
349.43	238.48
349.81	238.86
350.19	239.05
350.57	239.05
350.96	239.29
351.34	239.38
351.72	239.76
352.10	239.71
352.48	239.29
352.87	239.24
353.25	239.48
353.63	239.29
354.01	239.33
354.39	239.29
354.77	239.38
355.15	240.19
355.54	240.00
355.92	239.14
356.30	239.24
356.68	240.95
357.06	241.24
357.44	240.95
357.82	240.62
358.20	240.81
358.58	241.00
358.97	241.48
359.35	241.76
359.73	242.14
360.11	242.00
360.49	242.48
360.87	242.48
361.25	242.90
361.63	243.76
362.01	243.76
362.39	243.48
362.77	243.76
363.15	243.48
363.53	243.57
363.91	243.95
364.29	244.05
364.67	241.71
365.05	241.76
365.43	242.00
365.81	242.57
366.19	243.67
366.57	244.57
366.95	244.48
367.33	244.19
367.71	244.05
368.09	244.48
368.47	244.33
368.85	244.24
369.23	244.52
369.61	243.76
369.99	244.52
370.37	245.24
370.75	246.43
371.13	246.33
371.51	245.76
371.89	246.00
372.27	246.14
372.65	246.29
373.03	246.52
373.41	246.48
373.78	246.00
374.16	244.81
374.54	243.90
374.92	243.52
375.30	243.57
375.68	243.33
376.06	243.52
376.44	243.05
376.82	243.00
377.19	243.10
377.57	242.81
377.95	241.86
378.33	241.43
378.71	239.67
379.09	239.86
379.47	240.43
379.84	239.67
380.22	239.33
380.60	238.95
380.98	238.62
381.36	238.43
381.73	238.24
382.11	238.52
382.49	238.76
382.87	238.67
383.25	238.52
383.62	241.14
384.00	240.52
384.38	240.71
384.76	241.67
385.13	242.33
385.51	242.67
385.89	242.52
386.27	242.90
386.64	243.19
387.02	242.86
387.40	242.81
387.78	243.48
388.15	243.43
388.53	243.29
388.91	243.38
389.29	243.14
389.66	243.62
390.04	243.19
390.42	243.19
390.79	243.24
391.17	243.33
391.55	240.57
391.92	240.57
392.30	241.00
392.68	239.95
393.05	239.81
393.43	239.95
393.81	240.19
394.18	239.33
394.56	239.24
394.94	240.00
395.31	239.57
395.69	240.38
396.06	240.90
396.44	241.19
396.82	241.10
397.19	242.38
397.57	242.24
397.95	243.00
398.32	242.52
398.70	242.67
399.07	243.24
399.45	243.14
399.82	243.38
400.20	243.14
400.58	243.48
400.95	242.62
401.33	242.76
401.70	244.33
402.08	245.38
402.45	245.76
402.83	246.38
403.20	246.81
403.58	246.29
403.95	246.76
404.33	247.43
404.71	247.57
405.08	249.00
405.46	249.19
405.83	249.24
406.21	249.67
406.58	249.95
406.96	250.19
407.33	251.10
407.70	251.95
408.08	254.38
408.45	255.19
408.83	256.00
409.20	256.57
409.58	256.10
409.95	256.86
410.33	257.67
410.70	257.52
411.08	258.71
411.45	260.05
411.82	260.71
412.20	262.10
412.57	264.86
412.95	264.33
413.32	266.43
413.69	268.05
414.07	269.81
414.44	272.14
414.82	274.19
415.19	276.52
415.56	278.86
415.94	279.71
416.31	283.00
416.68	286.14
417.06	289.62
417.43	293.67
417.81	296.90
418.18	300.67
418.55	305.00
418.93	308.95
419.30	312.90
419.67	317.48
420.04	322.10
420.42	326.24
420.79	333.95
421.16	339.62
421.54	347.00
421.91	354.05
422.28	360.67
422.66	367.71
423.03	375.86
423.40	383.19
423.77	390.48
424.15	396.95
424.52	404.67
424.89	413.14
425.26	420.00
425.64	427.95
426.01	436.43
426.38	444.81
426.75	454.71
427.13	464.19
427.50	474.00
427.87	484.29
428.24	494.43
428.61	502.14
428.99	513.48
429.36	523.57
429.73	533.62
430.10	545.62
430.47	557.19
430.85	567.67
431.22	579.76
431.59	595.95
431.96	609.24
432.33	623.48
432.70	637.62
433.08	655.10
433.45	670.29
433.82	685.95
434.19	703.33
434.56	719.05
434.93	734.43
435.30	749.95
435.68	766.43
436.05	782.71
436.42	798.71
436.79	814.43
437.16	830.86
437.53	848.52
437.90	864.76
438.27	882.05
438.64	899.24
439.01	914.90
439.38	926.33
439.75	939.52
440.13	954.86
440.50	968.62
440.87	979.43
441.24	990.86
441.61	1004.10
441.98	1012.48
442.35	1023.14
442.72	1034.24
443.09	1045.76
443.46	1052.10
443.83	1055.90
444.20	1060.10
444.57	1063.95
444.94	1065.29
445.31	1067.81
445.68	1072.52
446.05	1071.48
446.42	1068.33
446.79	1067.19
447.16	1063.52
447.53	1061.48
447.90	1053.29
448.27	1045.43
448.64	1035.10
449.01	1027.62
449.37	1014.76
449.74	1002.86
450.11	991.67
450.48	976.14
450.85	959.43
451.22	945.71
451.59	933.67
451.96	921.62
452.33	905.33
452.70	891.62
453.07	874.00
453.43	853.57
453.80	836.95
454.17	821.29
454.54	804.38
454.91	788.76
455.28	772.71
455.65	757.57
456.02	748.10
456.38	735.81
456.75	721.38
457.12	708.71
457.49	696.86
457.86	681.90
458.23	673.38
458.59	662.29
458.96	650.86
459.33	640.57
459.70	629.95
460.07	622.24
460.43	612.67
460.80	604.62
461.17	596.52
461.54	589.14
461.91	581.86
462.27	574.38
462.64	567.71
463.01	561.19
463.38	556.62
463.74	544.95
464.11	538.76
464.48	533.19
464.85	527.57
465.21	524.14
465.58	519.71
465.95	512.76
466.32	508.48
466.68	503.86
467.05	498.95
467.42	494.38
467.78	489.52
468.15	485.10
468.52	481.81
468.88	478.10
469.25	473.62
469.62	471.05
469.98	467.71
470.35	464.95
470.72	461.52
471.08	456.62
471.45	454.62
471.82	452.33
472.18	449.62
472.55	447.33
472.92	443.76
473.28	441.62
473.65	439.05
474.02	437.14
474.38	435.81
474.75	434.62
475.11	432.29
475.48	431.05
475.85	429.67
476.21	427.81
476.58	425.95
476.94	424.67
477.31	423.19
477.67	422.05
478.04	420.76
478.41	420.67
478.77	422.57
479.14	421.62
479.50	421.14
479.87	420.90
480.23	420.62
480.60	420.29
480.96	420.24
481.33	421.29
481.69	421.05
482.06	421.38
482.42	422.24
482.79	423.81
483.15	424.48
483.52	425.62
483.88	426.57
484.25	428.05
484.61	429.43
484.98	429.67
485.34	432.05
485.71	433.33
486.07	434.67
486.44	433.90
486.80	435.48
487.17	436.76
487.53	438.81
487.90	440.62
488.26	443.33
488.62	445.81
488.99	447.33
489.35	449.48
489.72	451.00
490.08	452.05
490.44	453.43
490.81	455.62
491.17	457.81
491.54	459.67
491.90	462.19
492.26	464.43
492.63	467.38
492.99	468.81
493.36	471.86
493.72	474.29
494.08	477.19
494.45	479.76
494.81	483.05
495.17	485.90
495.54	489.29
495.90	492.05
496.26	495.05
496.63	498.19
496.99	502.05
497.35	505.62
497.72	510.10
498.08	514.52
498.44	518.86
498.80	523.00
499.17	527.57
499.53	531.86
499.89	537.05
500.26	542.10
500.62	547.10
500.98	552.67
501.34	557.19
501.71	563.00
502.07	568.33
502.43	572.86
502.79	577.05
503.16	581.76
503.52	586.62
503.88	591.38
504.24	597.48
504.60	602.90
504.97	608.95
505.33	613.86
505.69	620.48
506.05	625.43
506.41	630.62
506.78	635.19
507.14	639.95
507.50	645.38
507.86	650.95
508.22	656.95
508.59	660.48
508.95	666.57
509.31	673.14
509.67	678.71
510.03	683.57
510.39	689.10
510.75	694.95
511.12	699.62
511.48	705.33
511.84	710.10
512.20	714.57
512.56	719.48
512.92	725.00
513.28	728.95
513.64	734.10
514.00	738.24
514.37	743.67
514.73	749.14
515.09	753.62
515.45	757.24
515.81	761.14
516.17	766.57
516.53	770.10
516.89	772.57
517.25	776.57
517.61	782.29
517.97	786.76
518.33	790.14
518.69	794.95
519.05	798.33
519.41	802.05
519.77	807.67
520.13	810.10
520.49	813.67
520.85	816.57
521.21	820.67
521.57	824.90
521.93	828.10
522.29	830.52
522.65	832.52
523.01	835.86
523.37	837.95
523.73	839.71
524.09	842.71
524.45	844.95
524.81	846.67
525.17	848.67
525.53	850.71
525.89	852.62
526.25	854.71
526.61	856.00
526.97	857.33
527.33	857.71
527.68	863.19
528.04	863.48
528.40	864.90
528.76	865.43
529.12	866.52
529.48	867.86
529.84	869.14
530.20	871.24
530.56	873.19
530.91	874.76
531.27	876.43
531.63	877.62
531.99	878.76
532.35	880.10
532.71	880.90
533.07	881.90
533.42	886.19
533.78	886.48
534.14	887.95
534.50	889.57
534.86	891.19
535.21	890.33
535.57	892.52
535.93	893.71
536.29	896.81
536.65	898.86
537.00	899.48
537.36	901.71
537.72	903.00
538.08	905.00
538.44	907.67
538.79	910.62
539.15	912.43
539.51	915.24
539.87	917.90
540.22	920.38
540.58	921.62
540.94	921.10
541.29	924.10
541.65	925.71
542.01	928.19
542.37	928.86
542.72	929.24
543.08	929.90
543.44	930.29
543.79	928.24
544.15	928.76
544.51	929.57
544.87	928.33
545.22	927.52
545.58	925.67
545.94	922.52
546.29	919.81
546.65	917.43
547.01	913.81
547.36	910.95
547.72	907.71
548.07	906.86
548.43	903.62
548.79	899.57
549.14	896.67
549.50	893.19
549.86	890.19
550.21	887.33
550.57	884.19
550.92	880.95
551.28	878.71
551.64	874.95
551.99	872.38
552.35	870.24
552.70	868.14
553.06	866.29
553.41	865.19
553.77	864.76
554.13	863.81
554.48	862.43
554.84	860.76
555.19	859.86
555.55	859.67
555.90	857.67
556.26	856.19
556.61	854.43
556.97	851.57
557.32	849.76
557.68	848.48
558.03	847.05
558.39	845.67
558.74	843.90
559.10	842.86
559.45	840.76
559.81	838.71
560.16	837.29
560.52	835.38
560.87	833.71
561.23	830.05
561.58	830.00
561.94	828.43
562.29	826.43
562.64	824.00
563.00	819.67
563.35	817.81
563.71	816.71
564.06	815.81
564.42	814.24
564.77	813.00
565.12	812.05
565.48	813.10
565.83	812.81
566.19	812.24
566.54	810.33
566.89	809.33
567.25	809.00
567.60	808.14
567.96	808.57
568.31	808.90
568.66	809.62
569.02	806.14
569.37	804.67
569.72	803.81
570.08	802.52
570.43	800.90
570.78	799.43
571.14	798.24
571.49	796.19
571.84	795.29
572.20	793.86
572.55	791.38
572.90	786.86
573.26	784.95
573.61	782.90
573.96	782.10
574.31	780.52
574.67	778.10
575.02	776.33
575.37	772.67
575.72	769.05
576.08	766.71
576.43	765.00
576.78	764.10
577.13	762.95
577.49	761.62
577.84	760.57
578.19	760.19
578.54	759.19
578.90	758.38
579.25	757.90
579.60	756.48
579.95	755.43
580.30	755.29
580.66	754.38
581.01	752.76
581.36	750.81
581.71	749.52
582.06	749.57
582.42	747.71
582.77	746.76
583.12	745.76
583.47	744.43
583.82	742.81
584.17	741.10
584.53	739.81
584.88	737.48
585.23	737.05
585.58	734.48
585.93	731.19
586.28	729.00
586.63	726.38
586.98	724.38
587.34	722.43
587.69	719.19
588.04	717.14
588.39	715.57
588.74	712.38
589.09	710.43
589.44	706.24
589.79	703.62
590.14	700.38
590.49	697.38
590.84	693.62
591.19	690.90
591.54	687.62
591.89	683.24
592.25	682.52
592.60	677.67
592.95	675.10
593.30	672.10
593.65	669.00
594.00	665.48
594.35	668.90
594.70	665.52
595.05	663.10
595.40	659.57
595.75	655.90
596.10	653.71
596.45	650.38
596.80	647.62
597.15	644.57
597.50	641.62
597.85	639.57
598.19	636.57
598.54	633.90
598.89	630.57
599.24	628.33
599.59	623.90
599.94	621.90
600.29	619.62
600.64	617.76
600.99	615.86
601.34	613.86
601.69	605.29
602.04	603.24
602.39	600.62
602.74	598.57
603.08	596.38
603.43	594.90
603.78	592.48
604.13	590.95
604.48	589.24
604.83	588.10
605.18	587.62
605.53	588.81
605.87	590.81
606.22	594.24
606.57	598.48
606.92	603.62
607.27	609.00
607.62	614.14
607.96	619.71
608.31	623.81
608.66	628.29
609.01	630.95
609.36	633.86
609.70	637.05
610.05	639.33
610.40	642.48
610.75	643.19
611.10	645.24
611.44	646.14
611.79	647.05
612.14	647.52
612.49	645.62
612.83	643.10
613.18	638.67
613.53	633.33
613.88	627.05
614.22	619.43
614.57	610.76
614.92	602.19
615.27	593.76
615.61	585.90
615.96	578.48
616.31	572.38
616.65	566.57
617.00	560.62
617.35	554.52
617.70	548.19
618.04	543.76
618.39	538.24
618.74	534.43
619.08	529.62
619.43	525.43
619.78	521.43
620.12	517.76
620.47	515.10
620.82	511.48
621.16	508.67
621.51	507.10
621.85	504.62
622.20	502.67
622.55	499.76
622.89	498.05
623.24	495.67
623.59	493.05
623.93	491.14
624.28	489.14
624.62	489.86
624.97	489.29
625.32	487.05
625.66	485.29
626.01	482.86
626.35	481.43
626.70	479.95
627.04	479.33
627.39	478.05
627.73	477.33
628.08	476.10
628.43	473.52
628.77	469.52
629.12	468.05
629.46	465.48
629.81	463.67
630.15	461.33
630.50	459.43
630.84	457.95
631.19	455.38
631.53	453.10
631.88	448.00
632.22	444.19
632.57	442.43
632.91	440.57
633.26	438.86
633.60	436.62
633.95	433.67
634.29	430.33
634.64	427.52
634.98	423.90
635.32	422.29
635.67	420.43
636.01	419.10
636.36	416.86
636.70	415.48
637.05	413.67
637.39	411.43
637.73	409.43
638.08	407.76
638.42	405.57
638.77	404.05
639.11	402.33
639.45	401.14
639.80	399.05
640.14	397.33
640.49	395.05
640.83	393.14
641.17	391.76
641.52	390.43
641.86	389.48
642.20	389.43
642.55	387.43
642.89	386.10
643.23	385.10
643.58	384.81
643.92	383.29
644.26	382.14
644.61	381.86
644.95	381.00
645.29	379.57
645.64	379.62
645.98	378.52
646.32	378.29
646.66	376.48
647.01	375.43
647.35	374.90
647.69	374.81
648.04	374.67
648.38	373.71
648.72	372.86
649.06	371.38
649.41	369.38
649.75	368.62
650.09	368.00
650.43	367.05
650.78	364.95
651.12	363.67
651.46	362.57
651.80	361.29
652.14	359.62
652.49	358.90
652.83	357.33
653.17	356.00
653.51	354.29
653.85	353.86
654.20	352.90
654.54	351.14
654.88	349.10
655.22	347.52
655.56	346.57
655.90	345.67
656.25	344.62
656.59	343.57
656.93	342.71
657.27	342.38
657.61	340.95
657.95	340.71
658.29	340.38
658.64	340.19
658.98	339.38
659.32	339.00
659.66	338.00
660.00	336.95
660.34	336.19
660.68	335.81
661.02	335.14
661.36	334.29
661.70	333.38
662.05	332.71
662.39	332.86
662.73	333.14
663.07	334.00
663.41	333.52
663.75	332.24
664.09	331.76
664.43	330.19
664.77	329.48
665.11	328.14
665.45	327.24
665.79	326.57
666.13	325.29
666.47	324.52
666.81	324.33
667.15	323.19
667.49	322.86
667.83	322.86
668.17	322.05
668.51	321.24
668.85	321.24
669.19	321.81
669.53	320.43
669.87	318.81
670.21	316.90
670.55	316.57
670.89	317.29
671.23	316.33
671.57	315.81
671.91	315.57
672.25	315.24
672.58	315.62
672.92	314.29
673.26	314.24
673.60	313.67
673.94	312.38
674.28	312.33
674.62	311.90
674.96	311.00
675.30	310.62
675.64	309.81
675.97	308.95
676.31	308.10
676.65	307.67
676.99	307.90
677.33	306.90
677.67	306.29
678.01	304.76
678.34	304.62
678.68	304.81
679.02	304.43
679.36	304.10
679.70	302.76
680.04	302.19
680.37	301.52
680.71	300.81
681.05	300.57
681.39	300.33
681.73	299.90
682.06	298.76
682.40	298.14
682.74	298.38
683.08	299.05
683.42	298.24
683.75	298.29
684.09	297.38
684.43	297.19
684.77	296.62
685.10	296.62
685.44	295.95
685.78	294.90
686.12	294.33
686.45	293.76
686.79	293.29
687.13	293.52
687.46	293.29
687.80	293.48
688.14	293.24
688.48	292.76
688.81	292.81
689.15	293.24
689.49	292.81
689.82	292.48
690.16	290.86
690.50	290.38
690.83	289.38
691.17	288.43
691.51	288.05
691.84	287.76
692.18	287.14
692.52	286.76
692.85	286.67
693.19	287.19
693.52	286.90
693.86	286.38
694.20	286.00
694.53	285.43
694.87	284.48
695.21	283.52
695.54	282.81
695.88	281.52
696.21	280.19
696.55	279.86
696.88	279.05
697.22	278.71
697.56	278.52
697.89	278.05
698.23	278.19
698.56	277.86
698.90	277.81
699.23	277.43
699.57	277.43
699.90	276.86
700.24	276.05
700.58	275.86
700.91	275.67
701.25	277.29
701.58	278.24
701.92	279.19
702.25	279.81
702.59	280.38
702.92	281.43
703.26	282.38
703.59	282.95
703.93	285.71
704.26	286.67
704.60	287.19
704.93	287.90
705.26	288.19
705.60	288.95
705.93	288.71
706.27	289.81
706.60	290.43
706.94	291.52
707.27	291.19
707.61	291.52
707.94	292.19
708.27	290.86
708.61	290.00
708.94	289.71
709.28	289.62
709.61	288.90
709.94	288.19
710.28	287.48
710.61	287.00
710.95	284.10
711.28	284.95
711.61	284.14
711.95	283.33
712.28	282.10
712.61	280.95
712.95	281.43
713.28	281.14
713.61	279.86
713.95	278.57
714.28	277.95
714.61	277.38
714.95	276.29
715.28	274.67
715.61	273.86
715.95	273.00
716.28	272.14
716.61	272.14
716.95	271.05
717.28	270.90
717.61	270.05
717.94	269.67
718.28	267.24
718.61	266.43
718.94	266.19
719.27	265.90
719.61	265.52
719.94	264.48
720.27	263.05
720.60	262.38
720.94	262.14
721.27	261.81
721.60	261.67
721.93	261.33
722.27	262.38
722.60	262.71
722.93	262.29
723.26	262.19
723.59	261.29
723.93	261.57
724.26	261.38
724.59	261.33
724.92	261.38
725.25	262.14
725.59	262.24
725.92	262.14
726.25	262.05
726.58	262.43
726.91	262.24
727.24	262.67
727.57	262.86
727.91	262.14
728.24	262.67
728.57	261.90
728.90	262.14
729.23	261.05
729.56	261.71
729.89	261.62
730.22	261.14
730.55	261.00
730.89	260.81
731.22	260.29
731.55	259.95
731.88	259.62
732.21	258.57
732.54	258.29
732.87	258.05
733.20	258.14
733.53	257.86
733.86	258.10
734.19	257.52
734.52	257.90
734.85	259.52
735.18	258.90
735.51	259.86
735.84	259.57
736.17	260.05
736.50	258.76
736.83	261.48
737.16	261.81
737.49	261.67
737.82	260.81
738.15	261.24
738.48	261.24
738.81	261.19
739.14	261.05
739.47	260.33
739.80	260.38
740.13	260.29
740.46	259.76
740.79	259.24
741.12	258.81
741.45	258.19
741.78	256.86
742.11	257.29
742.44	256.48
742.77	257.10
743.10	256.57
743.43	256.19
743.75	253.48
744.08	256.29
744.41	256.33
744.74	256.52
745.07	255.76
745.40	255.86
745.73	256.71
746.06	256.67
746.39	257.24
746.71	256.67
747.04	256.62
747.37	256.62
747.70	256.86
748.03	257.43
748.36	257.71
748.68	257.48
749.01	256.76
749.34	256.81
749.67	256.38
750.00	256.86
750.33	258.95
750.65	259.24
750.98	256.14
751.31	256.14
751.64	256.48
751.97	258.38
752.29	258.14
752.62	257.00
752.95	256.86
753.28	256.62
753.60	256.57
753.93	257.10
754.26	257.29
754.59	256.52
754.91	255.81
755.24	255.71
755.57	255.71
755.90	255.86
756.22	255.43
756.55	255.14
756.88	254.62
757.20	252.38
757.53	251.38
757.86	250.90
758.19	250.76
758.51	250.67
758.84	248.86
759.17	248.24
759.49	248.43
759.82	249.57
760.15	249.90
760.47	249.76
760.80	248.57
761.13	248.67
761.45	248.81
761.78	249.10
762.11	248.95
762.43	248.67
762.76	248.43
763.08	248.86
763.41	248.95
763.74	248.95
764.06	248.90
764.39	248.90
764.71	248.90
765.04	248.71
765.37	248.33
765.69	248.24
766.02	248.57
766.34	248.05
766.67	247.00
767.00	247.24
767.32	248.48
767.65	250.05
767.97	249.90
768.30	250.14
768.62	249.90
768.95	249.48
769.27	249.52
769.60	249.81
769.92	249.24
770.25	248.62
770.57	247.81
770.90	247.67
771.22	247.52
771.55	247.52
771.87	247.86
772.20	247.62
772.52	249.76
772.85	252.67
773.17	253.29
773.50	252.95
773.82	252.43
774.15	251.52
774.47	250.10
774.80	249.81
775.12	249.52
775.45	249.52
775.77	249.57
776.09	249.81
776.42	249.67
776.74	250.33
777.07	250.62
777.39	250.90
777.72	251.05
778.04	251.33
778.36	251.10
778.69	251.00
779.01	250.95
779.33	248.71
779.66	245.95
779.98	245.38
780.31	245.71
780.63	246.62
780.95	246.76
781.28	246.86
781.60	246.43
781.92	246.29
782.25	246.24
782.57	246.38
782.89	245.76
783.22	245.86
783.54	245.52
783.86	245.43
784.19	245.48
784.51	245.95
784.83	245.76
785.16	245.95
785.48	245.76
785.80	246.38
786.12	246.90
786.45	246.90
786.77	246.90
787.09	246.86
787.42	245.86
787.74	245.76
788.06	245.90
788.38	245.86
788.71	245.67
789.03	245.86
789.35	246.10
789.67	246.10
789.99	246.24
790.32	246.00
790.64	246.14
790.96	248.19
791.28	247.67
791.61	247.57
791.93	248.00
792.25	248.29
792.57	249.95
792.89	249.24
793.21	249.33
793.54	249.33
793.86	248.81
