SpectraSuite Data File
++++++++++++++++++++++++++++++++++++
Date: Wed Nov 07 18:32:32 EST 2012
User: group
Dark Spectrum Present: No
Reference Spectrum Present: No
Number of Sampled Component Spectra: 1
Spectrometers: USB2E7196
Integration Time (usec): 1000000 (USB2E7196)
Spectra Averaged: 1 (USB2E7196)
Boxcar Smoothing: 10 (USB2E7196)
Correct for Electrical Dark: No (USB2E7196)
Strobe/Lamp Enabled: No (USB2E7196)
Correct for Detector Non-linearity: No (USB2E7196)
Correct for Stray Light: No (USB2E7196)
Number of Pixels in Processed Spectrum: 2048
>>>>>Begin Processed Spectral Data<<<<<
339.09	0.00
339.48	222.00
339.86	221.00
340.24	226.00
340.63	227.00
341.01	265.00
341.39	229.00
341.78	231.00
342.16	231.00
342.54	232.00
342.93	224.10
343.31	235.14
343.69	235.81
344.07	236.29
344.46	236.90
344.84	237.48
345.22	236.14
345.60	236.71
345.99	237.14
346.37	237.57
346.75	237.90
347.13	238.19
347.52	238.52
347.90	239.43
348.28	239.57
348.66	240.38
349.05	239.71
349.43	239.95
349.81	240.10
350.19	240.10
350.57	240.00
350.96	240.67
351.34	241.14
351.72	241.33
352.10	241.43
352.48	241.19
352.87	241.14
353.25	241.14
353.63	240.86
354.01	240.76
354.39	240.71
354.77	240.33
355.15	241.00
355.54	240.48
355.92	239.43
356.30	239.43
356.68	240.71
357.06	240.67
357.44	240.14
357.82	239.90
358.20	240.14
358.58	240.33
358.97	240.33
359.35	240.52
359.73	241.00
360.11	240.81
360.49	240.95
360.87	240.90
361.25	241.14
361.63	241.86
362.01	241.76
362.39	241.24
362.77	241.95
363.15	241.81
363.53	242.10
363.91	242.43
364.29	242.14
364.67	239.95
365.05	240.10
365.43	240.52
365.81	240.86
366.19	241.86
366.57	242.86
366.95	242.43
367.33	242.19
367.71	241.86
368.09	242.67
368.47	242.71
368.85	242.38
369.23	242.57
369.61	241.71
369.99	242.67
370.37	243.29
370.75	244.29
371.13	243.81
371.51	243.19
371.89	243.33
372.27	243.86
372.65	244.19
373.03	243.90
373.41	243.48
373.78	243.24
374.16	242.10
374.54	241.29
374.92	241.24
375.30	241.05
375.68	240.67
376.06	240.81
376.44	240.57
376.82	241.00
377.19	241.14
377.57	241.24
377.95	240.29
378.33	240.14
378.71	238.81
379.09	239.52
379.47	240.14
379.84	239.90
380.22	239.33
380.60	238.90
380.98	239.05
381.36	239.00
381.73	238.67
382.11	238.71
382.49	239.00
382.87	238.81
383.25	238.86
383.62	241.57
384.00	241.19
384.38	241.57
384.76	242.24
385.13	243.24
385.51	243.24
385.89	243.05
386.27	243.24
386.64	243.29
387.02	242.76
387.40	242.33
387.78	242.43
388.15	242.62
388.53	242.38
388.91	242.33
389.29	242.43
389.66	243.00
390.04	242.81
390.42	243.05
390.79	243.24
391.17	243.33
391.55	240.57
391.92	240.62
392.30	240.62
392.68	240.24
393.05	240.00
393.43	240.10
393.81	240.52
394.18	240.14
394.56	240.33
394.94	240.52
395.31	240.57
395.69	241.48
396.06	241.90
396.44	242.43
396.82	242.38
397.19	243.81
397.57	243.29
397.95	244.00
398.32	243.24
398.70	243.33
399.07	244.10
399.45	244.19
399.82	244.10
400.20	244.10
400.58	243.67
400.95	242.81
401.33	243.24
401.70	245.05
402.08	245.43
402.45	245.62
402.83	246.10
403.20	246.38
403.58	246.29
403.95	246.90
404.33	247.57
404.71	248.33
405.08	249.38
405.46	249.90
405.83	250.24
406.21	250.62
406.58	251.05
406.96	251.00
407.33	251.71
407.70	252.14
408.08	254.33
408.45	255.33
408.83	256.48
409.20	257.10
409.58	256.05
409.95	257.10
410.33	257.90
410.70	258.24
411.08	259.48
411.45	260.33
411.82	260.81
412.20	261.95
412.57	264.33
412.95	264.10
413.32	266.00
413.69	267.24
414.07	269.14
414.44	271.19
414.82	273.24
415.19	276.00
415.56	278.71
415.94	279.95
416.31	283.19
416.68	286.10
417.06	288.90
417.43	292.43
417.81	295.62
418.18	299.33
418.55	303.14
418.93	307.43
419.30	311.86
419.67	316.62
420.04	321.38
420.42	325.33
420.79	333.10
421.16	338.86
421.54	346.14
421.91	352.86
422.28	359.05
422.66	365.71
423.03	373.86
423.40	381.00
423.77	387.76
424.15	394.38
424.52	402.10
424.89	411.29
425.26	419.29
425.64	428.00
426.01	436.24
426.38	445.52
426.75	455.19
427.13	464.48
427.50	474.00
427.87	483.62
428.24	493.33
428.61	501.05
428.99	512.43
429.36	522.62
429.73	533.24
430.10	544.86
430.47	556.95
430.85	567.86
431.22	580.90
431.59	596.95
431.96	610.90
432.33	625.38
432.70	639.90
433.08	656.81
433.45	671.14
433.82	686.48
434.19	704.14
434.56	719.29
434.93	734.76
435.30	750.90
435.68	767.67
436.05	785.10
436.42	800.86
436.79	816.19
437.16	832.95
437.53	849.95
437.90	866.67
438.27	882.38
438.64	898.52
439.01	914.05
439.38	925.19
439.75	938.24
440.13	953.05
440.50	966.43
440.87	976.48
441.24	988.24
441.61	1001.14
441.98	1009.19
442.35	1020.29
442.72	1031.71
443.09	1042.81
443.46	1049.67
443.83	1053.19
444.20	1057.29
444.57	1060.71
444.94	1062.19
445.31	1064.19
445.68	1068.48
446.05	1069.33
446.42	1066.48
446.79	1064.00
447.16	1061.57
447.53	1058.38
447.90	1050.57
448.27	1042.19
448.64	1033.05
449.01	1025.81
449.37	1014.14
449.74	1002.33
450.11	991.38
450.48	975.57
450.85	958.57
451.22	944.71
451.59	931.29
451.96	918.95
452.33	903.43
452.70	889.19
453.07	872.67
453.43	852.48
453.80	835.90
454.17	820.38
454.54	804.52
454.91	788.24
455.28	772.62
455.65	757.43
456.02	747.14
456.38	735.00
456.75	719.81
457.12	706.57
457.49	694.29
457.86	679.29
458.23	670.14
458.59	659.52
458.96	648.19
459.33	638.90
459.70	628.90
460.07	621.81
460.43	612.19
460.80	604.33
461.17	597.48
461.54	589.48
461.91	582.19
462.27	575.05
462.64	568.05
463.01	561.10
463.38	555.90
463.74	545.38
464.11	538.95
464.48	533.71
464.85	527.90
465.21	524.14
465.58	520.14
465.95	513.71
466.32	509.48
466.68	504.95
467.05	500.29
467.42	496.62
467.78	491.43
468.15	487.24
468.52	483.38
468.88	478.67
469.25	474.38
469.62	471.62
469.98	467.19
470.35	464.52
470.72	461.71
471.08	457.19
471.45	455.43
471.82	453.43
472.18	450.38
472.55	448.57
472.92	445.10
473.28	442.81
473.65	440.10
474.02	437.48
474.38	435.52
474.75	434.10
475.11	431.33
475.48	429.62
475.85	427.76
476.21	426.14
476.58	425.10
476.94	424.24
477.31	422.76
477.67	422.57
478.04	421.43
478.41	420.90
478.77	423.57
479.14	421.90
479.50	420.86
479.87	420.86
480.23	420.43
480.60	420.67
480.96	420.29
481.33	421.76
481.69	421.67
482.06	422.57
482.42	423.24
482.79	423.57
483.15	424.19
483.52	425.67
483.88	426.19
484.25	427.00
484.61	428.14
484.98	428.81
485.34	430.67
485.71	432.52
486.07	433.38
486.44	432.38
486.80	434.05
487.17	435.62
487.53	438.05
487.90	440.00
488.26	442.76
488.62	445.10
488.99	446.52
489.35	448.43
489.72	450.19
490.08	451.48
490.44	453.14
490.81	455.43
491.17	457.33
491.54	460.10
491.90	462.90
492.26	465.48
492.63	468.00
492.99	469.62
493.36	472.14
493.72	475.10
494.08	477.38
494.45	480.57
494.81	484.10
495.17	486.62
495.54	489.81
495.90	492.29
496.26	494.90
496.63	498.24
496.99	502.38
497.35	506.29
497.72	510.81
498.08	515.62
498.44	519.95
498.80	524.62
499.17	528.24
499.53	532.38
499.89	536.81
500.26	541.81
500.62	546.29
500.98	551.19
501.34	556.29
501.71	562.19
502.07	567.10
502.43	571.95
502.79	576.62
503.16	581.71
503.52	586.52
503.88	592.33
504.24	598.29
504.60	603.67
504.97	608.76
505.33	613.86
505.69	620.38
506.05	625.90
506.41	631.14
506.78	637.33
507.14	642.43
507.50	647.81
507.86	653.57
508.22	660.24
508.59	665.19
508.95	671.14
509.31	676.90
509.67	682.24
510.03	687.10
510.39	693.48
510.75	698.76
511.12	704.14
511.48	708.90
511.84	712.81
512.20	718.67
512.56	724.24
512.92	728.81
513.28	732.14
513.64	736.62
514.00	741.71
514.37	745.86
514.73	751.43
515.09	756.33
515.45	760.14
515.81	763.90
516.17	768.76
516.53	772.48
516.89	775.57
517.25	779.90
517.61	784.76
517.97	787.57
518.33	792.00
518.69	796.43
519.05	800.38
519.41	804.43
519.77	807.90
520.13	811.19
520.49	814.29
520.85	817.90
521.21	822.76
521.57	826.29
521.93	828.57
522.29	830.81
522.65	832.19
523.01	834.90
523.37	836.71
523.73	838.67
524.09	841.05
524.45	843.62
524.81	845.29
525.17	846.90
525.53	849.00
525.89	850.10
526.25	851.38
526.61	852.90
526.97	854.00
527.33	854.95
527.68	858.29
528.04	860.00
528.40	860.86
528.76	860.67
529.12	860.95
529.48	863.10
529.84	864.14
530.20	866.24
530.56	867.57
530.91	868.38
531.27	869.29
531.63	870.38
531.99	870.67
532.35	872.24
532.71	873.05
533.07	874.81
533.42	879.10
533.78	880.71
534.14	882.19
534.50	883.90
534.86	885.57
535.21	885.00
535.57	886.90
535.93	888.43
536.29	891.62
536.65	892.95
537.00	894.38
537.36	896.38
537.72	898.52
538.08	901.14
538.44	903.43
538.79	906.52
539.15	908.71
539.51	911.33
539.87	913.10
540.22	915.95
540.58	917.57
540.94	917.48
541.29	919.19
541.65	920.14
542.01	922.19
542.37	924.38
542.72	924.90
543.08	924.67
543.44	924.57
543.79	922.38
544.15	922.57
544.51	922.14
544.87	921.43
545.22	919.86
545.58	917.76
545.94	916.67
546.29	913.90
546.65	911.52
547.01	908.62
547.36	906.67
547.72	902.90
548.07	899.90
548.43	896.43
548.79	893.19
549.14	891.10
549.50	888.10
549.86	883.76
550.21	880.76
550.57	879.29
550.92	877.19
551.28	875.10
551.64	872.24
551.99	870.33
552.35	866.57
552.70	864.24
553.06	862.62
553.41	859.90
553.77	859.76
554.13	857.86
554.48	857.19
554.84	855.10
555.19	854.00
555.55	854.10
555.90	851.76
556.26	849.38
556.61	846.52
556.97	843.00
557.32	841.24
557.68	840.24
558.03	837.10
558.39	834.86
558.74	833.76
559.10	832.43
559.45	830.24
559.81	829.52
560.16	827.48
560.52	825.43
560.87	824.10
561.23	821.76
561.58	821.62
561.94	819.19
562.29	818.00
562.64	816.62
563.00	813.24
563.35	811.86
563.71	810.38
564.06	808.95
564.42	808.10
564.77	806.57
565.12	804.19
565.48	806.05
565.83	805.90
566.19	803.95
566.54	802.62
566.89	800.52
567.25	799.90
567.60	800.76
567.96	801.90
568.31	802.05
568.66	801.38
569.02	798.10
569.37	796.43
569.72	794.95
570.08	792.95
570.43	791.81
570.78	790.24
571.14	788.19
571.49	787.24
571.84	786.43
572.20	785.19
572.55	784.24
572.90	780.86
573.26	779.00
573.61	777.29
573.96	775.57
574.31	774.52
574.67	772.90
575.02	770.62
575.37	766.43
575.72	763.81
576.08	761.10
576.43	760.00
576.78	758.81
577.13	756.76
577.49	755.76
577.84	754.81
578.19	753.86
578.54	754.29
578.90	753.57
579.25	752.52
579.60	751.14
579.95	750.14
580.30	748.62
580.66	747.48
581.01	746.14
581.36	745.00
581.71	744.33
582.06	743.86
582.42	741.90
582.77	741.24
583.12	739.95
583.47	738.57
583.82	737.76
584.17	736.90
584.53	736.24
584.88	734.38
585.23	733.29
585.58	731.29
585.93	728.00
586.28	725.48
586.63	722.86
586.98	721.05
587.34	719.29
587.69	716.29
588.04	713.52
588.39	710.62
588.74	707.48
589.09	704.81
589.44	700.67
589.79	698.43
590.14	694.57
590.49	690.57
590.84	687.38
591.19	683.19
591.54	679.95
591.89	675.67
592.25	675.05
592.60	670.43
592.95	667.19
593.30	664.76
593.65	661.43
594.00	658.00
594.35	661.62
594.70	658.00
595.05	655.71
595.40	652.24
595.75	649.67
596.10	646.86
596.45	644.24
596.80	641.81
597.15	638.48
597.50	635.29
597.85	634.14
598.19	631.14
598.54	629.19
598.89	626.00
599.24	623.90
599.59	619.00
599.94	616.62
600.29	614.14
600.64	611.62
600.99	610.05
601.34	608.43
601.69	599.05
602.04	596.14
602.39	593.67
602.74	592.81
603.08	590.86
603.43	590.24
603.78	587.62
604.13	586.05
604.48	584.62
604.83	584.43
605.18	583.29
605.53	584.48
605.87	586.29
606.22	589.05
606.57	593.38
606.92	597.86
607.27	603.95
607.62	609.29
607.96	614.76
608.31	618.71
608.66	622.57
609.01	626.71
609.36	630.38
609.70	633.48
610.05	635.33
610.40	638.76
610.75	640.19
611.10	642.62
611.44	643.71
611.79	644.00
612.14	644.00
612.49	643.00
612.83	640.14
613.18	635.10
613.53	629.81
613.88	622.81
614.22	614.71
614.57	605.52
614.92	597.33
615.27	589.05
615.61	581.57
615.96	574.43
616.31	567.10
616.65	561.24
617.00	554.67
617.35	548.10
617.70	541.38
618.04	536.29
618.39	531.19
618.74	526.48
619.08	521.95
619.43	518.05
619.78	513.86
620.12	510.81
620.47	508.48
620.82	505.71
621.16	503.19
621.51	502.67
621.85	500.38
622.20	498.48
622.55	496.14
622.89	494.19
623.24	492.33
623.59	489.71
623.93	487.90
624.28	485.86
624.62	487.10
624.97	486.95
625.32	484.33
625.66	482.43
626.01	480.43
626.35	479.05
626.70	477.33
627.04	476.48
627.39	474.57
627.73	474.19
628.08	472.24
628.43	469.71
628.77	466.57
629.12	464.67
629.46	463.14
629.81	461.00
630.15	458.52
630.50	456.57
630.84	454.71
631.19	452.10
631.53	450.29
631.88	445.19
632.22	440.81
632.57	439.24
632.91	436.43
633.26	434.00
633.60	431.57
633.95	428.90
634.29	425.57
634.64	423.10
634.98	419.71
635.32	417.90
635.67	416.00
636.01	414.00
636.36	412.43
636.70	410.19
637.05	408.29
637.39	406.33
637.73	404.24
638.08	403.33
638.42	401.38
638.77	400.48
639.11	399.05
639.45	397.48
639.80	395.62
640.14	394.00
640.49	392.38
640.83	391.24
641.17	389.95
641.52	388.52
641.86	387.57
642.20	387.29
642.55	385.86
642.89	384.90
643.23	384.10
643.58	383.43
643.92	381.86
644.26	380.81
644.61	380.52
644.95	379.62
645.29	378.05
645.64	378.38
645.98	376.67
646.32	376.86
646.66	376.10
647.01	375.00
647.35	374.67
647.69	374.71
648.04	373.90
648.38	373.14
648.72	372.24
649.06	370.71
649.41	368.71
649.75	367.48
650.09	366.86
650.43	365.14
650.78	363.86
651.12	362.81
651.46	361.52
651.80	360.00
652.14	358.90
652.49	358.29
652.83	355.67
653.17	354.10
653.51	351.95
653.85	351.33
654.20	350.29
654.54	348.38
654.88	346.05
655.22	344.24
655.56	343.05
655.90	342.38
656.25	341.57
656.59	340.76
656.93	340.24
657.27	339.76
657.61	338.95
657.95	338.29
658.29	337.10
658.64	336.90
658.98	335.90
659.32	334.62
659.66	333.33
660.00	333.14
660.34	332.90
660.68	332.38
661.02	331.57
661.36	330.86
661.70	330.33
662.05	330.29
662.39	330.52
662.73	330.76
663.07	331.67
663.41	331.14
663.75	330.19
664.09	329.38
664.43	327.81
664.77	327.14
665.11	325.90
665.45	325.19
665.79	325.00
666.13	324.62
666.47	324.14
666.81	323.62
667.15	322.67
667.49	322.19
667.83	321.86
668.17	320.71
668.51	319.52
668.85	319.10
669.19	319.48
669.53	317.95
669.87	316.24
670.21	314.38
670.55	313.71
670.89	314.48
671.23	314.00
671.57	313.95
671.91	313.95
672.25	313.57
672.58	314.43
672.92	313.05
673.26	312.38
673.60	311.71
673.94	311.62
674.28	311.62
674.62	311.43
674.96	310.52
675.30	310.90
675.64	310.90
675.97	310.14
676.31	308.48
676.65	308.00
676.99	307.86
677.33	306.81
677.67	306.48
678.01	304.33
678.34	303.48
678.68	303.38
679.02	301.95
679.36	301.38
679.70	299.67
680.04	299.14
680.37	298.19
680.71	297.62
681.05	296.86
681.39	296.14
681.73	295.19
682.06	294.86
682.40	294.05
682.74	293.67
683.08	294.52
683.42	293.95
683.75	294.24
684.09	293.95
684.43	293.71
684.77	292.76
685.10	292.76
685.44	292.86
685.78	291.62
686.12	291.33
686.45	291.05
686.79	290.62
687.13	290.76
687.46	290.95
687.80	291.62
688.14	291.14
688.48	290.62
688.81	290.67
689.15	290.71
689.49	290.19
689.82	289.86
690.16	288.57
690.50	288.43
690.83	287.48
691.17	286.43
691.51	286.14
691.84	286.29
692.18	285.86
692.52	285.10
692.85	285.33
693.19	286.00
693.52	285.29
693.86	284.71
694.20	284.05
694.53	283.43
694.87	282.24
695.21	281.52
695.54	281.29
695.88	280.48
696.21	279.19
696.55	278.95
696.88	278.48
697.22	278.00
697.56	277.95
697.89	277.76
698.23	278.00
698.56	277.67
698.90	277.81
699.23	277.52
699.57	277.67
699.90	276.95
700.24	276.19
700.58	276.33
700.91	277.00
701.25	278.95
701.58	279.71
701.92	280.57
702.25	281.10
702.59	281.00
702.92	281.33
703.26	282.38
703.59	282.76
703.93	285.24
704.26	285.95
704.60	286.57
704.93	286.67
705.26	286.76
705.60	287.43
705.93	287.00
706.27	288.00
706.60	288.71
706.94	290.38
707.27	290.33
707.61	290.57
707.94	290.57
708.27	288.90
708.61	287.95
708.94	287.57
709.28	287.33
709.61	286.71
709.94	286.19
710.28	285.19
710.61	284.29
710.95	281.24
711.28	282.05
711.61	280.52
711.95	280.24
712.28	278.95
712.61	277.71
712.95	278.33
713.28	278.48
713.61	277.00
713.95	274.90
714.28	274.24
714.61	273.33
714.95	272.38
715.28	271.14
715.61	270.71
715.95	270.19
716.28	269.29
716.61	269.43
716.95	268.81
717.28	268.52
717.61	267.86
717.94	267.52
718.28	265.19
718.61	265.00
718.94	264.67
719.27	264.76
719.61	264.76
719.94	263.62
720.27	261.62
720.60	261.24
720.94	261.24
721.27	261.29
721.60	261.71
721.93	261.71
722.27	262.29
722.60	262.29
722.93	261.43
723.26	261.43
723.59	260.71
723.93	260.86
724.26	260.95
724.59	261.24
724.92	261.43
725.25	262.05
725.59	262.19
725.92	261.95
726.25	261.67
726.58	261.81
726.91	261.67
727.24	262.14
727.57	262.10
727.91	261.57
728.24	261.29
728.57	260.24
728.90	260.10
729.23	259.24
729.56	259.95
729.89	260.14
730.22	259.71
730.55	259.33
730.89	259.19
731.22	258.76
731.55	258.52
731.88	258.24
732.21	257.67
732.54	257.14
732.87	256.90
733.20	257.14
733.53	257.05
733.86	257.33
734.19	256.95
734.52	257.24
734.85	258.76
735.18	258.43
735.51	259.48
735.84	259.33
736.17	259.76
736.50	258.24
736.83	261.05
737.16	261.33
737.49	261.71
737.82	261.43
738.15	261.81
738.48	262.00
738.81	261.86
739.14	261.24
739.47	261.10
739.80	261.38
740.13	261.29
740.46	260.71
740.79	260.00
741.12	259.86
741.45	259.38
741.78	257.81
742.11	258.62
742.44	257.95
742.77	258.19
743.10	257.81
743.43	258.05
743.75	255.38
744.08	258.00
744.41	257.67
744.74	257.29
745.07	256.43
745.40	256.00
745.73	257.05
746.06	257.43
746.39	257.43
746.71	256.76
747.04	256.33
747.37	256.29
747.70	256.62
748.03	256.52
748.36	256.76
748.68	256.76
749.01	255.86
749.34	255.57
749.67	255.48
750.00	255.38
750.33	256.76
750.65	256.86
750.98	253.62
751.31	253.48
751.64	253.62
751.97	255.29
752.29	255.33
752.62	254.00
752.95	253.67
753.28	253.76
753.60	253.67
753.93	254.24
754.26	254.38
754.59	253.67
754.91	253.38
755.24	252.81
755.57	252.57
755.90	251.95
756.22	251.67
756.55	251.24
756.88	251.10
757.20	249.76
757.53	248.76
757.86	249.33
758.19	249.90
758.51	249.90
758.84	248.29
759.17	248.14
759.49	248.52
759.82	249.81
760.15	249.67
760.47	249.48
760.80	248.67
761.13	248.38
761.45	248.24
761.78	248.24
762.11	248.52
762.43	248.33
762.76	248.81
763.08	249.05
763.41	249.05
763.74	248.86
764.06	248.67
764.39	249.05
764.71	248.48
765.04	247.95
765.37	247.48
765.69	247.52
766.02	247.29
766.34	246.76
766.67	245.81
767.00	246.19
767.32	247.67
767.65	249.48
767.97	249.38
768.30	249.76
768.62	249.86
768.95	249.76
769.27	249.67
769.60	250.10
769.92	249.62
770.25	249.24
770.57	249.00
770.90	249.14
771.22	248.81
771.55	248.95
771.87	248.86
772.20	248.90
772.52	250.81
772.85	253.52
773.17	253.52
773.50	252.90
773.82	252.38
774.15	251.29
774.47	249.81
774.80	250.05
775.12	249.95
775.45	249.67
775.77	249.62
776.09	249.90
776.42	249.67
776.74	250.43
777.07	250.14
777.39	250.19
777.72	249.57
778.04	249.71
778.36	249.81
778.69	250.00
779.01	250.14
779.33	248.05
779.66	245.43
779.98	245.05
780.31	245.29
780.63	246.24
780.95	246.52
781.28	245.86
781.60	245.38
781.92	244.90
782.25	245.05
782.57	245.00
782.89	244.81
783.22	244.57
783.54	244.10
783.86	244.29
784.19	244.14
784.51	244.86
784.83	244.29
785.16	243.81
785.48	243.81
785.80	243.76
786.12	243.90
786.45	243.71
786.77	244.10
787.09	244.05
787.42	242.95
787.74	242.81
788.06	243.14
788.38	242.95
788.71	242.95
789.03	242.90
789.35	243.10
789.67	242.48
789.99	242.76
790.32	242.48
790.64	242.71
790.96	244.71
791.28	244.33
791.61	244.67
791.93	245.05
792.25	244.52
792.57	246.33
792.89	245.71
793.21	246.10
793.54	246.00
793.86	245.52
