SpectraSuite Data File
++++++++++++++++++++++++++++++++++++
Date: Wed Nov 07 18:33:23 EST 2012
User: group
Dark Spectrum Present: No
Reference Spectrum Present: No
Number of Sampled Component Spectra: 1
Spectrometers: USB2E7196
Integration Time (usec): 1000000 (USB2E7196)
Spectra Averaged: 1 (USB2E7196)
Boxcar Smoothing: 10 (USB2E7196)
Correct for Electrical Dark: No (USB2E7196)
Strobe/Lamp Enabled: No (USB2E7196)
Correct for Detector Non-linearity: No (USB2E7196)
Correct for Stray Light: No (USB2E7196)
Number of Pixels in Processed Spectrum: 2048
>>>>>Begin Processed Spectral Data<<<<<
339.09	0.00
339.48	218.00
339.86	225.00
340.24	217.00
340.63	223.00
341.01	260.00
341.39	229.00
341.78	232.00
342.16	236.00
342.54	235.00
342.93	221.62
343.31	232.24
343.69	232.57
344.07	232.95
344.46	234.05
344.84	234.81
345.22	233.33
345.60	233.62
345.99	233.67
346.37	233.62
346.75	233.19
347.13	233.33
347.52	233.57
347.90	234.14
348.28	234.10
348.66	235.14
349.05	234.24
349.43	234.81
349.81	234.81
350.19	234.81
350.57	235.10
350.96	235.38
351.34	236.00
351.72	236.62
352.10	236.57
352.48	236.14
352.87	236.10
353.25	236.38
353.63	236.33
354.01	236.52
354.39	236.71
354.77	237.19
355.15	237.86
355.54	237.43
355.92	237.43
356.30	237.57
356.68	238.81
357.06	239.24
357.44	239.10
357.82	239.48
358.20	239.90
358.58	240.05
358.97	239.95
359.35	240.57
359.73	240.76
360.11	241.10
360.49	241.38
360.87	241.24
361.25	241.43
361.63	242.10
362.01	242.29
362.39	242.24
362.77	242.57
363.15	242.29
363.53	242.76
363.91	242.38
364.29	242.33
364.67	240.24
365.05	240.19
365.43	240.10
365.81	240.29
366.19	241.57
366.57	242.29
366.95	242.24
367.33	241.81
367.71	241.86
368.09	242.05
368.47	242.19
368.85	241.95
369.23	242.48
369.61	241.90
369.99	242.76
370.37	243.19
370.75	244.48
371.13	244.14
371.51	243.95
371.89	244.05
372.27	244.24
372.65	244.33
373.03	244.67
373.41	244.48
373.78	244.19
374.16	242.81
374.54	242.00
374.92	242.05
375.30	241.90
375.68	241.48
376.06	241.67
376.44	241.24
376.82	241.76
377.19	241.81
377.57	241.71
377.95	240.67
378.33	240.33
378.71	238.52
379.09	238.81
379.47	238.95
379.84	239.14
380.22	239.05
380.60	238.52
380.98	238.10
381.36	238.43
381.73	238.00
382.11	238.48
382.49	239.00
382.87	238.81
383.25	238.57
383.62	241.24
384.00	240.62
384.38	240.90
384.76	241.24
385.13	242.05
385.51	241.90
385.89	241.71
386.27	241.71
386.64	242.33
387.02	242.14
387.40	241.76
387.78	241.71
388.15	241.52
388.53	241.29
388.91	241.52
389.29	241.10
389.66	241.57
390.04	241.10
390.42	241.48
390.79	241.90
391.17	242.10
391.55	239.52
391.92	239.71
392.30	239.67
392.68	239.14
393.05	238.81
393.43	239.14
393.81	239.33
394.18	238.90
394.56	238.71
394.94	239.38
395.31	239.57
395.69	240.48
396.06	240.90
396.44	241.33
396.82	241.19
397.19	242.33
397.57	242.33
397.95	242.81
398.32	241.90
398.70	241.71
399.07	242.48
399.45	242.43
399.82	242.67
400.20	242.67
400.58	242.86
400.95	242.05
401.33	242.43
401.70	244.33
402.08	244.67
402.45	244.95
402.83	245.10
403.20	245.05
403.58	244.71
403.95	245.33
404.33	245.95
404.71	246.19
405.08	248.00
405.46	248.14
405.83	248.57
406.21	248.67
406.58	249.05
406.96	249.05
407.33	249.67
407.70	250.14
408.08	252.24
408.45	253.10
408.83	254.19
409.20	254.43
409.58	253.62
409.95	255.19
410.33	256.05
410.70	256.48
411.08	258.10
411.45	259.05
411.82	259.81
412.20	261.38
412.57	263.90
412.95	263.24
413.32	265.00
413.69	266.48
414.07	268.76
414.44	270.67
414.82	272.86
415.19	275.48
415.56	278.00
415.94	279.62
416.31	282.48
416.68	285.29
417.06	289.38
417.43	293.57
417.81	296.81
418.18	300.52
418.55	304.57
418.93	308.52
419.30	313.24
419.67	318.24
420.04	322.62
420.42	327.24
420.79	335.10
421.16	341.33
421.54	349.14
421.91	355.71
422.28	362.33
422.66	368.76
423.03	377.48
423.40	384.29
423.77	391.38
424.15	398.81
424.52	406.52
424.89	414.48
425.26	421.71
425.64	429.05
426.01	437.52
426.38	445.95
426.75	455.29
427.13	464.19
427.50	473.05
427.87	482.90
428.24	492.67
428.61	499.95
428.99	511.29
429.36	521.00
429.73	531.90
430.10	543.29
430.47	555.57
430.85	565.57
431.22	578.86
431.59	595.10
431.96	608.29
432.33	622.86
432.70	637.48
433.08	653.29
433.45	669.10
433.82	683.86
434.19	701.52
434.56	717.57
434.93	732.86
435.30	748.81
435.68	766.00
436.05	782.90
436.42	799.38
436.79	815.43
437.16	831.86
437.53	848.10
437.90	865.48
438.27	881.95
438.64	898.86
439.01	914.95
439.38	926.62
439.75	939.05
440.13	955.19
440.50	969.00
440.87	980.43
441.24	992.48
441.61	1006.48
441.98	1014.95
442.35	1025.62
442.72	1037.38
443.09	1048.71
443.46	1055.29
443.83	1058.43
444.20	1062.76
444.57	1066.48
444.94	1067.71
445.31	1070.62
445.68	1074.81
446.05	1075.10
446.42	1072.76
446.79	1069.95
447.16	1066.29
447.53	1063.43
447.90	1055.10
448.27	1047.19
448.64	1037.71
449.01	1029.86
449.37	1017.10
449.74	1005.57
450.11	994.29
450.48	978.43
450.85	962.00
451.22	948.24
451.59	936.48
451.96	923.57
452.33	907.14
452.70	892.90
453.07	874.86
453.43	854.71
453.80	837.71
454.17	821.52
454.54	805.24
454.91	789.43
455.28	774.10
455.65	758.81
456.02	748.86
456.38	736.38
456.75	721.38
457.12	708.67
457.49	696.52
457.86	682.24
458.23	673.48
458.59	662.38
458.96	650.90
459.33	639.90
459.70	629.86
460.07	621.57
460.43	612.48
460.80	604.48
461.17	596.62
461.54	589.00
461.91	581.43
462.27	574.00
462.64	567.43
463.01	561.19
463.38	555.67
463.74	544.62
464.11	538.62
464.48	533.29
464.85	527.19
465.21	522.81
465.58	518.14
465.95	511.24
466.32	506.86
466.68	502.48
467.05	497.95
467.42	493.29
467.78	488.38
468.15	484.10
468.52	481.57
468.88	476.95
469.25	472.67
469.62	469.67
469.98	466.52
470.35	462.95
470.72	459.81
471.08	455.05
471.45	452.24
471.82	449.76
472.18	446.67
472.55	444.57
472.92	441.38
473.28	439.10
473.65	436.71
474.02	434.38
474.38	432.52
474.75	431.29
475.11	429.48
475.48	428.67
475.85	427.29
476.21	425.14
476.58	424.33
476.94	423.33
477.31	422.14
477.67	420.48
478.04	419.90
478.41	418.86
478.77	421.14
479.14	420.38
479.50	419.62
479.87	419.71
480.23	419.71
480.60	419.38
480.96	419.14
481.33	420.19
481.69	420.76
482.06	420.86
482.42	421.52
482.79	422.29
483.15	422.57
483.52	423.43
483.88	424.19
484.25	424.95
484.61	425.86
484.98	426.86
485.34	429.24
485.71	430.38
486.07	432.00
486.44	430.81
486.80	431.86
487.17	433.29
487.53	435.05
487.90	436.90
488.26	439.67
488.62	442.24
488.99	443.52
489.35	445.19
489.72	447.43
490.08	448.86
490.44	450.24
490.81	453.19
491.17	454.81
491.54	457.52
491.90	460.43
492.26	462.62
492.63	465.05
492.99	466.86
493.36	469.86
493.72	473.00
494.08	475.90
494.45	478.52
494.81	482.05
495.17	485.67
495.54	489.52
495.90	492.43
496.26	496.00
496.63	499.71
496.99	503.52
497.35	507.43
497.72	511.76
498.08	515.86
498.44	519.81
498.80	524.67
499.17	528.71
499.53	533.19
499.89	538.81
500.26	543.33
500.62	548.19
500.98	553.00
501.34	557.67
501.71	563.10
502.07	569.19
502.43	574.19
502.79	578.33
503.16	582.52
503.52	587.57
503.88	592.00
504.24	597.62
504.60	602.14
504.97	607.57
505.33	612.86
505.69	619.67
506.05	624.38
506.41	629.90
506.78	635.24
507.14	639.71
507.50	644.38
507.86	650.33
508.22	655.57
508.59	660.57
508.95	666.19
509.31	672.52
509.67	677.81
510.03	682.76
510.39	688.10
510.75	694.14
511.12	698.95
511.48	704.67
511.84	708.76
512.20	714.62
512.56	719.67
512.92	724.52
513.28	728.71
513.64	733.81
514.00	738.24
514.37	743.24
514.73	748.57
515.09	753.38
515.45	756.62
515.81	761.48
516.17	766.00
516.53	769.43
516.89	772.52
517.25	776.29
517.61	781.24
517.97	785.10
518.33	788.05
518.69	792.67
519.05	796.57
519.41	801.05
519.77	805.90
520.13	809.00
520.49	812.95
520.85	816.43
521.21	821.00
521.57	824.81
521.93	827.05
522.29	829.29
522.65	831.29
523.01	834.81
523.37	836.43
523.73	839.33
524.09	841.76
524.45	843.33
524.81	845.57
525.17	848.14
525.53	850.33
525.89	852.71
526.25	855.00
526.61	855.52
526.97	856.33
527.33	857.43
527.68	862.10
528.04	863.19
528.40	863.86
528.76	864.43
529.12	865.76
529.48	868.19
529.84	869.52
530.20	872.38
530.56	874.29
530.91	876.24
531.27	877.67
531.63	878.95
531.99	880.71
532.35	881.90
532.71	881.67
533.07	882.86
533.42	887.24
533.78	888.00
534.14	889.24
534.50	890.43
534.86	891.71
535.21	889.67
535.57	890.95
535.93	892.29
536.29	894.62
536.65	896.10
537.00	897.57
537.36	900.19
537.72	900.62
538.08	902.24
538.44	903.81
538.79	905.24
539.15	907.14
539.51	908.57
539.87	910.10
540.22	911.95
540.58	913.10
540.94	911.71
541.29	912.71
541.65	914.43
542.01	916.38
542.37	917.24
542.72	918.19
543.08	918.10
543.44	918.24
543.79	915.81
544.15	915.14
544.51	914.71
544.87	913.76
545.22	913.29
545.58	911.43
545.94	909.48
546.29	907.33
546.65	905.00
547.01	902.86
547.36	901.10
547.72	898.48
548.07	896.57
548.43	893.43
548.79	890.86
549.14	887.48
549.50	885.71
549.86	882.24
550.21	879.62
550.57	878.00
550.92	875.76
551.28	874.76
551.64	873.24
551.99	870.86
552.35	868.14
552.70	865.57
553.06	863.90
553.41	862.57
553.77	862.48
554.13	861.33
554.48	860.29
554.84	858.19
555.19	856.86
555.55	857.14
555.90	855.86
556.26	854.05
556.61	853.05
556.97	849.57
557.32	847.67
557.68	846.90
558.03	844.95
558.39	843.24
558.74	841.00
559.10	838.29
559.45	836.67
559.81	834.76
560.16	833.38
560.52	832.00
560.87	830.05
561.23	826.71
561.58	827.14
561.94	825.00
562.29	822.95
562.64	820.81
563.00	817.48
563.35	816.05
563.71	814.43
564.06	812.62
564.42	811.95
564.77	810.95
565.12	808.48
565.48	809.57
565.83	808.76
566.19	807.57
566.54	806.62
566.89	804.67
567.25	804.57
567.60	804.67
567.96	805.52
568.31	806.00
568.66	806.52
569.02	803.05
569.37	801.62
569.72	800.95
570.08	800.19
570.43	798.38
570.78	796.67
571.14	795.24
571.49	793.90
571.84	791.95
572.20	790.67
572.55	790.24
572.90	786.05
573.26	784.33
573.61	782.52
573.96	780.10
574.31	778.67
574.67	776.48
575.02	773.52
575.37	768.90
575.72	766.05
576.08	762.52
576.43	760.24
576.78	758.19
577.13	756.14
577.49	755.00
577.84	753.48
578.19	752.19
578.54	750.86
578.90	749.05
579.25	747.95
579.60	746.24
579.95	743.67
580.30	742.05
580.66	740.67
581.01	739.10
581.36	737.33
581.71	735.76
582.06	734.43
582.42	732.81
582.77	731.10
583.12	728.86
583.47	727.48
583.82	725.57
584.17	724.62
584.53	723.86
584.88	721.05
585.23	719.76
585.58	716.95
585.93	714.62
586.28	712.33
586.63	709.86
586.98	708.00
587.34	705.71
587.69	703.00
588.04	699.57
588.39	696.90
588.74	694.76
589.09	692.57
589.44	688.67
589.79	685.52
590.14	682.48
590.49	679.14
590.84	675.57
591.19	673.14
591.54	669.48
591.89	665.19
592.25	664.71
592.60	661.10
592.95	658.86
593.30	656.19
593.65	654.24
594.00	650.81
594.35	654.00
594.70	651.24
595.05	649.00
595.40	646.38
595.75	643.43
596.10	640.86
596.45	637.86
596.80	635.71
597.15	633.33
597.50	631.43
597.85	630.24
598.19	628.29
598.54	625.57
598.89	622.86
599.24	620.71
599.59	615.95
599.94	613.81
600.29	610.86
600.64	608.29
600.99	606.43
601.34	605.33
601.69	596.90
602.04	594.10
602.39	591.62
602.74	590.24
603.08	588.38
603.43	587.67
603.78	585.10
604.13	583.10
604.48	581.24
604.83	580.05
605.18	578.86
605.53	579.19
605.87	580.19
606.22	582.33
606.57	585.00
606.92	588.00
607.27	591.14
607.62	594.52
607.96	597.71
608.31	599.24
608.66	600.81
609.01	602.10
609.36	604.57
609.70	605.81
610.05	606.71
610.40	608.10
610.75	608.29
611.10	609.95
611.44	610.10
611.79	609.43
612.14	608.62
612.49	606.43
612.83	603.33
613.18	600.19
613.53	595.86
613.88	590.14
614.22	583.86
614.57	577.43
614.92	571.19
615.27	565.19
615.61	558.71
615.96	553.48
616.31	548.24
616.65	542.76
617.00	538.00
617.35	532.67
617.70	528.05
618.04	522.90
618.39	518.19
618.74	515.00
619.08	512.10
619.43	508.86
619.78	505.67
620.12	503.10
620.47	500.62
620.82	497.43
621.16	494.43
621.51	493.71
621.85	491.29
622.20	489.29
622.55	486.71
622.89	485.14
623.24	483.29
623.59	481.29
623.93	479.95
624.28	478.29
624.62	479.29
624.97	478.57
625.32	476.67
625.66	474.81
626.01	472.71
626.35	470.71
626.70	468.86
627.04	467.95
627.39	465.86
627.73	464.76
628.08	463.38
628.43	462.14
628.77	458.67
629.12	456.90
629.46	455.19
629.81	453.14
630.15	451.67
630.50	449.19
630.84	446.95
631.19	444.71
631.53	442.57
631.88	437.95
632.22	434.24
632.57	433.00
632.91	430.52
633.26	428.67
633.60	426.62
633.95	423.86
634.29	421.38
634.64	419.24
634.98	415.86
635.32	414.43
635.67	412.05
636.01	410.48
636.36	408.43
636.70	407.29
637.05	405.67
637.39	403.71
637.73	402.24
638.08	401.24
638.42	399.14
638.77	397.90
639.11	396.67
639.45	395.57
639.80	393.71
640.14	392.52
640.49	390.52
640.83	388.95
641.17	388.48
641.52	386.52
641.86	385.33
642.20	384.81
642.55	382.76
642.89	382.14
643.23	380.86
643.58	380.24
643.92	377.76
644.26	376.95
644.61	376.24
644.95	375.62
645.29	374.43
645.64	374.81
645.98	373.76
646.32	373.43
646.66	372.29
647.01	371.00
647.35	370.33
647.69	370.00
648.04	369.67
648.38	368.62
648.72	368.29
649.06	367.38
649.41	366.29
649.75	365.52
650.09	365.19
650.43	364.67
650.78	362.95
651.12	361.86
651.46	360.48
651.80	358.86
652.14	357.52
652.49	356.67
652.83	354.33
653.17	352.76
653.51	351.14
653.85	350.57
654.20	349.86
654.54	348.38
654.88	346.90
655.22	344.95
655.56	343.71
655.90	342.48
656.25	341.24
656.59	340.14
656.93	339.38
657.27	338.52
657.61	336.86
657.95	336.62
658.29	336.05
658.64	335.62
658.98	334.86
659.32	334.10
659.66	333.24
660.00	333.05
660.34	332.24
660.68	331.86
661.02	330.71
661.36	329.67
661.70	329.38
662.05	328.71
662.39	329.62
662.73	329.62
663.07	330.52
663.41	330.14
663.75	329.10
664.09	328.76
664.43	327.76
664.77	327.29
665.11	326.19
665.45	325.81
665.79	325.76
666.13	325.29
666.47	324.10
666.81	323.43
667.15	322.10
667.49	321.90
667.83	321.67
668.17	320.57
668.51	320.19
668.85	319.67
669.19	319.62
669.53	317.90
669.87	316.95
670.21	315.00
670.55	314.71
670.89	315.24
671.23	314.38
671.57	313.67
671.91	313.29
672.25	312.71
672.58	312.86
672.92	311.19
673.26	310.57
673.60	310.57
673.94	309.90
674.28	309.86
674.62	309.62
674.96	308.52
675.30	308.90
675.64	308.38
675.97	307.43
676.31	306.67
676.65	306.00
676.99	306.10
677.33	305.10
677.67	304.43
678.01	302.57
678.34	301.67
678.68	301.95
679.02	301.38
679.36	301.29
679.70	300.00
680.04	300.00
680.37	299.76
680.71	299.19
681.05	299.05
681.39	298.71
681.73	298.05
682.06	297.71
682.40	297.00
682.74	296.76
683.08	297.48
683.42	296.95
683.75	297.33
684.09	296.00
684.43	296.00
684.77	295.33
685.10	295.14
685.44	295.00
685.78	293.67
686.12	293.19
686.45	292.52
686.79	291.76
687.13	291.57
687.46	290.86
687.80	290.90
688.14	290.38
688.48	290.19
688.81	289.86
689.15	289.95
689.49	289.48
689.82	289.10
690.16	287.52
690.50	287.38
690.83	286.14
691.17	285.67
691.51	285.10
691.84	285.14
692.18	284.81
692.52	284.48
692.85	284.38
693.19	285.05
693.52	284.81
693.86	284.86
694.20	284.33
694.53	284.33
694.87	283.43
695.21	282.52
695.54	282.19
695.88	281.76
696.21	280.24
696.55	279.57
696.88	279.10
697.22	278.86
697.56	278.48
697.89	278.38
698.23	278.62
698.56	278.10
698.90	277.86
699.23	278.00
699.57	278.00
699.90	277.57
700.24	276.62
700.58	276.38
700.91	276.57
701.25	278.48
701.58	278.86
701.92	279.71
702.25	280.29
702.59	280.00
702.92	280.38
703.26	280.71
703.59	281.00
703.93	283.33
704.26	284.24
704.60	284.76
704.93	284.86
705.26	284.71
705.60	285.57
705.93	285.24
706.27	285.86
706.60	286.57
706.94	287.76
707.27	287.76
707.61	288.14
707.94	288.14
708.27	286.48
708.61	285.90
708.94	285.14
709.28	284.95
709.61	284.86
709.94	284.05
710.28	283.90
710.61	284.00
710.95	281.00
711.28	281.57
711.61	280.81
711.95	280.86
712.28	280.19
712.61	279.29
712.95	280.10
713.28	280.43
713.61	279.00
713.95	277.76
714.28	277.38
714.61	276.29
714.95	275.24
715.28	274.05
715.61	273.43
715.95	273.43
716.28	272.52
716.61	272.29
716.95	271.76
717.28	271.24
717.61	270.76
717.94	270.52
718.28	268.38
718.61	267.48
718.94	266.67
719.27	266.24
719.61	266.14
719.94	265.00
720.27	263.33
720.60	263.05
720.94	262.52
721.27	262.05
721.60	262.24
721.93	262.05
722.27	262.76
722.60	262.71
722.93	261.76
723.26	261.76
723.59	260.86
723.93	260.95
724.26	261.05
724.59	260.62
724.92	260.90
725.25	261.33
725.59	261.24
725.92	261.24
726.25	261.19
726.58	260.90
726.91	260.29
727.24	260.19
727.57	260.14
727.91	259.95
728.24	260.24
728.57	259.95
728.90	260.14
729.23	259.24
729.56	260.43
729.89	260.62
730.22	260.29
730.55	260.33
730.89	260.48
731.22	260.33
731.55	260.19
731.88	259.52
732.21	259.10
732.54	258.81
732.87	258.52
733.20	258.48
733.53	258.81
733.86	259.29
734.19	259.05
734.52	259.19
734.85	260.76
735.18	260.19
735.51	260.81
735.84	260.43
736.17	260.95
736.50	259.19
736.83	261.95
737.16	261.81
737.49	261.71
737.82	261.05
738.15	261.24
738.48	260.76
738.81	260.71
739.14	260.33
739.47	260.38
739.80	260.48
740.13	260.62
740.46	259.57
740.79	258.90
741.12	258.48
741.45	258.29
741.78	256.57
742.11	257.05
742.44	256.38
742.77	256.76
743.10	256.48
743.43	256.10
743.75	253.14
744.08	256.00
744.41	255.71
744.74	255.71
745.07	254.95
745.40	255.48
745.73	256.10
746.06	255.95
746.39	256.24
746.71	255.71
747.04	255.05
747.37	255.43
747.70	256.00
748.03	256.48
748.36	256.62
748.68	256.29
749.01	255.81
749.34	255.81
749.67	255.76
750.00	255.95
750.33	257.90
750.65	258.38
750.98	255.57
751.31	255.62
751.64	255.57
751.97	256.95
752.29	256.67
752.62	255.95
752.95	255.81
753.28	255.14
753.60	255.24
753.93	255.90
754.26	255.86
754.59	255.14
754.91	254.57
755.24	254.19
755.57	254.05
755.90	253.67
756.22	252.81
756.55	252.14
756.88	251.57
757.20	249.67
757.53	248.48
757.86	248.33
758.19	248.38
758.51	248.57
758.84	247.29
759.17	247.00
759.49	247.00
759.82	248.24
760.15	248.71
760.47	248.38
760.80	247.43
761.13	247.67
761.45	247.29
761.78	247.29
762.11	247.19
762.43	247.19
762.76	247.10
763.08	247.52
763.41	247.95
763.74	248.10
764.06	248.33
764.39	248.62
764.71	248.43
765.04	247.90
765.37	247.24
765.69	247.14
766.02	247.10
766.34	246.90
766.67	246.10
767.00	246.38
767.32	247.76
767.65	249.86
767.97	249.62
768.30	249.95
768.62	249.86
768.95	249.43
769.27	249.38
769.60	249.62
769.92	249.52
770.25	248.76
770.57	248.14
770.90	248.10
771.22	247.81
771.55	248.05
771.87	248.14
772.20	247.95
772.52	249.86
772.85	252.71
773.17	253.05
773.50	252.71
773.82	252.10
774.15	250.86
774.47	248.81
774.80	248.48
775.12	248.38
775.45	248.57
775.77	248.67
776.09	248.86
776.42	248.86
776.74	249.52
777.07	249.71
777.39	249.81
777.72	249.52
778.04	249.86
778.36	249.19
778.69	249.52
779.01	250.05
779.33	247.90
779.66	245.38
779.98	244.81
780.31	244.86
780.63	245.95
780.95	246.57
781.28	246.48
781.60	246.24
781.92	246.29
782.25	245.95
782.57	245.95
782.89	245.62
783.22	245.48
783.54	244.57
783.86	244.71
784.19	244.43
784.51	245.24
784.83	244.71
785.16	245.05
785.48	245.05
785.80	245.05
786.12	245.33
786.45	244.76
786.77	244.95
787.09	245.00
787.42	243.76
787.74	243.86
788.06	243.81
788.38	243.67
788.71	243.62
789.03	243.71
789.35	244.10
789.67	243.67
789.99	243.90
790.32	243.86
790.64	244.05
790.96	246.14
791.28	245.14
791.61	245.10
791.93	245.24
792.25	245.10
792.57	246.57
792.89	246.05
793.21	246.62
793.54	246.43
793.86	245.76
