SpectraSuite Data File
++++++++++++++++++++++++++++++++++++
Date: Wed Nov 07 18:31:26 EST 2012
User: group
Dark Spectrum Present: No
Reference Spectrum Present: No
Number of Sampled Component Spectra: 1
Spectrometers: USB2E7196
Integration Time (usec): 1000000 (USB2E7196)
Spectra Averaged: 1 (USB2E7196)
Boxcar Smoothing: 10 (USB2E7196)
Correct for Electrical Dark: No (USB2E7196)
Strobe/Lamp Enabled: No (USB2E7196)
Correct for Detector Non-linearity: No (USB2E7196)
Correct for Stray Light: No (USB2E7196)
Number of Pixels in Processed Spectrum: 2048
>>>>>Begin Processed Spectral Data<<<<<
339.09	0.00
339.48	220.00
339.86	219.00
340.24	226.00
340.63	228.00
341.01	264.00
341.39	225.00
341.78	238.00
342.16	238.00
342.54	226.00
342.93	222.71
343.31	233.67
343.69	234.10
344.07	234.71
344.46	235.33
344.84	235.90
345.22	234.57
345.60	235.33
345.99	234.90
346.37	234.57
346.75	234.76
347.13	234.95
347.52	234.86
347.90	235.76
348.28	235.67
348.66	236.33
349.05	235.67
349.43	235.95
349.81	236.19
350.19	235.95
350.57	235.95
350.96	235.95
351.34	236.14
351.72	236.10
352.10	236.52
352.48	236.38
352.87	236.05
353.25	235.81
353.63	235.43
354.01	235.48
354.39	235.67
354.77	235.76
355.15	236.38
355.54	236.29
355.92	235.52
356.30	236.14
356.68	237.71
357.06	237.95
357.44	237.76
357.82	237.57
358.20	238.00
358.58	238.14
358.97	238.33
359.35	239.00
359.73	239.76
360.11	239.57
360.49	239.71
360.87	239.95
361.25	240.62
361.63	241.29
362.01	241.81
362.39	241.90
362.77	242.14
363.15	241.86
363.53	242.24
363.91	242.76
364.29	242.57
364.67	240.19
365.05	240.33
365.43	240.48
365.81	240.95
366.19	242.24
366.57	243.33
366.95	243.24
367.33	242.81
367.71	242.86
368.09	243.33
368.47	243.19
368.85	242.95
369.23	243.29
369.61	242.62
369.99	243.48
370.37	244.05
370.75	245.38
371.13	245.05
371.51	244.38
371.89	244.43
372.27	244.81
372.65	245.38
373.03	245.14
373.41	245.38
373.78	245.29
374.16	243.86
374.54	243.19
374.92	243.48
375.30	243.48
375.68	243.33
376.06	243.43
376.44	243.38
376.82	243.48
377.19	243.33
377.57	243.38
377.95	242.33
378.33	242.19
378.71	240.71
379.09	241.14
379.47	242.05
379.84	242.10
380.22	241.38
380.60	241.05
380.98	241.19
381.36	241.24
381.73	241.10
382.11	241.86
382.49	241.62
382.87	241.33
383.25	241.19
383.62	243.81
384.00	243.19
384.38	243.43
384.76	244.19
385.13	245.24
385.51	245.33
385.89	245.24
386.27	244.86
386.64	245.43
387.02	245.38
387.40	244.48
387.78	244.57
388.15	244.86
388.53	244.52
388.91	244.71
389.29	244.33
389.66	244.62
390.04	244.10
390.42	244.90
390.79	244.81
391.17	245.00
391.55	242.19
391.92	242.19
392.30	242.48
392.68	241.62
393.05	241.29
393.43	241.00
393.81	241.24
394.18	240.95
394.56	240.52
394.94	240.52
395.31	240.43
395.69	240.81
396.06	241.29
396.44	241.05
396.82	240.67
397.19	242.00
397.57	241.67
397.95	242.19
398.32	241.05
398.70	241.57
399.07	241.81
399.45	241.76
399.82	241.95
400.20	241.57
400.58	242.10
400.95	241.14
401.33	242.29
401.70	243.86
402.08	244.10
402.45	244.24
402.83	245.00
403.20	245.38
403.58	245.19
403.95	245.62
404.33	246.86
404.71	247.19
405.08	248.43
405.46	248.57
405.83	248.86
406.21	249.48
406.58	249.57
406.96	249.95
407.33	250.62
407.70	251.67
408.08	254.24
408.45	254.71
408.83	255.95
409.20	256.14
409.58	255.43
409.95	256.71
410.33	257.95
410.70	258.24
411.08	259.71
411.45	260.52
411.82	261.19
412.20	262.52
412.57	265.05
412.95	264.00
413.32	266.19
413.69	267.33
414.07	268.81
414.44	270.71
414.82	272.90
415.19	275.38
415.56	277.10
415.94	278.10
416.31	281.29
416.68	284.14
417.06	287.76
417.43	291.71
417.81	295.38
418.18	298.76
418.55	302.71
418.93	306.57
419.30	311.14
419.67	315.57
420.04	319.86
420.42	324.43
420.79	332.38
421.16	338.00
421.54	345.48
421.91	352.19
422.28	358.43
422.66	364.81
423.03	373.00
423.40	380.29
423.77	387.33
424.15	394.19
424.52	402.05
424.89	410.86
425.26	418.24
425.64	425.95
426.01	434.19
426.38	443.19
426.75	452.95
427.13	462.24
427.50	472.33
427.87	481.76
428.24	490.81
428.61	498.71
428.99	510.10
429.36	520.24
429.73	531.19
430.10	542.95
430.47	555.57
430.85	566.86
431.22	580.24
431.59	596.38
431.96	610.10
432.33	624.52
432.70	638.62
433.08	655.43
433.45	670.76
433.82	686.71
434.19	704.10
434.56	720.43
434.93	735.71
435.30	751.33
435.68	769.57
436.05	786.43
436.42	803.10
436.79	818.62
437.16	835.05
437.53	851.86
437.90	868.43
438.27	884.67
438.64	901.00
439.01	915.48
439.38	926.71
439.75	940.10
440.13	954.05
440.50	968.05
440.87	979.48
441.24	991.19
441.61	1003.67
441.98	1011.71
442.35	1022.14
442.72	1034.00
443.09	1045.81
443.46	1051.62
443.83	1055.76
444.20	1059.00
444.57	1062.62
444.94	1064.48
445.31	1066.05
445.68	1070.38
446.05	1069.10
446.42	1065.76
446.79	1063.95
447.16	1060.29
447.53	1057.57
447.90	1050.52
448.27	1042.33
448.64	1031.48
449.01	1023.90
449.37	1012.19
449.74	1001.14
450.11	989.57
450.48	972.71
450.85	955.24
451.22	941.19
451.59	928.43
451.96	916.86
452.33	901.57
452.70	887.00
453.07	870.24
453.43	850.24
453.80	835.10
454.17	819.76
454.54	804.00
454.91	788.38
455.28	772.14
455.65	757.29
456.02	746.95
456.38	734.90
456.75	720.00
457.12	706.95
457.49	693.95
457.86	679.10
458.23	670.57
458.59	660.14
458.96	649.10
459.33	638.71
459.70	628.00
460.07	620.14
460.43	610.71
460.80	603.24
461.17	595.90
461.54	587.33
461.91	579.76
462.27	572.14
462.64	566.10
463.01	559.48
463.38	553.90
463.74	543.29
464.11	537.57
464.48	532.38
464.85	526.90
465.21	523.48
465.58	519.71
465.95	513.90
466.32	509.10
466.68	504.86
467.05	501.48
467.42	497.14
467.78	491.90
468.15	488.05
468.52	484.67
468.88	480.33
469.25	476.81
469.62	474.33
469.98	470.38
470.35	467.52
470.72	464.67
471.08	460.14
471.45	457.19
471.82	454.52
472.18	451.62
472.55	449.67
472.92	445.95
473.28	443.38
473.65	440.81
474.02	438.52
474.38	436.67
474.75	434.62
475.11	432.81
475.48	431.33
475.85	429.57
476.21	427.57
476.58	426.52
476.94	425.33
477.31	423.67
477.67	423.29
478.04	421.81
478.41	420.71
478.77	423.29
479.14	422.19
479.50	421.95
479.87	421.38
480.23	421.38
480.60	421.67
480.96	421.57
481.33	423.14
481.69	424.10
482.06	424.33
482.42	425.24
482.79	425.86
483.15	427.38
483.52	428.81
483.88	430.48
484.25	431.95
484.61	433.52
484.98	434.57
485.34	437.33
485.71	439.86
486.07	441.43
486.44	440.57
486.80	442.86
487.17	444.19
487.53	446.90
487.90	448.52
488.26	450.95
488.62	453.57
488.99	454.48
489.35	456.05
489.72	457.86
490.08	459.29
490.44	460.76
490.81	462.62
491.17	464.57
491.54	466.86
491.90	468.67
492.26	470.43
492.63	472.86
492.99	473.90
493.36	475.86
493.72	479.05
494.08	481.67
494.45	484.67
494.81	488.00
495.17	490.19
495.54	493.10
495.90	495.86
496.26	498.81
496.63	502.19
496.99	505.62
497.35	508.86
497.72	512.90
498.08	516.95
498.44	521.05
498.80	524.81
499.17	528.24
499.53	532.43
499.89	537.29
500.26	542.19
500.62	546.86
500.98	551.62
501.34	555.48
501.71	561.19
502.07	565.48
502.43	569.62
502.79	574.62
503.16	579.00
503.52	583.00
503.88	587.14
504.24	592.76
504.60	598.05
504.97	604.90
505.33	609.86
505.69	616.29
506.05	621.19
506.41	626.71
506.78	631.71
507.14	637.24
507.50	642.43
507.86	647.43
508.22	652.95
508.59	657.76
508.95	663.52
509.31	669.00
509.67	674.19
510.03	679.71
510.39	684.29
510.75	690.05
511.12	695.86
511.48	701.71
511.84	706.10
512.20	710.76
512.56	714.48
512.92	718.95
513.28	722.95
513.64	727.29
514.00	732.19
514.37	736.90
514.73	741.67
515.09	746.29
515.45	750.48
515.81	754.24
516.17	758.76
516.53	761.71
516.89	764.90
517.25	769.05
517.61	774.29
517.97	778.76
518.33	782.62
518.69	786.81
519.05	790.43
519.41	793.33
519.77	798.24
520.13	801.33
520.49	805.10
520.85	808.24
521.21	812.95
521.57	816.24
521.93	818.19
522.29	820.29
522.65	821.90
523.01	825.00
523.37	827.38
523.73	829.90
524.09	833.67
524.45	835.29
524.81	836.76
525.17	837.24
525.53	839.62
525.89	840.86
526.25	842.48
526.61	843.48
526.97	846.05
527.33	846.95
527.68	851.48
528.04	852.43
528.40	853.62
528.76	854.43
529.12	855.14
529.48	858.43
529.84	860.05
530.20	862.81
530.56	863.95
530.91	865.76
531.27	866.67
531.63	867.62
531.99	868.29
532.35	869.43
532.71	870.52
533.07	871.24
533.42	875.14
533.78	875.90
534.14	878.05
534.50	878.95
534.86	880.19
535.21	879.00
535.57	880.86
535.93	881.43
536.29	884.62
536.65	886.48
537.00	888.33
537.36	891.33
537.72	893.67
538.08	898.10
538.44	901.48
538.79	906.00
539.15	909.86
539.51	915.86
539.87	920.57
540.22	925.57
540.58	930.05
540.94	933.14
541.29	938.52
541.65	942.52
542.01	948.05
542.37	952.24
542.72	955.48
543.08	957.24
543.44	960.76
543.79	959.71
544.15	961.10
544.51	961.90
544.87	961.52
545.22	960.14
545.58	956.48
545.94	954.19
546.29	950.38
546.65	946.33
547.01	941.86
547.36	937.86
547.72	933.52
548.07	928.95
548.43	923.14
548.79	917.29
549.14	910.57
549.50	904.33
549.86	897.43
550.21	893.05
550.57	889.10
550.92	883.62
551.28	880.76
551.64	876.43
551.99	871.43
552.35	866.67
552.70	863.43
553.06	861.05
553.41	857.10
553.77	856.10
554.13	853.95
554.48	851.14
554.84	848.81
555.19	846.05
555.55	846.00
555.90	844.86
556.26	842.52
556.61	841.43
556.97	838.52
557.32	837.52
557.68	835.33
558.03	833.52
558.39	831.24
558.74	828.24
559.10	826.38
559.45	824.86
559.81	823.24
560.16	820.57
560.52	818.33
560.87	818.14
561.23	815.43
561.58	815.33
561.94	813.00
562.29	811.52
562.64	810.00
563.00	806.81
563.35	803.38
563.71	801.52
564.06	800.43
564.42	799.05
564.77	796.81
565.12	795.38
565.48	795.95
565.83	796.48
566.19	795.24
566.54	793.71
566.89	792.38
567.25	792.00
567.60	793.00
567.96	794.33
568.31	793.81
568.66	793.14
569.02	790.10
569.37	789.05
569.72	787.71
570.08	786.38
570.43	784.10
570.78	783.19
571.14	782.14
571.49	779.81
571.84	778.81
572.20	778.71
572.55	777.43
572.90	773.71
573.26	771.71
573.61	770.67
573.96	770.10
574.31	769.05
574.67	767.81
575.02	765.38
575.37	762.33
575.72	760.57
576.08	759.19
576.43	758.24
576.78	757.67
577.13	756.48
577.49	755.33
577.84	754.86
578.19	754.62
578.54	753.52
578.90	753.76
579.25	753.10
579.60	751.62
579.95	750.14
580.30	750.38
580.66	749.38
581.01	748.48
581.36	747.19
581.71	746.71
582.06	746.24
582.42	744.86
582.77	743.38
583.12	742.29
583.47	741.14
583.82	740.52
584.17	739.52
584.53	739.33
584.88	737.48
585.23	736.29
585.58	734.00
585.93	732.52
586.28	730.52
586.63	728.19
586.98	726.52
587.34	724.43
587.69	721.71
588.04	718.90
588.39	716.10
588.74	713.29
589.09	710.00
589.44	705.76
589.79	702.52
590.14	699.86
590.49	695.48
590.84	691.33
591.19	687.67
591.54	684.67
591.89	679.62
592.25	678.43
592.60	673.95
592.95	670.62
593.30	667.48
593.65	664.29
594.00	660.95
594.35	663.81
594.70	660.33
595.05	657.24
595.40	655.00
595.75	652.29
596.10	649.48
596.45	646.29
596.80	643.76
597.15	641.10
597.50	637.52
597.85	636.19
598.19	633.57
598.54	631.00
598.89	627.10
599.24	625.24
599.59	621.10
599.94	618.57
600.29	616.43
600.64	613.48
600.99	610.95
601.34	608.71
601.69	599.76
602.04	597.76
602.39	594.67
602.74	592.19
603.08	590.00
603.43	588.48
603.78	586.90
604.13	585.05
604.48	584.00
604.83	583.24
605.18	582.24
605.53	582.71
605.87	585.24
606.22	590.52
606.57	596.81
606.92	603.52
607.27	611.38
607.62	618.62
607.96	625.57
608.31	631.29
608.66	636.90
609.01	642.10
609.36	646.67
609.70	651.57
610.05	655.19
610.40	658.38
610.75	661.14
611.10	664.29
611.44	666.81
611.79	668.29
612.14	669.14
612.49	667.52
612.83	665.71
613.18	661.14
613.53	654.43
613.88	645.67
614.22	636.57
614.57	626.52
614.92	616.52
615.27	607.86
615.61	599.43
615.96	590.76
616.31	582.81
616.65	576.43
617.00	569.57
617.35	562.76
617.70	556.67
618.04	550.00
618.39	542.95
618.74	538.05
619.08	532.81
619.43	528.29
619.78	524.90
620.12	521.00
620.47	517.52
620.82	513.71
621.16	510.38
621.51	509.24
621.85	506.62
622.20	504.67
622.55	501.19
622.89	498.19
623.24	496.24
623.59	493.76
623.93	491.33
624.28	488.90
624.62	489.43
624.97	488.38
625.32	486.67
625.66	485.24
626.01	483.00
626.35	481.57
626.70	479.71
627.04	478.71
627.39	477.43
627.73	476.76
628.08	475.48
628.43	473.86
628.77	470.14
629.12	467.76
629.46	465.14
629.81	463.90
630.15	462.52
630.50	459.95
630.84	457.48
631.19	454.43
631.53	452.10
631.88	446.57
632.22	442.52
632.57	441.10
632.91	438.33
633.26	435.76
633.60	432.81
633.95	430.14
634.29	426.81
634.64	424.10
634.98	420.57
635.32	418.33
635.67	416.05
636.01	413.95
636.36	412.33
636.70	410.81
637.05	408.10
637.39	405.33
637.73	404.00
638.08	403.19
638.42	401.48
638.77	400.05
639.11	398.95
639.45	397.76
639.80	395.33
640.14	394.24
640.49	392.43
640.83	390.62
641.17	389.43
641.52	387.71
641.86	386.00
642.20	385.95
642.55	384.29
642.89	383.14
643.23	381.81
643.58	381.71
643.92	379.62
644.26	379.00
644.61	378.52
644.95	377.81
645.29	376.33
645.64	376.33
645.98	375.43
646.32	375.05
646.66	374.19
647.01	372.95
647.35	372.14
647.69	371.57
648.04	371.29
648.38	370.48
648.72	369.57
649.06	368.52
649.41	366.48
649.75	366.14
650.09	365.71
650.43	364.90
650.78	362.67
651.12	361.81
651.46	360.71
651.80	359.38
652.14	357.71
652.49	357.14
652.83	355.14
653.17	353.57
653.51	351.62
653.85	350.43
654.20	349.43
654.54	347.95
654.88	346.48
655.22	345.05
655.56	343.24
655.90	342.05
656.25	341.00
656.59	340.14
656.93	338.76
657.27	337.86
657.61	336.52
657.95	335.95
658.29	335.62
658.64	335.48
658.98	334.52
659.32	333.95
659.66	333.05
660.00	332.76
660.34	332.05
660.68	331.86
661.02	331.48
661.36	330.33
661.70	329.48
662.05	328.62
662.39	328.95
662.73	329.43
663.07	330.33
663.41	330.14
663.75	329.33
664.09	329.57
664.43	328.57
664.77	328.29
665.11	327.43
665.45	326.71
665.79	325.71
666.13	325.43
666.47	324.00
666.81	323.14
667.15	321.76
667.49	321.29
667.83	321.43
668.17	320.00
668.51	319.57
668.85	319.43
669.19	320.10
669.53	318.76
669.87	317.67
670.21	315.86
670.55	315.00
670.89	315.67
671.23	314.14
671.57	313.38
671.91	312.71
672.25	312.29
672.58	312.14
672.92	311.10
673.26	310.43
673.60	310.62
673.94	310.24
674.28	310.48
674.62	310.29
674.96	309.00
675.30	309.19
675.64	308.90
675.97	308.05
676.31	306.76
676.65	305.81
676.99	306.19
677.33	305.29
677.67	305.29
678.01	303.81
678.34	303.33
678.68	303.52
679.02	303.05
679.36	302.43
679.70	301.19
680.04	300.95
680.37	300.76
680.71	300.10
681.05	299.90
681.39	299.14
681.73	298.24
682.06	297.71
682.40	296.71
682.74	296.76
683.08	297.33
683.42	296.81
683.75	297.10
684.09	296.10
684.43	296.52
684.77	295.52
685.10	294.67
685.44	294.62
685.78	293.62
686.12	293.00
686.45	292.43
686.79	291.90
687.13	292.00
687.46	291.38
687.80	291.81
688.14	290.57
688.48	290.29
688.81	290.29
689.15	290.52
689.49	290.00
689.82	289.48
690.16	288.52
690.50	288.10
690.83	287.38
691.17	286.05
691.51	285.62
691.84	285.38
692.18	285.14
692.52	284.57
692.85	284.95
693.19	285.86
693.52	285.48
693.86	285.24
694.20	284.62
694.53	284.24
694.87	283.48
695.21	283.33
695.54	282.67
695.88	281.86
696.21	280.76
696.55	280.62
696.88	280.00
697.22	279.29
697.56	279.67
697.89	279.05
698.23	279.38
698.56	278.86
698.90	279.05
699.23	279.00
699.57	278.95
699.90	277.95
700.24	276.86
700.58	276.95
700.91	277.43
701.25	279.29
701.58	280.14
701.92	280.71
702.25	281.43
702.59	281.86
702.92	282.52
703.26	283.14
703.59	283.62
703.93	286.10
704.26	287.19
704.60	287.43
704.93	288.10
705.26	288.48
705.60	289.14
705.93	289.05
706.27	289.90
706.60	290.57
706.94	292.14
707.27	292.38
707.61	292.81
707.94	292.86
708.27	290.95
708.61	289.71
708.94	289.10
709.28	288.29
709.61	287.62
709.94	287.33
710.28	286.86
710.61	286.00
710.95	283.14
711.28	283.62
711.61	282.62
711.95	282.14
712.28	281.00
712.61	280.00
712.95	280.19
713.28	280.24
713.61	279.05
713.95	277.14
714.28	276.33
714.61	275.00
714.95	273.71
715.28	272.81
715.61	272.57
715.95	272.00
716.28	271.43
716.61	271.29
716.95	270.19
717.28	269.38
717.61	269.38
717.94	268.90
718.28	266.62
718.61	265.95
718.94	265.48
719.27	265.00
719.61	264.86
719.94	263.95
720.27	262.33
720.60	261.76
720.94	261.81
721.27	261.48
721.60	261.81
721.93	261.81
722.27	262.33
722.60	262.05
722.93	261.71
723.26	261.57
723.59	261.00
723.93	261.24
724.26	261.38
724.59	261.05
724.92	261.00
725.25	261.67
725.59	261.67
725.92	261.48
726.25	261.38
726.58	261.14
726.91	260.90
727.24	261.14
727.57	261.14
727.91	260.33
728.24	260.71
728.57	259.95
728.90	260.00
729.23	258.95
729.56	260.19
729.89	259.67
730.22	259.43
730.55	259.38
730.89	258.90
731.22	258.57
731.55	258.10
731.88	258.29
732.21	257.48
732.54	256.81
732.87	256.52
733.20	256.62
733.53	256.43
733.86	256.57
734.19	256.00
734.52	256.24
734.85	258.00
735.18	257.33
735.51	258.29
735.84	258.33
736.17	259.00
736.50	257.52
736.83	260.43
737.16	260.43
737.49	260.38
737.82	260.24
738.15	260.38
738.48	260.33
738.81	260.10
739.14	259.86
739.47	259.95
739.80	260.05
740.13	260.14
740.46	260.00
740.79	259.29
741.12	259.29
741.45	258.81
741.78	257.24
742.11	257.86
742.44	257.33
742.77	257.43
743.10	257.10
743.43	256.43
743.75	254.14
744.08	257.33
744.41	256.90
744.74	256.62
745.07	255.76
745.40	256.14
745.73	257.10
746.06	257.00
746.39	257.33
746.71	257.00
747.04	256.86
747.37	256.38
747.70	256.67
748.03	256.67
748.36	257.38
748.68	257.33
749.01	256.33
749.34	256.00
749.67	255.76
750.00	256.24
750.33	258.24
750.65	258.14
750.98	254.81
751.31	255.14
751.64	255.38
751.97	256.81
752.29	256.48
752.62	255.00
752.95	255.05
753.28	254.43
753.60	254.29
753.93	254.76
754.26	254.57
754.59	254.14
754.91	253.95
755.24	253.14
755.57	253.29
755.90	253.38
756.22	253.29
756.55	252.86
756.88	251.90
757.20	250.38
757.53	249.48
757.86	249.48
758.19	249.33
758.51	249.33
758.84	247.95
759.17	247.95
759.49	248.05
759.82	249.10
760.15	249.62
760.47	249.67
760.80	248.57
761.13	249.19
761.45	248.90
761.78	248.81
762.11	248.95
762.43	248.38
762.76	248.38
763.08	248.38
763.41	248.48
763.74	248.71
764.06	248.62
764.39	248.67
764.71	248.33
765.04	248.14
765.37	248.00
765.69	248.00
766.02	247.67
766.34	247.38
766.67	246.14
767.00	246.24
767.32	247.38
767.65	248.90
767.97	248.86
768.30	248.81
768.62	249.00
768.95	248.71
769.27	248.67
769.60	249.14
769.92	248.76
770.25	248.52
770.57	247.86
770.90	247.76
771.22	247.52
771.55	247.57
771.87	247.62
772.20	247.29
772.52	249.38
772.85	252.67
773.17	252.76
773.50	253.05
773.82	252.76
774.15	251.48
774.47	249.71
774.80	249.05
775.12	249.14
775.45	248.71
775.77	248.62
776.09	248.81
776.42	248.33
776.74	249.14
777.07	249.00
777.39	249.33
777.72	249.24
778.04	249.67
778.36	249.52
778.69	249.57
779.01	250.00
779.33	247.86
779.66	244.62
779.98	244.57
780.31	244.43
780.63	245.29
780.95	245.90
781.28	246.29
781.60	246.48
781.92	246.57
782.25	246.57
782.57	246.52
782.89	246.57
783.22	246.62
783.54	246.14
783.86	246.05
784.19	245.52
784.51	246.00
784.83	245.57
785.16	245.67
785.48	245.81
785.80	246.00
786.12	246.00
786.45	246.24
786.77	246.19
787.09	246.29
787.42	245.62
787.74	245.29
788.06	245.14
788.38	244.95
788.71	244.76
789.03	244.67
789.35	245.19
789.67	244.67
789.99	244.76
790.32	244.48
790.64	245.14
790.96	247.43
791.28	246.62
791.61	246.62
791.93	246.62
792.25	246.33
792.57	247.48
792.89	247.19
793.21	247.05
793.54	246.81
793.86	246.14
