SpectraSuite Data File
++++++++++++++++++++++++++++++++++++
Date: Wed Nov 07 18:33:06 EST 2012
User: group
Dark Spectrum Present: No
Reference Spectrum Present: No
Number of Sampled Component Spectra: 1
Spectrometers: USB2E7196
Integration Time (usec): 1000000 (USB2E7196)
Spectra Averaged: 1 (USB2E7196)
Boxcar Smoothing: 10 (USB2E7196)
Correct for Electrical Dark: No (USB2E7196)
Strobe/Lamp Enabled: No (USB2E7196)
Correct for Detector Non-linearity: No (USB2E7196)
Correct for Stray Light: No (USB2E7196)
Number of Pixels in Processed Spectrum: 2048
>>>>>Begin Processed Spectral Data<<<<<
339.09	0.00
339.48	214.00
339.86	223.00
340.24	220.00
340.63	222.00
341.01	256.00
341.39	224.00
341.78	228.00
342.16	239.00
342.54	229.00
342.93	221.19
343.31	232.38
343.69	233.24
344.07	233.71
344.46	234.62
344.84	235.38
345.22	234.14
345.60	234.86
345.99	235.29
346.37	235.14
346.75	235.38
347.13	235.71
347.52	235.67
347.90	236.81
348.28	236.81
348.66	237.48
349.05	237.24
349.43	237.81
349.81	238.00
350.19	238.19
350.57	238.10
350.96	238.38
351.34	238.52
351.72	238.71
352.10	239.05
352.48	238.71
352.87	239.00
353.25	239.38
353.63	239.05
354.01	239.14
354.39	239.57
354.77	239.48
355.15	240.48
355.54	240.38
355.92	239.71
356.30	239.90
356.68	241.57
357.06	241.76
357.44	241.19
357.82	241.14
358.20	241.43
358.58	241.67
358.97	241.71
359.35	242.24
359.73	242.81
360.11	242.86
360.49	243.05
360.87	242.71
361.25	243.05
361.63	244.14
362.01	244.00
362.39	243.71
362.77	243.95
363.15	243.43
363.53	243.71
363.91	243.57
364.29	243.71
364.67	241.29
365.05	241.05
365.43	241.62
365.81	242.00
366.19	243.14
366.57	243.76
366.95	243.67
367.33	243.05
367.71	242.76
368.09	242.95
368.47	243.19
368.85	243.10
369.23	243.57
369.61	242.62
369.99	243.48
370.37	243.81
370.75	245.14
371.13	244.76
371.51	244.33
371.89	244.52
372.27	244.67
372.65	245.05
373.03	245.19
373.41	244.81
373.78	244.57
374.16	242.90
374.54	242.48
374.92	242.52
375.30	242.57
375.68	242.10
376.06	242.29
376.44	241.90
376.82	242.19
377.19	241.76
377.57	241.43
377.95	240.81
378.33	240.62
378.71	238.95
379.09	239.10
379.47	239.57
379.84	239.33
380.22	238.71
380.60	237.95
380.98	237.71
381.36	237.57
381.73	237.24
382.11	238.05
382.49	238.24
382.87	237.67
383.25	237.67
383.62	240.71
384.00	239.95
384.38	240.24
384.76	240.57
385.13	241.76
385.51	242.33
385.89	241.81
386.27	241.86
386.64	242.52
387.02	242.38
387.40	242.00
387.78	242.14
388.15	242.43
388.53	242.67
388.91	242.76
389.29	242.81
389.66	243.24
390.04	242.71
390.42	242.81
390.79	243.19
391.17	243.05
391.55	240.19
391.92	240.24
392.30	240.43
392.68	239.86
393.05	239.19
393.43	239.00
393.81	239.43
394.18	238.95
394.56	238.52
394.94	238.90
395.31	238.90
395.69	239.86
396.06	240.19
396.44	240.29
396.82	240.14
397.19	241.24
397.57	240.76
397.95	241.57
398.32	240.90
398.70	241.19
399.07	241.81
399.45	241.90
399.82	242.05
400.20	241.95
400.58	242.24
400.95	241.62
401.33	242.29
401.70	244.10
402.08	244.62
402.45	245.24
402.83	245.86
403.20	246.14
403.58	245.57
403.95	246.19
404.33	246.43
404.71	246.81
405.08	248.43
405.46	249.05
405.83	249.29
406.21	249.76
406.58	250.29
406.96	250.95
407.33	251.62
407.70	252.43
408.08	254.62
408.45	255.48
408.83	256.19
409.20	256.43
409.58	255.76
409.95	256.71
410.33	257.57
410.70	257.95
411.08	259.24
411.45	260.19
411.82	260.67
412.20	262.71
412.57	265.43
412.95	264.81
413.32	266.81
413.69	267.90
414.07	269.76
414.44	271.57
414.82	273.29
415.19	275.71
415.56	278.19
415.94	279.38
416.31	282.62
416.68	285.86
417.06	289.52
417.43	293.43
417.81	296.81
418.18	300.71
418.55	304.81
418.93	308.57
419.30	312.95
419.67	317.81
420.04	322.43
420.42	326.67
420.79	334.10
421.16	339.86
421.54	347.10
421.91	353.29
422.28	359.57
422.66	366.43
423.03	374.57
423.40	381.33
423.77	389.05
424.15	395.48
424.52	403.38
424.89	411.86
425.26	419.43
425.64	427.05
426.01	434.86
426.38	443.38
426.75	453.29
427.13	462.43
427.50	471.67
427.87	481.48
428.24	491.00
428.61	499.52
428.99	510.86
429.36	521.43
429.73	533.14
430.10	545.05
430.47	557.76
430.85	568.05
431.22	581.10
431.59	597.05
431.96	610.24
432.33	624.76
432.70	638.67
433.08	655.24
433.45	670.95
433.82	686.86
434.19	703.90
434.56	719.19
434.93	735.00
435.30	751.24
435.68	768.48
436.05	785.48
436.42	801.86
436.79	816.86
437.16	833.00
437.53	849.52
437.90	865.67
438.27	881.10
438.64	899.14
439.01	914.71
439.38	926.48
439.75	939.43
440.13	953.43
440.50	967.29
440.87	977.71
441.24	989.00
441.61	1001.52
441.98	1011.19
442.35	1022.62
442.72	1034.05
443.09	1045.76
443.46	1052.19
443.83	1055.95
444.20	1059.33
444.57	1063.19
444.94	1064.86
445.31	1067.57
445.68	1073.29
446.05	1073.14
446.42	1069.57
446.79	1066.81
447.16	1062.71
447.53	1060.67
447.90	1054.14
448.27	1046.90
448.64	1037.24
449.01	1030.29
449.37	1018.71
449.74	1006.10
450.11	995.05
450.48	979.48
450.85	962.43
451.22	948.90
451.59	936.57
451.96	924.14
452.33	909.33
452.70	894.95
453.07	877.38
453.43	855.71
453.80	839.62
454.17	823.62
454.54	808.19
454.91	791.95
455.28	776.00
455.65	760.71
456.02	749.62
456.38	737.62
456.75	722.81
457.12	709.48
457.49	697.95
457.86	682.71
458.23	673.33
458.59	662.24
458.96	650.24
459.33	639.86
459.70	629.52
460.07	620.33
460.43	611.29
460.80	603.48
461.17	596.43
461.54	588.62
461.91	581.86
462.27	574.00
462.64	567.24
463.01	560.95
463.38	555.62
463.74	544.57
464.11	538.29
464.48	533.14
464.85	527.38
465.21	523.10
465.58	518.71
465.95	512.52
466.32	507.86
466.68	503.52
467.05	498.90
467.42	494.29
467.78	490.81
468.15	486.48
468.52	482.95
468.88	478.52
469.25	474.43
469.62	470.95
469.98	467.95
470.35	465.38
470.72	462.00
471.08	457.57
471.45	455.81
471.82	453.48
472.18	449.86
472.55	447.48
472.92	443.71
473.28	441.24
473.65	438.43
474.02	435.95
474.38	434.29
474.75	432.62
475.11	430.81
475.48	428.67
475.85	427.33
476.21	424.71
476.58	424.10
476.94	422.95
477.31	421.43
477.67	420.19
478.04	418.86
478.41	418.29
478.77	420.29
479.14	418.81
479.50	417.90
479.87	417.67
480.23	417.71
480.60	417.62
480.96	417.95
481.33	419.62
481.69	420.52
482.06	420.71
482.42	421.86
482.79	422.67
483.15	423.52
483.52	424.57
483.88	425.86
484.25	426.71
484.61	427.43
484.98	428.71
485.34	431.00
485.71	432.90
486.07	433.95
486.44	432.71
486.80	434.48
487.17	436.10
487.53	438.19
487.90	439.90
488.26	442.86
488.62	445.43
488.99	446.48
489.35	448.19
489.72	449.90
490.08	451.52
490.44	453.48
490.81	455.76
491.17	457.43
491.54	460.33
491.90	462.86
492.26	465.19
492.63	467.29
492.99	469.19
493.36	471.86
493.72	475.52
494.08	478.43
494.45	481.95
494.81	485.76
495.17	489.48
495.54	493.62
495.90	496.24
496.26	499.38
496.63	502.95
496.99	506.90
497.35	511.24
497.72	515.38
498.08	519.05
498.44	523.24
498.80	528.05
499.17	531.71
499.53	535.67
499.89	540.81
500.26	545.86
500.62	551.10
500.98	556.90
501.34	561.29
501.71	566.86
502.07	571.81
502.43	576.10
502.79	580.19
503.16	584.62
503.52	589.71
503.88	593.43
504.24	598.52
504.60	604.10
504.97	609.24
505.33	614.38
505.69	621.29
506.05	626.48
506.41	631.62
506.78	637.33
507.14	642.71
507.50	648.43
507.86	653.86
508.22	659.48
508.59	663.90
508.95	669.38
509.31	675.67
509.67	680.67
510.03	685.90
510.39	691.14
510.75	696.67
511.12	701.43
511.48	707.38
511.84	712.43
512.20	716.90
512.56	721.71
512.92	726.05
513.28	729.90
513.64	734.05
514.00	738.81
514.37	743.29
514.73	748.10
515.09	752.90
515.45	757.24
515.81	761.33
516.17	764.90
516.53	768.38
516.89	771.19
517.25	775.71
517.61	780.38
517.97	784.05
518.33	787.43
518.69	792.14
519.05	796.43
519.41	800.48
519.77	805.29
520.13	808.90
520.49	813.00
520.85	816.62
521.21	822.33
521.57	825.81
521.93	828.33
522.29	831.76
522.65	833.57
523.01	836.52
523.37	837.95
523.73	841.10
524.09	843.05
524.45	845.33
524.81	847.52
525.17	849.67
525.53	852.71
525.89	854.67
526.25	855.90
526.61	857.05
526.97	858.48
527.33	859.10
527.68	862.71
528.04	863.95
528.40	864.76
528.76	864.33
529.12	866.05
529.48	868.38
529.84	868.95
530.20	870.76
530.56	872.57
530.91	874.24
531.27	875.48
531.63	877.00
531.99	878.19
532.35	878.38
532.71	879.10
533.07	880.00
533.42	884.00
533.78	885.43
534.14	887.10
534.50	888.33
534.86	891.14
535.21	890.10
535.57	891.29
535.93	892.62
536.29	895.38
536.65	896.57
537.00	897.43
537.36	898.90
537.72	900.24
538.08	901.90
538.44	903.95
538.79	906.29
539.15	908.57
539.51	910.29
539.87	913.24
540.22	915.76
540.58	917.95
540.94	917.62
541.29	920.14
541.65	921.95
542.01	924.14
542.37	923.76
542.72	924.71
543.08	925.05
543.44	925.86
543.79	923.71
544.15	924.29
544.51	924.62
544.87	924.10
545.22	923.10
545.58	921.29
545.94	919.95
546.29	918.10
546.65	916.57
547.01	913.48
547.36	911.14
547.72	908.00
548.07	905.14
548.43	902.52
548.79	898.86
549.14	895.10
549.50	891.95
549.86	889.19
550.21	886.86
550.57	885.19
550.92	881.38
551.28	880.81
551.64	877.00
551.99	873.90
552.35	870.81
552.70	869.29
553.06	868.00
553.41	865.90
553.77	865.19
554.13	863.00
554.48	862.71
554.84	860.57
555.19	859.00
555.55	859.19
555.90	856.86
556.26	855.57
556.61	854.48
556.97	851.48
557.32	849.43
557.68	848.29
558.03	846.24
558.39	845.38
558.74	843.29
559.10	842.43
559.45	841.05
559.81	840.29
560.16	837.33
560.52	835.76
560.87	834.67
561.23	831.95
561.58	832.10
561.94	829.19
562.29	826.67
562.64	824.62
563.00	820.43
563.35	819.24
563.71	817.29
564.06	815.33
564.42	814.67
564.77	812.90
565.12	811.14
565.48	811.43
565.83	810.48
566.19	808.90
566.54	806.67
566.89	805.19
567.25	804.29
567.60	805.10
567.96	805.29
568.31	804.81
568.66	803.90
569.02	800.48
569.37	799.95
569.72	799.71
570.08	797.76
570.43	796.57
570.78	794.95
571.14	793.57
571.49	792.19
571.84	790.43
572.20	789.57
572.55	787.24
572.90	783.90
573.26	782.05
573.61	780.19
573.96	778.76
574.31	777.62
574.67	776.05
575.02	773.43
575.37	769.67
575.72	767.62
576.08	766.00
576.43	764.29
576.78	763.29
577.13	761.33
577.49	761.19
577.84	760.00
578.19	758.05
578.54	757.19
578.90	755.67
579.25	754.90
579.60	754.05
579.95	753.48
580.30	752.52
580.66	751.71
581.01	750.19
581.36	748.76
581.71	747.24
582.06	746.67
582.42	745.76
582.77	744.43
583.12	742.43
583.47	739.95
583.82	739.67
584.17	737.29
584.53	737.00
584.88	734.57
585.23	733.43
585.58	731.86
585.93	729.14
586.28	727.29
586.63	725.24
586.98	722.81
587.34	721.43
587.69	718.67
588.04	716.00
588.39	713.62
588.74	710.95
589.09	708.76
589.44	704.81
589.79	701.05
590.14	697.52
590.49	693.38
590.84	690.86
591.19	687.38
591.54	684.86
591.89	680.29
592.25	679.33
592.60	675.00
592.95	671.81
593.30	669.33
593.65	666.67
594.00	662.71
594.35	666.24
594.70	661.71
595.05	658.48
595.40	655.24
595.75	652.14
596.10	649.81
596.45	647.19
596.80	644.05
597.15	641.29
597.50	639.24
597.85	637.95
598.19	634.90
598.54	632.43
598.89	629.67
599.24	627.48
599.59	623.00
599.94	620.81
600.29	618.48
600.64	615.71
600.99	613.62
601.34	612.29
601.69	603.29
602.04	601.05
602.39	599.14
602.74	597.76
603.08	595.71
603.43	594.29
603.78	591.24
604.13	589.57
604.48	588.43
604.83	587.05
605.18	585.81
605.53	585.90
605.87	587.29
606.22	590.52
606.57	595.14
606.92	600.43
607.27	606.10
607.62	611.62
607.96	617.38
608.31	621.29
608.66	625.05
609.01	628.10
609.36	631.67
609.70	634.76
610.05	637.76
610.40	640.57
610.75	642.00
611.10	644.90
611.44	646.38
611.79	646.90
612.14	647.00
612.49	645.48
612.83	644.05
613.18	640.14
613.53	634.81
613.88	627.71
614.22	619.81
614.57	610.71
614.92	602.48
615.27	593.43
615.61	585.95
615.96	579.10
616.31	572.71
616.65	567.00
617.00	561.14
617.35	554.19
617.70	548.29
618.04	542.52
618.39	536.48
618.74	531.95
619.08	527.33
619.43	523.33
619.78	520.24
620.12	516.43
620.47	513.10
620.82	509.62
621.16	506.76
621.51	505.71
621.85	503.86
622.20	501.29
622.55	499.14
622.89	496.90
623.24	494.38
623.59	492.10
623.93	489.62
624.28	486.62
624.62	487.24
624.97	486.71
625.32	484.86
625.66	483.05
626.01	480.86
626.35	479.24
626.70	477.71
627.04	477.10
627.39	475.81
627.73	475.57
628.08	473.52
628.43	471.33
628.77	467.81
629.12	465.95
629.46	464.10
629.81	462.24
630.15	460.33
630.50	458.14
630.84	456.14
631.19	453.90
631.53	452.38
631.88	447.43
632.22	443.05
632.57	441.33
632.91	438.62
633.26	436.90
633.60	434.43
633.95	432.00
634.29	428.29
634.64	425.38
634.98	421.76
635.32	420.48
635.67	418.57
636.01	416.76
636.36	414.86
636.70	413.38
637.05	411.19
637.39	408.86
637.73	406.67
638.08	405.38
638.42	403.33
638.77	402.67
639.11	401.24
639.45	399.90
639.80	398.10
640.14	397.29
640.49	395.29
640.83	393.38
641.17	391.76
641.52	390.33
641.86	389.14
642.20	388.71
642.55	386.71
642.89	385.14
643.23	383.86
643.58	383.10
643.92	381.14
644.26	380.43
644.61	380.10
644.95	379.29
645.29	377.76
645.64	377.81
645.98	375.67
646.32	375.48
646.66	374.76
647.01	373.48
647.35	372.38
647.69	371.67
648.04	371.38
648.38	370.10
648.72	368.95
649.06	367.95
649.41	366.14
649.75	364.71
650.09	364.48
650.43	363.24
650.78	361.24
651.12	360.19
651.46	358.95
651.80	357.38
652.14	356.29
652.49	356.05
652.83	354.10
653.17	353.14
653.51	351.33
653.85	350.57
654.20	349.86
654.54	347.95
654.88	346.67
655.22	345.52
655.56	344.38
655.90	343.62
656.25	342.43
656.59	341.86
656.93	341.48
657.27	341.29
657.61	340.57
657.95	340.52
658.29	339.86
658.64	339.57
658.98	339.10
659.32	338.24
659.66	337.14
660.00	336.57
660.34	336.19
660.68	335.10
661.02	334.24
661.36	333.29
661.70	333.10
662.05	332.62
662.39	332.52
662.73	333.14
663.07	333.90
663.41	333.52
663.75	332.48
664.09	332.24
664.43	330.95
664.77	330.24
665.11	329.19
665.45	328.90
665.79	328.52
666.13	327.38
666.47	327.00
666.81	326.10
667.15	325.24
667.49	324.48
667.83	325.05
668.17	324.33
668.51	323.67
668.85	323.52
669.19	323.57
669.53	322.24
669.87	321.33
670.21	319.62
670.55	319.05
670.89	319.86
671.23	319.14
671.57	318.29
671.91	317.90
672.25	317.38
672.58	317.67
672.92	316.00
673.26	315.48
673.60	314.67
673.94	313.76
674.28	313.00
674.62	312.81
674.96	311.81
675.30	311.14
675.64	310.76
675.97	310.14
676.31	308.95
676.65	308.14
676.99	307.90
677.33	306.86
677.67	306.14
678.01	304.05
678.34	303.52
678.68	303.38
679.02	302.62
679.36	301.90
679.70	300.62
680.04	300.52
680.37	300.00
680.71	299.57
681.05	299.81
681.39	299.81
681.73	298.52
682.06	297.48
682.40	296.86
682.74	296.90
683.08	297.33
683.42	296.71
683.75	297.19
684.09	296.19
684.43	296.24
684.77	295.90
685.10	295.71
685.44	294.90
685.78	294.52
686.12	293.95
686.45	293.90
686.79	293.29
687.13	293.24
687.46	292.76
687.80	292.81
688.14	292.05
688.48	291.76
688.81	292.33
689.15	292.90
689.49	292.71
689.82	292.14
690.16	290.86
690.50	290.62
690.83	289.29
691.17	288.48
691.51	287.76
691.84	287.52
692.18	287.05
692.52	286.76
692.85	286.00
693.19	286.67
693.52	286.24
693.86	285.52
694.20	285.29
694.53	285.43
694.87	284.48
695.21	283.86
695.54	283.19
695.88	281.95
696.21	280.71
696.55	280.24
696.88	279.81
697.22	279.05
697.56	278.62
697.89	278.57
698.23	278.76
698.56	278.52
698.90	278.52
699.23	277.95
699.57	277.86
699.90	277.67
700.24	276.76
700.58	276.86
700.91	277.24
701.25	278.95
701.58	279.43
701.92	280.29
702.25	281.05
702.59	281.48
702.92	282.10
703.26	282.71
703.59	283.10
703.93	285.67
704.26	286.76
704.60	287.57
704.93	287.90
705.26	287.43
705.60	288.14
705.93	287.71
706.27	288.86
706.60	289.57
706.94	291.05
707.27	291.33
707.61	291.57
707.94	291.81
708.27	290.24
708.61	289.57
708.94	289.24
709.28	288.81
709.61	287.81
709.94	287.29
710.28	287.05
710.61	286.33
710.95	283.05
711.28	283.71
711.61	282.62
711.95	282.62
712.28	281.90
712.61	281.00
712.95	281.52
713.28	281.43
713.61	280.14
713.95	278.14
714.28	277.24
714.61	275.67
714.95	274.24
715.28	272.52
715.61	271.43
715.95	271.24
716.28	270.33
716.61	270.29
716.95	269.29
717.28	268.33
717.61	268.19
717.94	267.67
718.28	265.48
718.61	265.05
718.94	264.00
719.27	264.00
719.61	263.90
719.94	262.81
720.27	261.52
720.60	261.10
720.94	260.86
721.27	260.90
721.60	261.57
721.93	261.48
722.27	262.10
722.60	262.33
722.93	261.29
723.26	261.14
723.59	260.86
723.93	261.29
724.26	261.52
724.59	261.19
724.92	261.19
725.25	261.62
725.59	261.57
725.92	261.67
726.25	261.38
726.58	261.05
726.91	261.00
727.24	261.33
727.57	261.24
727.91	260.95
728.24	261.00
728.57	260.10
728.90	260.57
729.23	259.86
729.56	260.81
729.89	260.86
730.22	260.62
730.55	260.19
730.89	259.90
731.22	259.19
731.55	258.95
731.88	259.00
732.21	258.19
732.54	258.10
732.87	258.00
733.20	257.71
733.53	257.76
733.86	257.62
734.19	256.81
734.52	257.19
734.85	258.90
735.18	257.90
735.51	258.81
735.84	258.43
736.17	259.00
736.50	257.81
736.83	260.48
737.16	260.14
737.49	260.43
737.82	260.14
738.15	260.62
738.48	260.48
738.81	260.43
739.14	260.19
739.47	259.95
739.80	259.62
740.13	260.05
740.46	259.57
740.79	258.95
741.12	259.14
741.45	258.24
741.78	256.62
742.11	257.48
742.44	256.95
742.77	257.29
743.10	256.48
743.43	256.14
743.75	253.52
744.08	256.71
744.41	256.05
744.74	255.95
745.07	255.29
745.40	255.38
745.73	256.14
746.06	256.10
746.39	256.29
746.71	256.43
747.04	255.86
747.37	255.71
747.70	256.48
748.03	256.48
748.36	257.29
748.68	256.71
749.01	255.90
749.34	255.86
749.67	255.90
750.00	256.43
750.33	257.90
750.65	258.05
750.98	255.10
751.31	255.33
751.64	255.19
751.97	256.48
752.29	256.29
752.62	255.05
752.95	254.52
753.28	254.19
753.60	253.67
753.93	254.43
754.26	254.38
754.59	253.43
754.91	252.71
755.24	252.19
755.57	252.52
755.90	252.62
756.22	252.14
756.55	251.67
756.88	251.05
757.20	249.48
757.53	248.43
757.86	248.24
758.19	248.29
758.51	248.00
758.84	246.62
759.17	246.48
759.49	246.48
759.82	248.14
760.15	248.29
760.47	248.38
760.80	247.67
761.13	247.95
761.45	247.76
761.78	248.05
762.11	248.05
762.43	247.57
762.76	247.29
763.08	247.67
763.41	247.90
763.74	248.24
764.06	248.19
764.39	248.52
764.71	248.38
765.04	248.00
765.37	247.86
765.69	247.81
766.02	247.62
766.34	247.67
766.67	246.62
767.00	247.14
767.32	248.10
767.65	249.81
767.97	249.62
768.30	249.86
768.62	249.95
768.95	249.57
769.27	249.57
769.60	249.71
769.92	249.38
770.25	248.76
770.57	248.14
770.90	248.24
771.22	247.81
771.55	248.05
771.87	248.38
772.20	248.29
772.52	250.38
772.85	253.62
773.17	253.52
773.50	253.57
773.82	252.71
774.15	251.62
774.47	249.38
774.80	249.00
775.12	249.10
775.45	248.95
775.77	249.43
776.09	250.00
776.42	250.05
776.74	250.71
777.07	250.38
777.39	250.52
777.72	250.52
778.04	250.90
778.36	250.86
778.69	250.95
779.01	251.19
779.33	249.00
779.66	245.81
779.98	245.38
780.31	245.10
780.63	246.19
780.95	246.57
781.28	246.81
781.60	246.76
781.92	246.76
782.25	246.62
782.57	246.43
782.89	246.00
783.22	246.00
783.54	245.24
783.86	245.76
784.19	245.29
784.51	245.62
784.83	245.71
785.16	245.00
785.48	244.81
785.80	245.10
786.12	245.33
786.45	245.52
786.77	245.90
787.09	245.90
787.42	245.10
787.74	245.33
788.06	245.38
788.38	245.43
788.71	245.14
789.03	245.19
789.35	245.43
789.67	245.19
789.99	244.95
790.32	244.76
790.64	244.43
790.96	246.67
791.28	245.76
791.61	245.48
791.93	245.76
792.25	245.52
792.57	247.14
792.89	246.81
793.21	247.05
793.54	247.05
793.86	247.00
