SpectraSuite Data File
++++++++++++++++++++++++++++++++++++
Date: Wed Nov 07 18:32:35 EST 2012
User: group
Dark Spectrum Present: No
Reference Spectrum Present: No
Number of Sampled Component Spectra: 1
Spectrometers: USB2E7196
Integration Time (usec): 1000000 (USB2E7196)
Spectra Averaged: 1 (USB2E7196)
Boxcar Smoothing: 10 (USB2E7196)
Correct for Electrical Dark: No (USB2E7196)
Strobe/Lamp Enabled: No (USB2E7196)
Correct for Detector Non-linearity: No (USB2E7196)
Correct for Stray Light: No (USB2E7196)
Number of Pixels in Processed Spectrum: 2048
>>>>>Begin Processed Spectral Data<<<<<
339.09	0.00
339.48	220.00
339.86	219.00
340.24	231.00
340.63	228.00
341.01	270.00
341.39	230.00
341.78	236.00
342.16	245.00
342.54	230.00
342.93	226.38
343.31	237.67
343.69	238.48
344.07	239.33
344.46	239.81
344.84	240.43
345.22	238.86
345.60	239.29
345.99	239.29
346.37	239.00
346.75	239.19
347.13	239.43
347.52	239.38
347.90	240.29
348.28	240.24
348.66	240.33
349.05	239.05
349.43	239.38
349.81	239.62
350.19	239.43
350.57	239.19
350.96	238.86
351.34	238.62
351.72	238.90
352.10	238.95
352.48	238.62
352.87	238.24
353.25	237.90
353.63	237.76
354.01	237.81
354.39	237.62
354.77	237.62
355.15	238.00
355.54	237.86
355.92	236.76
356.30	236.81
356.68	238.38
357.06	238.52
357.44	237.86
357.82	237.90
358.20	238.05
358.58	237.76
358.97	237.62
359.35	238.43
359.73	238.48
360.11	238.19
360.49	238.33
360.87	238.52
361.25	238.95
361.63	239.71
362.01	239.71
362.39	239.76
362.77	240.00
363.15	239.81
363.53	239.62
363.91	239.90
364.29	240.00
364.67	237.71
365.05	237.81
365.43	237.90
365.81	237.90
366.19	238.76
366.57	239.62
366.95	239.71
367.33	239.05
367.71	238.90
368.09	239.33
368.47	239.24
368.85	239.10
369.23	239.71
369.61	238.90
369.99	239.62
370.37	239.86
370.75	240.95
371.13	240.62
371.51	240.57
371.89	240.71
372.27	240.71
372.65	241.24
373.03	241.33
373.41	241.71
373.78	241.57
374.16	240.81
374.54	240.05
374.92	239.95
375.30	239.76
375.68	239.38
376.06	239.19
376.44	239.19
376.82	239.19
377.19	238.76
377.57	238.48
377.95	237.95
378.33	237.76
378.71	236.62
379.09	237.14
379.47	237.24
379.84	237.05
380.22	236.57
380.60	235.81
380.98	236.19
381.36	236.05
381.73	235.90
382.11	236.10
382.49	236.71
382.87	236.29
383.25	236.52
383.62	239.05
384.00	238.62
384.38	238.48
384.76	239.19
385.13	240.38
385.51	240.71
385.89	240.10
386.27	240.43
386.64	240.38
387.02	239.81
387.40	239.86
387.78	240.19
388.15	240.67
388.53	240.71
388.91	240.29
389.29	240.19
389.66	240.90
390.04	240.76
390.42	240.90
390.79	241.38
391.17	241.52
391.55	239.29
391.92	239.38
392.30	239.90
392.68	239.05
393.05	238.52
393.43	238.43
393.81	239.05
394.18	238.52
394.56	238.57
394.94	239.38
395.31	239.29
395.69	239.52
396.06	239.86
396.44	240.62
396.82	240.43
397.19	241.76
397.57	241.24
397.95	241.57
398.32	241.00
398.70	241.33
399.07	241.90
399.45	242.00
399.82	242.24
400.20	242.10
400.58	242.48
400.95	241.67
401.33	242.19
401.70	243.86
402.08	244.19
402.45	244.62
402.83	244.81
403.20	245.29
403.58	245.19
403.95	245.52
404.33	245.48
404.71	246.24
405.08	247.81
405.46	247.90
405.83	248.24
406.21	248.24
406.58	248.48
406.96	248.71
407.33	249.19
407.70	249.95
408.08	252.24
408.45	253.19
408.83	254.76
409.20	255.05
409.58	254.24
409.95	255.48
410.33	256.48
410.70	256.81
411.08	257.81
411.45	259.19
411.82	259.76
412.20	261.48
412.57	264.43
412.95	263.86
413.32	265.76
413.69	267.29
414.07	269.81
414.44	272.14
414.82	274.52
415.19	276.95
415.56	279.38
415.94	280.43
416.31	283.19
416.68	285.67
417.06	289.29
417.43	292.86
417.81	296.48
418.18	300.52
418.55	304.48
418.93	308.71
419.30	312.90
419.67	318.10
420.04	322.43
420.42	326.57
420.79	333.81
421.16	339.52
421.54	347.19
421.91	353.57
422.28	359.57
422.66	365.76
423.03	374.67
423.40	381.67
423.77	389.19
424.15	396.71
424.52	404.90
424.89	413.29
425.26	421.19
425.64	428.57
426.01	436.14
426.38	445.57
426.75	455.24
427.13	464.81
427.50	474.00
427.87	484.48
428.24	493.95
428.61	502.24
428.99	514.19
429.36	524.24
429.73	535.86
430.10	547.81
430.47	559.67
430.85	570.19
431.22	583.19
431.59	599.10
431.96	612.19
432.33	626.29
432.70	640.71
433.08	657.43
433.45	673.29
433.82	689.05
434.19	705.76
434.56	721.90
434.93	737.29
435.30	753.24
435.68	770.33
436.05	787.10
436.42	803.38
436.79	818.95
437.16	834.95
437.53	851.52
437.90	867.71
438.27	884.48
438.64	901.14
439.01	917.29
439.38	928.57
439.75	942.24
440.13	957.71
440.50	971.86
440.87	983.33
441.24	995.48
441.61	1008.86
441.98	1017.95
442.35	1028.86
442.72	1039.71
443.09	1051.67
443.46	1057.57
443.83	1062.05
444.20	1065.05
444.57	1068.52
444.94	1069.95
445.31	1072.29
445.68	1077.62
446.05	1077.10
446.42	1074.00
446.79	1071.00
447.16	1067.33
447.53	1064.38
447.90	1056.52
448.27	1048.48
448.64	1037.90
449.01	1029.62
449.37	1016.71
449.74	1004.05
450.11	991.81
450.48	976.57
450.85	958.81
451.22	944.71
451.59	931.67
451.96	919.90
452.33	904.24
452.70	890.57
453.07	872.76
453.43	851.00
453.80	835.52
454.17	819.76
454.54	804.14
454.91	788.52
455.28	772.24
455.65	757.14
456.02	746.86
456.38	734.33
456.75	719.29
457.12	706.52
457.49	694.90
457.86	680.43
458.23	671.00
458.59	660.57
458.96	649.86
459.33	639.67
459.70	629.48
460.07	621.52
460.43	612.29
460.80	604.38
461.17	596.86
461.54	588.62
461.91	580.86
462.27	573.62
462.64	566.90
463.01	560.29
463.38	554.52
463.74	543.43
464.11	537.57
464.48	532.43
464.85	527.29
465.21	523.57
465.58	520.05
465.95	513.62
466.32	509.38
466.68	504.95
467.05	500.62
467.42	495.86
467.78	490.76
468.15	485.90
468.52	482.71
468.88	479.33
469.25	474.76
469.62	471.95
469.98	467.86
470.35	464.90
470.72	461.76
471.08	457.62
471.45	455.38
471.82	453.10
472.18	449.71
472.55	447.10
472.92	443.19
473.28	439.95
473.65	437.38
474.02	434.52
474.38	433.00
474.75	431.14
475.11	429.38
475.48	428.00
475.85	426.67
476.21	424.90
476.58	424.00
476.94	423.00
477.31	421.86
477.67	421.05
478.04	420.05
478.41	419.43
478.77	421.62
479.14	420.38
479.50	419.81
479.87	420.43
480.23	420.43
480.60	420.48
480.96	420.57
481.33	421.95
481.69	422.24
482.06	421.76
482.42	422.52
482.79	423.57
483.15	424.29
483.52	425.90
483.88	426.19
484.25	426.71
484.61	427.76
484.98	428.86
485.34	430.90
485.71	432.86
486.07	434.14
486.44	432.95
486.80	434.62
487.17	435.76
487.53	437.38
487.90	438.67
488.26	441.76
488.62	444.29
488.99	446.14
489.35	448.43
489.72	450.67
490.08	452.10
490.44	453.81
490.81	455.95
491.17	457.10
491.54	460.24
491.90	462.57
492.26	465.10
492.63	467.76
492.99	469.43
493.36	472.00
493.72	474.43
494.08	476.95
494.45	480.48
494.81	484.00
495.17	486.33
495.54	490.57
495.90	493.38
496.26	496.43
496.63	499.76
496.99	503.62
497.35	506.86
497.72	511.43
498.08	515.00
498.44	520.19
498.80	525.38
499.17	528.48
499.53	533.24
499.89	538.33
500.26	542.62
500.62	547.19
500.98	552.48
501.34	557.43
501.71	563.57
502.07	567.95
502.43	572.86
502.79	577.62
503.16	582.00
503.52	586.62
503.88	590.86
504.24	596.43
504.60	601.86
504.97	608.14
505.33	612.67
505.69	619.10
506.05	623.14
506.41	627.52
506.78	633.05
507.14	637.43
507.50	643.05
507.86	648.67
508.22	654.57
508.59	658.67
508.95	664.52
509.31	669.52
509.67	674.95
510.03	680.10
510.39	685.90
510.75	691.24
511.12	696.95
511.48	702.81
511.84	706.81
512.20	711.24
512.56	715.76
512.92	721.33
513.28	725.05
513.64	730.38
514.00	735.62
514.37	741.38
514.73	746.81
515.09	751.38
515.45	755.14
515.81	759.38
516.17	764.43
516.53	768.43
516.89	771.43
517.25	775.48
517.61	780.05
517.97	783.86
518.33	787.57
518.69	791.00
519.05	795.10
519.41	799.24
519.77	804.67
520.13	807.90
520.49	810.10
520.85	813.76
521.21	817.76
521.57	821.48
521.93	823.57
522.29	826.48
522.65	828.14
523.01	831.00
523.37	833.14
523.73	835.43
524.09	838.71
524.45	841.71
524.81	843.48
525.17	846.05
525.53	848.38
525.89	850.00
526.25	852.48
526.61	853.95
526.97	855.43
527.33	855.38
527.68	859.29
528.04	861.57
528.40	863.43
528.76	864.29
529.12	864.71
529.48	866.10
529.84	866.67
530.20	868.86
530.56	870.81
530.91	872.52
531.27	873.71
531.63	874.33
531.99	875.14
532.35	876.81
532.71	876.71
533.07	877.67
533.42	881.67
533.78	881.38
534.14	881.90
534.50	883.57
534.86	885.62
535.21	884.14
535.57	886.43
535.93	886.76
536.29	889.29
536.65	891.10
537.00	892.90
537.36	895.05
537.72	895.95
538.08	898.48
538.44	899.90
538.79	902.62
539.15	904.00
539.51	907.10
539.87	909.19
540.22	912.05
540.58	914.52
540.94	915.00
541.29	917.33
541.65	919.71
542.01	921.76
542.37	923.33
542.72	925.10
543.08	924.67
543.44	925.52
543.79	923.48
544.15	923.29
544.51	923.71
544.87	923.48
545.22	923.19
545.58	921.38
545.94	920.00
546.29	917.71
546.65	915.95
547.01	912.52
547.36	909.76
547.72	906.76
548.07	904.10
548.43	900.62
548.79	897.29
549.14	893.52
549.50	890.10
549.86	886.43
550.21	883.76
550.57	881.57
550.92	878.33
551.28	877.62
551.64	875.48
551.99	872.38
552.35	869.24
552.70	866.14
553.06	863.90
553.41	861.81
553.77	860.71
554.13	859.52
554.48	857.95
554.84	856.86
555.19	854.05
555.55	853.95
555.90	852.14
556.26	850.67
556.61	849.05
556.97	846.38
557.32	844.33
557.68	842.38
558.03	840.10
558.39	838.76
558.74	835.90
559.10	834.33
559.45	832.43
559.81	831.14
560.16	829.33
560.52	826.67
560.87	825.19
561.23	821.95
561.58	821.29
561.94	819.10
562.29	816.43
562.64	815.43
563.00	812.14
563.35	810.00
563.71	809.05
564.06	807.76
564.42	806.38
564.77	804.81
565.12	803.76
565.48	805.43
565.83	804.48
566.19	802.24
566.54	799.95
566.89	798.33
567.25	797.52
567.60	797.38
567.96	799.00
568.31	798.67
568.66	799.38
569.02	796.33
569.37	795.76
569.72	794.90
570.08	794.48
570.43	792.29
570.78	791.52
571.14	789.38
571.49	787.67
571.84	786.38
572.20	785.00
572.55	783.57
572.90	779.67
573.26	778.95
573.61	778.10
573.96	777.33
574.31	776.90
574.67	775.48
575.02	773.81
575.37	770.52
575.72	768.43
576.08	765.81
576.43	764.90
576.78	762.57
577.13	761.33
577.49	759.29
577.84	758.10
578.19	756.57
578.54	755.62
578.90	754.95
579.25	753.90
579.60	752.76
579.95	750.48
580.30	749.33
580.66	747.71
581.01	746.67
581.36	744.48
581.71	741.90
582.06	741.71
582.42	740.05
582.77	738.19
583.12	736.86
583.47	735.81
583.82	733.81
584.17	733.24
584.53	732.57
584.88	730.38
585.23	729.62
585.58	727.62
585.93	725.52
586.28	723.24
586.63	721.95
586.98	720.33
587.34	719.19
587.69	716.33
588.04	713.71
588.39	711.48
588.74	709.29
589.09	707.67
589.44	702.52
589.79	699.33
590.14	696.62
590.49	693.05
590.84	688.86
591.19	686.33
591.54	683.24
591.89	679.00
592.25	678.10
592.60	674.71
592.95	671.76
593.30	669.19
593.65	665.62
594.00	661.48
594.35	664.90
594.70	661.43
595.05	658.48
595.40	655.81
595.75	652.48
596.10	649.43
596.45	646.62
596.80	644.76
597.15	642.76
597.50	639.33
597.85	637.95
598.19	635.52
598.54	632.86
598.89	629.71
599.24	627.29
599.59	623.62
599.94	620.90
600.29	617.76
600.64	615.24
600.99	614.00
601.34	612.10
601.69	602.81
602.04	600.24
602.39	597.76
602.74	595.71
603.08	594.05
603.43	593.38
603.78	591.19
604.13	589.10
604.48	587.19
604.83	586.76
605.18	585.14
605.53	585.33
605.87	587.14
606.22	590.67
606.57	595.10
606.92	599.67
607.27	605.10
607.62	611.67
607.96	617.00
608.31	621.00
608.66	624.62
609.01	628.00
609.36	631.76
609.70	635.05
610.05	636.90
610.40	639.38
610.75	640.95
611.10	642.71
611.44	644.00
611.79	644.57
612.14	644.43
612.49	642.33
612.83	639.43
613.18	634.71
613.53	628.67
613.88	622.19
614.22	613.86
614.57	605.19
614.92	595.81
615.27	588.29
615.61	580.57
615.96	573.62
616.31	567.43
616.65	561.29
617.00	554.81
617.35	549.05
617.70	542.90
618.04	537.19
618.39	531.48
618.74	527.00
619.08	522.48
619.43	518.57
619.78	515.76
620.12	513.14
620.47	510.29
620.82	507.38
621.16	504.24
621.51	502.95
621.85	500.81
622.20	499.29
622.55	495.52
622.89	493.33
623.24	491.62
623.59	489.10
623.93	486.86
624.28	485.14
624.62	485.86
624.97	485.29
625.32	483.24
625.66	481.71
626.01	479.43
626.35	478.29
626.70	476.00
627.04	474.86
627.39	472.95
627.73	472.10
628.08	470.67
628.43	467.90
628.77	465.19
629.12	462.81
629.46	460.33
629.81	458.95
630.15	456.95
630.50	454.33
630.84	452.14
631.19	450.00
631.53	447.86
631.88	442.29
632.22	438.43
632.57	437.24
632.91	434.86
633.26	432.90
633.60	430.10
633.95	427.76
634.29	424.86
634.64	422.86
634.98	419.62
635.32	417.86
635.67	416.38
636.01	413.95
636.36	411.71
636.70	410.95
637.05	408.71
637.39	406.67
637.73	405.10
638.08	404.38
638.42	402.05
638.77	400.57
639.11	399.48
639.45	398.10
639.80	395.43
640.14	394.14
640.49	392.52
640.83	390.95
641.17	390.43
641.52	388.57
641.86	387.48
642.20	387.38
642.55	385.48
642.89	384.38
643.23	383.81
643.58	383.48
643.92	380.90
644.26	380.00
644.61	379.29
644.95	378.62
645.29	376.57
645.64	376.86
645.98	375.52
646.32	375.81
646.66	375.14
647.01	374.29
647.35	373.95
647.69	373.95
648.04	373.67
648.38	372.48
648.72	371.67
649.06	370.52
649.41	368.14
649.75	367.57
650.09	366.48
650.43	365.19
650.78	363.86
651.12	363.00
651.46	362.38
651.80	361.33
652.14	359.71
652.49	359.19
652.83	356.90
653.17	356.00
653.51	353.81
653.85	352.90
654.20	351.81
654.54	349.76
654.88	347.71
655.22	345.86
655.56	344.19
655.90	343.57
656.25	342.29
656.59	341.62
656.93	340.38
657.27	339.90
657.61	338.71
657.95	338.24
658.29	337.76
658.64	337.24
658.98	336.38
659.32	336.14
659.66	335.05
660.00	335.00
660.34	334.00
660.68	333.76
661.02	332.81
661.36	332.10
661.70	331.52
662.05	330.95
662.39	331.05
662.73	331.24
663.07	331.71
663.41	331.24
663.75	330.48
664.09	330.38
664.43	329.29
664.77	328.90
665.11	327.90
665.45	327.29
665.79	326.76
666.13	326.00
666.47	324.86
666.81	324.19
667.15	322.90
667.49	322.43
667.83	321.90
668.17	320.81
668.51	319.86
668.85	319.57
669.19	319.76
669.53	318.71
669.87	317.62
670.21	315.67
670.55	315.24
670.89	315.57
671.23	314.62
671.57	314.29
671.91	313.86
672.25	313.10
672.58	313.10
672.92	311.76
673.26	311.05
673.60	310.57
673.94	310.48
674.28	310.38
674.62	310.24
674.96	309.52
675.30	309.19
675.64	309.19
675.97	308.52
676.31	307.48
676.65	306.38
676.99	306.76
677.33	305.90
677.67	305.24
678.01	303.76
678.34	303.48
678.68	303.29
679.02	302.29
679.36	302.14
679.70	301.00
680.04	300.38
680.37	300.00
680.71	299.71
681.05	299.05
681.39	298.14
681.73	297.48
682.06	296.86
682.40	296.62
682.74	296.33
683.08	296.52
683.42	296.24
683.75	296.57
684.09	295.24
684.43	295.67
684.77	295.19
685.10	295.05
685.44	294.57
685.78	293.86
686.12	294.00
686.45	293.62
686.79	292.90
687.13	293.48
687.46	292.90
687.80	293.00
688.14	292.48
688.48	292.57
688.81	292.43
689.15	292.76
689.49	292.24
689.82	292.10
690.16	291.38
690.50	290.81
690.83	290.29
691.17	289.62
691.51	289.19
691.84	289.05
692.18	288.33
692.52	287.71
692.85	287.57
693.19	288.19
693.52	287.52
693.86	287.24
694.20	286.19
694.53	286.33
694.87	285.71
695.21	284.76
695.54	284.14
695.88	283.33
696.21	282.05
696.55	281.38
696.88	280.90
697.22	279.86
697.56	279.62
697.89	278.90
698.23	278.67
698.56	278.10
698.90	278.00
699.23	277.67
699.57	277.62
699.90	277.05
700.24	276.00
700.58	275.76
700.91	276.00
701.25	278.29
701.58	278.90
701.92	279.29
702.25	280.05
702.59	280.14
702.92	280.38
703.26	280.95
703.59	281.48
703.93	283.81
704.26	284.67
704.60	285.14
704.93	285.48
705.26	285.95
705.60	286.62
705.93	286.33
706.27	287.95
706.60	288.71
706.94	290.00
707.27	289.86
707.61	290.29
707.94	290.52
708.27	288.19
708.61	287.05
708.94	286.90
709.28	286.67
709.61	286.14
709.94	286.05
710.28	285.48
710.61	285.43
710.95	282.33
711.28	283.14
711.61	282.05
711.95	281.90
712.28	280.86
712.61	280.10
712.95	281.00
713.28	280.52
713.61	279.14
713.95	277.71
714.28	276.81
714.61	275.71
714.95	274.43
715.28	273.43
715.61	272.90
715.95	272.24
716.28	271.19
716.61	271.38
716.95	270.29
717.28	269.24
717.61	268.43
717.94	267.86
718.28	265.67
718.61	265.33
718.94	264.62
719.27	264.29
719.61	263.90
719.94	262.71
720.27	261.14
720.60	260.67
720.94	260.48
721.27	260.48
721.60	261.00
721.93	260.95
722.27	261.95
722.60	261.95
722.93	261.48
723.26	261.86
723.59	261.05
723.93	261.52
724.26	262.24
724.59	261.95
724.92	262.05
725.25	262.71
725.59	262.57
725.92	262.57
726.25	262.86
726.58	262.48
726.91	262.05
727.24	262.29
727.57	262.05
727.91	261.52
728.24	261.57
728.57	260.81
728.90	260.57
729.23	259.38
729.56	260.24
729.89	259.90
730.22	259.29
730.55	258.95
730.89	258.48
731.22	258.14
731.55	257.86
731.88	257.52
732.21	256.86
732.54	256.38
732.87	256.33
733.20	255.86
733.53	256.10
733.86	256.29
734.19	256.10
734.52	256.52
734.85	257.95
735.18	257.90
735.51	258.71
735.84	258.86
736.17	259.57
736.50	258.24
736.83	260.76
737.16	260.62
737.49	261.05
737.82	260.76
738.15	260.95
738.48	260.67
738.81	260.76
739.14	260.24
739.47	260.38
739.80	260.24
740.13	260.48
740.46	259.90
740.79	259.43
741.12	259.19
741.45	258.71
741.78	257.43
742.11	257.81
742.44	256.95
742.77	257.19
743.10	256.38
743.43	256.52
743.75	254.48
744.08	257.71
744.41	257.24
744.74	257.43
745.07	256.43
745.40	257.00
745.73	257.71
746.06	258.00
746.39	258.38
746.71	258.14
747.04	257.71
747.37	257.76
747.70	258.29
748.03	258.38
748.36	258.48
748.68	258.24
749.01	257.24
749.34	257.29
749.67	257.00
750.00	257.52
750.33	259.05
750.65	258.90
750.98	255.57
751.31	255.71
751.64	255.14
751.97	256.52
752.29	256.14
752.62	255.05
752.95	254.81
753.28	254.33
753.60	254.05
753.93	254.71
754.26	254.71
754.59	254.00
754.91	253.86
755.24	253.76
755.57	253.48
755.90	253.29
756.22	253.10
756.55	252.76
756.88	252.24
757.20	250.71
757.53	250.05
757.86	250.19
758.19	249.95
758.51	250.43
758.84	249.33
759.17	249.29
759.49	249.71
759.82	250.67
760.15	250.67
760.47	250.52
760.80	249.76
761.13	250.14
761.45	249.81
761.78	249.29
762.11	249.38
762.43	249.48
762.76	249.48
763.08	249.38
763.41	249.67
763.74	249.43
764.06	249.00
764.39	248.67
764.71	248.57
765.04	248.52
765.37	247.90
765.69	247.62
766.02	247.57
766.34	247.10
766.67	246.24
767.00	246.52
767.32	247.52
767.65	248.71
767.97	248.57
768.30	248.90
768.62	249.19
768.95	248.52
769.27	248.38
769.60	248.81
769.92	248.48
770.25	248.10
770.57	247.76
770.90	247.71
771.22	247.71
771.55	247.52
771.87	247.43
772.20	247.33
772.52	249.76
772.85	252.57
773.17	252.86
773.50	252.19
773.82	251.71
774.15	250.57
774.47	249.00
774.80	248.14
775.12	247.95
775.45	247.71
775.77	247.90
776.09	248.00
776.42	247.86
776.74	248.76
777.07	248.38
777.39	248.43
777.72	248.24
778.04	248.00
778.36	248.00
778.69	248.00
779.01	248.14
779.33	245.57
779.66	242.48
779.98	242.05
780.31	242.52
780.63	243.76
780.95	244.76
781.28	244.71
781.60	244.76
781.92	244.33
782.25	244.10
782.57	244.43
782.89	243.95
783.22	243.81
783.54	243.24
783.86	243.33
784.19	243.19
784.51	244.24
784.83	244.43
785.16	244.14
785.48	244.10
785.80	244.00
786.12	244.67
786.45	244.81
786.77	244.86
787.09	244.71
787.42	243.48
787.74	243.05
788.06	243.33
788.38	243.52
788.71	243.43
789.03	243.76
789.35	244.05
789.67	243.95
789.99	244.00
790.32	243.57
790.64	243.95
790.96	246.10
791.28	245.05
791.61	244.71
791.93	244.86
792.25	244.95
792.57	246.90
792.89	245.95
793.21	246.05
793.54	245.71
793.86	245.29
