SpectraSuite Data File
++++++++++++++++++++++++++++++++++++
Date: Wed Nov 07 18:32:41 EST 2012
User: group
Dark Spectrum Present: No
Reference Spectrum Present: No
Number of Sampled Component Spectra: 1
Spectrometers: USB2E7196
Integration Time (usec): 1000000 (USB2E7196)
Spectra Averaged: 1 (USB2E7196)
Boxcar Smoothing: 10 (USB2E7196)
Correct for Electrical Dark: No (USB2E7196)
Strobe/Lamp Enabled: No (USB2E7196)
Correct for Detector Non-linearity: No (USB2E7196)
Correct for Stray Light: No (USB2E7196)
Number of Pixels in Processed Spectrum: 2048
>>>>>Begin Processed Spectral Data<<<<<
339.09	0.00
339.48	222.00
339.86	220.00
340.24	223.00
340.63	226.00
341.01	266.00
341.39	225.00
341.78	233.00
342.16	241.00
342.54	229.00
342.93	222.38
343.31	233.00
343.69	233.81
344.07	234.14
344.46	235.05
344.84	235.33
345.22	233.67
345.60	234.10
345.99	234.14
346.37	233.90
346.75	233.90
347.13	234.10
347.52	234.48
347.90	235.05
348.28	235.38
348.66	236.24
349.05	235.43
349.43	235.71
349.81	236.24
350.19	235.90
350.57	236.00
350.96	236.19
351.34	236.90
351.72	236.81
352.10	237.19
352.48	236.71
352.87	236.67
353.25	236.90
353.63	236.71
354.01	236.76
354.39	237.00
354.77	237.24
355.15	237.86
355.54	237.38
355.92	236.95
356.30	237.24
356.68	238.62
357.06	238.81
357.44	238.33
357.82	238.38
358.20	238.95
358.58	239.24
358.97	239.14
359.35	239.62
359.73	240.05
360.11	240.14
360.49	240.43
360.87	240.57
361.25	240.90
361.63	241.90
362.01	242.10
362.39	241.81
362.77	242.00
363.15	241.71
363.53	242.24
363.91	242.33
364.29	242.33
364.67	239.81
365.05	240.48
365.43	241.10
365.81	241.29
366.19	242.38
366.57	243.24
366.95	243.33
367.33	242.76
367.71	242.76
368.09	243.00
368.47	243.19
368.85	243.24
369.23	243.86
369.61	243.00
369.99	243.90
370.37	244.38
370.75	245.71
371.13	245.19
371.51	244.95
371.89	245.43
372.27	245.57
372.65	245.81
373.03	245.43
373.41	245.52
373.78	245.38
374.16	243.81
374.54	243.00
374.92	242.81
375.30	242.90
375.68	242.24
376.06	242.57
376.44	242.52
376.82	242.76
377.19	242.71
377.57	242.76
377.95	241.90
378.33	241.71
378.71	240.14
379.09	240.67
379.47	240.86
379.84	240.52
380.22	240.00
380.60	239.95
380.98	239.76
381.36	239.24
381.73	239.05
382.11	239.62
382.49	239.57
382.87	239.43
383.25	239.24
383.62	242.33
384.00	241.52
384.38	241.52
384.76	242.10
385.13	242.48
385.51	242.76
385.89	242.24
386.27	242.29
386.64	242.71
387.02	242.48
387.40	242.19
387.78	242.19
388.15	242.33
388.53	241.90
388.91	242.10
389.29	241.86
389.66	242.29
390.04	241.76
390.42	242.19
390.79	242.43
391.17	242.62
391.55	239.62
391.92	239.95
392.30	240.05
392.68	239.38
393.05	239.38
393.43	239.29
393.81	239.81
394.18	239.33
394.56	239.33
394.94	239.81
395.31	239.62
395.69	240.19
396.06	240.76
396.44	241.38
396.82	241.24
397.19	242.90
397.57	242.19
397.95	242.95
398.32	242.14
398.70	242.33
399.07	243.05
399.45	243.14
399.82	243.00
400.20	242.86
400.58	243.00
400.95	241.86
401.33	242.33
401.70	243.95
402.08	244.48
402.45	244.62
402.83	245.33
403.20	245.76
403.58	245.43
403.95	245.76
404.33	245.90
404.71	246.19
405.08	247.67
405.46	248.71
405.83	249.14
406.21	249.86
406.58	250.24
406.96	250.19
407.33	250.90
407.70	252.00
408.08	254.62
408.45	255.19
408.83	256.52
409.20	256.90
409.58	255.95
409.95	257.14
410.33	258.48
410.70	258.43
411.08	259.86
411.45	261.24
411.82	261.81
412.20	263.38
412.57	265.86
412.95	265.24
413.32	266.95
413.69	267.95
414.07	270.00
414.44	272.29
414.82	274.62
415.19	277.29
415.56	279.29
415.94	280.10
416.31	283.52
416.68	286.71
417.06	289.95
417.43	294.29
417.81	297.71
418.18	301.05
418.55	305.29
418.93	309.05
419.30	313.71
419.67	318.71
420.04	323.81
420.42	328.05
420.79	335.76
421.16	341.19
421.54	348.67
421.91	354.86
422.28	360.71
422.66	367.05
423.03	375.33
423.40	382.43
423.77	389.29
424.15	396.52
424.52	403.81
424.89	413.19
425.26	420.81
425.64	428.86
426.01	437.48
426.38	446.43
426.75	456.52
427.13	465.76
427.50	475.48
427.87	484.76
428.24	494.48
428.61	502.29
428.99	513.76
429.36	524.29
429.73	535.52
430.10	547.43
430.47	560.14
430.85	570.62
431.22	583.24
431.59	599.57
431.96	612.81
432.33	627.71
432.70	641.38
433.08	658.48
433.45	673.24
433.82	687.43
434.19	703.90
434.56	720.10
434.93	734.48
435.30	750.19
435.68	767.43
436.05	783.86
436.42	800.00
436.79	814.76
437.16	831.19
437.53	848.43
437.90	865.48
438.27	882.19
438.64	898.24
439.01	913.86
439.38	925.05
439.75	937.33
440.13	952.10
440.50	966.19
440.87	977.24
441.24	988.19
441.61	1002.52
441.98	1011.76
442.35	1021.76
442.72	1033.14
443.09	1043.86
443.46	1050.67
443.83	1055.10
444.20	1057.90
444.57	1062.62
444.94	1063.05
445.31	1064.52
445.68	1067.86
446.05	1066.43
446.42	1064.48
446.79	1062.57
447.16	1059.62
447.53	1057.67
447.90	1049.52
448.27	1040.81
448.64	1030.24
449.01	1023.19
449.37	1010.10
449.74	997.76
450.11	986.76
450.48	972.19
450.85	956.10
451.22	942.33
451.59	928.90
451.96	916.95
452.33	901.29
452.70	887.76
453.07	871.24
453.43	851.81
453.80	836.19
454.17	819.95
454.54	804.05
454.91	788.33
455.28	772.57
455.65	758.29
456.02	749.19
456.38	737.29
456.75	722.67
457.12	710.10
457.49	698.48
457.86	683.81
458.23	674.10
458.59	663.05
458.96	651.10
459.33	641.71
459.70	632.57
460.07	624.48
460.43	614.86
460.80	606.76
461.17	599.24
461.54	591.33
461.91	584.19
462.27	576.38
462.64	569.33
463.01	562.71
463.38	557.00
463.74	545.67
464.11	538.95
464.48	533.81
464.85	528.57
465.21	524.48
465.58	520.24
465.95	514.43
466.32	509.86
466.68	505.67
467.05	501.10
467.42	496.33
467.78	491.62
468.15	487.90
468.52	484.10
468.88	479.95
469.25	475.52
469.62	472.76
469.98	469.38
470.35	466.52
470.72	463.00
471.08	458.38
471.45	455.90
471.82	453.95
472.18	451.00
472.55	448.71
472.92	445.43
473.28	442.57
473.65	439.38
474.02	437.33
474.38	435.48
474.75	434.24
475.11	431.90
475.48	430.43
475.85	428.76
476.21	427.19
476.58	425.71
476.94	424.90
477.31	423.19
477.67	422.05
478.04	420.95
478.41	420.43
478.77	422.86
479.14	421.76
479.50	420.67
479.87	420.81
480.23	420.43
480.60	420.52
480.96	421.10
481.33	423.24
481.69	423.33
482.06	423.76
482.42	424.62
482.79	425.76
483.15	426.29
483.52	427.71
483.88	428.71
484.25	429.57
484.61	430.43
484.98	431.86
485.34	434.19
485.71	435.86
486.07	437.57
486.44	436.67
486.80	437.90
487.17	439.10
487.53	440.86
487.90	443.10
488.26	445.57
488.62	447.76
488.99	448.29
489.35	450.24
489.72	451.95
490.08	453.19
490.44	454.62
490.81	457.05
491.17	458.67
491.54	461.19
491.90	464.43
492.26	466.52
492.63	469.10
492.99	470.86
493.36	473.52
493.72	476.14
494.08	478.67
494.45	482.00
494.81	486.10
495.17	488.76
495.54	492.10
495.90	494.95
496.26	498.05
496.63	501.90
496.99	505.95
497.35	509.62
497.72	513.52
498.08	517.52
498.44	521.10
498.80	525.90
499.17	529.52
499.53	532.57
499.89	537.95
500.26	541.81
500.62	546.67
500.98	551.52
501.34	555.62
501.71	561.10
502.07	566.05
502.43	569.90
502.79	574.90
503.16	579.67
503.52	584.38
503.88	589.14
504.24	595.19
504.60	600.33
504.97	606.62
505.33	612.14
505.69	618.05
506.05	623.57
506.41	628.71
506.78	634.76
507.14	640.71
507.50	646.24
507.86	652.19
508.22	658.14
508.59	663.19
508.95	669.00
509.31	675.67
509.67	681.00
510.03	686.33
510.39	691.05
510.75	696.29
511.12	700.38
511.48	705.19
511.84	709.43
512.20	713.57
512.56	717.81
512.92	722.52
513.28	727.33
513.64	732.24
514.00	736.38
514.37	741.14
514.73	745.86
515.09	750.48
515.45	754.76
515.81	758.71
516.17	762.76
516.53	767.00
516.89	770.14
517.25	774.29
517.61	779.05
517.97	783.57
518.33	787.29
518.69	792.86
519.05	797.33
519.41	801.10
519.77	807.00
520.13	811.76
520.49	814.62
520.85	816.86
521.21	820.86
521.57	824.43
521.93	825.95
522.29	828.62
522.65	830.90
523.01	833.62
523.37	835.81
523.73	838.71
524.09	840.95
524.45	842.48
524.81	844.62
525.17	847.14
525.53	849.05
525.89	850.38
526.25	852.10
526.61	853.19
526.97	854.62
527.33	855.19
527.68	858.48
528.04	860.24
528.40	862.57
528.76	863.19
529.12	864.14
529.48	867.10
529.84	868.24
530.20	869.90
530.56	870.90
530.91	872.67
531.27	873.14
531.63	874.95
531.99	875.67
532.35	876.90
532.71	876.86
533.07	878.10
533.42	882.62
533.78	883.43
534.14	884.62
534.50	885.24
534.86	887.10
535.21	884.52
535.57	886.14
535.93	886.76
536.29	889.29
536.65	891.52
537.00	892.43
537.36	894.57
537.72	896.19
538.08	899.86
538.44	901.86
538.79	906.05
539.15	907.38
539.51	910.10
539.87	911.76
540.22	914.19
540.58	915.95
540.94	915.90
541.29	918.38
541.65	920.24
542.01	923.00
542.37	924.48
542.72	926.43
543.08	926.71
543.44	927.29
543.79	925.43
544.15	925.57
544.51	925.38
544.87	924.90
545.22	924.00
545.58	921.38
545.94	919.57
546.29	916.90
546.65	914.38
547.01	911.10
547.36	908.62
547.72	905.76
548.07	904.00
548.43	900.48
548.79	896.95
549.14	894.10
549.50	891.24
549.86	887.00
550.21	884.81
550.57	882.38
550.92	879.86
551.28	879.19
551.64	875.90
551.99	873.57
552.35	870.71
552.70	868.10
553.06	866.81
553.41	864.00
553.77	863.24
554.13	862.86
554.48	861.95
554.84	860.67
555.19	859.43
555.55	859.19
555.90	857.95
556.26	856.05
556.61	854.24
556.97	851.48
557.32	849.29
557.68	846.95
558.03	845.76
558.39	844.38
558.74	841.90
559.10	839.90
559.45	838.00
559.81	836.67
560.16	834.14
560.52	831.52
560.87	830.95
561.23	828.10
561.58	827.10
561.94	824.71
562.29	822.90
562.64	821.81
563.00	817.71
563.35	815.33
563.71	813.29
564.06	811.62
564.42	809.67
564.77	808.00
565.12	806.71
565.48	807.14
565.83	806.00
566.19	804.48
566.54	803.10
566.89	801.76
567.25	800.67
567.60	801.24
567.96	802.38
568.31	801.86
568.66	801.43
569.02	798.43
569.37	797.00
569.72	795.43
570.08	793.43
570.43	792.67
570.78	791.24
571.14	790.86
571.49	789.38
571.84	788.00
572.20	787.86
572.55	786.81
572.90	783.38
573.26	782.14
573.61	780.76
573.96	780.05
574.31	778.67
574.67	777.33
575.02	774.90
575.37	771.48
575.72	769.24
576.08	767.05
576.43	766.33
576.78	765.67
577.13	764.10
577.49	763.33
577.84	761.71
578.19	760.52
578.54	759.05
578.90	758.29
579.25	758.05
579.60	756.14
579.95	754.29
580.30	753.43
580.66	752.67
581.01	750.71
581.36	748.90
581.71	747.24
582.06	746.67
582.42	744.71
582.77	742.52
583.12	741.00
583.47	738.67
583.82	736.38
584.17	734.62
584.53	734.48
584.88	731.38
585.23	730.05
585.58	727.76
585.93	725.19
586.28	722.86
586.63	720.43
586.98	718.33
587.34	716.33
587.69	713.33
588.04	710.43
588.39	708.33
588.74	705.81
589.09	704.48
589.44	700.38
589.79	698.29
590.14	696.24
590.49	692.67
590.84	689.43
591.19	686.43
591.54	683.05
591.89	678.38
592.25	678.00
592.60	674.52
592.95	672.19
593.30	669.90
593.65	667.00
594.00	663.29
594.35	667.24
594.70	663.71
595.05	661.00
595.40	658.00
595.75	655.62
596.10	652.57
596.45	648.14
596.80	645.38
597.15	642.00
597.50	638.29
597.85	636.57
598.19	633.62
598.54	631.05
598.89	628.90
599.24	627.52
599.59	623.52
599.94	621.38
600.29	618.62
600.64	615.90
600.99	613.62
601.34	612.33
601.69	602.71
602.04	600.76
602.39	598.24
602.74	596.10
603.08	593.71
603.43	592.86
603.78	591.62
604.13	589.48
604.48	588.33
604.83	587.90
605.18	586.48
605.53	587.76
605.87	589.95
606.22	593.19
606.57	597.00
606.92	601.81
607.27	607.10
607.62	612.43
607.96	617.95
608.31	622.57
608.66	626.62
609.01	630.67
609.36	634.33
609.70	638.14
610.05	640.90
610.40	643.95
610.75	645.71
611.10	647.05
611.44	648.33
611.79	648.90
612.14	648.48
612.49	647.00
612.83	644.71
613.18	640.10
613.53	634.43
613.88	627.10
614.22	618.57
614.57	609.86
614.92	601.71
615.27	593.57
615.61	585.48
615.96	578.52
616.31	571.71
616.65	565.67
617.00	559.10
617.35	552.71
617.70	546.05
618.04	540.10
618.39	535.24
618.74	530.76
619.08	526.43
619.43	522.67
619.78	519.43
620.12	515.33
620.47	512.81
620.82	509.86
621.16	507.19
621.51	506.67
621.85	503.86
622.20	501.76
622.55	498.86
622.89	496.48
623.24	494.43
623.59	491.71
623.93	488.95
624.28	486.90
624.62	487.86
624.97	487.81
625.32	486.00
625.66	484.10
626.01	482.10
626.35	480.43
626.70	478.48
627.04	477.67
627.39	476.38
627.73	475.71
628.08	474.33
628.43	472.33
628.77	468.86
629.12	467.38
629.46	465.48
629.81	463.48
630.15	461.14
630.50	458.10
630.84	456.71
631.19	454.57
631.53	452.33
631.88	446.90
632.22	442.48
632.57	440.71
632.91	438.71
633.26	437.14
633.60	434.43
633.95	432.05
634.29	428.76
634.64	426.19
634.98	422.43
635.32	420.48
635.67	419.10
636.01	417.05
636.36	414.81
636.70	412.90
637.05	411.19
637.39	409.67
637.73	408.24
638.08	406.76
638.42	405.05
638.77	403.52
639.11	402.57
639.45	401.33
639.80	399.00
640.14	397.29
640.49	394.81
640.83	393.48
641.17	392.29
641.52	391.05
641.86	390.48
642.20	390.52
642.55	388.52
642.89	387.05
643.23	385.90
643.58	385.76
643.92	383.95
644.26	383.05
644.61	382.67
644.95	381.43
645.29	379.86
645.64	379.52
645.98	378.05
646.32	377.19
646.66	376.48
647.01	375.71
647.35	375.19
647.69	375.19
648.04	374.62
648.38	373.86
648.72	372.33
649.06	370.48
649.41	368.52
649.75	367.52
650.09	366.52
650.43	365.52
650.78	363.86
651.12	362.81
651.46	361.67
651.80	360.19
652.14	358.76
652.49	358.57
652.83	356.71
653.17	355.71
653.51	354.29
653.85	353.10
654.20	351.48
654.54	348.90
654.88	347.10
655.22	345.71
655.56	344.19
655.90	343.62
656.25	342.62
656.59	342.00
656.93	341.24
657.27	340.76
657.61	339.76
657.95	338.57
658.29	337.90
658.64	337.57
658.98	336.76
659.32	336.29
659.66	335.33
660.00	334.71
660.34	333.90
660.68	333.19
661.02	332.52
661.36	332.00
661.70	331.57
662.05	331.33
662.39	331.24
662.73	331.76
663.07	332.19
663.41	332.14
663.75	330.76
664.09	329.71
664.43	328.43
664.77	327.90
665.11	327.24
665.45	327.10
665.79	326.57
666.13	325.38
666.47	324.62
666.81	323.67
667.15	322.95
667.49	322.71
667.83	322.62
668.17	322.00
668.51	321.33
668.85	321.57
669.19	321.86
669.53	320.33
669.87	319.00
670.21	317.76
670.55	317.10
670.89	318.00
671.23	317.76
671.57	317.29
671.91	316.71
672.25	316.62
672.58	316.62
672.92	315.19
673.26	314.71
673.60	314.10
673.94	313.10
674.28	312.71
674.62	312.10
674.96	311.14
675.30	310.52
675.64	310.43
675.97	309.62
676.31	308.43
676.65	308.29
676.99	308.43
677.33	307.05
677.67	306.19
678.01	304.33
678.34	303.86
678.68	303.71
679.02	303.10
679.36	302.43
679.70	301.10
680.04	300.67
680.37	300.57
680.71	300.29
681.05	300.38
681.39	299.71
681.73	299.48
682.06	298.90
682.40	298.71
682.74	298.71
683.08	299.33
683.42	298.67
683.75	298.57
684.09	297.86
684.43	298.00
684.77	297.38
685.10	297.14
685.44	296.76
685.78	296.10
686.12	295.71
686.45	295.14
686.79	294.57
687.13	294.76
687.46	294.14
687.80	294.57
688.14	293.81
688.48	293.33
688.81	292.52
689.15	292.86
689.49	292.05
689.82	291.71
690.16	289.90
690.50	289.29
690.83	288.52
691.17	286.86
691.51	286.24
691.84	286.38
692.18	285.95
692.52	285.48
692.85	285.43
693.19	285.81
693.52	285.52
693.86	284.67
694.20	284.10
694.53	284.05
694.87	282.76
695.21	282.29
695.54	282.10
695.88	281.86
696.21	280.48
696.55	280.19
696.88	279.10
697.22	278.86
697.56	278.62
697.89	278.24
698.23	278.81
698.56	278.29
698.90	277.81
699.23	277.43
699.57	277.29
699.90	276.48
700.24	275.90
700.58	275.71
700.91	276.48
701.25	278.10
701.58	278.67
701.92	279.95
702.25	280.05
702.59	280.48
702.92	280.48
703.26	281.00
703.59	281.52
703.93	284.24
704.26	285.05
704.60	286.00
704.93	286.14
705.26	286.48
705.60	287.33
705.93	287.10
706.27	287.81
706.60	288.90
706.94	290.62
707.27	290.38
707.61	290.62
707.94	290.67
708.27	289.29
708.61	288.52
708.94	287.76
709.28	288.05
709.61	287.43
709.94	287.29
710.28	286.90
710.61	286.33
710.95	283.10
711.28	283.90
711.61	282.43
711.95	282.10
712.28	281.14
712.61	280.43
712.95	281.24
713.28	281.67
713.61	280.19
713.95	278.14
714.28	277.33
714.61	276.24
714.95	275.24
715.28	273.81
715.61	273.14
715.95	272.43
716.28	271.14
716.61	270.81
716.95	269.86
717.28	269.38
717.61	268.90
717.94	268.71
718.28	266.48
718.61	266.29
718.94	265.62
719.27	264.86
719.61	264.67
719.94	263.62
720.27	262.29
720.60	261.52
720.94	261.48
721.27	261.29
721.60	261.57
721.93	261.05
722.27	261.81
722.60	261.67
722.93	261.00
723.26	261.05
723.59	260.48
723.93	260.81
724.26	260.62
724.59	260.43
724.92	260.48
725.25	260.86
725.59	260.62
725.92	261.00
726.25	261.10
726.58	260.95
726.91	260.86
727.24	260.90
727.57	260.81
727.91	260.24
728.24	260.14
728.57	259.67
728.90	260.14
729.23	258.90
729.56	260.05
729.89	259.67
730.22	259.43
730.55	259.52
730.89	259.62
731.22	259.48
731.55	259.05
731.88	259.14
732.21	258.52
732.54	258.33
732.87	258.14
733.20	258.05
733.53	257.95
733.86	258.24
734.19	257.33
734.52	257.95
734.85	259.90
735.18	259.71
735.51	260.81
735.84	260.67
736.17	261.38
736.50	259.95
736.83	263.29
737.16	263.29
737.49	262.95
737.82	262.24
738.15	262.48
738.48	262.67
738.81	262.38
739.14	262.33
739.47	262.14
739.80	261.71
740.13	261.86
740.46	261.24
740.79	260.43
741.12	260.57
741.45	259.71
741.78	258.14
742.11	258.57
742.44	257.52
742.77	257.95
743.10	257.62
743.43	257.57
743.75	254.81
744.08	257.62
744.41	257.57
744.74	257.81
745.07	257.00
745.40	257.05
745.73	257.81
746.06	257.86
746.39	258.05
746.71	257.57
747.04	257.05
747.37	256.95
747.70	257.33
748.03	257.19
748.36	257.67
748.68	256.90
749.01	256.14
749.34	255.90
749.67	255.62
750.00	255.95
750.33	257.52
750.65	257.71
750.98	254.95
751.31	254.86
751.64	254.81
751.97	256.43
752.29	256.43
752.62	255.19
752.95	255.00
753.28	254.48
753.60	254.71
753.93	255.57
754.26	255.71
754.59	255.05
754.91	254.81
755.24	254.38
755.57	254.62
755.90	254.52
756.22	254.57
756.55	254.05
756.88	253.29
757.20	251.52
757.53	250.52
757.86	250.14
758.19	250.10
758.51	250.00
758.84	248.57
759.17	248.05
759.49	248.38
759.82	249.43
760.15	249.81
760.47	249.86
760.80	249.14
761.13	249.38
761.45	249.38
761.78	249.57
762.11	249.71
762.43	249.62
762.76	249.95
763.08	250.10
763.41	250.00
763.74	250.24
764.06	250.24
764.39	250.52
764.71	250.43
765.04	250.24
765.37	250.00
765.69	249.76
766.02	249.38
766.34	248.81
766.67	247.95
767.00	248.14
767.32	249.33
767.65	250.67
767.97	250.33
768.30	250.71
768.62	250.52
768.95	249.76
769.27	249.86
769.60	250.00
769.92	249.24
770.25	248.90
770.57	248.33
770.90	248.19
771.22	247.90
771.55	247.86
771.87	247.76
772.20	247.24
772.52	249.33
772.85	252.62
773.17	253.05
773.50	252.76
773.82	252.33
774.15	251.05
774.47	249.24
774.80	249.14
775.12	248.62
775.45	248.57
775.77	249.14
776.09	249.00
776.42	248.90
776.74	250.14
777.07	250.10
777.39	250.00
777.72	249.57
778.04	249.86
778.36	250.10
778.69	250.29
779.01	250.67
779.33	248.14
779.66	245.14
779.98	244.76
780.31	244.52
780.63	245.57
780.95	246.24
781.28	246.33
781.60	245.76
781.92	245.71
782.25	245.95
782.57	245.57
782.89	245.71
783.22	245.33
783.54	244.71
783.86	245.00
784.19	244.86
784.51	245.90
784.83	245.14
785.16	244.48
785.48	244.38
785.80	244.33
786.12	244.67
786.45	244.48
786.77	244.43
787.09	244.62
787.42	243.38
787.74	242.90
788.06	243.10
788.38	243.10
788.71	242.90
789.03	242.86
789.35	243.67
789.67	242.95
789.99	243.24
790.32	242.71
790.64	242.90
790.96	244.81
791.28	243.90
791.61	244.14
791.93	244.38
792.25	244.33
792.57	245.90
792.89	245.71
793.21	246.33
793.54	246.43
793.86	246.05
