SpectraSuite Data File
++++++++++++++++++++++++++++++++++++
Date: Wed Nov 07 18:32:04 EST 2012
User: group
Dark Spectrum Present: No
Reference Spectrum Present: No
Number of Sampled Component Spectra: 1
Spectrometers: USB2E7196
Integration Time (usec): 1000000 (USB2E7196)
Spectra Averaged: 1 (USB2E7196)
Boxcar Smoothing: 10 (USB2E7196)
Correct for Electrical Dark: No (USB2E7196)
Strobe/Lamp Enabled: No (USB2E7196)
Correct for Detector Non-linearity: No (USB2E7196)
Correct for Stray Light: No (USB2E7196)
Number of Pixels in Processed Spectrum: 2048
>>>>>Begin Processed Spectral Data<<<<<
339.09	0.00
339.48	218.00
339.86	214.00
340.24	216.00
340.63	225.00
341.01	256.00
341.39	230.00
341.78	233.00
342.16	240.00
342.54	237.00
342.93	222.90
343.31	234.00
343.69	234.38
344.07	235.29
344.46	236.57
344.84	237.38
345.22	236.19
345.60	236.52
345.99	237.05
346.37	236.95
346.75	236.90
347.13	237.14
347.52	237.19
347.90	238.10
348.28	238.33
348.66	238.71
349.05	238.10
349.43	238.57
349.81	238.62
350.19	238.71
350.57	239.14
350.96	238.86
351.34	239.14
351.72	239.52
352.10	239.62
352.48	239.19
352.87	238.95
353.25	239.29
353.63	239.24
354.01	238.81
354.39	239.10
354.77	239.00
355.15	240.00
355.54	240.05
355.92	239.33
356.30	239.10
356.68	240.67
357.06	240.67
357.44	240.33
357.82	240.67
358.20	240.76
358.58	240.48
358.97	240.86
359.35	241.48
359.73	242.14
360.11	242.19
360.49	242.38
360.87	242.57
361.25	242.81
361.63	243.71
362.01	243.81
362.39	243.38
362.77	243.52
363.15	242.90
363.53	243.14
363.91	243.38
364.29	243.33
364.67	241.00
365.05	241.24
365.43	241.71
365.81	241.67
366.19	242.76
366.57	243.81
366.95	243.52
367.33	242.71
367.71	242.29
368.09	242.62
368.47	242.57
368.85	242.00
369.23	242.43
369.61	241.48
369.99	242.38
370.37	242.33
370.75	243.48
371.13	243.10
371.51	242.24
371.89	242.05
372.27	242.33
372.65	242.86
373.03	242.67
373.41	242.10
373.78	242.19
374.16	240.62
374.54	239.81
374.92	239.57
375.30	239.57
375.68	239.24
376.06	239.57
376.44	239.14
376.82	239.33
377.19	238.71
377.57	238.43
377.95	237.57
378.33	237.67
378.71	236.43
379.09	236.76
379.47	237.29
379.84	237.29
380.22	236.90
380.60	236.43
380.98	236.48
381.36	236.29
381.73	235.62
382.11	236.19
382.49	236.48
382.87	236.81
383.25	236.86
383.62	240.00
384.00	239.38
384.38	239.90
384.76	240.67
385.13	241.76
385.51	242.14
385.89	241.81
386.27	242.05
386.64	242.24
387.02	242.33
387.40	242.10
387.78	242.43
388.15	242.71
388.53	242.57
388.91	242.76
389.29	242.90
389.66	243.43
390.04	243.19
390.42	243.14
390.79	243.00
391.17	243.00
391.55	240.19
391.92	240.00
392.30	240.24
392.68	239.86
393.05	239.76
393.43	239.86
393.81	240.05
394.18	239.57
394.56	239.38
394.94	239.33
395.31	239.43
395.69	240.19
396.06	240.62
396.44	241.05
396.82	240.71
397.19	242.29
397.57	241.76
397.95	242.05
398.32	241.62
398.70	241.86
399.07	242.67
399.45	242.48
399.82	242.67
400.20	242.38
400.58	242.43
400.95	241.29
401.33	241.57
401.70	243.48
402.08	243.95
402.45	244.57
402.83	245.52
403.20	245.86
403.58	245.48
403.95	245.67
404.33	246.00
404.71	246.24
405.08	247.38
405.46	248.14
405.83	248.76
406.21	249.29
406.58	249.86
406.96	250.14
407.33	250.81
407.70	251.48
408.08	254.10
408.45	254.86
408.83	256.52
409.20	257.00
409.58	256.52
409.95	257.81
410.33	259.05
410.70	259.52
411.08	260.57
411.45	261.48
411.82	262.48
412.20	264.19
412.57	266.95
412.95	266.14
413.32	267.95
413.69	269.38
414.07	271.05
414.44	272.48
414.82	274.48
415.19	277.14
415.56	279.86
415.94	280.95
416.31	284.14
416.68	286.67
417.06	290.10
417.43	293.67
417.81	297.33
418.18	300.62
418.55	304.29
418.93	308.52
419.30	313.24
419.67	317.90
420.04	321.90
420.42	325.90
420.79	333.67
421.16	339.14
421.54	346.43
421.91	352.86
422.28	359.00
422.66	365.33
423.03	373.71
423.40	380.38
423.77	387.95
424.15	394.62
424.52	402.62
424.89	411.29
425.26	418.81
425.64	426.24
426.01	434.67
426.38	443.14
426.75	453.05
427.13	462.29
427.50	471.62
427.87	481.86
428.24	491.90
428.61	500.19
428.99	511.62
429.36	521.86
429.73	533.05
430.10	545.05
430.47	557.86
430.85	568.38
431.22	581.62
431.59	597.29
431.96	610.57
432.33	624.81
432.70	638.71
433.08	654.48
433.45	670.05
433.82	685.62
434.19	702.43
434.56	718.29
434.93	733.33
435.30	749.00
435.68	766.14
436.05	784.00
436.42	799.48
436.79	815.10
437.16	832.38
437.53	849.43
437.90	866.52
438.27	882.57
438.64	899.00
439.01	914.19
439.38	924.71
439.75	937.86
440.13	953.05
440.50	967.33
440.87	979.00
441.24	991.14
441.61	1003.62
441.98	1013.29
442.35	1023.48
442.72	1035.24
443.09	1046.86
443.46	1052.62
443.83	1055.29
444.20	1059.76
444.57	1064.10
444.94	1064.33
445.31	1066.10
445.68	1070.90
446.05	1069.81
446.42	1067.33
446.79	1065.57
447.16	1062.24
447.53	1059.71
447.90	1051.76
448.27	1043.14
448.64	1033.00
449.01	1024.95
449.37	1013.10
449.74	1001.19
450.11	989.95
450.48	974.14
450.85	957.52
451.22	944.19
451.59	931.67
451.96	918.62
452.33	902.57
452.70	888.57
453.07	871.52
453.43	850.67
453.80	835.14
454.17	819.52
454.54	803.24
454.91	787.95
455.28	771.95
455.65	757.19
456.02	747.86
456.38	735.86
456.75	720.38
457.12	707.43
457.49	694.95
457.86	680.33
458.23	671.43
458.59	660.81
458.96	650.10
459.33	639.81
459.70	630.62
460.07	622.33
460.43	613.10
460.80	604.71
461.17	597.05
461.54	589.10
461.91	581.48
462.27	573.90
462.64	567.24
463.01	560.81
463.38	555.14
463.74	543.71
464.11	537.29
464.48	532.24
464.85	526.38
465.21	522.81
465.58	519.52
465.95	512.62
466.32	507.71
466.68	502.43
467.05	497.81
467.42	492.86
467.78	487.95
468.15	483.48
468.52	480.24
468.88	476.43
469.25	472.38
469.62	469.76
469.98	466.52
470.35	463.67
470.72	460.48
471.08	455.90
471.45	453.71
471.82	452.14
472.18	449.00
472.55	447.00
472.92	443.29
473.28	440.05
473.65	437.52
474.02	435.52
474.38	433.43
474.75	432.29
475.11	429.76
475.48	428.62
475.85	427.43
476.21	426.05
476.58	424.38
476.94	423.14
477.31	421.48
477.67	420.14
478.04	419.33
478.41	419.38
478.77	421.76
479.14	420.95
479.50	419.86
479.87	419.76
480.23	419.76
480.60	419.76
480.96	419.38
481.33	421.10
481.69	421.00
482.06	422.33
482.42	422.71
482.79	424.05
483.15	424.90
483.52	425.86
483.88	426.57
484.25	428.05
484.61	429.38
484.98	430.62
485.34	432.71
485.71	434.10
486.07	434.86
486.44	434.33
486.80	435.57
487.17	436.71
487.53	439.24
487.90	440.38
488.26	442.95
488.62	445.71
488.99	446.48
489.35	448.76
489.72	450.33
490.08	452.43
490.44	453.67
490.81	456.19
491.17	457.86
491.54	459.90
491.90	462.33
492.26	464.71
492.63	466.71
492.99	468.86
493.36	471.43
493.72	474.52
494.08	476.76
494.45	479.90
494.81	484.05
495.17	486.33
495.54	490.43
495.90	493.38
496.26	496.62
496.63	500.86
496.99	504.33
497.35	507.62
497.72	511.52
498.08	515.71
498.44	519.52
498.80	524.33
499.17	528.24
499.53	531.24
499.89	535.57
500.26	540.00
500.62	544.71
500.98	549.33
501.34	553.90
501.71	560.05
502.07	564.62
502.43	569.19
502.79	574.38
503.16	578.95
503.52	583.81
503.88	587.81
504.24	592.29
504.60	597.67
504.97	604.00
505.33	608.29
505.69	615.24
506.05	620.48
506.41	625.81
506.78	631.62
507.14	637.14
507.50	642.90
507.86	649.19
508.22	654.71
508.59	659.52
508.95	664.24
509.31	669.67
509.67	675.00
510.03	679.52
510.39	684.71
510.75	689.71
511.12	694.43
511.48	699.95
511.84	705.00
512.20	709.67
512.56	714.24
512.92	719.24
513.28	723.00
513.64	727.86
514.00	731.90
514.37	736.67
514.73	742.43
515.09	746.90
515.45	750.43
515.81	753.48
516.17	758.38
516.53	762.52
516.89	765.62
517.25	768.90
517.61	774.29
517.97	777.95
518.33	782.33
518.69	786.76
519.05	790.43
519.41	794.33
519.77	799.43
520.13	802.19
520.49	806.14
520.85	810.14
521.21	814.81
521.57	818.52
521.93	820.90
522.29	823.67
522.65	824.90
523.01	827.48
523.37	830.10
523.73	832.95
524.09	835.71
524.45	837.67
524.81	841.14
525.17	842.81
525.53	845.81
525.89	847.05
526.25	848.76
526.61	849.76
526.97	850.38
527.33	850.86
527.68	855.29
528.04	856.38
528.40	856.81
528.76	857.19
529.12	858.81
529.48	861.38
529.84	862.05
530.20	864.81
530.56	866.05
530.91	867.38
531.27	867.76
531.63	869.14
531.99	870.29
532.35	870.38
532.71	870.62
533.07	870.43
533.42	874.38
533.78	874.90
534.14	877.00
534.50	878.67
534.86	880.29
535.21	878.33
535.57	880.43
535.93	881.43
536.29	883.71
536.65	884.95
537.00	885.90
537.36	887.71
537.72	889.38
538.08	892.76
538.44	894.76
538.79	898.52
539.15	900.38
539.51	902.90
539.87	905.67
540.22	907.90
540.58	910.76
540.94	910.57
541.29	913.48
541.65	915.14
542.01	918.43
542.37	920.19
542.72	921.76
543.08	921.29
543.44	921.67
543.79	920.14
544.15	920.38
544.51	919.76
544.87	919.29
545.22	917.90
545.58	914.95
545.94	913.90
546.29	911.19
546.65	909.29
547.01	906.19
547.36	904.10
547.72	901.86
548.07	899.19
548.43	896.10
548.79	892.05
549.14	889.38
549.50	886.10
549.86	882.05
550.21	880.00
550.57	877.05
550.92	873.95
551.28	872.71
551.64	869.33
551.99	867.00
552.35	864.19
552.70	861.81
553.06	860.33
553.41	857.24
553.77	855.90
554.13	853.67
554.48	852.57
554.84	850.00
555.19	848.33
555.55	848.00
555.90	845.90
556.26	844.10
556.61	840.95
556.97	837.00
557.32	834.95
557.68	832.67
558.03	832.05
558.39	830.67
558.74	827.19
559.10	825.67
559.45	823.90
559.81	822.14
560.16	820.14
560.52	818.57
560.87	818.24
561.23	815.33
561.58	815.05
561.94	812.95
562.29	811.81
562.64	809.62
563.00	805.86
563.35	805.05
563.71	803.57
564.06	802.48
564.42	801.95
564.77	800.33
565.12	799.10
565.48	799.57
565.83	799.24
566.19	798.52
566.54	796.95
566.89	795.43
567.25	794.62
567.60	795.05
567.96	796.10
568.31	795.71
568.66	795.38
569.02	792.67
569.37	791.43
569.72	789.81
570.08	789.00
570.43	788.00
570.78	785.38
571.14	784.19
571.49	782.67
571.84	781.52
572.20	780.29
572.55	779.19
572.90	775.14
573.26	774.10
573.61	772.52
573.96	772.10
574.31	770.76
574.67	769.00
575.02	766.95
575.37	763.19
575.72	760.71
576.08	758.67
576.43	757.19
576.78	755.71
577.13	753.71
577.49	752.38
577.84	751.57
578.19	750.19
578.54	749.10
578.90	748.19
579.25	746.62
579.60	746.19
579.95	744.62
580.30	744.33
580.66	742.19
581.01	740.71
581.36	738.90
581.71	737.86
582.06	737.67
582.42	736.33
582.77	734.67
583.12	733.33
583.47	731.24
583.82	730.33
584.17	728.71
584.53	729.00
584.88	727.52
585.23	726.05
585.58	724.57
585.93	721.95
586.28	720.43
586.63	718.57
586.98	716.48
587.34	714.76
587.69	712.19
588.04	709.33
588.39	706.81
588.74	703.95
589.09	701.71
589.44	697.57
589.79	693.81
590.14	690.52
590.49	686.81
590.84	683.67
591.19	680.71
591.54	678.00
591.89	673.52
592.25	672.43
592.60	668.62
592.95	666.14
593.30	664.38
593.65	661.38
594.00	657.71
594.35	660.67
594.70	656.62
595.05	653.95
595.40	651.43
595.75	648.90
596.10	646.43
596.45	642.43
596.80	640.19
597.15	637.81
597.50	635.90
597.85	634.76
598.19	632.29
598.54	629.10
598.89	625.86
599.24	623.62
599.59	618.71
599.94	616.05
600.29	613.52
600.64	611.00
600.99	609.19
601.34	607.29
601.69	598.90
602.04	596.86
602.39	594.19
602.74	592.57
603.08	590.05
603.43	588.57
603.78	587.86
604.13	586.24
604.48	584.24
604.83	582.95
605.18	581.86
605.53	582.10
605.87	583.71
606.22	586.90
606.57	591.00
606.92	595.62
607.27	601.67
607.62	607.05
607.96	612.00
608.31	616.33
608.66	620.38
609.01	622.90
609.36	626.38
609.70	629.57
610.05	631.86
610.40	634.48
610.75	636.71
611.10	638.29
611.44	639.00
611.79	640.33
612.14	640.67
612.49	638.48
612.83	636.52
613.18	632.48
613.53	626.90
613.88	620.33
614.22	612.90
614.57	603.62
614.92	595.14
615.27	587.57
615.61	579.38
615.96	572.19
616.31	566.05
616.65	560.48
617.00	554.38
617.35	548.48
617.70	543.14
618.04	537.05
618.39	531.38
618.74	527.67
619.08	523.10
619.43	518.95
619.78	515.76
620.12	512.29
620.47	509.86
620.82	507.33
621.16	504.62
621.51	503.29
621.85	501.24
622.20	498.95
622.55	495.43
622.89	493.29
623.24	491.81
623.59	489.48
623.93	487.10
624.28	484.76
624.62	485.57
624.97	484.90
625.32	482.24
625.66	480.81
626.01	478.19
626.35	476.38
626.70	474.05
627.04	473.19
627.39	471.76
627.73	470.76
628.08	469.05
628.43	466.86
628.77	464.10
629.12	461.90
629.46	460.14
629.81	458.71
630.15	456.67
630.50	454.33
630.84	452.24
631.19	450.00
631.53	448.00
631.88	442.57
632.22	438.62
632.57	437.71
632.91	435.10
633.26	433.43
633.60	430.86
633.95	428.48
634.29	425.24
634.64	422.57
634.98	419.43
635.32	417.33
635.67	415.86
636.01	413.33
636.36	411.48
636.70	409.57
637.05	407.38
637.39	405.52
637.73	404.05
638.08	403.38
638.42	401.57
638.77	400.05
639.11	398.76
639.45	397.19
639.80	394.48
640.14	393.05
640.49	391.33
640.83	390.05
641.17	389.00
641.52	388.24
641.86	387.10
642.20	386.43
642.55	384.86
642.89	382.95
643.23	382.24
643.58	382.00
643.92	380.71
644.26	379.57
644.61	379.38
644.95	378.05
645.29	376.10
645.64	375.48
645.98	374.38
646.32	374.24
646.66	373.33
647.01	372.81
647.35	372.24
647.69	371.76
648.04	371.43
648.38	370.67
648.72	369.05
649.06	368.24
649.41	366.38
649.75	365.33
650.09	364.81
650.43	363.43
650.78	361.71
651.12	360.86
651.46	360.29
651.80	358.43
652.14	356.62
652.49	356.14
652.83	354.33
653.17	353.29
653.51	351.62
653.85	351.10
654.20	349.95
654.54	348.14
654.88	345.90
655.22	344.10
655.56	342.76
655.90	342.14
656.25	341.00
656.59	340.38
656.93	339.76
657.27	339.67
657.61	338.76
657.95	338.33
658.29	337.48
658.64	337.29
658.98	336.57
659.32	336.10
659.66	335.05
660.00	334.57
660.34	333.24
660.68	332.57
661.02	331.29
661.36	330.57
661.70	330.29
662.05	330.24
662.39	330.48
662.73	330.67
663.07	331.38
663.41	331.14
663.75	330.10
664.09	329.57
664.43	328.19
664.77	327.76
665.11	326.52
665.45	325.57
665.79	324.95
666.13	324.29
666.47	323.43
666.81	322.90
667.15	321.86
667.49	322.14
667.83	322.33
668.17	321.76
668.51	320.86
668.85	320.29
669.19	320.10
669.53	318.10
669.87	316.90
670.21	315.05
670.55	313.95
670.89	314.81
671.23	314.05
671.57	313.24
671.91	312.81
672.25	312.76
672.58	313.57
672.92	312.00
673.26	311.48
673.60	311.71
673.94	311.10
674.28	310.90
674.62	310.38
674.96	309.38
675.30	309.05
675.64	308.95
675.97	308.52
676.31	307.81
676.65	307.71
676.99	307.76
677.33	307.00
677.67	306.95
678.01	304.90
678.34	304.48
678.68	304.81
679.02	304.00
679.36	303.33
679.70	301.48
680.04	301.33
680.37	300.62
680.71	299.48
681.05	299.48
681.39	298.95
681.73	298.10
682.06	297.38
682.40	296.76
682.74	296.19
683.08	296.71
683.42	295.86
683.75	296.14
684.09	295.10
684.43	295.05
684.77	293.95
685.10	293.81
685.44	293.38
685.78	292.38
686.12	291.90
686.45	291.48
686.79	290.86
687.13	290.57
687.46	289.81
687.80	290.00
688.14	289.24
688.48	289.00
688.81	289.10
689.15	289.00
689.49	288.52
689.82	288.67
690.16	287.24
690.50	286.90
690.83	286.05
691.17	285.33
691.51	284.67
691.84	284.86
692.18	284.62
692.52	284.38
692.85	284.29
693.19	284.76
693.52	284.10
693.86	283.90
694.20	283.24
694.53	283.43
694.87	282.86
695.21	281.90
695.54	281.71
695.88	280.67
696.21	279.76
696.55	279.81
696.88	279.24
697.22	279.05
697.56	279.10
697.89	278.57
698.23	278.90
698.56	278.43
698.90	278.71
699.23	278.29
699.57	278.29
699.90	277.57
700.24	276.62
700.58	276.86
700.91	277.62
701.25	279.81
701.58	280.62
701.92	281.29
702.25	282.00
702.59	281.67
702.92	282.19
703.26	282.81
703.59	282.57
703.93	284.81
704.26	285.52
704.60	286.43
704.93	287.10
705.26	287.14
705.60	287.95
705.93	287.43
706.27	288.38
706.60	289.10
706.94	290.38
707.27	290.67
707.61	290.81
707.94	290.57
708.27	288.90
708.61	288.00
708.94	287.62
709.28	287.57
709.61	287.38
709.94	287.10
710.28	286.14
710.61	285.90
710.95	283.00
711.28	283.76
711.61	282.29
711.95	282.19
712.28	280.90
712.61	279.76
712.95	280.33
713.28	280.48
713.61	278.71
713.95	276.95
714.28	276.33
714.61	275.19
714.95	274.19
715.28	272.86
715.61	272.29
715.95	271.62
716.28	270.57
716.61	270.19
716.95	269.43
717.28	268.81
717.61	268.76
717.94	268.29
718.28	265.95
718.61	265.52
718.94	264.52
719.27	264.29
719.61	264.38
719.94	263.38
720.27	261.95
720.60	261.81
720.94	261.71
721.27	261.48
721.60	261.67
721.93	261.33
722.27	262.43
722.60	262.05
722.93	261.71
723.26	261.81
723.59	261.52
723.93	261.71
724.26	262.14
724.59	261.57
724.92	261.67
725.25	262.14
725.59	262.05
725.92	262.14
726.25	262.10
726.58	261.90
726.91	261.52
727.24	261.43
727.57	261.38
727.91	261.19
728.24	261.19
728.57	260.76
728.90	260.71
729.23	259.33
729.56	260.43
729.89	260.52
730.22	259.95
730.55	259.48
730.89	259.29
731.22	259.33
731.55	258.90
731.88	258.71
732.21	257.95
732.54	257.76
732.87	257.38
733.20	257.33
733.53	257.10
733.86	257.14
734.19	256.52
734.52	256.81
734.85	258.19
735.18	257.90
735.51	258.67
735.84	258.90
736.17	259.19
736.50	257.76
736.83	260.62
737.16	260.62
737.49	260.86
737.82	260.57
738.15	260.52
738.48	260.52
738.81	260.38
739.14	260.38
739.47	260.19
739.80	260.05
740.13	260.29
740.46	260.10
740.79	259.95
741.12	260.29
741.45	259.86
741.78	258.38
742.11	258.90
742.44	258.14
742.77	258.10
743.10	257.76
743.43	257.62
743.75	254.33
744.08	257.38
744.41	257.24
744.74	256.81
745.07	256.00
745.40	256.48
745.73	257.43
746.06	257.24
746.39	257.43
746.71	257.10
747.04	256.43
747.37	256.24
747.70	256.57
748.03	256.57
748.36	257.05
748.68	257.10
749.01	256.10
749.34	256.10
749.67	256.00
750.00	256.81
750.33	258.52
750.65	259.05
750.98	256.14
751.31	256.00
751.64	256.48
751.97	257.90
752.29	257.62
752.62	256.52
752.95	256.67
753.28	256.48
753.60	256.86
753.93	257.71
754.26	258.14
754.59	257.19
754.91	256.76
755.24	256.33
755.57	256.24
755.90	256.29
756.22	255.81
756.55	255.67
756.88	254.76
757.20	253.29
757.53	252.52
757.86	252.24
758.19	252.67
758.51	252.57
758.84	251.19
759.17	251.10
759.49	251.19
759.82	252.10
760.15	252.19
760.47	252.10
760.80	251.29
761.13	251.29
761.45	251.33
761.78	251.48
762.11	251.48
762.43	251.19
762.76	251.00
763.08	251.43
763.41	251.48
763.74	251.62
764.06	251.76
764.39	251.86
764.71	251.67
765.04	251.29
765.37	250.81
765.69	250.95
766.02	250.81
766.34	250.67
766.67	249.43
767.00	249.71
767.32	251.00
767.65	252.57
767.97	252.38
768.30	252.62
768.62	252.67
768.95	252.29
769.27	252.33
769.60	252.62
769.92	251.95
770.25	251.43
770.57	251.14
770.90	250.71
771.22	250.33
771.55	250.52
771.87	250.43
772.20	250.10
772.52	252.19
772.85	255.24
773.17	255.00
773.50	255.10
773.82	254.48
774.15	253.10
774.47	251.52
774.80	251.14
775.12	250.81
775.45	250.57
775.77	250.62
776.09	250.52
776.42	250.29
776.74	251.14
777.07	250.86
777.39	250.71
777.72	250.57
778.04	250.86
778.36	250.33
778.69	250.29
779.01	250.62
779.33	248.00
779.66	244.90
779.98	244.67
780.31	244.62
780.63	245.62
780.95	245.71
781.28	245.57
781.60	245.19
781.92	245.00
782.25	244.76
782.57	244.71
782.89	244.57
783.22	244.62
783.54	244.14
783.86	244.48
784.19	244.33
784.51	245.05
784.83	244.67
785.16	244.67
785.48	244.76
785.80	244.76
786.12	245.19
786.45	244.81
786.77	245.14
787.09	244.76
787.42	243.95
787.74	243.90
788.06	243.81
788.38	243.90
788.71	243.86
789.03	244.10
789.35	244.19
789.67	243.95
789.99	244.05
790.32	243.95
790.64	244.05
790.96	246.14
791.28	245.43
791.61	245.19
791.93	245.43
792.25	245.14
792.57	246.95
792.89	246.24
793.21	246.43
793.54	246.14
793.86	246.48
