SpectraSuite Data File
++++++++++++++++++++++++++++++++++++
Date: Wed Nov 07 18:31:05 EST 2012
User: group
Dark Spectrum Present: No
Reference Spectrum Present: No
Number of Sampled Component Spectra: 1
Spectrometers: USB2E7196
Integration Time (usec): 1000000 (USB2E7196)
Spectra Averaged: 1 (USB2E7196)
Boxcar Smoothing: 10 (USB2E7196)
Correct for Electrical Dark: No (USB2E7196)
Strobe/Lamp Enabled: No (USB2E7196)
Correct for Detector Non-linearity: No (USB2E7196)
Correct for Stray Light: No (USB2E7196)
Number of Pixels in Processed Spectrum: 2048
>>>>>Begin Processed Spectral Data<<<<<
339.09	0.00
339.48	222.00
339.86	222.00
340.24	220.00
340.63	225.00
341.01	264.00
341.39	233.00
341.78	239.00
342.16	234.00
342.54	232.00
342.93	222.95
343.31	234.00
343.69	234.67
344.07	235.19
344.46	236.10
344.84	236.48
345.22	235.19
345.60	235.33
345.99	235.43
346.37	235.43
346.75	235.29
347.13	235.67
347.52	235.43
347.90	235.90
348.28	235.81
348.66	236.43
349.05	235.76
349.43	235.81
349.81	235.76
350.19	235.95
350.57	236.05
350.96	236.19
351.34	236.29
351.72	236.10
352.10	236.10
352.48	235.62
352.87	235.67
353.25	235.24
353.63	235.14
354.01	235.00
354.39	235.19
354.77	235.67
355.15	236.33
355.54	236.38
355.92	236.19
356.30	236.57
356.68	237.86
357.06	238.10
357.44	238.00
357.82	238.29
358.20	238.90
358.58	238.81
358.97	238.62
359.35	239.14
359.73	239.71
360.11	239.67
360.49	240.10
360.87	240.24
361.25	241.00
361.63	242.14
362.01	242.29
362.39	242.19
362.77	242.24
363.15	242.05
363.53	242.43
363.91	242.67
364.29	242.67
364.67	240.29
365.05	240.62
365.43	240.90
365.81	241.05
366.19	241.86
366.57	242.90
366.95	243.05
367.33	242.57
367.71	242.67
368.09	243.38
368.47	243.05
368.85	243.14
369.23	243.33
369.61	241.95
369.99	242.67
370.37	243.05
370.75	244.05
371.13	243.24
371.51	242.62
371.89	242.67
372.27	243.00
372.65	243.81
373.03	243.62
373.41	243.43
373.78	243.33
374.16	241.95
374.54	241.14
374.92	241.05
375.30	241.19
375.68	240.48
376.06	240.43
376.44	240.57
376.82	240.24
377.19	240.43
377.57	240.48
377.95	239.86
378.33	239.62
378.71	238.29
379.09	239.05
379.47	239.43
379.84	238.90
380.22	238.14
380.60	237.24
380.98	237.10
381.36	237.14
381.73	237.10
382.11	237.48
382.49	237.76
382.87	237.48
383.25	237.43
383.62	240.71
384.00	240.24
384.38	240.62
384.76	241.43
385.13	242.33
385.51	242.52
385.89	242.14
386.27	242.43
386.64	243.00
387.02	242.67
387.40	242.48
387.78	242.81
388.15	243.19
388.53	243.19
388.91	243.52
389.29	243.10
389.66	243.14
390.04	243.14
390.42	243.52
390.79	243.86
391.17	243.86
391.55	240.95
391.92	240.86
392.30	240.95
392.68	240.29
393.05	239.86
393.43	240.05
393.81	240.14
394.18	239.86
394.56	239.52
394.94	240.00
395.31	239.71
395.69	240.48
396.06	241.05
396.44	241.38
396.82	241.05
397.19	242.71
397.57	242.67
397.95	243.00
398.32	242.24
398.70	242.76
399.07	243.38
399.45	243.62
399.82	243.57
400.20	243.57
400.58	244.52
400.95	243.62
401.33	244.14
401.70	246.19
402.08	246.38
402.45	246.81
402.83	247.43
403.20	247.95
403.58	247.52
403.95	247.62
404.33	248.29
404.71	248.48
405.08	249.86
405.46	250.14
405.83	250.57
406.21	250.90
406.58	251.14
406.96	251.57
407.33	252.19
407.70	253.10
408.08	255.14
408.45	255.67
408.83	256.67
409.20	257.14
409.58	256.14
409.95	257.38
410.33	258.19
410.70	258.14
411.08	259.48
411.45	260.62
411.82	261.52
412.20	262.90
412.57	265.67
412.95	265.00
413.32	266.95
413.69	268.33
414.07	270.24
414.44	271.76
414.82	273.62
415.19	275.90
415.56	278.52
415.94	279.86
416.31	282.24
416.68	285.43
417.06	288.76
417.43	292.86
417.81	296.43
418.18	300.05
418.55	304.33
418.93	308.33
419.30	312.43
419.67	316.81
420.04	321.38
420.42	325.43
420.79	333.14
421.16	338.95
421.54	345.95
421.91	352.52
422.28	359.38
422.66	365.95
423.03	373.86
423.40	380.95
423.77	388.62
424.15	396.38
424.52	404.24
424.89	413.10
425.26	420.14
425.64	427.29
426.01	435.57
426.38	444.62
426.75	454.19
427.13	464.00
427.50	473.33
427.87	483.38
428.24	492.76
428.61	500.81
428.99	511.86
429.36	522.71
429.73	533.43
430.10	545.86
430.47	558.90
430.85	571.05
431.22	585.48
431.59	602.67
431.96	616.86
432.33	632.14
432.70	647.14
433.08	664.71
433.45	680.71
433.82	696.29
434.19	713.19
434.56	730.14
434.93	745.43
435.30	762.10
435.68	779.19
436.05	796.43
436.42	812.81
436.79	829.14
437.16	845.62
437.53	862.52
437.90	878.29
438.27	893.52
438.64	909.48
439.01	923.52
439.38	933.10
439.75	945.10
440.13	959.24
440.50	972.29
440.87	982.48
441.24	994.29
441.61	1006.19
441.98	1015.71
442.35	1025.38
442.72	1036.90
443.09	1048.29
443.46	1054.24
443.83	1058.14
444.20	1061.00
444.57	1064.38
444.94	1064.90
445.31	1067.00
445.68	1071.57
446.05	1072.57
446.42	1069.43
446.79	1066.95
447.16	1063.95
447.53	1061.62
447.90	1053.48
448.27	1044.38
448.64	1034.43
449.01	1027.10
449.37	1015.38
449.74	1002.38
450.11	990.76
450.48	974.71
450.85	958.38
451.22	944.90
451.59	932.81
451.96	921.05
452.33	905.19
452.70	891.29
453.07	874.48
453.43	854.62
453.80	837.81
454.17	821.86
454.54	805.76
454.91	789.95
455.28	773.57
455.65	759.00
456.02	750.33
456.38	737.86
456.75	721.90
457.12	710.05
457.49	698.57
457.86	684.52
458.23	676.10
458.59	664.90
458.96	654.14
459.33	643.43
459.70	633.19
460.07	625.14
460.43	615.86
460.80	608.33
461.17	600.38
461.54	592.24
461.91	584.71
462.27	577.57
462.64	570.38
463.01	564.00
463.38	558.29
463.74	546.57
464.11	540.95
464.48	536.71
464.85	531.29
465.21	527.38
465.58	523.14
465.95	515.95
466.32	511.62
466.68	506.67
467.05	502.33
467.42	498.33
467.78	493.81
468.15	490.19
468.52	486.52
468.88	482.29
469.25	479.10
469.62	476.57
469.98	473.05
470.35	470.67
470.72	467.76
471.08	463.86
471.45	461.86
471.82	459.95
472.18	456.48
472.55	454.14
472.92	450.86
473.28	448.24
473.65	446.48
474.02	444.00
474.38	442.76
474.75	441.10
475.11	439.10
475.48	437.71
475.85	435.90
476.21	434.19
476.58	433.10
476.94	431.52
477.31	430.24
477.67	429.29
478.04	428.52
478.41	427.62
478.77	429.29
479.14	428.71
479.50	428.10
479.87	428.71
480.23	428.86
480.60	429.81
480.96	431.14
481.33	433.52
481.69	434.95
482.06	436.62
482.42	438.76
482.79	441.05
483.15	443.10
483.52	445.81
483.88	448.33
484.25	451.00
484.61	453.71
484.98	456.48
485.34	460.43
485.71	463.33
486.07	466.71
486.44	467.71
486.80	470.10
487.17	471.95
487.53	474.90
487.90	478.00
488.26	480.67
488.62	483.29
488.99	484.00
489.35	486.05
489.72	487.14
490.08	488.48
490.44	489.48
490.81	491.29
491.17	492.76
491.54	494.76
491.90	496.52
492.26	497.81
492.63	499.57
492.99	500.19
493.36	501.81
493.72	503.43
494.08	505.10
494.45	507.71
494.81	511.24
495.17	512.90
495.54	514.95
495.90	517.00
496.26	519.00
496.63	522.14
496.99	524.29
497.35	527.43
497.72	530.90
498.08	534.24
498.44	537.86
498.80	541.10
499.17	543.76
499.53	547.10
499.89	551.00
500.26	554.86
500.62	558.43
500.98	563.24
501.34	567.14
501.71	572.33
502.07	576.48
502.43	580.52
502.79	584.48
503.16	588.67
503.52	593.38
503.88	597.67
504.24	602.62
504.60	607.90
504.97	613.81
505.33	618.57
505.69	624.67
506.05	629.33
506.41	634.67
506.78	640.38
507.14	645.38
507.50	650.71
507.86	656.00
508.22	661.62
508.59	666.43
508.95	671.90
509.31	677.33
509.67	682.33
510.03	686.86
510.39	692.10
510.75	698.10
511.12	702.67
511.48	707.19
511.84	711.71
512.20	716.86
512.56	721.14
512.92	726.43
513.28	730.19
513.64	734.29
514.00	738.81
514.37	742.76
514.73	747.19
515.09	751.90
515.45	755.24
515.81	759.76
516.17	762.33
516.53	766.43
516.89	768.76
517.25	772.52
517.61	777.24
517.97	781.05
518.33	783.76
518.69	787.62
519.05	792.24
519.41	796.19
519.77	800.19
520.13	802.76
520.49	804.19
520.85	807.38
521.21	811.71
521.57	815.00
521.93	817.90
522.29	820.67
522.65	822.33
523.01	825.67
523.37	826.81
523.73	830.10
524.09	831.62
524.45	834.52
524.81	836.95
525.17	838.71
525.53	841.00
525.89	842.62
526.25	845.05
526.61	845.71
526.97	846.86
527.33	848.76
527.68	852.38
528.04	855.14
528.40	856.48
528.76	857.14
529.12	858.10
529.48	859.76
529.84	861.24
530.20	863.19
530.56	864.29
530.91	867.62
531.27	869.00
531.63	870.67
531.99	871.71
532.35	872.71
532.71	873.95
533.07	875.14
533.42	880.48
533.78	881.81
534.14	883.71
534.50	885.38
534.86	887.52
535.21	888.67
535.57	891.86
535.93	894.52
536.29	900.38
536.65	905.81
537.00	911.29
537.36	918.48
537.72	926.19
538.08	936.29
538.44	945.71
538.79	957.52
539.15	968.95
539.51	981.86
539.87	993.95
540.22	1005.76
540.58	1019.71
540.94	1030.10
541.29	1043.57
541.65	1056.24
542.01	1070.05
542.37	1081.05
542.72	1089.76
543.08	1096.00
543.44	1102.29
543.79	1103.86
544.15	1106.05
544.51	1107.43
544.87	1106.24
545.22	1103.38
545.58	1098.14
545.94	1091.05
546.29	1082.19
546.65	1073.52
547.01	1062.57
547.36	1052.86
547.72	1042.38
548.07	1029.90
548.43	1016.95
548.79	1003.14
549.14	990.48
549.50	977.05
549.86	962.86
550.21	952.29
550.57	942.95
550.92	933.57
551.28	925.95
551.64	917.86
551.99	910.33
552.35	902.62
552.70	895.14
553.06	889.43
553.41	884.29
553.77	880.95
554.13	876.90
554.48	873.48
554.84	869.38
555.19	865.57
555.55	863.62
555.90	859.71
556.26	855.71
556.61	852.00
556.97	847.81
557.32	845.10
557.68	842.57
558.03	840.24
558.39	837.86
558.74	835.57
559.10	832.90
559.45	830.67
559.81	828.95
560.16	827.48
560.52	825.33
560.87	823.57
561.23	820.29
561.58	819.86
561.94	817.71
562.29	815.19
562.64	813.90
563.00	810.05
563.35	809.29
563.71	808.29
564.06	807.14
564.42	805.95
564.77	804.33
565.12	802.52
565.48	803.33
565.83	803.19
566.19	801.71
566.54	800.90
566.89	799.00
567.25	799.00
567.60	799.05
567.96	799.81
568.31	800.00
568.66	799.86
569.02	796.86
569.37	794.86
569.72	794.14
570.08	792.14
570.43	792.10
570.78	789.81
571.14	787.90
571.49	786.52
571.84	785.95
572.20	785.43
572.55	784.10
572.90	781.14
573.26	779.33
573.61	777.95
573.96	777.52
574.31	777.52
574.67	775.76
575.02	774.48
575.37	771.90
575.72	770.48
576.08	769.10
576.43	768.67
576.78	768.62
577.13	768.29
577.49	768.52
577.84	767.48
578.19	767.90
578.54	768.57
578.90	767.62
579.25	767.24
579.60	766.90
579.95	766.57
580.30	766.00
580.66	765.38
581.01	765.33
581.36	763.81
581.71	762.48
582.06	763.29
582.42	763.38
582.77	762.24
583.12	761.52
583.47	761.24
583.82	760.67
584.17	760.33
584.53	759.81
584.88	758.62
585.23	757.14
585.58	754.29
585.93	751.86
586.28	751.10
586.63	748.57
586.98	746.86
587.34	745.24
587.69	742.62
588.04	740.05
588.39	737.67
588.74	734.57
589.09	732.52
589.44	727.67
589.79	722.95
590.14	719.14
590.49	714.76
590.84	710.14
591.19	705.81
591.54	701.76
591.89	697.05
592.25	694.48
592.60	689.67
592.95	686.62
593.30	683.14
593.65	678.71
594.00	674.48
594.35	677.33
594.70	672.43
595.05	669.38
595.40	665.76
595.75	661.38
596.10	658.67
596.45	654.90
596.80	651.57
597.15	648.29
597.50	644.95
597.85	642.62
598.19	639.19
598.54	635.62
598.89	631.71
599.24	628.90
599.59	624.00
599.94	621.05
600.29	618.43
600.64	615.38
600.99	614.05
601.34	611.76
601.69	602.14
602.04	599.43
602.39	595.67
602.74	593.95
603.08	591.90
603.43	590.95
603.78	589.00
604.13	587.43
604.48	586.33
604.83	585.76
605.18	584.90
605.53	587.14
605.87	590.71
606.22	597.67
606.57	605.05
606.92	613.71
607.27	623.95
607.62	633.67
607.96	643.00
608.31	649.95
608.66	657.10
609.01	663.57
609.36	670.10
609.70	676.57
610.05	681.57
610.40	686.71
610.75	689.38
611.10	693.14
611.44	696.10
611.79	697.81
612.14	698.95
612.49	698.10
612.83	695.29
613.18	690.24
613.53	681.52
613.88	672.33
614.22	661.57
614.57	649.57
614.92	637.10
615.27	626.71
615.61	616.14
615.96	606.52
616.31	597.67
616.65	589.86
617.00	581.81
617.35	573.67
617.70	565.71
618.04	558.95
618.39	551.33
618.74	545.57
619.08	540.14
619.43	535.43
619.78	531.24
620.12	527.48
620.47	524.19
620.82	520.95
621.16	517.29
621.51	515.81
621.85	513.05
622.20	510.57
622.55	506.86
622.89	504.00
623.24	501.48
623.59	498.67
623.93	495.62
624.28	492.24
624.62	492.24
624.97	491.10
625.32	488.76
625.66	487.00
626.01	484.24
626.35	482.62
626.70	480.86
627.04	480.48
627.39	478.81
627.73	477.48
628.08	476.29
628.43	473.95
628.77	470.29
629.12	467.76
629.46	465.71
629.81	464.10
630.15	462.29
630.50	460.05
630.84	457.57
631.19	455.19
631.53	453.33
631.88	448.48
632.22	444.24
632.57	442.24
632.91	440.10
633.26	438.14
633.60	435.14
633.95	432.14
634.29	427.52
634.64	424.38
634.98	421.38
635.32	419.33
635.67	417.29
636.01	415.38
636.36	413.43
636.70	411.86
637.05	409.67
637.39	407.43
637.73	406.00
638.08	405.24
638.42	403.29
638.77	401.95
639.11	400.14
639.45	398.95
639.80	396.81
640.14	394.95
640.49	393.10
640.83	391.43
641.17	389.86
641.52	389.05
641.86	388.43
642.20	388.24
642.55	385.95
642.89	384.95
643.23	383.57
643.58	383.24
643.92	381.48
644.26	380.05
644.61	379.48
644.95	378.19
645.29	376.48
645.64	376.05
645.98	374.76
646.32	374.38
646.66	373.81
647.01	372.71
647.35	372.24
647.69	371.29
648.04	370.90
648.38	370.57
648.72	369.67
649.06	367.76
649.41	365.57
649.75	365.19
650.09	364.76
650.43	363.67
650.78	362.14
651.12	360.86
651.46	359.76
651.80	358.52
652.14	357.24
652.49	356.81
652.83	355.19
653.17	354.10
653.51	352.52
653.85	351.19
654.20	350.29
654.54	348.33
654.88	346.95
655.22	345.33
655.56	343.52
655.90	342.52
656.25	341.86
656.59	340.90
656.93	339.33
657.27	338.81
657.61	338.00
657.95	337.38
658.29	337.19
658.64	337.19
658.98	336.43
659.32	334.90
659.66	333.67
660.00	333.38
660.34	332.29
660.68	331.38
661.02	330.76
661.36	330.05
661.70	329.67
662.05	329.33
662.39	329.57
662.73	329.81
663.07	330.52
663.41	330.33
663.75	329.57
664.09	329.24
664.43	327.62
664.77	326.86
665.11	325.90
665.45	324.76
665.79	323.95
666.13	322.81
666.47	322.48
666.81	321.76
667.15	320.67
667.49	320.62
667.83	320.62
668.17	320.05
668.51	319.14
668.85	319.05
669.19	319.67
669.53	318.52
669.87	317.57
670.21	315.33
670.55	314.48
670.89	315.19
671.23	314.33
671.57	313.95
671.91	313.48
672.25	312.95
672.58	313.43
672.92	312.05
673.26	311.76
673.60	311.43
673.94	310.95
674.28	310.67
674.62	309.90
674.96	309.38
675.30	308.95
675.64	308.71
675.97	307.71
676.31	306.43
676.65	305.76
676.99	305.57
677.33	305.14
677.67	304.95
678.01	303.52
678.34	303.48
678.68	303.29
679.02	302.57
679.36	302.00
679.70	300.81
680.04	300.81
680.37	300.43
680.71	300.05
681.05	299.62
681.39	299.19
681.73	298.57
682.06	297.67
682.40	297.19
682.74	297.14
683.08	297.57
683.42	296.76
683.75	296.71
684.09	296.10
684.43	295.48
684.77	294.48
685.10	294.24
685.44	293.71
685.78	292.86
686.12	292.62
686.45	292.19
686.79	291.48
687.13	291.33
687.46	291.05
687.80	291.10
688.14	290.81
688.48	290.24
688.81	290.00
689.15	290.33
689.49	289.62
689.82	288.90
690.16	287.57
690.50	287.24
690.83	287.00
691.17	285.76
691.51	285.86
691.84	285.76
692.18	285.10
692.52	284.52
692.85	284.38
693.19	285.10
693.52	285.00
693.86	284.67
694.20	283.90
694.53	283.33
694.87	282.62
695.21	281.67
695.54	281.62
695.88	281.10
696.21	279.71
696.55	279.29
696.88	278.81
697.22	278.62
697.56	278.67
697.89	277.62
698.23	277.90
698.56	277.29
698.90	277.38
699.23	276.86
699.57	276.62
699.90	276.24
700.24	274.90
700.58	274.62
700.91	274.62
701.25	276.62
701.58	277.67
701.92	278.24
702.25	278.76
702.59	278.76
702.92	279.57
703.26	280.43
703.59	281.19
703.93	284.14
704.26	284.57
704.60	284.95
704.93	285.67
705.26	285.81
705.60	286.81
705.93	286.43
706.27	287.29
706.60	288.33
706.94	289.62
707.27	290.05
707.61	290.43
707.94	290.62
708.27	288.62
708.61	287.71
708.94	287.43
709.28	287.48
709.61	286.81
709.94	286.14
710.28	285.52
710.61	284.95
710.95	281.76
711.28	282.52
711.61	281.62
711.95	281.43
712.28	280.62
712.61	279.90
712.95	280.52
713.28	280.62
713.61	279.33
713.95	277.71
714.28	277.24
714.61	276.00
714.95	274.76
715.28	274.14
715.61	273.57
715.95	272.71
716.28	271.29
716.61	271.29
716.95	270.43
717.28	270.00
717.61	269.00
717.94	268.48
718.28	266.48
718.61	265.67
718.94	264.76
719.27	264.14
719.61	263.33
719.94	262.29
720.27	261.19
720.60	261.05
720.94	260.81
721.27	260.33
721.60	260.67
721.93	260.81
722.27	261.29
722.60	261.33
722.93	261.19
723.26	261.57
723.59	261.19
723.93	261.10
724.26	261.14
724.59	261.10
724.92	261.10
725.25	261.33
725.59	261.33
725.92	261.71
726.25	261.38
726.58	261.48
726.91	261.24
727.24	261.14
727.57	260.48
727.91	260.10
728.24	260.19
728.57	259.86
728.90	259.86
729.23	258.90
729.56	259.81
729.89	259.67
730.22	259.14
730.55	258.43
730.89	258.67
731.22	258.33
731.55	258.10
731.88	258.43
732.21	258.19
732.54	257.71
732.87	257.14
733.20	257.57
733.53	257.71
733.86	257.71
734.19	257.29
734.52	257.57
734.85	259.33
735.18	258.95
735.51	259.48
735.84	259.57
736.17	260.00
736.50	258.43
736.83	261.05
737.16	261.33
737.49	261.57
737.82	261.29
738.15	261.67
738.48	261.81
738.81	261.19
739.14	260.71
739.47	260.71
739.80	260.67
740.13	260.57
740.46	260.10
740.79	259.81
741.12	259.62
741.45	259.29
741.78	257.71
742.11	258.24
742.44	257.95
742.77	257.86
743.10	257.76
743.43	257.71
743.75	255.24
744.08	258.19
744.41	258.38
744.74	258.24
745.07	257.38
745.40	257.48
745.73	258.48
746.06	258.43
746.39	258.95
746.71	258.71
747.04	258.33
747.37	258.10
747.70	258.24
748.03	258.48
748.36	258.76
748.68	258.62
749.01	257.81
749.34	257.19
749.67	257.38
750.00	257.19
750.33	259.00
750.65	258.86
750.98	255.38
751.31	254.95
751.64	254.76
751.97	255.95
752.29	255.81
752.62	254.67
752.95	254.81
753.28	254.19
753.60	253.90
753.93	254.38
754.26	254.48
754.59	253.67
754.91	253.19
755.24	252.76
755.57	252.38
755.90	252.38
756.22	252.10
756.55	251.67
756.88	251.19
757.20	249.43
757.53	248.62
757.86	248.95
758.19	249.14
758.51	249.05
758.84	247.90
759.17	247.71
759.49	247.76
759.82	248.62
760.15	248.95
760.47	248.90
760.80	248.52
761.13	249.10
761.45	249.05
761.78	249.05
762.11	249.00
762.43	249.24
762.76	249.05
763.08	249.86
763.41	249.90
763.74	250.14
764.06	249.76
764.39	249.90
764.71	249.67
765.04	249.48
765.37	249.10
765.69	248.76
766.02	248.52
766.34	248.00
766.67	247.52
767.00	247.90
767.32	249.29
767.65	250.86
767.97	250.43
768.30	250.76
768.62	250.90
768.95	250.71
769.27	250.19
769.60	250.81
769.92	249.76
770.25	249.10
770.57	248.67
770.90	248.67
771.22	248.71
771.55	248.71
771.87	248.76
772.20	249.00
772.52	251.52
772.85	254.86
773.17	255.33
773.50	254.57
773.82	253.81
774.15	252.48
774.47	250.71
774.80	250.38
775.12	250.05
775.45	249.67
775.77	249.76
776.09	250.05
776.42	249.33
776.74	250.19
777.07	250.10
777.39	249.76
777.72	249.57
778.04	249.71
778.36	249.48
778.69	249.48
779.01	249.38
779.33	246.81
779.66	243.43
779.98	243.10
780.31	243.52
780.63	244.76
780.95	245.38
781.28	244.95
781.60	244.62
781.92	244.67
782.25	244.71
782.57	244.52
782.89	244.33
783.22	244.29
783.54	243.86
783.86	244.05
784.19	244.14
784.51	244.90
784.83	244.24
785.16	244.00
785.48	243.76
785.80	243.52
786.12	243.76
786.45	244.00
786.77	244.00
787.09	243.81
787.42	242.81
787.74	242.76
788.06	243.29
788.38	243.05
788.71	242.71
789.03	242.71
789.35	243.19
789.67	243.19
789.99	243.19
790.32	242.67
790.64	242.90
790.96	244.76
791.28	243.86
791.61	243.71
791.93	243.86
792.25	243.57
792.57	245.48
792.89	244.95
793.21	245.05
